%OpenBCI Raw EEG Data
%Number of channels = 16
%Sample Rate = 125 Hz
%Board = OpenBCI_GUI$BoardCytonSerialDaisy
Sample Index, EXG Channel 0, EXG Channel 1, EXG Channel 2, EXG Channel 3, EXG Channel 4, EXG Channel 5, EXG Channel 6, EXG Channel 7, EXG Channel 8, EXG Channel 9, EXG Channel 10, EXG Channel 11, EXG Channel 12, EXG Channel 13, EXG Channel 14, EXG Channel 15, Accel Channel 0, Accel Channel 1, Accel Channel 2, Other, Other, Other, Other, Other, Other, Other, Analog Channel 0, Analog Channel 1, Analog Channel 2, Timestamp, Other, Timestamp (Formatted)
180.0, -22779.98152732629, -20652.38602785898, -50547.82188508772, -52773.04980433581, -20839.157204527524, -34619.45469611343, -49635.17780723308, -32905.70174523613, -10641.933756105156, -53033.15705456222, -53939.14031256918, -61576.86550341434, -50183.42139523285, -45253.00654804785, -46324.72799119091, -46400.76862582787, 0.08, 0.9500000000000001, 0.114, 192.0, 1.0, 64.0, 14.5, 88.0, 1.5, 72.0, 0.0, 0.0, 0.0, 1.6581656234069688E9, 0.0, 2022-07-18 13:33:43.406
182.0, -22829.669455250438, -20581.93332933585, -50639.91107224358, -52857.58410186578, -20919.66818805554, -34670.66254266054, -49718.6839245181, -32974.992153047584, -10639.34095374834, -53053.161865849725, -53946.89636789518, -61581.80523893896, -50197.502994239694, -45259.24268475088, -46348.06321240225, -46414.984335301444, 0.08, 0.9500000000000001, 0.114, 192.0, 0.0, 0.0, 0.0, 0.0, 0.0, 0.0, 0.0, 0.0, 0.0, 1.6581656234069772E9, 0.0, 2022-07-18 13:33:43.406
184.0, -22769.45385568784, -20638.326780596588, -50551.77814385631, -52777.27428403786, -20842.420559217997, -34613.97851872188, -49636.54126364485, -32924.387803600766, -10648.639279441748, -53038.49912148704, -53946.047001605875, -61573.691555701684, -50199.93933438532, -45261.120231285124, -46351.66184325956, -46417.644192891625, 0.08, 0.9500000000000001, 0.114, 192.0, 0.0, 0.0, 0.0, 0.0, 0.0, 0.0, 0.0, 0.0, 0.0, 1.6581656234069836E9, 0.0, 2022-07-18 13:33:43.406
186.0, -22811.8327631751, -20559.849805814007, -50631.79738900631, -52851.61618609622, -20908.3358536167, -34666.795690869774, -49714.638258771694, -32973.449882680165, -10628.0086193095, -53024.126949802274, -53923.605850172746, -61555.385476992786, -50177.47583120773, -45237.785010073785, -46329.935947649, -46399.51692813837, 0.08, 0.9500000000000001, 0.114, 192.0, 0.0, 0.0, 0.0, 0.0, 0.0, 0.0, 0.0, 0.0, 0.0, 1.65816562340699E9, 0.0, 2022-07-18 13:33:43.406
188.0, -22776.829931358094, -20639.332609097077, -50562.350518983665, -52785.52207774187, -20858.2232425479, -34629.04359448476, -49653.57329291979, -32946.694844567166, -10666.699488961636, -53050.993746637556, -53958.1839988451, -61585.56033200745, -50219.16183461688, -45271.31262675675, -46369.811459757264, -46437.24667277893, 0.08, 0.9500000000000001, 0.114, 192.0, 0.0, 0.0, 0.0, 0.0, 0.0, 0.0, 0.0, 0.0, 0.0, 1.6581656234069967E9, 0.0, 2022-07-18 13:33:43.406
190.0, -22815.453745776864, -20554.284221444635, -50635.10544718569, -52849.33630816178, -20913.499106585874, -34665.20871701345, -49733.68194504761, -32990.41485672174, -10634.91530834619, -53011.833490351855, -53920.56601292682, -61544.85780535434, -50184.80720338908, -45232.889978038074, -46331.098238360675, -46398.51109963788, 0.078, 0.9540000000000001, 0.114, 192.0, 1.0, 56.0, 14.5, 104.0, 1.5, 72.0, 0.0, 0.0, 0.0, 1.6581656234070036E9, 0.0, 2022-07-18 13:33:43.407
192.0, -22765.095265519056, -20613.114012851, -50539.41762917252, -52762.38802223063, -20837.883155093572, -34610.08931518666, -49639.134066001665, -32925.43833559017, -10667.750020951036, -53054.16769435021, -53955.94882439957, -61577.44664877017, -50223.69923874131, -45272.117289557136, -46368.55976206777, -46433.80450413281, 0.078, 0.9540000000000001, 0.114, 192.0, 0.0, 0.0, 0.0, 0.0, 0.0, 0.0, 0.0, 0.0, 0.0, 1.6581656234070108E9, 0.0, 2022-07-18 13:33:43.407
194.0, -22804.210818315845, -20547.444587641312, -50607.85867069467, -52826.157549161624, -20891.393231319576, -34651.03771102878, -49709.117377891234, -32971.32646695691, -10601.946485274611, -52987.29127493993, -53887.95481776653, -61512.42542414969, -50148.50797039366, -45205.218518402406, -46289.68045588499, -46358.635587529614, 0.078, 0.9540000000000001, 0.114, 192.0, 0.0, 0.0, 0.0, 0.0, 0.0, 0.0, 0.0, 0.0, 0.0, 1.6581656234070177E9, 0.0, 2022-07-18 13:33:43.407
196.0, -22780.965004082325, -20624.312236823112, -50561.14352478308, -52789.6124469772, -20853.21645178991, -34649.16016449453, -49664.7715168919, -32978.92606007172, -10670.029898885477, -53052.71483096061, -53964.24132159249, -61584.91213141825, -50226.2026341203, -45284.410749007555, -46366.816326000255, -46439.593605946735, 0.078, 0.9540000000000001, 0.114, 192.0, 0.0, 0.0, 0.0, 0.0, 0.0, 0.0, 0.0, 0.0, 0.0, 1.6581656234070241E9, 0.0, 2022-07-18 13:33:43.407
198.0, -22806.803620672657, -20563.64960237141, -50610.451473051486, -52831.20904340852, -20892.3320045867, -34654.368120952626, -49686.69857820256, -32942.80564103194, -10623.71708437408, -52991.94043778664, -53906.7749865979, -61530.73150285859, -50167.082270036015, -45223.83752153367, -46296.54244143277, -46375.13117493763, 0.078, 0.9540000000000001, 0.114, 192.0, 0.0, 0.0, 0.0, 0.0, 0.0, 0.0, 0.0, 0.0, 0.0, 1.6581656234070308E9, 0.0, 2022-07-18 13:33:43.407
200.0, -22803.070879348623, -20637.343303840556, -50582.489440737896, -52801.30240932732, -20877.60220499065, -34651.775318595806, -49677.48965948697, -32954.56265861543, -10690.54880029545, -53082.710872019634, -53984.02261543544, -61609.700216019184, -50248.08499194205, -45296.61480148015, -46381.5461255963, -46452.02117586388, 0.078, 0.9500000000000001, 0.112, 192.0, 1.0, 56.0, 14.5, 88.0, 1.5, 64.0, 0.0, 0.0, 0.0, 1.6581656234070375E9, 0.0, 2022-07-18 13:33:43.407
202.0, -22816.99601614428, -20581.955681080304, -50605.8917171826, -52812.657095510614, -20886.52055102832, -34646.723824348905, -49682.183525822584, -32957.20016446116, -10632.702485645115, -53005.10561527081, -53912.65349538964, -61534.84422383836, -50172.044357305094, -45217.579033086186, -46303.471482213914, -46370.32554987974, 0.078, 0.9500000000000001, 0.112, 192.0, 0.0, 0.0, 0.0, 0.0, 0.0, 0.0, 0.0, 0.0, 0.0, 1.6581656234070444E9, 0.0, 2022-07-18 13:33:43.407
204.0, -22809.709347451848, -20626.301542079633, -50583.71878668294, -52799.42486279307, -20879.345641058164, -34654.971618052914, -49684.73162469049, -32980.803606605965, -10684.893808948256, -53080.29688361847, -53983.374414846236, -61604.96164619466, -50240.12777091596, -45293.91024040106, -46384.76477679787, -46450.34479502974, 0.078, 0.9500000000000001, 0.112, 192.0, 0.0, 0.0, 0.0, 0.0, 0.0, 0.0, 0.0, 0.0, 0.0, 1.6581656234070513E9, 0.0, 2022-07-18 13:33:43.407
206.0, -22802.668547948426, -20592.908035863406, -50587.518583240344, -52807.493842541444, -20875.054106122745, -34644.86862955912, -49685.78215667989, -32963.61511511983, -10619.649066883216, -52986.1066324838, -53900.29298070586, -61527.24463072356, -50156.040508275095, -45210.78410277177, -46294.195508264966, -46360.31196836376, 0.078, 0.9500000000000001, 0.112, 192.0, 0.0, 0.0, 0.0, 0.0, 0.0, 0.0, 0.0, 0.0, 0.0, 1.658165623407058E9, 0.0, 2022-07-18 13:33:43.407
208.0, -22817.711271966848, -20630.99540841525, -50595.7440251999, -52825.44229333905, -20896.93646394449, -34670.8860601051, -49714.54885179387, -32997.232138780615, -10682.25630310253, -53076.11710740532, -53985.38607184721, -61616.71866377815, -50239.47957032676, -45295.3407520462, -46383.244858174905, -46450.54596072983, 0.078, 0.9500000000000001, 0.112, 192.0, 0.0, 0.0, 0.0, 0.0, 0.0, 0.0, 0.0, 0.0, 0.0, 1.6581656234070652E9, 0.0, 2022-07-18 13:33:43.407
210.0, -22800.388670013985, -20610.83413491656, -50575.87332437913, -52803.62699075067, -20865.845187407158, -34637.716071333416, -49666.470249470505, -32958.071882494914, -10626.868680342279, -52999.316513456884, -53907.8255185873, -61543.82962510939, -50162.25429323367, -45219.45657962043, -46300.49870020136, -46370.75023302439, 0.082, 0.9540000000000001, 0.11, 192.0, 1.0, 72.0, 14.5, 104.0, 1.5, 56.0, 0.0, 0.0, 0.0, 1.6581656234070716E9, 0.0, 2022-07-18 13:33:43.407
212.0, -22839.14659489949, -20636.046902662147, -50616.464092309965, -52841.60260458024, -20904.245484381376, -34683.31363002225, -49713.878299460215, -33003.42357199473, -10677.405974555728, -53092.61269481334, -53985.65429278067, -61623.044207459, -50238.540797059635, -45302.26979282735, -46385.7482535539, -46458.48083001147, 0.082, 0.9540000000000001, 0.11, 192.0, 0.0, 0.0, 0.0, 0.0, 0.0, 0.0, 0.0, 0.0, 0.0, 1.6581656234070852E9, 0.0, 2022-07-18 13:33:43.407
214.0, -22802.80265841516, -20625.586286257065, -50576.566228457246, -52798.17316510358, -20858.60322220364, -34640.04065275677, -49673.77926990739, -32950.96402775813, -10627.96391582059, -53014.850975853326, -53920.25308850445, -61551.60803217984, -50165.71881362425, -45233.51582688282, -46311.71927591792, -46384.36244539767, 0.082, 0.9540000000000001, 0.11, 192.0, 0.0, 0.0, 0.0, 0.0, 0.0, 0.0, 0.0, 0.0, 0.0, 1.6581656234070916E9, 0.0, 2022-07-18 13:33:43.407
216.0, -22831.3905395735, -20617.22673383078, -50627.03646743733, -52847.1234854607, -20914.303769386264, -34690.15326382557, -49716.47110181703, -33003.91531037275, -10674.701413476636, -53089.77402326751, -53988.42590909314, -61618.70796903467, -50242.34059361704, -45296.74891194689, -46388.27400067735, -46460.60424573472, 0.082, 0.9540000000000001, 0.11, 192.0, 0.0, 0.0, 0.0, 0.0, 0.0, 0.0, 0.0, 0.0, 0.0, 1.6581656234070983E9, 0.0, 2022-07-18 13:33:43.407
218.0, -22788.497541963763, -20630.59307701505, -50563.71397539544, -52790.88649641115, -20856.300992524742, -34634.8773997876, -49654.62382490919, -32966.81141457694, -10624.72291287457, -53000.56821114638, -53920.320143737816, -61548.36702923382, -50165.204723501774, -45223.97163200041, -46307.42774098251, -46381.0990907072, 0.082, 0.9540000000000001, 0.11, 192.0, 0.0, 0.0, 0.0, 0.0, 0.0, 0.0, 0.0, 0.0, 0.0, 1.6581656234071047E9, 0.0, 2022-07-18 13:33:43.407
220.0, -22831.74816748478, -20612.868143661995, -50631.68563028403, -52863.70847984654, -20928.206554437467, -34700.34565929719, -49733.52548283643, -33042.740290491616, -10663.145561593243, -53082.46500283063, -53978.3899758327, -61613.92469572124, -50228.326049843556, -45292.85970841166, -46381.5461255963, -46460.17956259007, 0.078, 0.9580000000000001, 0.10400000000000001, 192.0, 1.0, 56.0, 14.5, 120.0, 1.5, 32.0, 0.0, 0.0, 0.0, 1.658165623407112E9, 0.0, 2022-07-18 13:33:43.407
222.0, -22778.036925558677, -20635.93514393987, -50545.296137964266, -52778.32481602726, -20852.680009922984, -34632.128135219595, -49648.87942658418, -32929.90868448123, -10628.746226876525, -53015.07449329788, -53922.80118737235, -61556.167788048726, -50170.18916251531, -45241.78597233129, -46320.190587066485, -46396.454739147994, 0.078, 0.9580000000000001, 0.10400000000000001, 192.0, 0.0, 0.0, 0.0, 0.0, 0.0, 0.0, 0.0, 0.0, 0.0, 1.6581656234071195E9, 0.0, 2022-07-18 13:33:43.407
224.0, -22834.47508030833, -20600.105297578015, -50627.7517232599, -52852.711421574524, -20927.513650359353, -34696.45645576197, -49727.490511833494, -33012.96776687715, -10654.674250444681, -53070.484467802584, -53961.268539579934, -61596.11035539036, -50218.24541309421, -45292.99381887839, -46370.03497720182, -46448.891931640144, 0.078, 0.9580000000000001, 0.10400000000000001, 192.0, 0.0, 0.0, 0.0, 0.0, 0.0, 0.0, 0.0, 0.0, 0.0, 1.6581656234071267E9, 0.0, 2022-07-18 13:33:43.407
226.0, -22770.616146399516, -20636.60569627353, -50541.29517570677, -52761.96333908598, -20849.818986632705, -34620.41582112501, -49652.61216790821, -32948.080652723394, -10640.749113649024, -53017.17555727668, -53923.76231238393, -61548.16586353372, -50179.84511612, -45242.65769036504, -46325.845578413675, -46395.87359379215, 0.078, 0.9580000000000001, 0.10400000000000001, 192.0, 0.0, 0.0, 0.0, 0.0, 0.0, 0.0, 0.0, 0.0, 0.0, 1.6581656234071336E9, 0.0, 2022-07-18 13:33:43.407
228.0, -22824.79677495918, -20571.45036118631, -50625.695362770006, -52840.59677607975, -20918.39413862159, -34680.81023464325, -49728.67515428962, -33015.538217489506, -10643.900709617223, -53041.80717966642, -53946.85166440626, -61570.830532411404, -50207.53892750012, -45258.415670206035, -46354.232293871915, -46420.862844093186, 0.078, 0.9580000000000001, 0.10400000000000001, 192.0, 0.0, 0.0, 0.0, 0.0, 0.0, 0.0, 0.0, 0.0, 0.0, 1.6581656234071405E9, 0.0, 2022-07-18 13:33:43.407
230.0, -22774.862977846024, -20629.095510136547, -50539.1270564946, -52764.13145829814, -20835.9162015815, -34622.42747812599, -49639.067010768296, -32963.63746686429, -10645.152407306721, -53027.010324837014, -53936.81573114583, -61556.65952642674, -50193.390273259916, -45247.351556700654, -46333.623985484126, -46404.83664331873, 0.078, 0.9540000000000001, 0.112, 192.0, 1.0, 56.0, 14.5, 104.0, 1.5, 64.0, 0.0, 0.0, 0.0, 1.6581656234071472E9, 0.0, 2022-07-18 13:33:43.407
232.0, -22816.37016729953, -20555.245346456213, -50617.71578999946, -52837.44518011155, -20910.839248995693, -34666.43806295849, -49716.5828605393, -32969.02423727801, -10632.38956122274, -53022.71878990159, -53931.29485026537, -61551.45156996865, -50186.57299120104, -45245.07167876622, -46326.60553772516, -46397.48291939294, 0.078, 0.9540000000000001, 0.112, 192.0, 0.0, 0.0, 0.0, 0.0, 0.0, 0.0, 0.0, 0.0, 0.0, 1.658165623407154E9, 0.0, 2022-07-18 13:33:43.407
234.0, -22768.246861487256, -20629.94487642585, -50533.069733747216, -52764.422030976064, -20844.923954596994, -34623.098030459645, -49647.873598083694, -32934.446088605655, -10648.885148630758, -53028.95492660462, -53941.5319492259, -61563.94619511917, -50202.50978499768, -45255.30877772674, -46342.85525594417, -46412.14566375562, 0.078, 0.9540000000000001, 0.112, 192.0, 0.0, 0.0, 0.0, 0.0, 0.0, 0.0, 0.0, 0.0, 0.0, 1.6581656234071617E9, 0.0, 2022-07-18 13:33:43.407
236.0, -22820.505240023762, -20572.88087283145, -50616.397037076604, -52840.485017357474, -20915.0860804422, -34671.57896418321, -49727.26699438894, -32995.66751666874, -10620.744302361525, -53015.8121008649, -53913.61462040122, -61543.33788673138, -50178.23579051922, -45229.80543730324, -46314.110912574644, -46389.257477433384, 0.078, 0.9540000000000001, 0.112, 192.0, 0.0, 0.0, 0.0, 0.0, 0.0, 0.0, 0.0, 0.0, 0.0, 1.6581656234071689E9, 0.0, 2022-07-18 13:33:43.407
238.0, -22786.37412624051, -20653.078931937092, -50535.796646570765, -52762.455077463994, -20842.912297596016, -34623.29919615974, -49642.68799337006, -32948.05830097894, -10667.571206995393, -53056.715793218114, -53960.41917329063, -61586.5885122524, -50214.82559619255, -45273.95013260247, -46351.8406572152, -46428.5071406969, 0.078, 0.9540000000000001, 0.112, 192.0, 0.0, 0.0, 0.0, 0.0, 0.0, 0.0, 0.0, 0.0, 0.0, 1.658165623407176E9, 0.0, 2022-07-18 13:33:43.407
240.0, -22816.12429811052, -20563.11316050448, -50602.96363865896, -52820.12257815869, -20892.130838886602, -34659.15139426606, -49706.21165111204, -32993.030010823015, -10614.999904036511, -53005.686760626646, -53910.70889362203, -61535.33596221638, -50165.22707524623, -45222.76463779982, -46298.71056064493, -46378.774509283845, 0.076, 0.9540000000000001, 0.109, 192.0, 1.0, 40.0, 14.5, 104.0, 1.5, 40.0, 0.0, 0.0, 0.0, 1.6581656234071832E9, 0.0, 2022-07-18 13:33:43.407
242.0, -22797.929978123902, -20648.45212083484, -50555.935568324996, -52776.82724914876, -20855.83160589118, -34638.02899575579, -49656.121391787696, -32977.04851353747, -10662.9667476376, -53053.38538329428, -53963.70487972556, -61584.01806164004, -50219.20653810579, -45272.49726921288, -46355.81926772824, -46434.76562914439, 0.076, 0.9540000000000001, 0.109, 192.0, 0.0, 0.0, 0.0, 0.0, 0.0, 0.0, 0.0, 0.0, 0.0, 1.65816562340719E9, 0.0, 2022-07-18 13:33:43.407
244.0, -22827.344873827085, -20575.36191646599, -50613.804234719784, -52827.49865382894, -20896.17650463301, -34662.0794727897, -49711.352552336764, -32992.20299627817, -10627.092197786833, -53000.232934979555, -53917.61558265872, -61538.28639248448, -50172.178467771824, -45226.51973086831, -46306.891299115574, -46382.5966575857, 0.076, 0.9540000000000001, 0.109, 192.0, 0.0, 0.0, 0.0, 0.0, 0.0, 0.0, 0.0, 0.0, 0.0, 1.6581656234071996E9, 0.0, 2022-07-18 13:33:43.407
246.0, -22781.300280249154, -20619.171335598392, -50530.36517266812, -52757.06830705027, -20834.820966103194, -34611.45277159844, -49637.658850867614, -32933.84259150536, -10667.571206995393, -53046.232825068575, -53964.06250763685, -61581.04527962748, -50218.22306134976, -45272.00553083486, -46350.9912909259, -46422.65098364961, 0.076, 0.9540000000000001, 0.109, 192.0, 0.0, 0.0, 0.0, 0.0, 0.0, 0.0, 0.0, 0.0, 0.0, 1.6581656234072068E9, 0.0, 2022-07-18 13:33:43.407
248.0, -22800.232207802797, -20562.263794215178, -50564.33982424019, -52790.39475803313, -20865.576966473694, -34621.645167070055, -49667.811354137826, -32961.13407148529, -10608.71906384457, -52969.901617753705, -53887.8207072998, -61509.72086307059, -50136.326269665515, -45193.19327988545, -46266.45699339593, -46340.93300592101, 0.076, 0.9540000000000001, 0.109, 192.0, 0.0, 0.0, 0.0, 0.0, 0.0, 0.0, 0.0, 0.0, 0.0, 1.658165623407214E9, 0.0, 2022-07-18 13:33:43.407
250.0, -22802.735603181794, -20631.397739815446, -50552.56045491224, -52779.12947882766, -20867.387457774577, -34640.95707427944, -49674.44982224105, -32974.34395245838, -10672.35448030883, -53061.20849385363, -53966.87882743822, -61590.477715787616, -50230.762389989184, -45276.00649309236, -46358.16620089605, -46429.49061745294, 0.081, 0.9610000000000001, 0.1105, 192.0, 1.0, 88.0, 15.0, 32.0, 1.5, 64.0, 0.0, 0.0, 0.0, 1.6581656234072213E9, 0.0, 2022-07-18 13:33:43.407
252.0, -22805.373109027518, -20576.12187577747, -50566.44088821899, -52782.92927538506, -20868.885024653082, -34630.89878927455, -49689.961932893035, -32950.449937635654, -10602.773499819457, -52973.813173033384, -53883.30565491982, -61507.016301991505, -50148.26210120465, -45197.104835165126, -46276.89525805655, -46343.481104788916, 0.081, 0.9610000000000001, 0.1105, 192.0, 0.0, 0.0, 0.0, 0.0, 0.0, 0.0, 0.0, 0.0, 0.0, 1.658165623407228E9, 0.0, 2022-07-18 13:33:43.407
254.0, -22806.378937528007, -20618.634893731465, -50561.07646954971, -52779.040071849835, -20864.28056529529, -34647.573190638206, -49671.27587452839, -32997.075676569424, -10672.466239031106, -53070.015081169026, -53977.92058919914, -61597.65262575777, -50235.18803539134, -45286.75768217536, -46372.627779558636, -46440.152399558116, 0.081, 0.9610000000000001, 0.1105, 192.0, 0.0, 0.0, 0.0, 0.0, 0.0, 0.0, 0.0, 0.0, 0.0, 1.6581656234072356E9, 0.0, 2022-07-18 13:33:43.407
0.0, -22783.289585505678, -20573.05968678709, -50549.90059732206, -52763.19268503102, -20840.02892256128, -34611.922158231995, -49666.045566325854, -32943.610303832334, -10597.72200557256, -52960.89386473822, -53883.953855509026, -61502.12126995579, -50128.0337724726, -45181.12333787958, -46269.11685098611, -46342.47527628842, 0.081, 0.9610000000000001, 0.1105, 192.0, 0.0, 0.0, 0.0, 0.0, 0.0, 0.0, 0.0, 0.0, 0.0, 1.6581656234072428E9, 0.0, 2022-07-18 13:33:43.407
2.0, -22796.164190311934, -20597.803067899116, -50574.19694354498, -52793.47929876796, -20878.853902680148, -34649.89777206156, -49694.52168876192, -32966.49849015457, -10647.611099196803, -53047.439819269166, -53955.92647265512, -61577.58075923691, -50211.02579963515, -45263.55657143075, -46360.20020964149, -46423.96973657248, 0.081, 0.9610000000000001, 0.1105, 192.0, 0.0, 0.0, 0.0, 0.0, 0.0, 0.0, 0.0, 0.0, 0.0, 1.6581656234072497E9, 0.0, 2022-07-18 13:33:43.407
4.0, -22771.73373362228, -20576.859483344495, -50544.71499260843, -52770.27818802335, -20846.063893564213, -34618.60532982413, -49656.79194412136, -32941.28572240898, -10589.38480489073, -52962.32437638335, -53874.34260539325, -61500.53429609946, -50133.84522603098, -45188.566468783196, -46277.38699643457, -46346.94562517949, 0.0835, 0.9595, 0.11325, 192.0, 1.0, 88.0, 14.5, 120.0, 1.5, 80.0, 0.0, 0.0, 0.0, 1.6581656234072573E9, 0.0, 2022-07-18 13:33:43.407
6.0, -22816.75014695527, -20601.312291778602, -50595.274638566334, -52831.16433991961, -20897.204684877957, -34676.943382852485, -49710.65964825865, -32990.303097999466, -10648.348706763829, -53068.07047940141, -53961.22383609103, -61589.31542507595, -50223.922756185864, -45281.52737397282, -46374.371215626146, -46445.02507984937, 0.0835, 0.9595, 0.11325, 192.0, 0.0, 0.0, 0.0, 0.0, 0.0, 0.0, 0.0, 0.0, 0.0, 1.658165623407264E9, 0.0, 2022-07-18 13:33:43.407
8.0, -22781.993184327268, -20598.898303377428, -50547.64307113208, -52784.06921435228, -20843.627553418584, -34624.59559733816, -49657.39544122165, -32937.79885027395, -10605.925095787656, -52991.225181964066, -53897.11903299321, -61523.89186905526, -50146.83158955951, -45212.75105628384, -46297.458862955435, -46369.85616324618, 0.0835, 0.9595, 0.11325, 192.0, 0.0, 0.0, 0.0, 0.0, 0.0, 0.0, 0.0, 0.0, 0.0, 1.6581656234072711E9, 0.0, 2022-07-18 13:33:43.407
10.0, -22827.680149993917, -20590.78462014015, -50613.51366204186, -52847.25759592743, -20896.780001733303, -34688.43217950251, -49711.86664245924, -32995.891034113294, -10658.094067346343, -53066.21528461162, -53972.0867838963, -61598.99373042509, -50219.89944218391, -45279.60512394967, -46374.147698181594, -46448.9142833846, 0.0835, 0.9595, 0.11325, 192.0, 0.0, 0.0, 0.0, 0.0, 0.0, 0.0, 0.0, 0.0, 0.0, 1.6581656234072783E9, 0.0, 2022-07-18 13:33:43.407
12.0, -22778.685126147884, -20606.60965521451, -50547.754829854355, -52780.090603839235, -20842.17469002899, -34621.779277536785, -49640.117542757696, -32939.4752311081, -10616.653933126205, -52991.94043778664, -53910.55243141085, -61534.911279071726, -50146.608072114956, -45214.31567839572, -46306.891299115574, -46381.143794196105, 0.0835, 0.9595, 0.11325, 192.0, 0.0, 0.0, 0.0, 0.0, 0.0, 0.0, 0.0, 0.0, 0.0, 1.6581656234072857E9, 0.0, 2022-07-18 13:33:43.407
14.0, -22839.258353621764, -20589.488218961742, -50637.18415942004, -52861.048622256356, -20923.42328112403, -34691.44966500398, -49733.592538069795, -33007.69275518569, -10645.867663129291, -53061.58847350937, -53963.168437858636, -61590.00832915406, -50211.78575894663, -45275.67121692553, -46371.8454685027, -46441.64996643662, 0.08175, 0.95975, 0.113625, 192.0, 1.0, 64.0, 15.0, 0.0, 1.5, 72.0, 0.0, 0.0, 0.0, 1.658165623407293E9, 0.0, 2022-07-18 13:33:43.407
16.0, -22779.266271503722, -20614.03043437367, -50549.85589383315, -52773.11685956918, -20841.75000688434, -34614.00087046634, -49661.441106968065, -32929.90868448123, -10630.53436643295, -53014.53805143095, -53925.37163798471, -61552.52445370251, -50181.65560742088, -45236.06392575073, -46335.41212504055, -46400.81332931678, 0.08175, 0.95975, 0.113625, 192.0, 0.0, 0.0, 0.0, 0.0, 0.0, 0.0, 0.0, 0.0, 0.0, 1.6581656234072998E9, 0.0, 2022-07-18 13:33:43.407
18.0, -22841.2923623672, -20580.70398339081, -50647.95770024749, -52870.7269276055, -20930.8887637721, -34689.28154579181, -49740.007488728465, -33012.09604884339, -10643.207805539108, -53058.79450545246, -53953.49013250949, -61586.52145701903, -50211.38342754644, -45269.166859289035, -46371.82311675824, -46432.597509932224, 0.08175, 0.95975, 0.113625, 192.0, 0.0, 0.0, 0.0, 0.0, 0.0, 0.0, 0.0, 0.0, 0.0, 1.658165623407307E9, 0.0, 2022-07-18 13:33:43.407
20.0, -22792.543207710172, -20633.387045071966, -50559.087164293196, -52790.32770279977, -20842.97935282938, -34622.98627173737, -49636.9659467895, -32929.08166993638, -10642.649011927726, -53027.30089751493, -53941.286080036894, -61572.05987835645, -50195.826613405545, -45250.301986968756, -46341.33533732121, -46411.4527596775, 0.08175, 0.95975, 0.113625, 192.0, 0.0, 0.0, 0.0, 0.0, 0.0, 0.0, 0.0, 0.0, 0.0, 1.658165623407316E9, 0.0, 2022-07-18 13:33:43.407
22.0, -22849.42839734893, -20572.344430964524, -50637.02769720885, -52863.79788682436, -20920.964589233947, -34677.30101076377, -49734.777180525925, -32989.99017357709, -10646.359401507307, -53050.59141523736, -53953.28896680939, -61585.09094537389, -50201.39219777491, -45257.365138216635, -46349.918407192046, -46424.68499239504, 0.08175, 0.95975, 0.113625, 192.0, 0.0, 0.0, 0.0, 0.0, 0.0, 0.0, 0.0, 0.0, 0.0, 1.6581656234073234E9, 0.0, 2022-07-18 13:33:43.407
24.0, -22800.56748396963, -20637.499766051744, -50547.5313124098, -52776.46962123748, -20844.812195874714, -34624.506190360335, -49645.861941082716, -32945.95723700014, -10651.880282387769, -53045.539920990464, -53955.747658699474, -61580.79941043847, -50199.8499274075, -45258.79564986177, -46342.87760768862, -46423.74621912792, 0.079875, 0.958875, 0.11581250000000001, 192.0, 1.0, 56.0, 14.5, 120.0, 1.5, 88.0, 0.0, 0.0, 0.0, 1.6581656234073305E9, 0.0, 2022-07-18 13:33:43.407
26.0, -22852.08825493911, -20572.187968753336, -50632.51264482888, -52856.98060476549, -20917.678882799017, -34684.52062422283, -49712.15721513715, -32982.32352522892, -10632.098988544822, -53036.55451971943, -53936.92748986811, -61565.19789280867, -50190.372787758446, -45250.078469524204, -46328.103104603666, -46406.28950670833, 0.079875, 0.958875, 0.11581250000000001, 192.0, 0.0, 0.0, 0.0, 0.0, 0.0, 0.0, 0.0, 0.0, 0.0, 1.6581656234073377E9, 0.0, 2022-07-18 13:33:43.407
28.0, -22800.880408392004, -20636.73980674026, -50543.0833152632, -52778.83890614974, -20846.60033543114, -34626.02610898329, -49640.63163288017, -32935.04958570595, -10662.340898792852, -53059.33094731939, -53961.268539579934, -61588.443707042185, -50216.92666017135, -45275.62651343662, -46348.93493043601, -46427.993050574434, 0.079875, 0.958875, 0.11581250000000001, 192.0, 0.0, 0.0, 0.0, 0.0, 0.0, 0.0, 0.0, 0.0, 0.0, 1.6581656234073443E9, 0.0, 2022-07-18 13:33:43.407
30.0, -22846.81324324766, -20567.896433817918, -50621.60499353469, -52859.1263722332, -20904.60311229266, -34675.602278185164, -49709.16208138014, -32999.66847892624, -10622.688904129136, -53024.50692945802, -53922.063579805326, -61554.46905547012, -50175.59828467349, -45233.78404781628, -46310.71344741744, -46391.55970711228, 0.079875, 0.958875, 0.11581250000000001, 192.0, 0.0, 0.0, 0.0, 0.0, 0.0, 0.0, 0.0, 0.0, 0.0, 1.6581656234073515E9, 0.0, 2022-07-18 13:33:43.407
32.0, -22795.091306578077, -20629.967228170306, -50543.28448096329, -52784.8068219193, -20842.644076662553, -34628.5742078512, -49649.97466206249, -32942.068033464915, -10662.832637170868, -53065.812953211425, -53965.67183323763, -61597.42910831322, -50220.41353230638, -45279.67217918303, -46352.064174659754, -46441.404097247614, 0.079875, 0.958875, 0.11581250000000001, 192.0, 0.0, 0.0, 0.0, 0.0, 0.0, 0.0, 0.0, 0.0, 0.0, 1.658165623407359E9, 0.0, 2022-07-18 13:33:43.407
34.0, -22836.687903009406, -20568.522282662667, -50623.92957495804, -52855.01365125342, -20904.737222759395, -34665.611048413644, -49713.654782015656, -32966.81141457694, -10615.91632555918, -53011.94524907413, -53914.95572506854, -61547.80823562244, -50163.05895603406, -45223.61400408912, -46301.12454904611, -46384.429500631035, 0.0799375, 0.9584375, 0.11590625000000002, 192.0, 1.0, 64.0, 14.5, 120.0, 1.5, 80.0, 0.0, 0.0, 0.0, 1.658165623407366E9, 0.0, 2022-07-18 13:33:43.407
36.0, -22815.3866905435, -20642.75242599874, -50565.18919052949, -52802.799976205824, -20861.240728049368, -34631.65874858603, -49654.46736269801, -32950.09230972437, -10679.082355389877, -53075.804182982945, -53984.96138870256, -61616.31633237795, -50242.4076488504, -45295.36310379066, -46373.29833189229, -46454.52457124288, 0.0799375, 0.9584375, 0.11590625000000002, 192.0, 0.0, 0.0, 0.0, 0.0, 0.0, 0.0, 0.0, 0.0, 0.0, 1.658165623407373E9, 0.0, 2022-07-18 13:33:43.407
38.0, -22826.070824393133, -20564.946003549816, -50604.662371237566, -52839.18861617907, -20885.805295205748, -34654.345769208165, -49691.95123814956, -32991.64420266679, -10614.91049705869, -52997.77424308947, -53906.819690086806, -61540.11923552981, -50162.321348467034, -45216.79672203025, -46291.84857509715, -46375.08647144872, 0.0799375, 0.9584375, 0.11590625000000002, 192.0, 0.0, 0.0, 0.0, 0.0, 0.0, 0.0, 0.0, 0.0, 0.0, 1.65816562340738E9, 0.0, 2022-07-18 13:33:43.407
40.0, -22819.812335945648, -20640.830175975585, -50577.54970521328, -52818.401493835634, -20878.876254424606, -34659.64313264407, -49685.893915402165, -32966.85611806585, -10677.830657700379, -53075.84888647186, -53983.083842168315, -61613.835288743416, -50235.97034644728, -45298.15707184757, -46381.9484569965, -46462.6159027357, 0.0799375, 0.9584375, 0.11590625000000002, 192.0, 0.0, 0.0, 0.0, 0.0, 0.0, 0.0, 0.0, 0.0, 0.0, 1.6581656234073863E9, 0.0, 2022-07-18 13:33:43.407
42.0, -22822.360434813552, -20580.189893268336, -50604.05887413727, -52841.066162713316, -20892.84609470917, -34664.13583327959, -49697.89680217467, -32981.362400217346, -10620.632543639249, -53009.86653683979, -53910.3736174552, -61541.23682275258, -50164.75768861266, -45228.19611170246, -46300.14107229008, -46381.61318082967, 0.0799375, 0.9584375, 0.11590625000000002, 192.0, 0.0, 0.0, 0.0, 0.0, 0.0, 0.0, 0.0, 0.0, 0.0, 1.6581656234073935E9, 0.0, 2022-07-18 13:33:43.407
44.0, -22832.910458196457, -20643.13240565448, -50606.87519393864, -52839.41213362362, -20910.36986236213, -34686.934612624005, -49707.75392147946, -33001.03193533802, -10692.113422407321, -53113.51157587905, -54003.714502300565, -61636.52230936555, -50263.507695616216, -45325.649717527594, -46398.24287870442, -46485.794661735854, 0.07996875, 0.95721875, 0.117953125, 192.0, 1.0, 64.0, 14.5, 112.0, 1.5, 96.0, 0.0, 0.0, 0.0, 1.6581656234074008E9, 0.0, 2022-07-18 13:33:43.407
0.0, -11378.088459740695, -10281.98126339689, -25238.27108600987, -26357.288820420366, -10400.49021249893, -17267.013164402626, -24800.33335689704, -16439.328067222603, -5337.86479686079, -26547.88214539077, -26992.72656354029, -30809.04106009496, -25126.713529433433, -22654.34237174301, -23190.359555525727, -23228.9833699445, 0.08, 0.9580000000000001, 0.11, 192.0, 1.0, 64.0, 14.5, 120.0, 1.5, 56.0, 0.0, 0.0, 0.0, 1.6581656240098152E9, 0.0, 2022-07-18 13:33:44.009
2.0, -22792.632614687995, -20472.52154022712, -50551.867550834126, -52790.014778377394, -20860.011382104323, -34578.48394852685, -49660.47998195648, -32931.8756379933, -10594.324540415351, -52906.221497800536, -53871.77215478088, -61440.11753083677, -50147.30097619307, -45130.78720936623, -46290.50747042984, -46335.278014573814, 0.08, 0.9580000000000001, 0.11, 192.0, 0.0, 0.0, 0.0, 0.0, 0.0, 0.0, 0.0, 0.0, 0.0, 1.658165624009928E9, 0.0, 2022-07-18 13:33:44.009
4.0, -22774.952384823846, -20550.327962676045, -50497.195183896445, -52754.00611805989, -20813.78797457075, -34566.88339315455, -49587.83681247674, -32937.888257251776, -10634.490625201539, -52954.81419024637, -53918.084969292286, -61490.47601109458, -50187.914095868364, -45179.78223321227, -46337.244968085884, -46394.37602691365, 0.08, 0.9580000000000001, 0.11, 192.0, 0.0, 0.0, 0.0, 0.0, 0.0, 0.0, 0.0, 0.0, 0.0, 1.658165624009946E9, 0.0, 2022-07-18 13:33:44.009
6.0, -22790.911530364934, -20465.413685490334, -50528.55468136724, -52779.75532767241, -20841.951172584435, -34567.88922165504, -49617.51992911338, -32906.059373147415, -10584.489772855017, -52881.455764944054, -53856.64002378465, -61426.37120799675, -50125.3292113935, -45109.82127306715, -46259.59500784815, -46320.950546377964, 0.08, 0.9580000000000001, 0.11, 192.0, 0.0, 0.0, 0.0, 0.0, 0.0, 0.0, 0.0, 0.0, 0.0, 1.6581656240099568E9, 0.0, 2022-07-18 13:33:44.009
8.0, -22780.517969193217, -20539.55442184859, -50503.1183961771, -52758.78939137333, -20838.307838238223, -34573.27599206877, -49612.66960056658, -32925.79596350145, -10641.687886916148, -52952.53431231193, -53930.937222354085, -61496.60038907533, -50200.25225880769, -45185.213707114905, -46334.585110495704, -46392.65494259059, 0.082, 0.96, 0.10400000000000001, 192.0, 1.0, 72.0, 15.0, 0.0, 1.5, 32.0, 0.0, 0.0, 0.0, 1.658165624009962E9, 0.0, 2022-07-18 13:33:44.009
10.0, -22786.016498329223, -20474.488493739187, -50520.66451557452, -52769.741746156426, -20852.18827154497, -34566.39165477653, -49630.77451357538, -32897.65511723222, -10577.76189777397, -52873.11856426222, -53846.335869590745, -61415.06122530237, -50122.33407763649, -45115.07393301415, -46248.97792923188, -46303.96322059193, 0.082, 0.96, 0.10400000000000001, 192.0, 0.0, 0.0, 0.0, 0.0, 0.0, 0.0, 0.0, 0.0, 0.0, 1.658165624009967E9, 0.0, 2022-07-18 13:33:44.009
12.0, -22785.636518673484, -20529.54084033261, -50500.92792522049, -52758.09648729521, -20842.912297596016, -34583.80366370722, -49620.179786703564, -32926.60062630184, -10634.132997290255, -52966.97353923006, -53919.113149537225, -61494.275807651975, -50204.208517576284, -45198.24477413235, -46338.94370066449, -46393.63841934662, 0.082, 0.96, 0.10400000000000001, 192.0, 0.0, 0.0, 0.0, 0.0, 0.0, 0.0, 0.0, 0.0, 0.0, 1.6581656240099723E9, 0.0, 2022-07-18 13:33:44.009
14.0, -22785.882387862493, -20487.072525867527, -50502.40314035454, -52758.990557073426, -20837.078492293178, -34570.21380307839, -49624.35956291671, -32917.458762819624, -10573.090383182811, -52877.99124455348, -53836.52345377487, -61414.30126599089, -50108.230126885195, -45111.654116112484, -46250.18492343246, -46309.774674150314, 0.082, 0.96, 0.10400000000000001, 192.0, 0.0, 0.0, 0.0, 0.0, 0.0, 0.0, 0.0, 0.0, 0.0, 1.6581656240099776E9, 0.0, 2022-07-18 13:33:44.009
16.0, -22795.091306578077, -20518.29791287159, -50496.569335051696, -52756.665975650074, -20838.97839057188, -34579.355666560616, -49621.87851928217, -32923.38197510028, -10633.48479670105, -52969.09695495331, -53922.08593154978, -61502.23302867807, -50192.183279059325, -45198.75886425482, -46337.31202331925, -46400.83568106123, 0.082, 0.96, 0.10400000000000001, 192.0, 0.0, 0.0, 0.0, 0.0, 0.0, 0.0, 0.0, 0.0, 0.0, 1.6581656240099823E9, 0.0, 2022-07-18 13:33:44.009
18.0, -22773.45481794534, -20488.659499723854, -50483.20299186742, -52733.174292227544, -20812.715090836893, -34546.67741616695, -49594.76585325788, -32892.1118846073, -10566.586025546316, -52867.21770372602, -53829.48265427144, -61406.70167287609, -50096.07077790151, -45102.445197396904, -46227.02851617677, -46289.367531462616, 0.08600000000000001, 0.9480000000000001, 0.11, 192.0, 1.0, 88.0, 14.5, 80.0, 1.5, 56.0, 0.0, 0.0, 0.0, 1.6581656240099876E9, 0.0, 2022-07-18 13:33:44.009
20.0, -22806.51304799474, -20511.34652034599, -50524.330201665194, -52769.33941475623, -20857.217414047413, -34582.350800317625, -49640.475170668986, -32927.36058561332, -10640.302078759918, -52972.06973696587, -53924.90225135115, -61497.583865831366, -50195.759558172176, -45195.42845433098, -46323.56570047924, -46381.143794196105, 0.08600000000000001, 0.9480000000000001, 0.11, 192.0, 0.0, 0.0, 0.0, 0.0, 0.0, 0.0, 0.0, 0.0, 0.0, 1.6581656240099928E9, 0.0, 2022-07-18 13:33:44.009
22.0, -22779.020402314713, -20500.371813818434, -50487.04749191374, -52726.91580378006, -20819.331207195664, -34543.79404113222, -49610.79205403233, -32900.35967831131, -10586.479078111539, -52877.231285242, -53849.68863125904, -61415.642370658206, -50113.192214154275, -45107.02730501024, -46238.85258899362, -46289.83691809618, 0.08600000000000001, 0.9480000000000001, 0.11, 192.0, 0.0, 0.0, 0.0, 0.0, 0.0, 0.0, 0.0, 0.0, 0.0, 1.6581656240099978E9, 0.0, 2022-07-18 13:33:44.009
24.0, -22808.41294627344, -20496.482610283212, -50535.23785295938, -52764.62319667616, -20870.740219442872, -34598.82403598118, -49662.49163895746, -32968.80071983346, -10646.113532318299, -52963.106687439285, -53926.51157695193, -61491.37008087279, -50199.02291286265, -45181.19039311295, -46330.65120347157, -46382.1496226966, 0.08600000000000001, 0.9480000000000001, 0.11, 192.0, 0.0, 0.0, 0.0, 0.0, 0.0, 0.0, 0.0, 0.0, 0.0, 1.6581656240100029E9, 0.0, 2022-07-18 13:33:44.010
26.0, -22757.473320659796, -20498.136639372904, -50469.300206816224, -52696.49507957639, -20803.863800032592, -34530.762974114776, -49586.38394908714, -32889.921413650685, -10587.484906612028, -52864.87077055821, -53845.03946841234, -61409.85326884429, -50115.67325778881, -45098.26542118376, -46245.9157402415, -46296.74360713287, 0.08600000000000001, 0.9480000000000001, 0.11, 192.0, 0.0, 0.0, 0.0, 0.0, 0.0, 0.0, 0.0, 0.0, 0.0, 1.6581656240100079E9, 0.0, 2022-07-18 13:33:44.010
28.0, -22802.62384445952, -20479.67409845282, -50534.41083841454, -52764.354975742695, -20871.343716543164, -34573.477157768866, -49653.48388594197, -32932.38972811577, -10625.505223930506, -52937.84921620479, -53901.09764350625, -61469.24185386203, -50188.15996505737, -45157.56459922369, -46316.16727306453, -46357.33918635121, 0.084, 0.9540000000000001, 0.106, 192.0, 1.0, 80.0, 14.5, 104.0, 1.5, 40.0, 0.0, 0.0, 0.0, 1.6581656240100129E9, 0.0, 2022-07-18 13:33:44.010
30.0, -22769.342096965564, -20517.225029137735, -50472.85413418462, -52710.68843730551, -20814.480878648865, -34519.60945363158, -49597.85039399271, -32887.03803861595, -10595.509182871483, -52877.65596838665, -53851.27560511537, -61416.29057124741, -50129.084304462, -45109.53070038923, -46260.265560181804, -46300.83397636819, 0.084, 0.9540000000000001, 0.106, 192.0, 0.0, 0.0, 0.0, 0.0, 0.0, 0.0, 0.0, 0.0, 0.0, 1.658165624010018E9, 0.0, 2022-07-18 13:33:44.010
32.0, -22811.206914330356, -20475.069639095025, -50545.18437924199, -52786.01381611989, -20869.980260131393, -34578.72981771587, -49644.587891648756, -32932.702652538144, -10622.130110517754, -52948.354536098785, -53907.780815098384, -61476.0591359209, -50184.60603768898, -45161.587913225645, -46317.59778470967, -46361.80953524227, 0.084, 0.9540000000000001, 0.106, 192.0, 0.0, 0.0, 0.0, 0.0, 0.0, 0.0, 0.0, 0.0, 0.0, 1.6581656240100229E9, 0.0, 2022-07-18 13:33:44.010
34.0, -22765.519948663707, -20526.38924436441, -50462.393517779536, -52709.63790531611, -20791.391526626532, -34512.68041285043, -49565.90975116608, -32845.62025614027, -10598.683130584137, -52897.90664886316, -53867.63708205665, -61433.479062733546, -50130.939499251785, -45119.18665399393, -46261.7184235714, -46308.70179041646, 0.084, 0.9540000000000001, 0.106, 192.0, 0.0, 0.0, 0.0, 0.0, 0.0, 0.0, 0.0, 0.0, 0.0, 1.658165624010028E9, 0.0, 2022-07-18 13:33:44.010
36.0, -22818.582990000607, -20474.041458850083, -50548.783010099294, -52789.72420569947, -20865.845187407158, -34574.728855458365, -49651.31576672981, -32917.14583839725, -10614.731683103048, -52931.68013473513, -53892.60398061323, -61463.050420647916, -50156.040508275095, -45150.389689253534, -46290.93215357449, -46335.59093899619, 0.084, 0.9540000000000001, 0.106, 192.0, 0.0, 0.0, 0.0, 0.0, 0.0, 0.0, 0.0, 0.0, 0.0, 1.658165624010033E9, 0.0, 2022-07-18 13:33:44.010
38.0, -22755.841643314558, -20522.96942746275, -50452.60345370811, -52700.02665520032, -20785.06598294568, -34512.21102621687, -49567.85435293369, -32869.20134654061, -10612.563563890883, -52898.51014596345, -53880.22111418499, -61445.549004739405, -50152.21835997324, -45130.809561110684, -46279.421005180004, -46318.73772367689, 0.082, 0.9560000000000001, 0.106, 192.0, 1.0, 72.0, 14.5, 112.0, 1.5, 40.0, 0.0, 0.0, 0.0, 1.6581656240100403E9, 0.0, 2022-07-18 13:33:44.010
40.0, -22804.881370649502, -20456.29417375257, -50543.50799840785, -52792.1605458451, -20865.80048391825, -34582.57431776218, -49648.700612628534, -32942.693882309664, -10587.887238012223, -52900.09711981978, -53871.54863733633, -61441.48098724854, -50151.279586706114, -45124.01463079627, -46281.76793834781, -46321.531691733806, 0.082, 0.9560000000000001, 0.106, 192.0, 0.0, 0.0, 0.0, 0.0, 0.0, 0.0, 0.0, 0.0, 0.0, 1.6581656240100453E9, 0.0, 2022-07-18 13:33:44.010
42.0, -22755.819291570104, -20536.782805536128, -50448.11075307259, -52702.4406436015, -20781.802628255205, -34521.35288969909, -49561.57351274175, -32873.17995705366, -10613.032950524444, -52920.57131774084, -53891.799317812845, -61457.97657465656, -50165.607054901964, -45150.389689253534, -46290.283952985286, -46335.8368081852, 0.082, 0.9560000000000001, 0.106, 192.0, 0.0, 0.0, 0.0, 0.0, 0.0, 0.0, 0.0, 0.0, 0.0, 1.6581656240100503E9, 0.0, 2022-07-18 13:33:44.010
44.0, -22796.521818223217, -20460.831577876997, -50534.23202445889, -52779.75532767241, -20854.60225994614, -34577.90280317102, -49640.83279858027, -32918.8222192314, -10575.996109962, -52901.99701809848, -53855.83536098425, -61426.77353939695, -50137.06387723254, -45127.23328199784, -46254.52116185679, -46299.6269821676, 0.082, 0.9560000000000001, 0.106, 192.0, 0.0, 0.0, 0.0, 0.0, 0.0, 0.0, 0.0, 0.0, 0.0, 1.6581656240100553E9, 0.0, 2022-07-18 13:33:44.010
46.0, -22736.485032616263, -20528.311494387566, -50443.32747975916, -52700.69720753399, -20786.96588122438, -34530.830029348144, -49574.22460010345, -32877.29267803344, -10602.594685863816, -52933.66943999165, -53886.256085187924, -61458.66947873467, -50168.24456074769, -45167.175849339474, -46294.73195013189, -46345.939796679, 0.082, 0.9560000000000001, 0.106, 192.0, 0.0, 0.0, 0.0, 0.0, 0.0, 0.0, 0.0, 0.0, 0.0, 1.6581656240100603E9, 0.0, 2022-07-18 13:33:44.010
48.0, -22776.56171042463, -20458.596403431464, -50523.74905630935, -52777.45309799351, -20852.680009922984, -34584.78714046325, -49652.63451965267, -32932.16621067122, -10548.481112537518, -52897.683131418606, -53834.19887235152, -61416.73760613652, -50113.59454555447, -45123.54524416271, -46248.77676353178, -46302.53270894679, 0.08, 0.9520000000000001, 0.108, 192.0, 1.0, 64.0, 14.5, 96.0, 1.5, 48.0, 0.0, 0.0, 0.0, 1.6581656240100653E9, 0.0, 2022-07-18 13:33:44.010
50.0, -22738.809614039616, -20534.63703806842, -50460.96300613439, -52728.23455670292, -20801.002776742313, -34562.36834077458, -49584.81932697527, -32913.74837324004, -10601.342988174318, -52973.254379422, -53896.38142542618, -61481.78118250146, -50176.02296781814, -45193.48385256337, -46321.41993301153, -46378.26041916137, 0.08, 0.9520000000000001, 0.108, 192.0, 0.0, 0.0, 0.0, 0.0, 0.0, 0.0, 0.0, 0.0, 0.0, 1.6581656240100703E9, 0.0, 2022-07-18 13:33:44.010
52.0, -22783.423695972408, -20481.10461009796, -50537.6294896161, -52805.6609994961, -20865.420504262507, -34608.16706516351, -49657.46249645502, -32957.82601330591, -10541.641478734193, -52923.052361375376, -53837.14930261962, -61429.7016179206, -50105.369103594916, -45137.380973980544, -46259.438545636964, -46320.59291846668, 0.08, 0.9520000000000001, 0.108, 192.0, 0.0, 0.0, 0.0, 0.0, 0.0, 0.0, 0.0, 0.0, 0.0, 1.6581656240100753E9, 0.0, 2022-07-18 13:33:44.010
54.0, -22750.946611278847, -20542.996590494706, -50477.6150557536, -52748.37347845716, -20825.343826454144, -34580.42855029447, -49617.78815004685, -32938.84938226335, -10616.788043592936, -53017.37672297678, -53923.33762923928, -61519.95796203113, -50193.36792151546, -45225.960937256925, -46350.16427638105, -46412.77151260037, 0.08, 0.9520000000000001, 0.108, 192.0, 0.0, 0.0, 0.0, 0.0, 0.0, 0.0, 0.0, 0.0, 0.0, 1.6581656240100803E9, 0.0, 2022-07-18 13:33:44.010
56.0, -22742.274134430187, -20452.896708595363, -50490.780233237776, -52749.37930695764, -20827.869573577595, -34565.31877104268, -49616.1117692127, -32920.051565176436, -10529.258612305954, -52902.57816345432, -53818.597354721715, -61409.92032407765, -50093.76854822261, -45122.13708426202, -46236.997394203834, -46292.60853440864, 0.08, 0.9520000000000001, 0.108, 192.0, 0.0, 0.0, 0.0, 0.0, 0.0, 0.0, 0.0, 0.0, 0.0, 1.6581656240100856E9, 0.0, 2022-07-18 13:33:44.010
58.0, -22749.471396144796, -20524.35523561898, -50472.943541162436, -52731.497911393395, -20818.325378695175, -34562.41304426349, -49608.020437719875, -32915.40240232973, -10597.498488128005, -52978.57409460236, -53902.72932085149, -61484.262226136, -50175.911209095866, -45202.31279162321, -46315.02733409731, -46366.056366688776, 0.074, 0.9540000000000001, 0.11, 192.0, 1.0, 40.0, 14.5, 104.0, 1.5, 56.0, 0.0, 0.0, 0.0, 1.6581656240100904E9, 0.0, 2022-07-18 13:33:44.010
60.0, -22761.541338150662, -20483.76446768814, -50502.671361288, -52753.91671108207, -20824.516811909296, -34556.71334942739, -49613.09428371123, -32902.706611479116, -10544.65896423566, -52891.06701505983, -53831.94134616153, -61411.44024270061, -50100.36231283693, -45117.24205222631, -46229.934242955955, -46281.63382788108, 0.074, 0.9540000000000001, 0.11, 192.0, 0.0, 0.0, 0.0, 0.0, 0.0, 0.0, 0.0, 0.0, 0.0, 1.6581656240100956E9, 0.0, 2022-07-18 13:33:44.010
62.0, -22778.483960447786, -20548.15984346388, -50516.216518427915, -52775.28497878135, -20847.673219164993, -34595.18070163497, -49634.507254899414, -32946.471327122614, -10618.352665704808, -53006.06674028239, -53925.88572810718, -61516.64990385174, -50203.62737222044, -45218.16017844203, -46337.669651230535, -46393.21373620197, 0.074, 0.9540000000000001, 0.11, 192.0, 0.0, 0.0, 0.0, 0.0, 0.0, 0.0, 0.0, 0.0, 0.0, 1.6581656240101006E9, 0.0, 2022-07-18 13:33:44.010
64.0, -22753.785282824672, -20491.498171269675, -50500.01150369782, -52759.83992336273, -20826.68493112146, -34572.337218801644, -49619.911565770104, -32924.76778325651, -10547.519987525939, -52913.50816649296, -53837.708096231, -61430.796853398904, -50110.48765307518, -45136.26338675778, -46252.39774613354, -46318.46950274343, 0.074, 0.9540000000000001, 0.11, 192.0, 0.0, 0.0, 0.0, 0.0, 0.0, 0.0, 0.0, 0.0, 0.0, 1.6581656240101063E9, 0.0, 2022-07-18 13:33:44.010
66.0, -22763.21771898481, -20516.509773315167, -50516.82001552821, -52777.81072590479, -20852.814120389714, -34599.069905170196, -49659.764726133915, -32949.064129479426, -10600.471270140562, -53001.149356502225, -53916.22977450249, -61507.418633391695, -50194.53021222713, -45218.40604763103, -46349.22550311393, -46411.497463166415, 0.074, 0.9540000000000001, 0.11, 192.0, 0.0, 0.0, 0.0, 0.0, 0.0, 0.0, 0.0, 0.0, 0.0, 1.658165624010114E9, 0.0, 2022-07-18 13:33:44.010
68.0, -22735.92623900488, -20484.524426999622, -50485.460518057414, -52738.6504696191, -20815.240837960344, -34558.434433750444, -49612.513138355396, -32913.14487613975, -10536.031190875912, -52897.79489014088, -53831.27079382787, -61413.20603051258, -50106.44198732877, -45128.730848876345, -46257.49394386935, -46318.53655797679, 0.079, 0.9570000000000001, 0.112, 192.0, 1.0, 80.0, 15.0, 0.0, 1.5, 72.0, 0.0, 0.0, 0.0, 1.6581656240101204E9, 0.0, 2022-07-18 13:33:44.010
70.0, -22773.65598364544, -20502.003491163672, -50529.04641974526, -52782.97397887397, -20861.017210604812, -34611.430419853976, -49657.30603424383, -32981.51886242853, -10594.972741004556, -52985.50313538351, -53910.35126571075, -61489.42547910518, -50185.969494100755, -45213.667477806506, -46340.01658439834, -46401.483881650434, 0.079, 0.9570000000000001, 0.112, 192.0, 0.0, 0.0, 0.0, 0.0, 0.0, 0.0, 0.0, 0.0, 0.0, 1.6581656240101297E9, 0.0, 2022-07-18 13:33:44.010
72.0, -22713.01570093819, -20474.75671467265, -50453.162247319495, -52719.24915543189, -20787.055288202202, -34547.63854117853, -49579.790184472826, -32904.00301265753, -10533.237222818998, -52885.54613417937, -53825.66050596959, -61406.20993449807, -50104.8773652169, -45128.105000031595, -46244.64169080755, -46314.87087188612, 0.079, 0.9570000000000001, 0.112, 192.0, 0.0, 0.0, 0.0, 0.0, 0.0, 0.0, 0.0, 0.0, 0.0, 1.6581656240101368E9, 0.0, 2022-07-18 13:33:44.010
74.0, -22751.63951535696, -20464.34080175648, -50510.74034103636, -52777.96718811598, -20853.395265745552, -34600.47806507088, -49650.332289973776, -32936.122469439804, -10564.373202845241, -52960.737402527026, -53879.79643104034, -61463.83273170385, -50158.9909385432, -45181.436262301955, -46312.52393871832, -46373.56655282576, 0.079, 0.9570000000000001, 0.112, 192.0, 0.0, 0.0, 0.0, 0.0, 0.0, 0.0, 0.0, 0.0, 0.0, 1.6581656240101435E9, 0.0, 2022-07-18 13:33:44.010
76.0, -22704.142058389432, -20479.316470541533, -50449.13893331754, -52708.81089077126, -20799.281692419256, -34546.72211965587, -49589.42378633306, -32898.862111432805, -10540.210967089053, -52899.58302969731, -53828.521529259866, -61410.09913803329, -50108.74421700767, -45132.1059622891, -46263.95359801693, -46320.23529055539, 0.079, 0.9570000000000001, 0.112, 192.0, 0.0, 0.0, 0.0, 0.0, 0.0, 0.0, 0.0, 0.0, 0.0, 1.6581656240101502E9, 0.0, 2022-07-18 13:33:44.010
78.0, -22745.44808214284, -20442.27962997909, -50517.557623095236, -52768.95943510049, -20867.499216496853, -34596.43239932447, -49660.815258123315, -32951.58987660288, -10554.001993417978, -52941.023163917445, -53853.37666909417, -61437.368266268764, -50149.044412260584, -45160.1574015805, -46306.57837469321, -46356.28865436181, 0.0775, 0.9565000000000001, 0.112, 192.0, 1.0, 48.0, 14.5, 112.0, 1.5, 64.0, 0.0, 0.0, 0.0, 1.6581656240101552E9, 0.0, 2022-07-18 13:33:44.010
80.0, -22717.68721552935, -20497.19786610578, -50466.2603695703, -52720.5455566103, -20814.235009459855, -34558.07680583916, -49591.12251891167, -32907.4675330481, -10555.23133936302, -52908.300210034875, -53836.143474119126, -61415.32944623583, -50123.36225788144, -45137.64919491401, -46284.316037215714, -46337.244968085884, 0.0775, 0.9565000000000001, 0.112, 192.0, 0.0, 0.0, 0.0, 0.0, 0.0, 0.0, 0.0, 0.0, 0.0, 1.6581656240101604E9, 0.0, 2022-07-18 13:33:44.010
82.0, -22748.77849206668, -20438.748054355154, -50537.78595182729, -52786.706720198, -20872.684821210485, -34610.6704605425, -49657.57425517729, -32950.315827168924, -10557.913548697657, -52949.22625413254, -53865.75953552241, -61445.66076346169, -50149.42439191633, -45173.4119860425, -46318.849482399164, -46372.85129700319, 0.0775, 0.9565000000000001, 0.112, 192.0, 0.0, 0.0, 0.0, 0.0, 0.0, 0.0, 0.0, 0.0, 0.0, 1.6581656240101652E9, 0.0, 2022-07-18 13:33:44.010
84.0, -22712.523962560175, -20503.612816764453, -50464.24871256932, -52717.3939606421, -20803.662634332497, -34555.59576220462, -49589.53554505534, -32915.290643607455, -10553.554958528872, -52928.081503877824, -53848.34752659172, -61425.58889694082, -50124.099865448465, -45155.016500355785, -46288.182889006486, -46349.0913926472, 0.0775, 0.9565000000000001, 0.112, 192.0, 0.0, 0.0, 0.0, 0.0, 0.0, 0.0, 0.0, 0.0, 0.0, 1.6581656240101705E9, 0.0, 2022-07-18 13:33:44.010
86.0, -22766.145797508456, -20439.776234600096, -50544.06679201923, -52789.657150466104, -20872.79657993276, -34607.63062329657, -49670.58297045028, -32953.33331267039, -10558.449990564584, -52958.34576587031, -53869.13464893516, -61448.20886232959, -50145.80340931457, -45167.84640167313, -46305.19256653697, -46364.46939283245, 0.0775, 0.9565000000000001, 0.112, 192.0, 0.0, 0.0, 0.0, 0.0, 0.0, 0.0, 0.0, 0.0, 0.0, 1.6581656240101752E9, 0.0, 2022-07-18 13:33:44.010
88.0, -22710.69111951484, -20500.796496963085, -50459.33132878916, -52707.00039947038, -20797.985291240846, -34545.090442310626, -49578.71730073897, -32881.248936802025, -10562.13802839971, -52944.867663963756, -53866.050108200325, -61443.4032372717, -50135.34279290948, -45159.24098005784, -46296.85536585515, -46350.968939181446, 0.07975, 0.9512500000000002, 0.11, 192.0, 1.0, 72.0, 14.5, 72.0, 1.5, 48.0, 0.0, 0.0, 0.0, 1.6581656240101805E9, 0.0, 2022-07-18 13:33:44.010
90.0, -22747.951477521834, -20424.889972792862, -50538.300041949755, -52776.08964158173, -20862.112446083123, -34588.58693702066, -49650.332289973776, -32912.496675550545, -10536.500577509472, -52929.0426288894, -53843.340735833735, -61425.007751584984, -50117.55080432306, -45136.196331524414, -46279.376301691096, -46327.61136622565, 0.07975, 0.9512500000000002, 0.11, 192.0, 0.0, 0.0, 0.0, 0.0, 0.0, 0.0, 0.0, 0.0, 0.0, 1.6581656240101855E9, 0.0, 2022-07-18 13:33:44.010
92.0, -22715.384985850455, -20514.699282014284, -50469.36726204959, -52722.73602756692, -20805.026090744268, -34558.300323283715, -49587.94857119901, -32889.78730318395, -10560.573406287838, -52949.31566111036, -53865.13368667766, -61448.79000768543, -50137.06387723254, -45167.13114585056, -46304.11968280312, -46355.52869505033, 0.07975, 0.9512500000000002, 0.11, 192.0, 0.0, 0.0, 0.0, 0.0, 0.0, 0.0, 0.0, 0.0, 0.0, 1.6581656240101905E9, 0.0, 2022-07-18 13:33:44.010
94.0, -22765.430541685884, -20448.247545748658, -50547.24073973188, -52812.1653571326, -20869.60028047565, -34615.16316117802, -49658.17775227759, -32941.68805380917, -10546.402400303174, -52943.57126278535, -53850.202721381516, -61445.616059972774, -50120.72475203571, -45160.85030565862, -46291.803871608245, -46355.88632296161, 0.07975, 0.9512500000000002, 0.11, 192.0, 0.0, 0.0, 0.0, 0.0, 0.0, 0.0, 0.0, 0.0, 0.0, 1.6581656240101955E9, 0.0, 2022-07-18 13:33:44.010
96.0, -22729.846564513038, -20518.432023338322, -50455.039793853735, -52737.06349576277, -20792.77733478276, -34557.115680827585, -49575.54335302632, -32892.447160774136, -10575.19144716161, -52973.43319337764, -53884.08796597576, -61481.89294122374, -50151.32429019503, -45187.314771093705, -46310.467578228425, -46389.65980883358, 0.07975, 0.9512500000000002, 0.11, 192.0, 0.0, 0.0, 0.0, 0.0, 0.0, 0.0, 0.0, 0.0, 0.0, 1.6581656240102005E9, 0.0, 2022-07-18 13:33:44.010
98.0, -22762.010724784224, -20451.62265916141, -50530.16400696803, -52804.901040184624, -20856.166882058013, -34598.84638772564, -49664.95033084755, -32938.87173400781, -10535.1371210977, -52932.59655625779, -53843.899529445116, -61440.72102793706, -50100.049388414554, -45134.92228209046, -46259.12562121459, -46338.83194194221, 0.082875, 0.9516250000000002, 0.113, 192.0, 1.0, 88.0, 14.5, 96.0, 1.5, 80.0, 0.0, 0.0, 0.0, 1.6581656240102055E9, 0.0, 2022-07-18 13:33:44.010
100.0, -22730.383006379965, -20518.074395427037, -50474.17288710748, -52747.05472553429, -20811.373986169576, -34569.72206470038, -49588.1050334102, -32920.85622797683, -10583.193371676609, -52983.29031268243, -53899.689483605565, -61492.42061286219, -50156.57695014202, -45190.667532761996, -46326.761999936345, -46401.23801246143, 0.082875, 0.9516250000000002, 0.113, 192.0, 0.0, 0.0, 0.0, 0.0, 0.0, 0.0, 0.0, 0.0, 0.0, 1.6581656240102108E9, 0.0, 2022-07-18 13:33:44.010
102.0, -22753.047675257647, -20445.14065326937, -50535.05903900374, -52790.081833610755, -20857.84326289216, -34585.569451519186, -49643.0679730258, -32919.78334424298, -10528.610411716749, -52915.05043686038, -53832.924822917565, -61424.940696351616, -50097.389530824374, -45124.43931394092, -46269.854458553134, -46334.07102037323, 0.082875, 0.9516250000000002, 0.113, 192.0, 0.0, 0.0, 0.0, 0.0, 0.0, 0.0, 0.0, 0.0, 0.0, 1.6581656240102172E9, 0.0, 2022-07-18 13:33:44.010
104.0, -22747.906774032926, -20522.611799551465, -50507.700503790446, -52768.78062114485, -20843.247573762845, -34590.75505623282, -49622.05733323781, -32915.69297500765, -10590.837668280325, -52985.36902491678, -53905.09860576375, -61494.23110416307, -50182.28145626563, -45208.30305913724, -46351.21480837045, -46409.77637884336, 0.082875, 0.9516250000000002, 0.113, 192.0, 0.0, 0.0, 0.0, 0.0, 0.0, 0.0, 0.0, 0.0, 0.0, 1.6581656240102222E9, 0.0, 2022-07-18 13:33:44.010
106.0, -22747.705608332828, -20454.48368245169, -50515.50126260534, -52777.11782182668, -20843.2699255073, -34593.16904463399, -49622.414961149094, -32902.572501012386, -10537.506406009961, -52913.977553126526, -53832.09780837272, -61423.28666726192, -50111.4264263423, -45142.767744394274, -46267.70869108543, -46332.416991283535, 0.082875, 0.9516250000000002, 0.113, 192.0, 0.0, 0.0, 0.0, 0.0, 0.0, 0.0, 0.0, 0.0, 0.0, 1.6581656240102272E9, 0.0, 2022-07-18 13:33:44.010
108.0, -22759.26146021622, -20520.130755916925, -50495.78702399576, -52763.237388519934, -20836.877326593083, -34595.001887679326, -49617.944612258034, -32930.8251060039, -10591.821145036358, -52995.67317911067, -53901.075291761794, -61493.851124507324, -50183.510802210665, -45210.64999230504, -46334.89803491808, -46401.19330897252, 0.0804375, 0.9528125000000001, 0.1105, 192.0, 1.0, 56.0, 14.5, 104.0, 1.5, 48.0, 0.0, 0.0, 0.0, 1.6581656240102324E9, 0.0, 2022-07-18 13:33:44.010
110.0, -22763.21771898481, -20483.1833223323, -50518.00465798434, -52776.58137995975, -20845.907431353025, -34591.55971903321, -49636.85418806722, -32934.2225711611, -10546.648269492181, -52921.53244275242, -53836.277584585856, -61430.48392897653, -50111.04644668656, -45137.31391874718, -46261.740775315855, -46331.27705231632, 0.0804375, 0.9528125000000001, 0.1105, 192.0, 0.0, 0.0, 0.0, 0.0, 0.0, 0.0, 0.0, 0.0, 0.0, 1.6581656240102372E9, 0.0, 2022-07-18 13:33:44.010
112.0, -22769.409152198932, -20514.274598869633, -50520.30688766324, -52777.05076659331, -20857.150358814044, -34597.25941386932, -49645.6160718937, -32940.70457705314, -10614.552869147405, -53005.97733330457, -53923.35998098373, -61512.9171625277, -50197.65945645088, -45215.88030050758, -46356.10984040616, -46415.56548065728, 0.0804375, 0.9528125000000001, 0.1105, 192.0, 0.0, 0.0, 0.0, 0.0, 0.0, 0.0, 0.0, 0.0, 0.0, 1.6581656240102425E9, 0.0, 2022-07-18 13:33:44.010
114.0, -22752.712399090815, -20486.223159578225, -50515.61302132762, -52769.182952545045, -20841.280620250778, -34568.69388445543, -49629.8133885638, -32930.400422859246, -10563.590891789305, -52919.85606191827, -53853.488427816446, -61437.81530115787, -50118.66839154582, -45140.64432867102, -46273.25192371034, -46331.79114243879, 0.0804375, 0.9528125000000001, 0.1105, 192.0, 0.0, 0.0, 0.0, 0.0, 0.0, 0.0, 0.0, 0.0, 0.0, 1.6581656240102475E9, 0.0, 2022-07-18 13:33:44.010
116.0, -22758.479149160285, -20489.77708694662, -50523.14555920906, -52776.044938092826, -20852.3223820117, -34581.143806117034, -49633.63553686566, -32936.52480084, -10601.611209107783, -52984.25143769401, -53916.185071013584, -61499.46141236561, -50187.087081323516, -45209.80062601574, -46347.50441879087, -46402.44500666201, 0.0804375, 0.9528125000000001, 0.1105, 192.0, 0.0, 0.0, 0.0, 0.0, 0.0, 0.0, 0.0, 0.0, 0.0, 1.6581656240102532E9, 0.0, 2022-07-18 13:33:44.010
118.0, -22717.888381229448, -20472.14156057138, -50471.80360219522, -52723.85361478968, -20807.21656170089, -34528.61720664707, -49582.0030071739, -32880.958364124104, -10542.155568856666, -52889.144765036675, -53822.17363383456, -61402.05251002938, -50102.79865298256, -45114.537491147225, -46246.072202452684, -46299.93990658998, 0.08221875000000001, 0.95540625, 0.11025, 192.0, 1.0, 80.0, 14.5, 120.0, 1.5, 56.0, 0.0, 0.0, 0.0, 1.6581656240102584E9, 0.0, 2022-07-18 13:33:44.010
120.0, -22758.613259627018, -20478.08712459649, -50518.09406496216, -52778.68244393855, -20858.022076847803, -34589.25748935431, -49646.51014167192, -32952.10396672535, -10585.09326995531, -52964.33603338433, -53881.919846763594, -61465.7102782381, -50173.49722069469, -45182.196221613434, -46322.26929930083, -46383.15545119708, 0.08221875000000001, 0.95540625, 0.11025, 192.0, 0.0, 0.0, 0.0, 0.0, 0.0, 0.0, 0.0, 0.0, 0.0, 1.658165624489224E9, 0.0, 2022-07-18 13:33:44.489
122.0, -22740.955381507323, -20502.897560941885, -50482.867715700595, -52742.897301065605, -20814.480878648865, -34561.876602396565, -49609.71917029848, -32913.01076567302, -10557.555920786372, -52899.426567486116, -53832.32132581727, -61417.05053055889, -50118.422522356814, -45129.96019482138, -46264.49003988386, -46331.589976738695, 0.08221875000000001, 0.95540625, 0.11025, 192.0, 0.0, 0.0, 0.0, 0.0, 0.0, 0.0, 0.0, 0.0, 0.0, 1.658165624489312E9, 0.0, 2022-07-18 13:33:44.489
124.0, -22769.610317899027, -20472.34272627148, -50533.78498956979, -52788.74072894344, -20863.65471645054, -34606.49068432936, -49663.00572907993, -32945.51020211103, -10594.257485181986, -52970.39335613172, -53892.31340793531, -61476.97555744357, -50181.87912486543, -45191.651009518035, -46331.00883138285, -46396.56649787027, 0.08221875000000001, 0.95540625, 0.11025, 192.0, 0.0, 0.0, 0.0, 0.0, 0.0, 0.0, 0.0, 0.0, 0.0, 1.6581656244893796E9, 0.0, 2022-07-18 13:33:44.489
126.0, -22731.031206969168, -20498.360156817456, -50463.5111050023, -52721.77490255534, -20797.895884263027, -34543.59287543212, -49586.13807989813, -32898.2139108436, -10569.514104069962, -52905.12626232222, -53848.95102369202, -61421.856155616784, -50124.83747301549, -45138.67737515896, -46266.47934514038, -46329.22069182643, 0.08221875000000001, 0.95540625, 0.11025, 192.0, 0.0, 0.0, 0.0, 0.0, 0.0, 0.0, 0.0, 0.0, 0.0, 1.6581656244893873E9, 0.0, 2022-07-18 13:33:44.489
128.0, -22766.41401844192, -20445.14065326937, -50518.585803340175, -52775.754365414905, -20850.154262799533, -34587.804625964716, -49640.184597991065, -32955.23321094909, -10584.556828088384, -52944.510036052474, -53881.316349663306, -61454.377943799256, -50159.616787387946, -45171.17681159697, -46304.90199385906, -46364.0447096878, 0.08110937500000001, 0.956703125, 0.110125, 192.0, 1.0, 64.0, 14.5, 120.0, 1.5, 56.0, 0.0, 0.0, 0.0, 1.6581656244893925E9, 0.0, 2022-07-18 13:33:44.489
130.0, -22705.952549690315, -20487.564264245542, -50431.83868310913, -52694.304608619765, -20778.58397705364, -34525.46561067887, -49567.60848374468, -32853.68923588863, -10557.265348108453, -52886.03787255739, -53829.16972984907, -61405.40527169768, -50100.00468492564, -45120.43835168342, -46254.99054849036, -46317.44132249848, 0.08110937500000001, 0.956703125, 0.110125, 192.0, 0.0, 0.0, 0.0, 0.0, 0.0, 0.0, 0.0, 0.0, 0.0, 1.6581656244894E9, 0.0, 2022-07-18 13:33:44.489
132.0, -22767.822178342605, -20449.543946927064, -50527.057114488736, -52780.82821140626, -20863.02886760579, -34597.03589642476, -49653.01449930841, -32933.41790836071, -10565.267272623452, -52931.18839635711, -53852.28143361586, -61434.797815656406, -50138.47203713322, -45149.339157264134, -46287.55704016174, -46346.65505250157, 0.08110937500000001, 0.956703125, 0.110125, 192.0, 0.0, 0.0, 0.0, 0.0, 0.0, 0.0, 0.0, 0.0, 0.0, 1.6581656244894068E9, 0.0, 2022-07-18 13:33:44.489
134.0, -22717.888381229448, -20512.106479657472, -50447.99899435032, -52708.09563494869, -20787.658785302494, -34541.62592192005, -49570.91654192407, -32891.55309099592, -10569.603511047782, -52925.95808815457, -53848.68280275856, -61432.92026912216, -50131.81121728554, -45148.64625318602, -46276.33646444517, -46341.80472395477, 0.08110937500000001, 0.956703125, 0.110125, 192.0, 0.0, 0.0, 0.0, 0.0, 0.0, 0.0, 0.0, 0.0, 0.0, 1.6581656244894264E9, 0.0, 2022-07-18 13:33:44.489
136.0, -22772.98543131178, -20447.688752137274, -50541.54104489578, -52794.93216215756, -20866.873367652104, -34603.02616393878, -49662.04460406835, -32943.409138132236, -10559.500522553984, -52933.37886731373, -53848.861616714195, -61438.46350174708, -50143.99291801368, -45154.390651511036, -46288.42875819549, -46349.2925583473, 0.08110937500000001, 0.956703125, 0.110125, 192.0, 0.0, 0.0, 0.0, 0.0, 0.0, 0.0, 0.0, 0.0, 0.0, 1.658165624489434E9, 0.0, 2022-07-18 13:33:44.489
138.0, -22728.997198223737, -20517.78382274912, -50456.20208456541, -52716.678704819526, -20785.96005272389, -34541.00007307531, -49584.953437442, -32894.63763173075, -10578.298339640896, -52934.85408244778, -53862.45147734303, -61444.63258321674, -50145.80340931457, -45165.03008187176, -46293.88258384259, -46358.7920497408, 0.08110937500000001, 0.956703125, 0.110125, 192.0, 0.0, 0.0, 0.0, 0.0, 0.0, 0.0, 0.0, 0.0, 0.0, 1.6581656244894392E9, 0.0, 2022-07-18 13:33:44.489
140.0, -22790.03981233118, -20455.95889758574, -50550.258225233345, -52802.174127361075, -20863.52060598381, -34592.99023067835, -49668.995996593956, -32935.11664093931, -10570.676394781638, -52928.95322191158, -53859.4116400971, -61439.98342037004, -50127.40792362785, -45151.68609043194, -46287.333522717185, -46344.799857711776, 0.08600000000000001, 0.9520000000000001, 0.11, 192.0, 1.0, 88.0, 14.5, 96.0, 1.5, 56.0, 0.0, 0.0, 0.0, 1.6581656244894445E9, 0.0, 2022-07-18 13:33:44.489
142.0, -22738.474337872787, -20523.751738518684, -50459.46543925589, -52722.557213611275, -20780.953261965904, -34536.21679976187, -49569.642492490115, -32896.64928873173, -10591.754089802991, -52948.935681454626, -53886.63606484367, -61465.44205730463, -50158.7897728431, -45169.79100344074, -46307.74066540488, -46369.543238823804, 0.08600000000000001, 0.9520000000000001, 0.11, 192.0, 0.0, 0.0, 0.0, 0.0, 0.0, 0.0, 0.0, 0.0, 0.0, 1.658165624489452E9, 0.0, 2022-07-18 13:33:44.489
144.0, -22778.036925558677, -20451.689714394775, -50533.58382386969, -52796.1615081026, -20844.633381919073, -34578.97568690487, -49647.515970172404, -32929.059318191925, -10551.588005016805, -52915.31865779384, -53844.48067480096, -61430.193356298616, -50114.510967077134, -45129.73667737683, -46261.673720082494, -46334.1380756066, 0.08600000000000001, 0.9520000000000001, 0.11, 192.0, 0.0, 0.0, 0.0, 0.0, 0.0, 0.0, 0.0, 0.0, 0.0, 1.6581656244894588E9, 0.0, 2022-07-18 13:33:44.489
146.0, -22735.479204115774, -20518.856706482973, -50455.93386363195, -52729.48625439242, -20789.91631149248, -34545.89510511102, -49584.86403046418, -32896.135198609256, -10592.514049114472, -52957.54110306992, -53888.17833521108, -61474.02512717547, -50161.87431357793, -45183.49262279185, -46316.59195620918, -46383.08839596372, 0.08600000000000001, 0.9520000000000001, 0.11, 192.0, 0.0, 0.0, 0.0, 0.0, 0.0, 0.0, 0.0, 0.0, 0.0, 1.6581656244894652E9, 0.0, 2022-07-18 13:33:44.489
148.0, -22770.526739421697, -20448.33695272648, -50519.09989346265, -52789.321874299276, -20847.762626142816, -34581.590841006146, -49662.6704529131, -32930.400422859246, -10535.718266453538, -52897.28080001841, -53821.79365417882, -61410.56852466685, -50098.373007580405, -45120.192482494414, -46258.09744096964, -46324.102142346164, 0.08600000000000001, 0.9520000000000001, 0.11, 192.0, 0.0, 0.0, 0.0, 0.0, 0.0, 0.0, 0.0, 0.0, 0.0, 1.6581656244894705E9, 0.0, 2022-07-18 13:33:44.489
150.0, -22750.298410689644, -20524.310532130068, -50471.691843472945, -52748.26171973488, -20813.944436781938, -34572.69484671293, -49609.65211506512, -32921.795001243954, -10599.621903851259, -52984.27378943846, -53899.71183535002, -61490.565418072394, -50179.71100565327, -45205.33027712468, -46348.912578691554, -46415.453721935, 0.082, 0.9560000000000001, 0.114, 192.0, 1.0, 72.0, 14.5, 112.0, 1.5, 72.0, 0.0, 0.0, 0.0, 1.6581656244894755E9, 0.0, 2022-07-18 13:33:44.489
152.0, -22752.578288624085, -20442.48079567919, -50501.106739176124, -52767.238350777436, -20827.243724732845, -34571.75607344581, -49610.34501914323, -32910.23914936056, -10526.17407157112, -52892.162250538146, -53813.478805241444, -61404.13122226373, -50089.67817898729, -45116.5491481482, -46251.615435077605, -46321.46463650044, 0.082, 0.9560000000000001, 0.114, 192.0, 0.0, 0.0, 0.0, 0.0, 0.0, 0.0, 0.0, 0.0, 0.0, 1.658165624489481E9, 0.0, 2022-07-18 13:33:44.489
154.0, -22758.23327997128, -20509.379566833923, -50477.23507609786, -52742.606728387684, -20812.55862862571, -34561.720140185374, -49596.64339979213, -32896.89515792074, -10583.66275831017, -52956.87055073626, -53887.32896892178, -61470.20297887361, -50159.14740075438, -45180.72100647938, -46318.76007542135, -46385.32357040925, 0.082, 0.9560000000000001, 0.114, 192.0, 0.0, 0.0, 0.0, 0.0, 0.0, 0.0, 0.0, 0.0, 0.0, 1.6581656244894865E9, 0.0, 2022-07-18 13:33:44.489
156.0, -22763.687105618374, -20455.10953129644, -50502.917230477, -52760.085792551734, -20822.013416530302, -34561.0048843628, -49613.541318600335, -32901.70078297863, -10540.61329848925, -52891.312884248844, -53831.15903510559, -61409.205068255076, -50084.045539384555, -45117.26440397077, -46244.35111812963, -46305.12551130361, 0.082, 0.9560000000000001, 0.114, 192.0, 0.0, 0.0, 0.0, 0.0, 0.0, 0.0, 0.0, 0.0, 0.0, 1.6581656244894917E9, 0.0, 2022-07-18 13:33:44.489
158.0, -22774.59475691256, -20515.10161341448, -50504.32539037769, -52762.902112353106, -20838.106672538124, -34581.8143584507, -49622.05733323781, -32910.84264646085, -10605.031026009445, -52983.446774893615, -53915.67098089111, -61492.64413030674, -50179.75570914218, -45199.474120077386, -46335.993270396386, -46398.488747893425, 0.082, 0.9560000000000001, 0.114, 192.0, 0.0, 0.0, 0.0, 0.0, 0.0, 0.0, 0.0, 0.0, 0.0, 1.6581656244894967E9, 0.0, 2022-07-18 13:33:44.489
160.0, -22746.25274494323, -20460.56335694353, -50496.74814900734, -52758.6552809066, -20826.483765421362, -34567.28572455475, -49623.08551348276, -32919.001033187036, -10533.70660945256, -52883.66858764513, -53823.000648379406, -61402.074861773835, -50091.645132499354, -45105.44033115391, -46249.73788854336, -46309.12647356111, 0.078, 0.9540000000000001, 0.112, 192.0, 1.0, 56.0, 14.5, 104.0, 1.5, 64.0, 0.0, 0.0, 0.0, 1.6581656244895017E9, 0.0, 2022-07-18 13:33:44.489
162.0, -22771.666678388916, -20505.937398187805, -50503.923058977496, -52777.96718811598, -20847.60616393163, -34598.19818713643, -49641.793923591846, -32940.99514973106, -10587.775479289947, -52989.16882147417, -53903.533983651876, -61492.42061286219, -50184.38252024443, -45207.38663761457, -46344.64339550059, -46413.732637611945, 0.078, 0.9540000000000001, 0.112, 192.0, 0.0, 0.0, 0.0, 0.0, 0.0, 0.0, 0.0, 0.0, 0.0, 1.6581656244895067E9, 0.0, 2022-07-18 13:33:44.489
164.0, -22736.954419249825, -20480.14348508638, -50473.144706862535, -52751.72624012545, -20812.1115937366, -34560.535497729245, -49603.72890278446, -32888.96028863911, -10528.900984394668, -52905.439186744596, -53814.99872386441, -61406.276989731436, -50093.50032728915, -45123.79111335172, -46242.384164617564, -46313.79798815227, 0.078, 0.9540000000000001, 0.112, 192.0, 0.0, 0.0, 0.0, 0.0, 0.0, 0.0, 0.0, 0.0, 0.0, 1.658165624489512E9, 0.0, 2022-07-18 13:33:44.489
166.0, -22778.640422658973, -20506.04915691008, -50518.69756206245, -52801.10124362722, -20861.061914093723, -34605.17193140649, -49660.524685445394, -32940.54811484196, -10584.512124599472, -52997.59542913383, -53890.99465501245, -61488.71022328261, -50176.55940968507, -45213.93569873997, -46334.7862761958, -46405.59660263021, 0.078, 0.9540000000000001, 0.112, 192.0, 0.0, 0.0, 0.0, 0.0, 0.0, 0.0, 0.0, 0.0, 0.0, 1.6581656244895191E9, 0.0, 2022-07-18 13:33:44.489
168.0, -22754.008800269225, -20515.34748260349, -50490.93669544896, -52770.47935372345, -20826.528468910274, -34572.627791479565, -49613.1613389446, -32910.03798366046, -10546.312993325353, -52933.132998124725, -53836.09877063022, -61432.830862144336, -50109.34771410796, -45155.083555589146, -46268.89333354156, -46341.33533732121, 0.078, 0.9540000000000001, 0.112, 192.0, 0.0, 0.0, 0.0, 0.0, 0.0, 0.0, 0.0, 0.0, 0.0, 1.6581656244895244E9, 0.0, 2022-07-18 13:33:44.489
170.0, -22788.296376263665, -20506.898523199383, -50543.7315158524, -52820.88253747017, -20876.37285904561, -34622.896864759554, -49664.793868636356, -32967.236097721594, -10587.708424056582, -53020.841243367344, -53907.445538931555, -61508.80444154793, -50185.79068014511, -45226.40797214604, -46349.51607579185, -46421.198120260015, 0.078, 0.9580000000000001, 0.112, 192.0, 1.0, 56.0, 14.5, 120.0, 1.5, 64.0, 0.0, 0.0, 0.0, 1.6581656244895294E9, 0.0, 2022-07-18 13:33:44.489
172.0, -22742.16237570791, -20515.571000048043, -50483.09123314515, -52753.26851049287, -20815.41965191599, -34565.922268142975, -49604.19828941802, -32903.488922535056, -10542.0885136233, -52935.68109699263, -53837.77515146437, -61436.83182440184, -50111.47112983121, -45154.90474163351, -46272.6707783545, -46343.86108444465, 0.078, 0.9580000000000001, 0.112, 192.0, 0.0, 0.0, 0.0, 0.0, 0.0, 0.0, 0.0, 0.0, 0.0, 1.6581656244895353E9, 0.0, 2022-07-18 13:33:44.489
174.0, -22795.113658322534, -20500.997662663183, -50563.333995739704, -52830.78436026387, -20895.260083110345, -34633.51394337582, -49689.22432532601, -32972.756978602054, -10583.886275754723, -53000.367045446284, -53901.11999525071, -61496.75685128652, -50177.38642422992, -45216.90848075253, -46344.64339550059, -46408.703495109505, 0.078, 0.9580000000000001, 0.112, 192.0, 0.0, 0.0, 0.0, 0.0, 0.0, 0.0, 0.0, 0.0, 0.0, 1.6581656244895425E9, 0.0, 2022-07-18 13:33:44.489
176.0, -22738.295523917142, -20530.591372322007, -50476.60922725311, -52750.809818602786, -20810.0105297578, -34573.32069555768, -49594.8552602357, -32917.61522503081, -10565.557845301371, -52953.76365825697, -53861.08802093125, -61454.579109499355, -50137.57796735501, -45182.978532669375, -46293.59201116467, -46367.106898678176, 0.078, 0.9580000000000001, 0.112, 192.0, 0.0, 0.0, 0.0, 0.0, 0.0, 0.0, 0.0, 0.0, 0.0, 1.6581656244895494E9, 0.0, 2022-07-18 13:33:44.489
178.0, -22773.924204578903, -20470.442827992778, -50540.401105928555, -52808.85729895321, -20873.75770494434, -34622.11455370361, -49674.78509840788, -32959.390635417774, -10567.457743580073, -52982.82092604887, -53872.88974200365, -61471.25351086301, -50160.22028448824, -45205.86671899161, -46315.60847945315, -46388.83279428873, 0.078, 0.9580000000000001, 0.112, 192.0, 0.0, 0.0, 0.0, 0.0, 0.0, 0.0, 0.0, 0.0, 0.0, 1.658165624489555E9, 0.0, 2022-07-18 13:33:44.489
180.0, -22733.869878514994, -20537.45335786979, -50473.18941035145, -52743.83607433273, -20807.97652101237, -34569.25267806681, -49605.42763536306, -32924.14193441176, -10557.488865553007, -52958.18930365912, -53853.35431734972, -61452.07571412036, -50134.716944064734, -45178.910515178504, -46296.74360713287, -46361.63072128662, 0.08, 0.9580000000000001, 0.108, 192.0, 1.0, 64.0, 14.5, 120.0, 1.5, 48.0, 0.0, 0.0, 0.0, 1.65816562448956E9, 0.0, 2022-07-18 13:33:44.489
182.0, -22780.27210000421, -20471.04632509307, -50552.515751423336, -52818.24503162444, -20873.42242877751, -34624.12621070459, -49676.93086587559, -32989.99017357709, -10557.824141719835, -52982.59740860431, -53871.034547213865, -61469.62183351778, -50151.54780763958, -45194.310867108215, -46319.74355217738, -46384.74242505341, 0.08, 0.9580000000000001, 0.108, 192.0, 0.0, 0.0, 0.0, 0.0, 0.0, 0.0, 0.0, 0.0, 0.0, 1.658165624489565E9, 0.0, 2022-07-18 13:33:44.489
184.0, -22731.88057325847, -20533.899430501395, -50466.75210794832, -52736.5494056403, -20796.845352273627, -34559.283800039746, -49606.61227781919, -32914.0165941735, -10565.021403434444, -52957.47404783655, -53865.26779714439, -61454.13207461024, -50136.885063276895, -45179.42460530098, -46310.624040439616, -46373.32068363675, 0.08, 0.9580000000000001, 0.108, 192.0, 0.0, 0.0, 0.0, 0.0, 0.0, 0.0, 0.0, 0.0, 0.0, 1.6581656244895701E9, 0.0, 2022-07-18 13:33:44.489
186.0, -22785.345945995563, -20464.497263967667, -50554.19213225748, -52814.914621700605, -20866.73925718537, -34605.66366978451, -49675.835630397276, -32948.75120505705, -10553.353792828775, -52953.98717570152, -53866.89947448963, -61449.39350478572, -50129.37487713991, -45167.95816039541, -46304.96904909242, -46363.30710212077, 0.08, 0.9580000000000001, 0.108, 192.0, 0.0, 0.0, 0.0, 0.0, 0.0, 0.0, 0.0, 0.0, 0.0, 1.6581656244895751E9, 0.0, 2022-07-18 13:33:44.489
188.0, -22738.608448339517, -20545.72350331825, -50485.30405584622, -52745.847731333706, -20819.30885545121, -34570.43732052294, -49621.67735358207, -32921.3703180993, -10579.639444308215, -52970.08043170934, -53892.64868410215, -61470.873531207275, -50160.30969146606, -45189.16996588349, -46334.18277909551, -46388.363407655175, 0.08, 0.9580000000000001, 0.108, 192.0, 0.0, 0.0, 0.0, 0.0, 0.0, 0.0, 0.0, 0.0, 0.0, 1.6581656244895804E9, 0.0, 2022-07-18 13:33:44.489
190.0, -22768.045695787157, -20453.4778539512, -50551.37581245611, -52806.4656622965, -20870.85197816515, -34602.84734998314, -49664.45859246953, -32954.652065593255, -10542.9378799126, -52942.0960476513, -53857.98112845196, -61440.00577211449, -50132.839397530486, -45157.944578879426, -46308.90295611655, -46357.78622124031, 0.084, 0.9540000000000001, 0.11, 192.0, 1.0, 80.0, 14.5, 104.0, 1.5, 56.0, 0.0, 0.0, 0.0, 1.6581656244895859E9, 0.0, 2022-07-18 13:33:44.489
192.0, -22729.555991835117, -20527.305665887077, -50466.19331433694, -52731.69907709349, -20801.427459886963, -34560.51314598479, -49589.89317296662, -32904.33828882436, -10568.41886859165, -52968.26994040846, -53884.13266946467, -61463.92213868167, -50156.398136186384, -45188.141785638545, -46327.47725575892, -46385.502384364896, 0.084, 0.9540000000000001, 0.11, 192.0, 0.0, 0.0, 0.0, 0.0, 0.0, 0.0, 0.0, 0.0, 0.0, 1.658165624489591E9, 0.0, 2022-07-18 13:33:44.489
194.0, -22770.146759765954, -20458.462292964734, -50530.92396627951, -52797.010874391905, -20860.301954782244, -34607.295347129744, -49664.726813402995, -32944.88435326629, -10532.969001885534, -52938.47506504954, -53839.004497409405, -61421.58793468332, -50109.03478968558, -45146.0087473403, -46276.06824351171, -46337.0885058747, 0.084, 0.9540000000000001, 0.11, 192.0, 0.0, 0.0, 0.0, 0.0, 0.0, 0.0, 0.0, 0.0, 0.0, 1.658165624489596E9, 0.0, 2022-07-18 13:33:44.489
196.0, -22738.83196578407, -20530.837241511017, -50464.069898613685, -52739.544539397306, -20811.418689658487, -34575.913497914495, -49615.88825176815, -32935.96600722861, -10590.9494270026, -52990.509926141494, -53893.43099515808, -61480.12715341177, -50163.953025812276, -45208.45952134842, -46338.27314833083, -46403.54024214033, 0.084, 0.9540000000000001, 0.11, 192.0, 0.0, 0.0, 0.0, 0.0, 0.0, 0.0, 0.0, 0.0, 0.0, 1.6581656244896011E9, 0.0, 2022-07-18 13:33:44.489
198.0, -22760.423750927897, -20456.76356038613, -50522.2738411753, -52787.086699853746, -20855.786902402273, -34598.24289062535, -49664.41388898062, -32943.878524765794, -10532.499615251973, -52928.774407955934, -53824.29704955781, -61417.6987311481, -50101.83752797098, -45149.003881097306, -46272.938999287966, -46338.25079658637, 0.084, 0.9540000000000001, 0.11, 192.0, 0.0, 0.0, 0.0, 0.0, 0.0, 0.0, 0.0, 0.0, 0.0, 1.658165624489608E9, 0.0, 2022-07-18 13:33:44.489
200.0, -22731.567648836095, -20516.86740122645, -50468.115564360094, -52734.60480387269, -20824.673274120483, -34580.20503284992, -49615.75414130141, -32934.53549558348, -10582.969854232057, -52990.867554052784, -53886.65841658812, -61477.3108336104, -50168.11045028096, -45202.6704195345, -46338.27314833083, -46403.584945629234, 0.08600000000000001, 0.9560000000000001, 0.112, 192.0, 1.0, 88.0, 14.5, 112.0, 1.5, 64.0, 0.0, 0.0, 0.0, 1.6581656244896133E9, 0.0, 2022-07-18 13:33:44.489
202.0, -22746.520965876694, -20454.327220240502, -50504.79477701125, -52759.594054173715, -20853.574079701197, -34585.99413466384, -49661.217589523505, -32940.41400437522, -10514.417053987629, -52904.07573033282, -53806.48270922693, -61395.3916901817, -50087.68887373077, -45115.588023136625, -46256.30930141322, -46314.73676141939, 0.08600000000000001, 0.9560000000000001, 0.112, 192.0, 0.0, 0.0, 0.0, 0.0, 0.0, 0.0, 0.0, 0.0, 0.0, 1.6581656244896183E9, 0.0, 2022-07-18 13:33:44.489
204.0, -22743.03409374167, -20516.889752970907, -50478.956160420916, -52747.859388334684, -20841.906469095527, -34598.51111155881, -49641.21277823601, -32964.75505408705, -10584.243903666009, -52993.929743043154, -53890.61467535671, -61480.01539468949, -50178.21343877476, -45206.49256783636, -46343.01171815535, -46404.769588085364, 0.08600000000000001, 0.9560000000000001, 0.112, 192.0, 0.0, 0.0, 0.0, 0.0, 0.0, 0.0, 0.0, 0.0, 0.0, 1.6581656244896235E9, 0.0, 2022-07-18 13:33:44.489
206.0, -22737.22264018329, -20456.830615619496, -50480.96781742189, -52747.099429023205, -20834.30687598072, -34577.63458223755, -49634.596661877236, -32920.45389657663, -10508.046806817867, -52896.207916284555, -53799.77718589034, -61394.5423238924, -50081.09510911645, -45118.96313654937, -46247.01097571981, -46314.31207827474, 0.08600000000000001, 0.9560000000000001, 0.112, 192.0, 0.0, 0.0, 0.0, 0.0, 0.0, 0.0, 0.0, 0.0, 0.0, 1.6581656244896288E9, 0.0, 2022-07-18 13:33:44.489
208.0, -22734.16045119291, -20491.989909647695, -50473.2117620959, -52745.04306853331, -20838.531355682775, -34593.34785858964, -49631.28860369785, -32945.66666432222, -10571.637519793216, -52988.58767611834, -53879.30469266233, -61472.72872599706, -50170.32327298204, -45193.43914907445, -46335.143904107084, -46395.2477449474, 0.08600000000000001, 0.9560000000000001, 0.112, 192.0, 0.0, 0.0, 0.0, 0.0, 0.0, 0.0, 0.0, 0.0, 0.0, 1.658165624489634E9, 0.0, 2022-07-18 13:33:44.489
210.0, -22719.92238997488, -20454.10370279595, -50464.98632013635, -52734.29187945031, -20825.25441947632, -34565.22936406486, -49624.22545244997, -32920.00686168753, -10500.357806725242, -52881.947503322066, -53784.041557793804, -61376.280948672415, -50080.603370738434, -45096.9466682609, -46237.95851921541, -46297.21299376643, 0.088, 0.964, 0.116, 192.0, 1.0, 96.0, 15.0, 16.0, 1.5, 80.0, 0.0, 0.0, 0.0, 1.6581656244896393E9, 0.0, 2022-07-18 13:33:44.489
212.0, -22742.45294838583, -20478.891787396882, -50488.813279725706, -52758.38705997313, -20851.897698867047, -34601.014506937805, -49638.35175494573, -32938.58116132989, -10577.627787307238, -52987.157164473196, -53879.215285684506, -61467.94545268363, -50178.7945841306, -45194.80260548623, -46342.81055245526, -46396.92412578155, 0.088, 0.964, 0.116, 192.0, 0.0, 0.0, 0.0, 0.0, 0.0, 0.0, 0.0, 0.0, 0.0, 1.6581656244896443E9, 0.0, 2022-07-18 13:33:44.489
214.0, -22701.996290921725, -20450.885051594385, -50456.47030549888, -52718.15391995358, -20812.335111181153, -34552.51122146979, -49600.3090858828, -32883.21589031409, -10507.26449576193, -52872.06803227282, -53789.07070029625, -61371.43062012561, -50081.63155098338, -45103.07104624165, -46243.03236520677, -46295.715426887924, 0.088, 0.964, 0.116, 192.0, 0.0, 0.0, 0.0, 0.0, 0.0, 0.0, 0.0, 0.0, 0.0, 1.6581656244896495E9, 0.0, 2022-07-18 13:33:44.489
216.0, -22752.868861302002, -20466.911252368838, -50516.171814939, -52771.99927234642, -20867.2756990523, -34600.05338192623, -49656.92605458809, -32942.47036486511, -10563.479133067029, -52971.80151603241, -53873.962625737506, -61452.32158330936, -50165.24942699068, -45193.32739035218, -46338.094334375186, -46386.239991931914, 0.088, 0.964, 0.116, 192.0, 0.0, 0.0, 0.0, 0.0, 0.0, 0.0, 0.0, 0.0, 0.0, 1.6581656244896548E9, 0.0, 2022-07-18 13:33:44.489
218.0, -22716.837849240048, -20472.230967549203, -50470.61895973909, -52723.20541420048, -20811.2622274473, -34552.53357321424, -49598.99033295993, -32887.99916362753, -10521.636667446694, -52903.51693672144, -53815.69162794252, -61390.20608546807, -50094.81908021201, -45130.31782273267, -46267.03813875176, -46314.7814649083, 0.088, 0.964, 0.116, 192.0, 0.0, 0.0, 0.0, 0.0, 0.0, 0.0, 0.0, 0.0, 0.0, 1.65816562448966E9, 0.0, 2022-07-18 13:33:44.489
220.0, -22749.829024056082, -20453.209633017737, -50527.750018566854, -52778.280112538356, -20862.581832716685, -34608.32352737469, -49661.150534290144, -32932.74735602705, -10551.677411994626, -52979.91519926968, -53872.62152107019, -61450.511092008484, -50158.07451702053, -45186.84538446014, -46341.22357859893, -46383.401320386096, 0.087, 0.9590000000000001, 0.118, 192.0, 1.0, 88.0, 14.5, 104.0, 1.5, 96.0, 0.0, 0.0, 0.0, 1.6581656244896655E9, 0.0, 2022-07-18 13:33:44.489
222.0, -22708.29948285812, -20481.842217664984, -50461.09711660113, -52719.15974845407, -20802.947378509925, -34554.92520987096, -49589.647303777616, -32875.258669288, -10516.696931922072, -52921.51009100796, -53815.512813986876, -61396.86690531575, -50094.14852787835, -45135.97281407986, -46280.762109847325, -46327.70077320347, 0.087, 0.9590000000000001, 0.118, 192.0, 0.0, 0.0, 0.0, 0.0, 0.0, 0.0, 0.0, 0.0, 0.0, 1.6581656244896708E9, 0.0, 2022-07-18 13:33:44.489
224.0, -22752.421826412898, -20447.085255036982, -50523.30202142025, -52783.242199807435, -20860.45841699343, -34601.19332089345, -49658.6694906556, -32925.39363210126, -10534.041885619388, -52975.422498634165, -53856.550616806824, -61445.347839039314, -50128.79373178408, -45183.045587902736, -46322.96220337894, -46374.61708481516, 0.087, 0.9590000000000001, 0.118, 192.0, 0.0, 0.0, 0.0, 0.0, 0.0, 0.0, 0.0, 0.0, 0.0, 1.6581656244896777E9, 0.0, 2022-07-18 13:33:44.489
226.0, -22710.378195092464, -20496.482610283212, -50456.246788054326, -52721.931364766526, -20799.885189519548, -34547.01269233378, -49592.17305090107, -32874.16343380969, -10519.289734278886, -52930.674306234636, -53827.31453505928, -61410.72498687804, -50092.00276041064, -45146.12050606257, -46276.4705749119, -46335.568587251735, 0.087, 0.9590000000000001, 0.118, 192.0, 0.0, 0.0, 0.0, 0.0, 0.0, 0.0, 0.0, 0.0, 0.0, 1.6581656244896843E9, 0.0, 2022-07-18 13:33:44.489
228.0, -22755.79693982565, -20435.261182220125, -50532.66740234702, -52791.065310366794, -20863.140626328066, -34595.87360571308, -49663.609226180226, -32925.10305942334, -10532.007876873957, -52963.62077756176, -53857.15411390712, -61438.39644651371, -50118.847205501464, -45168.09227086214, -46309.23823228339, -46367.308064378274, 0.087, 0.9590000000000001, 0.118, 192.0, 0.0, 0.0, 0.0, 0.0, 0.0, 0.0, 0.0, 0.0, 0.0, 1.6581656244896917E9, 0.0, 2022-07-18 13:33:44.489
230.0, -22712.2110381378, -20500.81884870754, -50449.31774727318, -52715.203489685475, -20791.97267198237, -34541.73768064233, -49579.72312923946, -32874.99044835454, -10533.907775152657, -52937.111608637766, -53840.16678812108, -61419.01748407096, -50105.77143499511, -45146.07580257366, -46282.237324981375, -46339.32368032023, 0.0885, 0.9555, 0.12, 192.0, 1.0, 104.0, 14.5, 96.0, 1.5, 104.0, 0.0, 0.0, 0.0, 1.6581656244897006E9, 0.0, 2022-07-18 13:33:44.489
232.0, -22750.857204301024, -20434.881202564386, -50525.157216210035, -52785.23150506395, -20860.704286182437, -34593.72783824537, -49658.64713891115, -32941.933922998185, -10520.854356390759, -52947.3487075983, -53841.731410232955, -61426.058283574384, -50110.24178388617, -45149.45091598641, -46282.55024940375, -46346.3868315681, 0.0885, 0.9555, 0.12, 192.0, 0.0, 0.0, 0.0, 0.0, 0.0, 0.0, 0.0, 0.0, 0.0, 1.6581656244897058E9, 0.0, 2022-07-18 13:33:44.489
234.0, -22703.180933377855, -20499.365985317945, -50436.62195642257, -52701.8371465012, -20787.479971346853, -34531.27706423725, -49580.706605995496, -32866.4073784837, -10536.902908909668, -52935.47993129253, -53844.74889573442, -61424.56071669587, -50114.15333916585, -45146.79105839623, -46285.031293038286, -46344.50928503386, 0.0885, 0.9555, 0.12, 192.0, 0.0, 0.0, 0.0, 0.0, 0.0, 0.0, 0.0, 0.0, 0.0, 1.658165624489711E9, 0.0, 2022-07-18 13:33:44.489
236.0, -22776.584062169084, -20449.655705649344, -50546.23491123139, -52809.46079605351, -20876.88694916808, -34607.54121631876, -49661.95519709053, -32946.49367886707, -10520.295562779374, -52933.91530918066, -53835.718790974475, -61415.776481124936, -50104.4750338167, -45140.51021820429, -46273.96717953291, -46331.27705231632, 0.0885, 0.9555, 0.12, 192.0, 0.0, 0.0, 0.0, 0.0, 0.0, 0.0, 0.0, 0.0, 0.0, 1.6581656244897163E9, 0.0, 2022-07-18 13:33:44.489
238.0, -22734.83100352657, -20527.953866476284, -50469.6131312386, -52735.700039350995, -20817.58777112815, -34564.245887308825, -49591.21192588949, -32876.59977395532, -10580.466458853061, -52989.68291159665, -53891.48639339047, -61470.582958529354, -50166.054089791076, -45204.32444862419, -46329.17598833752, -46391.76087281238, 0.0885, 0.9555, 0.12, 192.0, 0.0, 0.0, 0.0, 0.0, 0.0, 0.0, 0.0, 0.0, 0.0, 1.6581656244897213E9, 0.0, 2022-07-18 13:33:44.489
240.0, -22768.828006843094, -20440.46913867821, -50541.54104489578, -52791.19942083352, -20872.03662062128, -34586.21765210839, -49658.96006333352, -32900.9184719227, -10533.863071663747, -52927.746227710995, -53836.478750285954, -61410.85909734477, -50114.28744963258, -45138.05152631421, -46269.16155447502, -46326.96316563644, 0.08625, 0.95075, 0.119, 192.0, 1.0, 80.0, 14.5, 72.0, 1.5, 88.0, 0.0, 0.0, 0.0, 1.6581656249700713E9, 0.0, 2022-07-18 13:33:44.970
242.0, -22746.342151921053, -20531.619552566954, -50486.04166341325, -52741.10916150918, -20829.45654743392, -34566.50341349881, -49603.81830976228, -32890.86018691781, -10588.602493834793, -52980.8539725368, -53894.39212016966, -61464.52563578197, -50172.60315091648, -45193.48385256337, -46332.573453494726, -46384.74242505341, 0.08625, 0.95075, 0.119, 192.0, 0.0, 0.0, 0.0, 0.0, 0.0, 0.0, 0.0, 0.0, 0.0, 1.658165624970153E9, 0.0, 2022-07-18 13:33:44.970
244.0, -22768.336268465075, -20449.4768916937, -50529.068771489714, -52782.34813002922, -20859.74316117086, -34577.05343688172, -49638.374106690186, -32905.165303369206, -10534.108940852755, -52933.49062603601, -53834.91412817409, -61413.898934590696, -50116.45556884475, -45145.51700896228, -46271.173211475994, -46320.97289812242, 0.08625, 0.95075, 0.119, 192.0, 0.0, 0.0, 0.0, 0.0, 0.0, 0.0, 0.0, 0.0, 0.0, 1.6581656249702613E9, 0.0, 2022-07-18 13:33:44.970
246.0, -22753.718227591304, -20532.424215367344, -50482.89006744505, -52741.645603376106, -20831.40114920153, -34565.05055010922, -49611.95434474401, -32913.971890684596, -10579.684147797127, -53001.23876348004, -53892.91690503561, -61475.99208068754, -50175.2406567622, -45201.97751545638, -46329.69007845999, -46380.741462795915, 0.08625, 0.95075, 0.119, 192.0, 0.0, 0.0, 0.0, 0.0, 0.0, 0.0, 0.0, 0.0, 0.0, 1.6581656249702685E9, 0.0, 2022-07-18 13:33:44.970
248.0, -22753.87468980249, -20445.163005013826, -50507.29817239025, -52760.13049604065, -20840.632419661575, -34560.244925051324, -49627.57821411827, -32883.23824205855, -10523.89419363668, -52928.55089051138, -53822.91124140158, -61406.3440449648, -50101.43519657078, -45125.869825586065, -46253.291815911754, -46302.711522902435, 0.08625, 0.95075, 0.119, 192.0, 0.0, 0.0, 0.0, 0.0, 0.0, 0.0, 0.0, 0.0, 0.0, 1.6581656249702754E9, 0.0, 2022-07-18 13:33:44.970
250.0, -22736.328570405076, -20507.90435169987, -50469.099041116126, -52728.03339100283, -20818.861820562106, -34556.758052916295, -49602.18663241704, -32885.94280313764, -10570.922263970646, -52983.5585336159, -53882.52334386389, -61459.898824679716, -50158.81212458755, -45181.369207068594, -46311.98749685139, -46362.86006723167, 0.084125, 0.9513750000000001, 0.11649999999999999, 192.0, 1.0, 72.0, 14.5, 96.0, 1.5, 72.0, 0.0, 0.0, 0.0, 1.6581656249702826E9, 0.0, 2022-07-18 13:33:44.970
252.0, -22747.951477521834, -20450.482720194188, -50495.49645131784, -52752.73206862594, -20829.143623011547, -34560.043759351225, -49615.66473432359, -32900.00205040003, -10514.506460965451, -52900.27593377542, -53811.71301742948, -61387.79209706689, -50085.14077486286, -45108.48016839984, -46233.152894157516, -46289.16636576252, 0.084125, 0.9513750000000001, 0.11649999999999999, 192.0, 0.0, 0.0, 0.0, 0.0, 0.0, 0.0, 0.0, 0.0, 0.0, 1.6581656249702904E9, 0.0, 2022-07-18 13:33:44.970
254.0, -22756.713361348317, -20511.882962212916, -50489.796756481745, -52754.0508215488, -20830.708245123416, -34571.5102042568, -49617.56463260229, -32916.45293431913, -10580.645272808704, -52996.96958028908, -53897.61077137122, -61475.56739754289, -50172.044357305094, -45200.65876253352, -46323.900976646066, -46382.060215718775, 0.084125, 0.9513750000000001, 0.11649999999999999, 192.0, 0.0, 0.0, 0.0, 0.0, 0.0, 0.0, 0.0, 0.0, 0.0, 1.6581656249702976E9, 0.0, 2022-07-18 13:33:44.970
0.0, -22731.344131391543, -20451.443845205766, -50479.04556739874, -52733.95660328348, -20813.899733293027, -34535.03215730574, -49606.075835952266, -32861.91467784818, -10510.259629518941, -52900.678265175615, -53811.377741262644, -61389.96021627906, -50075.820097425, -45106.51321488777, -46232.83996973515, -46288.40640645104, 0.084125, 0.9513750000000001, 0.11649999999999999, 192.0, 0.0, 0.0, 0.0, 0.0, 0.0, 0.0, 0.0, 0.0, 0.0, 1.6581656249703047E9, 0.0, 2022-07-18 13:33:44.970
2.0, -22761.36252419502, -20498.963653917748, -50498.20101239694, -52754.58726341573, -20840.297143494743, -34570.392617034035, -49601.471376594476, -32886.635707215755, -10571.056374437378, -52983.1562022157, -53891.10641373473, -61464.88326369325, -50163.50599092317, -45181.8162419577, -46314.44618874147, -46363.821192243246, 0.084125, 0.9513750000000001, 0.11649999999999999, 192.0, 0.0, 0.0, 0.0, 0.0, 0.0, 0.0, 0.0, 0.0, 0.0, 1.658165624970312E9, 0.0, 2022-07-18 13:33:44.970
4.0, -22749.56080312262, -20476.835426906997, -50483.85119245663, -52734.06836200576, -20820.26998046279, -34549.87371562406, -49597.22454514796, -32889.74259969504, -10526.263478548943, -52905.10391057777, -53824.27469781336, -61395.30228320388, -50095.48963254567, -45114.8504155696, -46237.19855990393, -46295.44720595446, 0.08406250000000001, 0.9526875000000001, 0.11624999999999999, 192.0, 1.0, 80.0, 14.5, 104.0, 1.5, 80.0, 0.0, 0.0, 0.0, 1.658165624970319E9, 0.0, 2022-07-18 13:33:44.970
6.0, -22783.64721341696, -20500.170648118336, -50523.704352820445, -52773.228618291454, -20867.23099556339, -34594.934832445964, -49652.09807778574, -32922.30909136642, -10590.703557813593, -52994.80146107692, -53905.61269588622, -61478.18255164416, -50189.054034835586, -45205.64320154706, -46333.758095950856, -46385.07770122024, 0.08406250000000001, 0.9526875000000001, 0.11624999999999999, 192.0, 0.0, 0.0, 0.0, 0.0, 0.0, 0.0, 0.0, 0.0, 0.0, 1.6581656249703336E9, 0.0, 2022-07-18 13:33:44.970
8.0, -22741.201250696333, -20481.37283103142, -50475.603398752624, -52724.05478048978, -20822.147526997036, -34550.611323191086, -49598.8562224932, -32874.07402683187, -10531.806711173858, -52912.792910670396, -53824.677029213555, -61398.18565823861, -50102.79865298256, -45125.713363374874, -46255.30347291273, -46304.656124670044, 0.08406250000000001, 0.9526875000000001, 0.11624999999999999, 192.0, 0.0, 0.0, 0.0, 0.0, 0.0, 0.0, 0.0, 0.0, 0.0, 1.6581656249703407E9, 0.0, 2022-07-18 13:33:44.970
10.0, -22764.849396330046, -20470.420476248324, -50510.203899169435, -52762.07509780826, -20857.038600091768, -34591.582070777666, -49640.966909047, -32935.85424850634, -10576.510200084473, -52991.6051616198, -53891.28522769037, -61467.25254860551, -50181.38738648741, -45194.780253741774, -46331.45586627196, -46380.67440756255, 0.08406250000000001, 0.9526875000000001, 0.11624999999999999, 192.0, 0.0, 0.0, 0.0, 0.0, 0.0, 0.0, 0.0, 0.0, 0.0, 1.6581656249703481E9, 0.0, 2022-07-18 13:33:44.970
12.0, -22729.712454046305, -20489.911197413352, -50449.69772692892, -52707.13450993711, -20792.866741760583, -34539.278988752245, -49586.33924559823, -32876.912698377695, -10517.188670300087, -52903.38282625471, -53813.702322686, -61390.56371337935, -50089.90169643184, -45114.38102893603, -46241.17717041697, -46296.60949666613, 0.08406250000000001, 0.9526875000000001, 0.11624999999999999, 192.0, 0.0, 0.0, 0.0, 0.0, 0.0, 0.0, 0.0, 0.0, 0.0, 1.6581656249703555E9, 0.0, 2022-07-18 13:33:44.970
14.0, -22784.07189656161, -20477.885958896393, -50521.13390220808, -52782.750461429416, -20860.16784431551, -34605.93189071797, -49647.33715621676, -32939.56463808592, -10567.457743580073, -52989.83937380784, -53879.818782784794, -61462.29046133644, -50157.26985422014, -45184.61021001461, -46312.34512476267, -46371.152564424585, 0.08503125, 0.95234375, 0.116125, 192.0, 1.0, 88.0, 14.5, 96.0, 1.5, 80.0, 0.0, 0.0, 0.0, 1.6581656249703631E9, 0.0, 2022-07-18 13:33:44.970
16.0, -22729.913619746403, -20502.428174308323, -50447.41784899448, -52712.29776290629, -20787.658785302494, -34542.07295680916, -49577.84558270522, -32864.64159067173, -10544.390743302196, -52933.42357080264, -53831.673125228066, -61416.335274736324, -50112.18638565378, -45144.377069995055, -46259.97498750389, -46324.593880724184, 0.08503125, 0.95234375, 0.116125, 192.0, 0.0, 0.0, 0.0, 0.0, 0.0, 0.0, 0.0, 0.0, 0.0, 1.6581656249703708E9, 0.0, 2022-07-18 13:33:44.970
18.0, -22780.339155237576, -20458.104665053448, -50526.65478308854, -52786.371444031174, -20859.966678615416, -34600.098085415135, -49656.52372318789, -32929.215780403116, -10548.883443937713, -52962.03380370543, -53853.3096138608, -61437.368266268764, -50152.21835997324, -45170.953294152416, -46287.84761283966, -46349.38196532512, 0.08503125, 0.95234375, 0.116125, 192.0, 0.0, 0.0, 0.0, 0.0, 0.0, 0.0, 0.0, 0.0, 0.0, 1.6581656249703782E9, 0.0, 2022-07-18 13:33:44.970
20.0, -22738.69785531734, -20508.86547671145, -50447.17197980547, -52712.16365243956, -20790.273939403767, -34537.73671838483, -49578.180858872045, -32885.24989905953, -10551.498598038985, -52937.26807084896, -53841.12791313266, -61419.30805674888, -50133.64406033088, -45155.79881141172, -46269.295664941754, -46327.879587159114, 0.08503125, 0.95234375, 0.116125, 192.0, 0.0, 0.0, 0.0, 0.0, 0.0, 0.0, 0.0, 0.0, 0.0, 1.6581656249703856E9, 0.0, 2022-07-18 13:33:44.970
22.0, -22778.618070914516, -20446.928792825795, -50525.47014063241, -52786.43849926454, -20863.49825423935, -34596.58886153565, -49663.944502347054, -32951.09813822486, -10554.113752140254, -52960.737402527026, -53857.22116914048, -61435.267202289964, -50148.93265353831, -45165.141840594035, -46286.774729105804, -46346.11861063464, 0.08503125, 0.95234375, 0.116125, 192.0, 0.0, 0.0, 0.0, 0.0, 0.0, 0.0, 0.0, 0.0, 0.0, 1.6581656249703932E9, 0.0, 2022-07-18 13:33:44.970
24.0, -22715.094413172534, -20499.745964973685, -50430.36346797508, -52694.84105048669, -20772.951337450904, -34527.92430256895, -49560.0982976077, -32856.706721390095, -10554.627842262727, -52945.2476436195, -53845.95588993501, -61420.738568394016, -50133.55465335306, -45150.255578786804, -46268.71451958591, -46329.17598833752, 0.087515625, 0.9521718750000001, 0.11606250000000001, 192.0, 1.0, 104.0, 14.5, 96.0, 1.5, 80.0, 0.0, 0.0, 0.0, 1.6581656249704003E9, 0.0, 2022-07-18 13:33:44.970
26.0, -22775.578233668595, -20439.06097877753, -50524.28549817628, -52782.54929572932, -20855.69749542445, -34596.32064060219, -49649.50527542893, -32930.109850181325, -10539.830987433314, -52940.531425539426, -53833.41656129558, -61410.92615257814, -50118.40017061236, -45142.633633927544, -46257.98568224737, -46321.77756092281, 0.087515625, 0.9521718750000001, 0.11606250000000001, 192.0, 0.0, 0.0, 0.0, 0.0, 0.0, 0.0, 0.0, 0.0, 0.0, 1.658165624970408E9, 0.0, 2022-07-18 13:33:44.970
28.0, -22730.159488935413, -20514.118136658446, -50445.29443327122, -52707.84976575968, -20794.923102250472, -34547.683244667445, -49595.2575916359, -32873.5599367094, -10561.556883043871, -52951.70729776708, -53851.70028826002, -61425.007751584984, -50142.54005462409, -45167.35466329511, -46283.8242988377, -46339.74836346488, 0.087515625, 0.9521718750000001, 0.11606250000000001, 192.0, 0.0, 0.0, 0.0, 0.0, 0.0, 0.0, 0.0, 0.0, 0.0, 1.6581656249704156E9, 0.0, 2022-07-18 13:33:44.970
30.0, -22767.151626008945, -20431.886068807373, -50515.881242261086, -52774.72618516996, -20848.924916854492, -34590.77740797727, -49632.137969987154, -32912.45197206163, -10543.250804334975, -52941.13492263972, -53836.478750285954, -61412.22255375655, -50129.620746328925, -45151.52962822076, -46270.68147309798, -46327.07492435872, 0.087515625, 0.9521718750000001, 0.11606250000000001, 192.0, 0.0, 0.0, 0.0, 0.0, 0.0, 0.0, 0.0, 0.0, 0.0, 1.6581656249704232E9, 0.0, 2022-07-18 13:33:44.970
32.0, -22726.337340633552, -20508.753717989173, -50441.628747180555, -52707.33567563721, -20788.239930658332, -34555.23813429334, -49565.23919883242, -32869.49191921853, -10560.886330710213, -52957.40699260319, -53855.05304992832, -61431.91444062167, -50139.276699933616, -45167.7122912064, -46283.06433952622, -46347.70558449097, 0.087515625, 0.9521718750000001, 0.11606250000000001, 192.0, 0.0, 0.0, 0.0, 0.0, 0.0, 0.0, 0.0, 0.0, 0.0, 1.6581656249704309E9, 0.0, 2022-07-18 13:33:44.970
34.0, -22764.380009696488, -20433.316580452512, -50514.048399215746, -52775.82142064827, -20847.22618427589, -34592.74436148934, -49627.98054551847, -32901.589024256355, -10523.000123858468, -52923.253527075474, -53816.96567737647, -61397.51510590495, -50104.05035067205, -45130.98837506633, -46246.69805129743, -46308.90295611655, 0.087515625, 0.9521718750000001, 0.11606250000000001, 192.0, 0.0, 0.0, 0.0, 0.0, 0.0, 0.0, 0.0, 0.0, 0.0, 1.6581656249704382E9, 0.0, 2022-07-18 13:33:44.970
36.0, -22748.890250788958, -20523.237648396214, -50466.997977137326, -52730.49208289291, -20811.2622274473, -34566.190489076434, -49600.21967890498, -32903.86890219079, -10583.059261209877, -52976.83065853485, -53879.86348627371, -61458.31185082339, -50166.74699386919, -45190.533422295266, -46314.46854048593, -46374.572381326245, 0.08600000000000001, 0.9480000000000001, 0.11, 192.0, 1.0, 88.0, 14.5, 80.0, 1.5, 56.0, 0.0, 0.0, 0.0, 1.6581656249704454E9, 0.0, 2022-07-18 13:33:44.970
38.0, -22773.41011445643, -20448.024028304106, -50527.43709414448, -52782.70575794051, -20855.60808844663, -34591.20209112192, -49642.93386255907, -32916.899969208236, -10537.215833332042, -52923.36528579775, -53825.794616436324, -61402.74541410749, -50109.79474899707, -45134.43054371244, -46258.63388283657, -46313.10508407415, 0.08600000000000001, 0.9480000000000001, 0.11, 192.0, 0.0, 0.0, 0.0, 0.0, 0.0, 0.0, 0.0, 0.0, 0.0, 1.6581656249704545E9, 0.0, 2022-07-18 13:33:44.970
40.0, -22754.902870047437, -20518.58848554951, -50479.716119732395, -52745.423048189055, -20826.46141367691, -34585.435341052456, -49606.29935339682, -32922.152629155236, -10592.245828181009, -52991.001664519514, -53893.453346902534, -61465.53146428245, -50184.44957547779, -45199.250602632834, -46325.30913654675, -46382.3954918856, 0.08600000000000001, 0.9480000000000001, 0.11, 192.0, 0.0, 0.0, 0.0, 0.0, 0.0, 0.0, 0.0, 0.0, 0.0, 1.6581656249704611E9, 0.0, 2022-07-18 13:33:44.970
42.0, -22770.660849888427, -20455.735380141185, -50514.115454449115, -52778.99536836093, -20847.427349975987, -34592.900823700526, -49630.126312986176, -32933.79788801645, -10547.56469101485, -52921.71125670806, -53834.91412817409, -61402.991283296506, -50122.17761542531, -45133.469418700864, -46248.28502515376, -46314.28972653028, 0.08600000000000001, 0.9480000000000001, 0.11, 192.0, 0.0, 0.0, 0.0, 0.0, 0.0, 0.0, 0.0, 0.0, 0.0, 1.658165624970468E9, 0.0, 2022-07-18 13:33:44.970
44.0, -22753.87468980249, -20508.329034844523, -50473.65879698501, -52744.81955108876, -20828.60718114462, -34580.20503284992, -49610.38972263214, -32892.82714042987, -10594.168078204166, -52987.40303366221, -53896.962570782016, -61464.63739450424, -50178.43695621932, -45199.78704449976, -46315.429665497504, -46379.534468595324, 0.08600000000000001, 0.9480000000000001, 0.11, 192.0, 0.0, 0.0, 0.0, 0.0, 0.0, 0.0, 0.0, 0.0, 0.0, 1.6581656249704757E9, 0.0, 2022-07-18 13:33:44.970
46.0, -22764.80469284114, -20458.663458664832, -50495.13882340656, -52760.10814429619, -20838.777224871785, -34573.4101025355, -49616.87172852418, -32887.90975664971, -10541.619126989739, -52909.10487283527, -53822.77713093485, -61392.19539072459, -50107.91720246282, -45129.40140121, -46238.94199597144, -46300.476348456905, 0.08600000000000001, 0.9500000000000001, 0.116, 192.0, 1.0, 88.0, 14.5, 88.0, 1.5, 80.0, 0.0, 0.0, 0.0, 1.6581656249704833E9, 0.0, 2022-07-18 13:33:44.970
48.0, -22766.83870158657, -20499.209523106758, -50484.5664482792, -52758.141190784125, -20837.145547526547, -34590.06215215471, -49613.58602208925, -32923.94076871166, -10596.827935794347, -52999.09299601233, -53895.487355647965, -61471.92406319667, -50187.46706097926, -45208.61598355961, -46323.58805222369, -46384.63066633113, 0.08600000000000001, 0.9500000000000001, 0.116, 192.0, 0.0, 0.0, 0.0, 0.0, 0.0, 0.0, 0.0, 0.0, 0.0, 1.6581656249704907E9, 0.0, 2022-07-18 13:33:44.970
50.0, -22749.829024056082, -20454.506034196143, -50475.13401211906, -52742.87494932115, -20818.973579284382, -34562.03306460775, -49598.18567015954, -32899.55501551092, -10528.409246016652, -52902.55581170986, -53806.05802608228, -61383.63467259821, -50092.58390576648, -45117.26440397077, -46232.57174880168, -46294.62019140962, 0.08600000000000001, 0.9500000000000001, 0.116, 192.0, 0.0, 0.0, 0.0, 0.0, 0.0, 0.0, 0.0, 0.0, 0.0, 1.6581656249704976E9, 0.0, 2022-07-18 13:33:44.970
52.0, -22775.44412320186, -20500.192999862793, -50508.102835190635, -52778.43657474954, -20858.044428592257, -34615.38667862257, -49639.04465902384, -32957.937772028185, -10592.625807836748, -52995.427309921666, -53894.68269284758, -61468.79481897293, -50190.082215080525, -45207.20782365892, -46331.14294184958, -46394.84541354721, 0.08600000000000001, 0.9500000000000001, 0.116, 192.0, 0.0, 0.0, 0.0, 0.0, 0.0, 0.0, 0.0, 0.0, 0.0, 1.658165624970505E9, 0.0, 2022-07-18 13:33:44.970
54.0, -22746.87859378798, -20477.2824617961, -50474.79873595223, -52745.73597261143, -20827.668407877496, -34576.829919437165, -49610.72499879897, -32900.7173062226, -10540.546243255883, -52912.47998624802, -53822.46420651248, -61396.50927740447, -50113.63924904338, -45136.64336641352, -46254.85643802362, -46324.70563944646, 0.08600000000000001, 0.9500000000000001, 0.116, 192.0, 0.0, 0.0, 0.0, 0.0, 0.0, 0.0, 0.0, 0.0, 0.0, 1.6581656249705129E9, 0.0, 2022-07-18 13:33:44.970
56.0, -22773.320707478608, -20482.780990932108, -50510.74034103636, -52773.83211539175, -20864.258213550835, -34610.64810879804, -49656.30020574334, -32938.84938226335, -10588.200162434598, -52999.27180996798, -53891.88872479066, -61463.184531114646, -50183.68961616631, -45210.4711783494, -46330.42768602702, -46399.740445582924, 0.082, 0.9520000000000001, 0.114, 192.0, 1.0, 72.0, 14.5, 96.0, 1.5, 72.0, 0.0, 0.0, 0.0, 1.65816562497052E9, 0.0, 2022-07-18 13:33:44.970
58.0, -22729.287770901654, -20473.125037327416, -50457.67729969946, -52714.06355071826, -20805.674291333475, -34547.28091326725, -49596.88926898113, -32881.42775075767, -10540.345077555785, -52909.12722457972, -53820.29608730032, -61384.81931505434, -50109.95121120825, -45135.39166872403, -46246.40747861952, -46312.4792352294, 0.082, 0.9520000000000001, 0.114, 192.0, 0.0, 0.0, 0.0, 0.0, 0.0, 0.0, 0.0, 0.0, 0.0, 1.6581656249705276E9, 0.0, 2022-07-18 13:33:44.970
60.0, -22760.379047438986, -20452.494377195166, -50504.61596305561, -52759.66110940708, -20849.55076569924, -34591.60442252212, -49629.74633333043, -32934.24492290556, -10567.211874391065, -52970.952149743105, -53868.8664280017, -61434.59664995631, -50160.71202286625, -45181.03393090176, -46300.36458973463, -46363.01652944285, 0.082, 0.9520000000000001, 0.114, 192.0, 0.0, 0.0, 0.0, 0.0, 0.0, 0.0, 0.0, 0.0, 0.0, 1.658165624970535E9, 0.0, 2022-07-18 13:33:44.970
62.0, -22739.435462884365, -20497.041403894593, -50464.628692225066, -52726.4464171465, -20811.30693093621, -34555.66281743799, -49587.52388805436, -32896.40341954272, -10532.164339085144, -52901.19235529809, -53815.42340700906, -61382.67354758663, -50103.55861229404, -45118.806674338186, -46242.3618128731, -46300.677514157, 0.082, 0.9520000000000001, 0.114, 192.0, 0.0, 0.0, 0.0, 0.0, 0.0, 0.0, 0.0, 0.0, 0.0, 1.658165624970542E9, 0.0, 2022-07-18 13:33:44.970
64.0, -22780.294451748665, -20468.520577969623, -50529.82873080119, -52795.73682495795, -20873.467132266418, -34608.94937621944, -49656.41196446562, -32942.09038520937, -10582.880447254234, -52989.72761508556, -53887.597189855245, -61463.810379959396, -50177.69934865229, -45196.814262487205, -46329.86889241563, -46384.18363144203, 0.082, 0.9520000000000001, 0.114, 192.0, 0.0, 0.0, 0.0, 0.0, 0.0, 0.0, 0.0, 0.0, 0.0, 1.6581656249705496E9, 0.0, 2022-07-18 13:33:44.970
66.0, -22736.82030878309, -20507.34555808849, -50452.62580545257, -52724.97120201245, -20802.03095698726, -34546.6550644225, -49577.130326882645, -32879.97488736807, -10536.813501931847, -52917.397370028186, -53828.856805426694, -61403.28185597443, -50115.51679557763, -45134.251729756805, -46261.83018229368, -46318.715371932434, 0.082, 0.9520000000000001, 0.11800000000000001, 192.0, 1.0, 72.0, 14.5, 96.0, 1.5, 88.0, 0.0, 0.0, 0.0, 1.6581656249705577E9, 0.0, 2022-07-18 13:33:44.970
68.0, -22796.253597289753, -20469.884034381394, -50550.43703918899, -52814.40053157813, -20896.690594755484, -34623.81328628222, -49682.339988033775, -32973.36047570234, -10579.415926863663, -52991.94043778664, -53889.16181196712, -61466.09025789383, -50172.84902010549, -45202.4692538344, -46328.75130519287, -46386.21764018746, 0.082, 0.9520000000000001, 0.11800000000000001, 192.0, 0.0, 0.0, 0.0, 0.0, 0.0, 0.0, 0.0, 0.0, 0.0, 1.6581656249705653E9, 0.0, 2022-07-18 13:33:44.970
70.0, -22725.2644568997, -20502.852857452974, -50450.21181705139, -52711.224879172434, -20806.50130587832, -34548.7561284013, -49590.22844913345, -32888.021515371984, -10557.488865553007, -52940.71023949507, -53851.029735926364, -61422.50435620599, -50134.091095219985, -45160.60443646961, -46287.91466807302, -46343.12347687763, 0.082, 0.9520000000000001, 0.11800000000000001, 192.0, 0.0, 0.0, 0.0, 0.0, 0.0, 0.0, 0.0, 0.0, 0.0, 1.658165624970575E9, 0.0, 2022-07-18 13:33:44.970
72.0, -22772.292527233665, -20435.819975831506, -50537.78595182729, -52793.45694702351, -20887.928710929, -34611.56453032071, -49671.700557673044, -32943.34208289887, -10549.911624182658, -52951.88611172273, -53856.72943076247, -61428.47227197555, -50143.2329587022, -45162.79490742623, -46299.559926934235, -46349.069040902745, 0.082, 0.9520000000000001, 0.11800000000000001, 192.0, 0.0, 0.0, 0.0, 0.0, 0.0, 0.0, 0.0, 0.0, 0.0, 1.6581656249705827E9, 0.0, 2022-07-18 13:33:44.970
74.0, -22725.93500923336, -20502.137601630402, -50440.26529076878, -52710.42021637204, -20805.54018086674, -34552.80179414771, -49581.75713798489, -32892.62597472977, -10560.66281326566, -52938.54212028291, -53850.470942314976, -61420.805623627384, -50137.68972607729, -45159.84447715813, -46291.91563033052, -46346.56564552375, 0.082, 0.9520000000000001, 0.11800000000000001, 192.0, 0.0, 0.0, 0.0, 0.0, 0.0, 0.0, 0.0, 0.0, 0.0, 1.65816562497059E9, 0.0, 2022-07-18 13:33:44.970
76.0, -22784.094248306068, -20433.607153130433, -50522.34089640867, -52786.97494113147, -20874.249443322355, -34608.05530644122, -49661.865790112715, -32950.98637950258, -10550.9398044276, -52940.397315072696, -53842.80429396681, -61415.01652181346, -50135.87923477641, -45154.63652070004, -46282.01380753682, -46335.47918027391, 0.08, 0.9580000000000001, 0.122, 192.0, 1.0, 64.0, 14.5, 120.0, 1.5, 104.0, 0.0, 0.0, 0.0, 1.6581656249705977E9, 0.0, 2022-07-18 13:33:44.970
78.0, -22738.49668961724, -20515.839220981507, -50448.13310481705, -52716.94692575299, -20809.675253590973, -34557.36155001659, -49586.71922525397, -32896.068143375895, -10581.673453053649, -52960.71505078257, -53868.2629309014, -61435.44601624561, -50158.02981353162, -45182.73266348036, -46299.358761234136, -46357.13802065111, 0.08, 0.9580000000000001, 0.122, 192.0, 0.0, 0.0, 0.0, 0.0, 0.0, 0.0, 0.0, 0.0, 0.0, 1.6581656249706051E9, 0.0, 2022-07-18 13:33:44.970
80.0, -22763.843567829557, -20422.900667536338, -50509.86862300261, -52771.127554312654, -20850.26602152181, -34580.85323343912, -49639.268176468395, -32911.110867394316, -10547.341173570298, -52930.89782367919, -53837.08224738625, -61401.96310305156, -50119.96479272423, -45144.06414557268, -46257.44924038044, -46314.379133508104, 0.08, 0.9580000000000001, 0.122, 192.0, 0.0, 0.0, 0.0, 0.0, 0.0, 0.0, 0.0, 0.0, 0.0, 1.6581656249706128E9, 0.0, 2022-07-18 13:33:44.970
82.0, -22743.995218753247, -20516.95680820427, -50463.645215469034, -52732.123760238144, -20816.917218794493, -34570.61613447859, -49608.802748775815, -32917.19054188616, -10578.432450107628, -52959.820981004355, -53878.54473335084, -61439.73755118103, -50164.847095590485, -45185.54898328173, -46308.00888633834, -46368.58211381223, 0.08, 0.9580000000000001, 0.122, 192.0, 0.0, 0.0, 0.0, 0.0, 0.0, 0.0, 0.0, 0.0, 0.0, 1.6581656249706206E9, 0.0, 2022-07-18 13:33:44.970
84.0, -22763.97767829629, -20431.014350773617, -50521.424474886, -52787.153755087114, -20863.788826917273, -34610.0669634422, -49665.66558667011, -32957.08840573888, -10540.233318833509, -52919.11845435124, -53835.74114271893, -61398.923265805635, -50126.44679861627, -45142.09719206062, -46272.35785393213, -46339.86012218716, 0.08, 0.9580000000000001, 0.122, 192.0, 0.0, 0.0, 0.0, 0.0, 0.0, 0.0, 0.0, 0.0, 0.0, 1.658165624970628E9, 0.0, 2022-07-18 13:33:44.970
86.0, -22738.228468683777, -20510.3406918455, -50461.16417183449, -52737.21995797395, -20819.599428129128, -34587.446998053434, -49616.91643201309, -32931.00391995954, -10578.410098363174, -52975.28838816743, -53882.54569560834, -61449.72878095255, -50171.709081138266, -45199.89880322204, -46326.069095858235, -46396.58884961472, 0.09, 0.968, 0.122, 192.0, 1.0, 104.0, 15.0, 32.0, 1.5, 104.0, 0.0, 0.0, 0.0, 1.6581656249706357E9, 0.0, 2022-07-18 13:33:44.970
88.0, -22764.2235474853, -20446.124130025404, -50514.875413760594, -52781.72228118447, -20858.200890803444, -34608.10000993014, -49656.747240632445, -32939.09525145236, -10529.973868128523, -52919.67724796263, -53825.39228503613, -61395.794021581896, -50110.9793914532, -45136.86688385807, -46260.60083634864, -46329.354802293165, 0.09, 0.968, 0.122, 192.0, 0.0, 0.0, 0.0, 0.0, 0.0, 0.0, 0.0, 0.0, 0.0, 1.6581656249706433E9, 0.0, 2022-07-18 13:33:44.970
90.0, -22737.4685093723, -20501.221180107736, -50463.35464279111, -52728.68159159203, -20825.12030900959, -34572.87366066857, -49610.99321973243, -32909.70270749363, -10589.116583957266, -52978.37292890227, -53895.912038792616, -61458.1553886122, -50174.435993961815, -45197.06013167622, -46329.37715403762, -46390.95621001199, 0.09, 0.968, 0.122, 192.0, 0.0, 0.0, 0.0, 0.0, 0.0, 0.0, 0.0, 0.0, 0.0, 1.6581656249706507E9, 0.0, 2022-07-18 13:33:44.970
92.0, -22774.59475691256, -20465.748961657162, -50519.47987311839, -52779.28594103884, -20859.720809426406, -34596.29828885773, -49647.448914939036, -32930.57923681489, -10523.357751769752, -52893.99509358348, -53820.407846022594, -61382.517085375446, -50098.7753389806, -45114.8504155696, -46243.25588265132, -46301.41512172403, 0.09, 0.968, 0.122, 192.0, 0.0, 0.0, 0.0, 0.0, 0.0, 0.0, 0.0, 0.0, 0.0, 1.658165624970658E9, 0.0, 2022-07-18 13:33:44.970
94.0, -22764.245899229754, -20514.609875036465, -50499.296247875245, -52766.00900483239, -20856.055123335736, -34594.48779755685, -49636.742429344944, -32924.94659721215, -10607.512069643983, -53010.380626962266, -53925.01401007343, -61488.777278515976, -50203.76148268718, -45218.42839937549, -46358.300311362786, -46415.274907979365, 0.09, 0.968, 0.122, 192.0, 0.0, 0.0, 0.0, 0.0, 0.0, 0.0, 0.0, 0.0, 0.0, 1.6581656249706657E9, 0.0, 2022-07-18 13:33:44.970
96.0, -22744.106977475523, -20454.550737685055, -50498.42452984149, -52761.31513849678, -20849.30489651023, -34570.79494843423, -49612.93782150005, -32876.46566348859, -10525.257650048454, -52892.07284356032, -53814.77520641985, -61378.96315800705, -50098.216545369214, -45111.251784712294, -46245.312243141205, -46300.051665312254, 0.08, 0.962, 0.11800000000000001, 192.0, 1.0, 64.0, 15.0, 8.0, 1.5, 88.0, 0.0, 0.0, 0.0, 1.6581656249706728E9, 0.0, 2022-07-18 13:33:44.970
98.0, -22756.445140414853, -20497.06375563905, -50505.308867133725, -52772.06632757978, -20867.588623474672, -34605.32839361768, -49634.55195838833, -32911.04381216095, -10601.76767131897, -53006.98316180506, -53911.58061165579, -61475.92502545417, -50203.24739256471, -45209.80062601574, -46351.438325815005, -46406.46832066397, 0.08, 0.962, 0.11800000000000001, 192.0, 0.0, 0.0, 0.0, 0.0, 0.0, 0.0, 0.0, 0.0, 0.0, 1.6581656249706807E9, 0.0, 2022-07-18 13:33:44.970
100.0, -22736.97677099428, -20459.24460402067, -50485.68403550197, -52750.161618013575, -20833.88219283607, -34572.784253690756, -49602.76777777288, -32875.19161405464, -10524.877670392712, -52900.052416330866, -53816.71980818747, -61379.32078591833, -50107.380760595894, -45114.89511905851, -46248.55324608723, -46304.09733105866, 0.08, 0.962, 0.11800000000000001, 192.0, 0.0, 0.0, 0.0, 0.0, 0.0, 0.0, 0.0, 0.0, 0.0, 1.658165624970688E9, 0.0, 2022-07-18 13:33:44.970
102.0, -22759.999067783247, -20483.67506071032, -50517.535271350775, -52783.19749631852, -20868.862672908625, -34612.972690221395, -49646.68895562756, -32926.958254213125, -10583.305130398885, -53003.74215885904, -53904.718626108006, -61468.07956315036, -50187.73528191272, -45207.90072773704, -46340.30715707626, -46399.829852560746, 0.08, 0.962, 0.11800000000000001, 192.0, 0.0, 0.0, 0.0, 0.0, 0.0, 0.0, 0.0, 0.0, 0.0, 1.6581656249706979E9, 0.0, 2022-07-18 13:33:44.970
104.0, -22712.032224182156, -20448.89574633786, -50461.52179974578, -52723.07130373375, -20808.44590764593, -34549.94077085743, -49580.7513094844, -32867.681427917654, -10518.596830200771, -52898.42073898563, -53812.38356976314, -61373.46462887104, -50096.271943601605, -45119.23135748284, -46242.182998917466, -46304.320848503216, 0.08, 0.962, 0.11800000000000001, 192.0, 0.0, 0.0, 0.0, 0.0, 0.0, 0.0, 0.0, 0.0, 0.0, 1.6581656254511747E9, 0.0, 2022-07-18 13:33:45.451
106.0, -22760.08847476107, -20461.278612766102, -50521.08919871917, -52782.39283351813, -20876.84224567917, -34610.89397798705, -49649.549978917836, -32929.46164959212, -10554.180807373621, -52972.67323406616, -53871.74980303643, -61438.30703953589, -50166.97051131374, -45186.890087949054, -46316.279031786806, -46380.98733198492, 0.081, 0.9590000000000001, 0.122, 192.0, 1.0, 72.0, 14.5, 112.0, 1.5, 120.0, 0.0, 0.0, 0.0, 1.658165625451294E9, 0.0, 2022-07-18 13:33:45.451
108.0, -22714.64737828343, -20465.39133374588, -50454.54805547572, -52720.76907405485, -20819.13004149557, -34554.41111974849, -49591.5024985674, -32861.84762261482, -10524.162414570143, -52907.16027106765, -53810.908354629086, -61381.868884786236, -50107.58192629599, -45124.61812789657, -46254.901141512535, -46319.60944171065, 0.081, 0.9590000000000001, 0.122, 192.0, 0.0, 0.0, 0.0, 0.0, 0.0, 0.0, 0.0, 0.0, 0.0, 1.658165625451313E9, 0.0, 2022-07-18 13:33:45.451
110.0, -22780.36150698203, -20463.223214533715, -50523.480835375885, -52793.792223190336, -20884.598301005164, -34612.27978614328, -49662.96102559102, -32930.6239403038, -10569.983490703522, -52984.25143769401, -53873.269721659395, -61448.36532454078, -50171.08323229352, -45191.56160254021, -46316.50254923136, -46385.7482535539, 0.081, 0.9590000000000001, 0.122, 192.0, 0.0, 0.0, 0.0, 0.0, 0.0, 0.0, 0.0, 0.0, 0.0, 1.658165625451321E9, 0.0, 2022-07-18 13:33:45.451
112.0, -22731.63470406946, -20484.18915083279, -50446.523779216266, -52720.25498393238, -20801.181590697957, -34548.97964584585, -49577.71147223848, -32867.4579104731, -10546.625917747728, -52929.66847773415, -53835.47292178547, -61404.77942285293, -50114.175690910306, -45144.108849061595, -46254.78938279026, -46326.35966853615, 0.081, 0.9590000000000001, 0.122, 192.0, 0.0, 0.0, 0.0, 0.0, 0.0, 0.0, 0.0, 0.0, 0.0, 1.6581656254513285E9, 0.0, 2022-07-18 13:33:45.451
114.0, -22766.525777164195, -20436.110548509427, -50518.4740446179, -52784.24802830792, -20873.645946222063, -34600.79098949325, -49655.45083945404, -32926.71238502412, -10560.931034199124, -52965.34186188482, -53868.6652623016, -61437.01063835748, -50144.17173196933, -45178.8658116896, -46299.44816821196, -46363.75413700988, 0.081, 0.9590000000000001, 0.122, 192.0, 0.0, 0.0, 0.0, 0.0, 0.0, 0.0, 0.0, 0.0, 0.0, 1.6581656254513361E9, 0.0, 2022-07-18 13:33:45.451
116.0, -22716.0108346952, -20480.121133341927, -50441.42758148046, -52708.09563494869, -20811.530448380763, -34548.242038278826, -49594.43057709105, -32884.601698470324, -10533.930126897112, -52911.67532344763, -53830.197910094015, -61395.05641401487, -50111.40407459785, -45132.284776244735, -46267.753394574334, -46331.32175580523, 0.08449999999999999, 0.9555, 0.122, 192.0, 1.0, 96.0, 14.5, 96.0, 1.5, 104.0, 0.0, 0.0, 0.0, 1.6581656254513445E9, 0.0, 2022-07-18 13:33:45.451
118.0, -22783.356640739043, -20443.643086390864, -50534.09791399216, -52798.70960697051, -20901.630330280106, -34618.76179203532, -49680.5742002218, -32951.25460043605, -10546.268289836442, -52952.04257393391, -53857.57879705177, -61425.03010332944, -50148.93265353831, -45159.777421924766, -46305.080807814695, -46359.909636963566, 0.08449999999999999, 0.9555, 0.122, 192.0, 0.0, 0.0, 0.0, 0.0, 0.0, 0.0, 0.0, 0.0, 0.0, 1.6581656254513526E9, 0.0, 2022-07-18 13:33:45.451
120.0, -22740.910678018416, -20503.56811327554, -50448.02134609477, -52715.0917309632, -20817.40895717251, -34557.383901761044, -49575.319835581766, -32869.49191921853, -10571.302243626385, -52950.43324833313, -53858.83049474126, -61429.18752779812, -50149.44674366078, -45166.57235223918, -46289.47929018489, -46351.66184325956, 0.08449999999999999, 0.9555, 0.122, 192.0, 0.0, 0.0, 0.0, 0.0, 0.0, 0.0, 0.0, 0.0, 0.0, 1.6581656254513605E9, 0.0, 2022-07-18 13:33:45.451
122.0, -22788.944576852868, -20440.022103789106, -50533.31560293622, -52797.30144706982, -20878.965661402424, -34614.17968442198, -49650.935787074064, -32929.08166993638, -10554.203159118077, -52953.02605068994, -53847.542863791336, -61418.16811778166, -50145.04345000308, -45159.419794013476, -46268.82627830819, -46337.82611344172, 0.08449999999999999, 0.9555, 0.122, 192.0, 0.0, 0.0, 0.0, 0.0, 0.0, 0.0, 0.0, 0.0, 0.0, 1.658165625451368E9, 0.0, 2022-07-18 13:33:45.451
124.0, -22736.68619831636, -20508.932531944818, -50451.66468044099, -52718.42214088704, -20809.317625679687, -34553.472346481365, -49582.919428696565, -32869.06723607388, -10585.920284500156, -52963.95605372859, -53877.62831182818, -61441.61509771527, -50155.30290070807, -45185.66074200401, -46291.937982074975, -46366.10107017768, 0.08449999999999999, 0.9555, 0.122, 192.0, 0.0, 0.0, 0.0, 0.0, 0.0, 0.0, 0.0, 0.0, 0.0, 1.658165625451374E9, 0.0, 2022-07-18 13:33:45.451
126.0, -22774.08066679009, -20430.321446695503, -50536.690716348974, -52793.6134092347, -20884.531245771796, -34601.08156217117, -49664.39153723616, -32916.94467269715, -10540.970926400534, -52928.21561434455, -53839.47388404297, -61402.991283296506, -50127.74319979468, -45139.03500307024, -46269.16155447502, -46328.237215070396, 0.08625, 0.95275, 0.121, 192.0, 1.0, 96.0, 14.5, 88.0, 1.5, 96.0, 0.0, 0.0, 0.0, 1.658165625451382E9, 0.0, 2022-07-18 13:33:45.451
