%OpenBCI Raw EEG Data
%Number of channels = 16
%Sample Rate = 125 Hz
%Board = OpenBCI_GUI$BoardCytonSerialDaisy
Sample Index, EXG Channel 0, EXG Channel 1, EXG Channel 2, EXG Channel 3, EXG Channel 4, EXG Channel 5, EXG Channel 6, EXG Channel 7, EXG Channel 8, EXG Channel 9, EXG Channel 10, EXG Channel 11, EXG Channel 12, EXG Channel 13, EXG Channel 14, EXG Channel 15, Accel Channel 0, Accel Channel 1, Accel Channel 2, Other, Other, Other, Other, Other, Other, Other, Analog Channel 0, Analog Channel 1, Analog Channel 2, Timestamp, Other, Timestamp (Formatted)
166.0, -21030.286971364854, -21462.972040530687, -29388.90062438257, -17041.75228378204, -12633.720056262024, -16549.27629819826, 27263.450892382967, -15403.90585707496, -25072.48819738486, -2923.474064287432, -31122.814848758564, -27451.026731851904, -8186.348758500667, 6990.642188864016, -9393.611180020713, -22063.69752451152, 0.0, 0.0, 0.0, 192.0, 0.0, 0.0, 0.0, 0.0, 0.0, 0.0, 0.0, 0.0, 0.0, 1.6620648646699195E9, 0.0, 2022-09-01 16:41:04.669
168.0, -21098.973882076014, -21523.768785449123, -29460.672075828563, -17106.170011302234, -12709.648932176702, -16602.182877323972, 27642.00003647805, -15463.897939193004, -25099.287938986774, -3014.020981075881, -31159.382302687445, -27506.05672670087, -8198.642217951086, 6852.061373241112, -9399.444985323547, -22112.312568701815, 0.164, 0.862, -0.438, 192.0, 2.5, 16.0, 13.0, 120.0, 121.0, 40.0, 0.0, 0.0, 0.0, 1.6620648646699255E9, 0.0, 2022-09-01 16:41:04.669
170.0, -21019.53578228185, -21447.951668256723, -29376.674220165518, -17029.011789442517, -12621.605410767248, -16526.119890942562, 27250.509232343346, -15379.095420729569, -25077.942023031956, -2909.1465960915802, -31112.622453286942, -27437.90625785664, -8180.71611889793, 7004.097939026111, -9383.351729315726, -22043.69271322402, 0.164, 0.862, -0.438, 192.0, 0.0, 0.0, 0.0, 0.0, 0.0, 0.0, 0.0, 0.0, 0.0, 1.66206486466993E9, 0.0, 2022-09-01 16:41:04.669
172.0, -21113.882495627702, -21540.666704257335, -29472.78672132334, -17123.984351633117, -12717.047359591408, -16608.307255304724, 27659.09912098636, -15477.264282377279, -25101.63487215458, -2990.1940214865235, -31150.26279094968, -27498.457133586067, -8190.148555058069, 6868.579312393584, -9386.637435750656, -22097.247492938935, 0.164, 0.862, -0.438, 192.0, 0.0, 0.0, 0.0, 0.0, 0.0, 0.0, 0.0, 0.0, 0.0, 1.6620648646699345E9, 0.0, 2022-09-01 16:41:04.669
174.0, -21027.82827947477, -21459.418113162294, -29393.01334536235, -17046.066170461916, -12634.927050462611, -16538.972144004365, 27232.270208867816, -15399.077880272614, -25107.245160012862, -2921.998849153382, -31141.34444491201, -27466.42708378161, -8204.297209298278, 6996.677159866948, -9410.643209295657, -22073.576995560765, 0.164, 0.862, -0.438, 192.0, 0.0, 0.0, 0.0, 0.0, 0.0, 0.0, 0.0, 0.0, 0.0, 1.6620648646699493E9, 0.0, 2022-09-01 16:41:04.669
176.0, -21111.088527570788, -21544.578259537015, -29478.575823137264, -17142.357485575376, -12725.496318995514, -16629.519060792813, 27654.33819941738, -15493.893980252025, -25098.282110486285, -3025.7779986593723, -31153.12381423996, -27508.560122079867, -8196.362340016645, 6837.376277133975, -9398.66267426761, -22115.888847814662, 0.164, 0.862, -0.438, 192.0, 0.0, 0.0, 0.0, 0.0, 0.0, 0.0, 0.0, 0.0, 0.0, 1.6620648646699538E9, 0.0, 2022-09-01 16:41:04.669
178.0, -21000.492096005928, -21428.86327849189, -29373.4332172195, -17021.255734116523, -12626.008704424943, -16516.12866117104, 27239.936857215984, -15378.603682351553, -25094.527017417793, -2939.254395872879, -31134.41540413087, -27463.05197036886, -8208.476985511421, 6974.0124909892675, -9406.865764482709, -22073.5099403274, 0.16, 0.86, -0.438, 192.0, 2.5, 0.0, 13.0, 112.0, 121.0, 40.0, 0.0, 0.0, 0.0, 1.6620648646699584E9, 0.0, 2022-09-01 16:41:04.669
180.0, -21113.502515971963, -21544.22063162573, -29476.519462647375, -17139.295296585, -12726.099816095808, -16635.464624817923, 27643.22938242309, -15496.375023886565, -25071.728238073378, -2983.3543876831995, -31117.24926438919, -27471.38917105069, -8174.502333939355, 6860.4879809007625, -9365.403278518115, -22075.521597328378, 0.16, 0.86, -0.438, 192.0, 0.0, 0.0, 0.0, 0.0, 0.0, 0.0, 0.0, 0.0, 0.0, 1.662064864669963E9, 0.0, 2022-09-01 16:41:04.669
182.0, -21027.023616674378, -21454.657191593313, -29402.423429778035, -17039.56181282542, -12640.35852436525, -16530.61259157808, 27254.174918434015, -15397.602665138564, -25137.062387116242, -2971.2620939328785, -31165.68549462384, -27494.411467839658, -8233.756808490374, 6951.437229089407, -9436.191253208071, -22099.527370873377, 0.16, 0.86, -0.438, 192.0, 0.0, 0.0, 0.0, 0.0, 0.0, 0.0, 0.0, 0.0, 0.0, 1.6620648646699674E9, 0.0, 2022-09-01 16:41:04.669
184.0, -21124.544277732883, -21558.391637610395, -29485.70602961851, -17144.123273387348, -12718.723740425557, -16635.3752178401, 27609.791172717953, -15492.821096518172, -25085.072229513196, -2987.467108662976, -31134.705976808786, -27486.677764258122, -8178.927979341505, 6864.488943158262, -9386.995063661941, -22081.243643908936, 0.16, 0.86, -0.438, 192.0, 0.0, 0.0, 0.0, 0.0, 0.0, 0.0, 0.0, 0.0, 0.0, 1.662064864669972E9, 0.0, 2022-09-01 16:41:04.669
186.0, -21018.44054680354, -21437.9604384852, -29389.95115637197, -17020.451071316133, -12624.779358479902, -16505.73509999932, 27288.663660128554, -15372.99339449327, -25135.87774466011, -2974.994835256915, -31174.134454027946, -27504.000366210985, -8234.181491635025, 6931.968859668835, -9435.744218318965, -22102.433097652567, 0.16, 0.86, -0.438, 192.0, 0.0, 0.0, 0.0, 0.0, 0.0, 0.0, 0.0, 0.0, 0.0, 1.662064864669978E9, 0.0, 2022-09-01 16:41:04.669
188.0, -21106.975806591014, -21539.25854435665, -29459.107453716693, -17122.419729521243, -12689.442955189104, -16609.357787294124, 27579.54926246992, -15470.134075896034, -25043.609743548604, -2936.348669093689, -31094.383429811412, -27445.327037015802, -8140.32651666719, 6920.345952552075, -9339.832882861243, -22040.764634700376, 0.156, 0.862, -0.434, 192.0, 2.0, 112.0, 13.0, 120.0, 121.0, 56.0, 0.0, 0.0, 0.0, 1.6620648646699824E9, 0.0, 2022-09-01 16:41:04.669
190.0, -21055.07505596579, -21480.36169771692, -29423.970511432948, -17055.81153104443, -12658.821065285334, -16538.569812604168, 27330.103794348695, -15414.835860113606, -25145.109015120153, -3003.6050681597076, -31193.021678092682, -27528.520229878453, -8248.196035408502, 6915.853251916558, -9440.81806431032, -22131.04333055536, 0.156, 0.862, -0.434, 192.0, 0.0, 0.0, 0.0, 0.0, 0.0, 0.0, 0.0, 0.0, 0.0, 1.6620648646699867E9, 0.0, 2022-09-01 16:41:04.669
192.0, -21090.994309305468, -21526.227477339206, -29445.182316921037, -17111.221505549136, -12677.350661438782, -16606.027377370283, 27531.716529335565, -15465.954299682893, -25044.8614412381, -2941.3778115961327, -31095.612775756454, -27446.601086449755, -8143.5228161242985, 6921.731760708304, -9352.394563245125, -22048.69950398201, 0.156, 0.862, -0.434, 192.0, 0.0, 0.0, 0.0, 0.0, 0.0, 0.0, 0.0, 0.0, 0.0, 1.6620648646699915E9, 0.0, 2022-09-01 16:41:04.669
194.0, -21066.385038660173, -21488.095401298455, -29433.805278993284, -17068.95435678415, -12676.098963749286, -16554.148978489517, 27371.94625996903, -15434.147767322991, -25150.49578553388, -3015.9208793545818, -31195.16744556039, -27534.286979947923, -8247.771352263851, 6885.387824223974, -9443.097942244762, -22137.301819002845, 0.156, 0.862, -0.434, 192.0, 0.0, 0.0, 0.0, 0.0, 0.0, 0.0, 0.0, 0.0, 0.0, 1.6620648646700115E9, 0.0, 2022-09-01 16:41:04.670
196.0, -21082.567701645818, -21514.11283184443, -29424.64106376661, -17094.077717551914, -12663.917263021143, -16591.834019641163, 27475.72540947502, -15450.889223920016, -25056.886679755055, -2926.558605022264, -31089.77897045362, -27440.007321835437, -8147.009688259326, 6940.0825429061115, -9350.740534155433, -22040.22819283345, 0.156, 0.862, -0.434, 192.0, 0.0, 0.0, 0.0, 0.0, 0.0, 0.0, 0.0, 0.0, 0.0, 1.6620648646700163E9, 0.0, 2022-09-01 16:41:04.670
198.0, -21072.55412012984, -21490.01765132161, -29428.709081257475, -17066.629775360798, -12669.41579215715, -16552.13732148854, 27434.5758479328, -15429.342142265099, -25148.104148877163, -3010.221184518479, -31191.054724580616, -27529.816631056863, -8237.221328880945, 6880.716309632816, -9425.261250169428, -22126.260057241925, 0.16, 0.861, -0.436, 192.0, 2.5, 16.0, 13.0, 112.0, 121.0, 40.0, 0.0, 0.0, 0.0, 1.6620648646700227E9, 0.0, 2022-09-01 16:41:04.670
200.0, -21074.655184108637, -21503.696918928257, -29414.20279910598, -17079.280862722502, -12647.26521340194, -16576.634833411557, 27426.104536784238, -15430.236212043312, -25047.96833371739, -2916.343857806189, -31090.851854187473, -27426.75273737344, -8143.478112635388, 6969.676252564937, -9337.284783993338, -22020.089271079218, 0.16, 0.861, -0.436, 192.0, 0.0, 0.0, 0.0, 0.0, 0.0, 0.0, 0.0, 0.0, 0.0, 1.6620648646700275E9, 0.0, 2022-09-01 16:41:04.670
202.0, -21096.98457681949, -21514.984549878187, -29450.323218145757, -17089.00387156056, -12681.619844629748, -16562.195606493427, 27493.696212017087, -15439.378075525532, -25141.711549962947, -3010.556460685308, -31194.072210082082, -27530.487183390524, -8224.72670373043, 6878.727004376293, -9411.157299418128, -22118.90633331613, 0.16, 0.861, -0.436, 192.0, 0.0, 0.0, 0.0, 0.0, 0.0, 0.0, 0.0, 0.0, 0.0, 1.662064864670032E9, 0.0, 2022-09-01 16:41:04.670
204.0, -21078.812608577326, -21509.9777591202, -29419.12018288615, -17089.629720405308, -12645.78999826789, -16586.693118416442, 27374.069675692284, -15432.359627766566, -25070.58829910616, -2936.8404074717055, -31110.052002674583, -27447.96454286153, -8156.03979301927, 6959.327394882131, -9356.060249335796, -22037.724797454455, 0.16, 0.861, -0.436, 192.0, 0.0, 0.0, 0.0, 0.0, 0.0, 0.0, 0.0, 0.0, 0.0, 1.6620648646700363E9, 0.0, 2022-09-01 16:41:04.670
206.0, -21109.814478136836, -21530.787233208088, -29464.628334597153, -17115.33422652891, -12695.70144363659, -16591.23052254087, 27543.92058180816, -15464.702601993395, -25141.778605196312, -3035.568062730797, -31194.1616170599, -27542.49007016302, -8223.027971151825, 6839.387934134953, -9415.046502953352, -22137.145356791658, 0.16, 0.861, -0.436, 192.0, 0.0, 0.0, 0.0, 0.0, 0.0, 0.0, 0.0, 0.0, 0.0, 1.662064864670041E9, 0.0, 2022-09-01 16:41:04.670
208.0, -21062.02644849139, -21489.280043754585, -29400.881159410616, -17075.793990587474, -12639.084474931298, -16573.058554298706, 27316.580988953232, -15428.023389342236, -25077.24911895384, -2921.1718346085354, -31108.263863118158, -27446.46697598302, -8156.330365697189, 6961.964900727857, -9365.917368640587, -22046.285515580836, 0.161, 0.8625, -0.432, 192.0, 2.5, 8.0, 13.5, 0.0, 121.0, 80.0, 0.0, 0.0, 0.0, 1.6620648646700456E9, 0.0, 2022-09-01 16:41:04.670
210.0, -21143.342094819796, -21558.548099821583, -29486.3095267188, -17141.68693324172, -12731.173662087163, -16629.787281726276, 27571.83791063284, -15505.539239113241, -25144.863145931144, -3044.8440366797495, -31196.70971592781, -27542.579477140844, -8221.86568044015, 6818.913736213892, -9420.723846044999, -22140.296952759858, 0.161, 0.8625, -0.432, 192.0, 0.0, 0.0, 0.0, 0.0, 0.0, 0.0, 0.0, 0.0, 0.0, 1.66206486467005E9, 0.0, 2022-09-01 16:41:04.670
212.0, -21075.325736442297, -21499.360680503927, -29399.785923932308, -17071.345993440867, -12635.955230707554, -16576.411315967, 27267.854186040662, -15432.359627766566, -25098.125648275098, -2959.058041460281, -31130.168572684357, -27461.263830812437, -8182.705424154452, 6945.759885997759, -9383.307025826816, -22053.527480784356, 0.161, 0.8625, -0.432, 192.0, 0.0, 0.0, 0.0, 0.0, 0.0, 0.0, 0.0, 0.0, 0.0, 1.662064864670055E9, 0.0, 2022-09-01 16:41:04.670
214.0, -21142.157452363666, -21564.448960357782, -29477.614698125686, -17136.05429363898, -12721.696522438113, -16626.032188657784, 27611.244036107546, -15496.240913419833, -25140.43750052899, -3059.529132786886, -31187.03141057866, -27539.003198027993, -8213.841404180695, 6798.9759801597575, -9400.964903946508, -22115.531219903376, 0.161, 0.8625, -0.432, 192.0, 0.0, 0.0, 0.0, 0.0, 0.0, 0.0, 0.0, 0.0, 0.0, 1.6620648646700592E9, 0.0, 2022-09-01 16:41:04.670
216.0, -21048.391884373654, -21481.68045063978, -29382.083342323705, -17051.922327509204, -12631.373123094216, -16556.451208168415, 27239.7803950048, -15415.305246747166, -25100.316119231717, -2932.9065004475715, -31124.714747037262, -27459.00630462245, -8188.76274690184, 6954.454714590874, -9378.255531579916, -22040.07173062226, 0.161, 0.8625, -0.432, 192.0, 0.0, 0.0, 0.0, 0.0, 0.0, 0.0, 0.0, 0.0, 0.0, 1.6620648646700637E9, 0.0, 2022-09-01 16:41:04.670
218.0, -21135.80955693836, -21564.98540222471, -29472.92083179007, -17141.86574719736, -12725.496318995514, -16629.85433695964, 27638.51316434302, -15503.125250712068, -25116.230561283897, -3028.750780671928, -31158.376474186956, -27519.579532096333, -8204.833651165205, 6808.855451209003, -9382.122383370684, -22096.062850482806, 0.1635, 0.8592500000000001, -0.431, 192.0, 2.5, 24.0, 13.0, 96.0, 121.0, 72.0, 0.0, 0.0, 0.0, 1.6620648646700685E9, 0.0, 2022-09-01 16:41:04.670
220.0, -21024.699035251026, -21456.065351494, -29363.978429314906, -17028.36358885331, -12618.498518287959, -16529.025617721752, 27234.974769946908, -15392.215894724834, -25102.104258788142, -2946.697526776496, -31124.223008659246, -27460.392112778678, -8204.788947676296, 6970.592674087606, -9383.23997059345, -22043.223326590458, 0.1635, 0.8592500000000001, -0.431, 192.0, 0.0, 0.0, 0.0, 0.0, 0.0, 0.0, 0.0, 0.0, 0.0, 1.6620648646700728E9, 0.0, 2022-09-01 16:41:04.670
222.0, -21129.975751635524, -21557.810492254557, -29471.5573753783, -17138.088302384414, -12728.960839386087, -16627.060368902727, 27654.449958139656, -15503.840506534638, -25096.806895352234, -3012.3222484972775, -31138.68458732183, -27499.39590685319, -8196.183526061002, 6836.079875955567, -9368.890150653142, -22076.16979791758, 0.1635, 0.8592500000000001, -0.431, 192.0, 0.0, 0.0, 0.0, 0.0, 0.0, 0.0, 0.0, 0.0, 0.0, 1.6620648646700776E9, 0.0, 2022-09-01 16:41:04.670
224.0, -21029.459956820006, -21453.539604370548, -29379.80346438926, -17036.85725174633, -12639.486806331493, -16528.220954921362, 27233.00781643484, -15412.377168223522, -25110.709680403434, -2938.4050295835773, -31136.15884019838, -27470.33863906129, -8217.417683293545, 6957.695717536893, -9400.964903946508, -22053.79570171782, 0.1635, 0.8592500000000001, -0.431, 192.0, 0.0, 0.0, 0.0, 0.0, 0.0, 0.0, 0.0, 0.0, 0.0, 1.662064864670082E9, 0.0, 2022-09-01 16:41:04.670
226.0, -21130.75806269146, -21557.341105620995, -29463.041360740826, -17135.58490700542, -12718.94725787011, -16625.026360157295, 27650.784272048986, -15510.233105448855, -25085.787485335768, -2997.6818558790515, -31125.251188904193, -27485.604880524264, -8184.739432899885, 6843.2324341812655, -9364.285691295348, -22068.19022514704, 0.1635, 0.8592500000000001, -0.431, 192.0, 0.0, 0.0, 0.0, 0.0, 0.0, 0.0, 0.0, 0.0, 0.0, 1.6620648646700866E9, 0.0, 2022-09-01 16:41:04.670
228.0, -21036.567811556793, -21458.568746872992, -29374.90843235355, -17030.107024920824, -12631.708399261046, -16518.296780383203, 27247.894078242076, -15409.873772844527, -25125.350073021662, -2954.878265247138, -31142.327921668046, -27476.977107164515, -8225.978401419927, 6945.491665064295, -9403.691816770055, -22066.446789079524, 0.16475, 0.858625, -0.4295, 192.0, 2.5, 24.0, 13.0, 104.0, 121.0, 80.0, 0.0, 0.0, 0.0, 1.6620648646700912E9, 0.0, 2022-09-01 16:41:04.670
230.0, -21113.74838516097, -21544.779425237113, -29439.01323545137, -17115.311874784456, -12697.601341915291, -16603.971016880398, 27637.32852188689, -15488.864837749583, -25059.85946176761, -2971.127983466147, -31099.85960720296, -27461.040313367885, -8158.90081630955, 6886.103080046544, -9337.351839226703, -22034.819070675265, 0.16475, 0.858625, -0.4295, 192.0, 0.0, 0.0, 0.0, 0.0, 0.0, 0.0, 0.0, 0.0, 0.0, 1.6620648646700969E9, 0.0, 2022-09-01 16:41:04.670
232.0, -21036.83603249026, -21460.15572072932, -29387.313650526245, -17034.6220773008, -12643.197195911074, -16515.92749547094, 27275.431427411015, -15408.62207515503, -25127.78641316729, -2959.8627042606718, -31155.49309915222, -27492.15394164967, -8232.05807591177, 6934.204034114366, -9407.20104064954, -22069.866605981184, 0.16475, 0.858625, -0.4295, 192.0, 0.0, 0.0, 0.0, 0.0, 0.0, 0.0, 0.0, 0.0, 0.0, 1.6620648646701012E9, 0.0, 2022-09-01 16:41:04.670
234.0, -21125.304237044365, -21552.155500907364, -29467.3552474207, -17140.591697763408, -12714.476908979048, -16620.980694410886, 27600.582254002366, -15505.852163535616, -25067.324944415683, -2961.047346716803, -31109.090877663002, -27462.739045946488, -8170.702537381952, 6878.123507276, -9347.655993420602, -22035.757843942385, 0.16475, 0.858625, -0.4295, 192.0, 0.0, 0.0, 0.0, 0.0, 0.0, 0.0, 0.0, 0.0, 0.0, 1.6620648646701057E9, 0.0, 2022-09-01 16:41:04.670
236.0, -21069.64839335065, -21486.329613486483, -29433.73822375992, -17076.66570862123, -12676.143667238197, -16546.817606308177, 27305.092192303204, -15445.278936061733, -25158.050675159775, -3004.8344141047496, -31192.35112575902, -27525.502744376987, -8261.651785570597, 6903.805661655148, -9436.526529374902, -22101.494324385443, 0.16475, 0.858625, -0.4295, 192.0, 0.0, 0.0, 0.0, 0.0, 0.0, 0.0, 0.0, 0.0, 0.0, 1.6620648646701105E9, 0.0, 2022-09-01 16:41:04.670
238.0, -21128.634646968207, -21555.79883525358, -29475.714799846985, -17145.978468177138, -12716.04153109092, -16626.94861018045, 27549.553221410897, -15509.920181026482, -25084.49108415736, -2978.5264108808533, -31126.25701740468, -27480.665144999643, -8188.271008523823, 6885.678396901893, -9375.193342589539, -22052.946335428518, 0.167375, 0.8583125, -0.43074999999999997, 192.0, 2.5, 40.0, 13.0, 104.0, 121.0, 64.0, 0.0, 0.0, 0.0, 1.662064864670115E9, 0.0, 2022-09-01 16:41:04.670
240.0, -21076.84565506526, -21495.627939179893, -29432.30771211478, -17083.415935446734, -12681.284568462917, -16553.27726045576, 27349.818032958276, -15451.738590209317, -25158.587117026702, -3022.402885246621, -31195.569776960587, -27538.82438407235, -8264.512808860876, 6879.531667176684, -9444.237881211982, -22114.078356513783, 0.167375, 0.8583125, -0.43074999999999997, 192.0, 0.0, 0.0, 0.0, 0.0, 0.0, 0.0, 0.0, 0.0, 0.0, 1.6620648646701195E9, 0.0, 2022-09-01 16:41:04.670
242.0, -21106.126440301712, -21539.415006567837, -29437.2474476394, -17125.794842933996, -12683.855019075278, -16611.458851272924, 27499.86529348675, -15489.06600344968, -25067.079075226677, -2949.402087855588, -31104.911101449863, -27460.593278478776, -8172.624787405109, 6899.2906092751755, -9359.077734837263, -22036.853079420696, 0.167375, 0.8583125, -0.43074999999999997, 192.0, 0.0, 0.0, 0.0, 0.0, 0.0, 0.0, 0.0, 0.0, 0.0, 1.662064864670124E9, 0.0, 2022-09-01 16:41:04.670
244.0, -21096.22461750801, -21513.64344521087, -29448.49037510042, -17094.77062163003, -12691.186391256619, -16567.18004550696, 27402.970481272994, -15470.134075896034, -25160.509367049857, -3016.12204505468, -31196.977936861273, -27537.907962549685, -8256.197959923502, 6863.416059424408, -9435.05131424085, -22116.313530959313, 0.167375, 0.8583125, -0.43074999999999997, 192.0, 0.0, 0.0, 0.0, 0.0, 0.0, 0.0, 0.0, 0.0, 0.0, 1.6620648646701288E9, 0.0, 2022-09-01 16:41:04.670
246.0, -21099.59973092076, -21527.367416306428, -29435.10168017169, -17111.10974682686, -12670.399268913183, -16600.439441256458, 27452.18902256358, -15482.15931441299, -25074.321040430194, -2952.508980334876, -31106.766296239653, -27450.065606840326, -8172.848304849662, 6921.374132797019, -9352.282804522849, -22025.677207193043, 0.167375, 0.8583125, -0.43074999999999997, 192.0, 0.0, 0.0, 0.0, 0.0, 0.0, 0.0, 0.0, 0.0, 0.0, 1.662064864670133E9, 0.0, 2022-09-01 16:41:04.670
248.0, -21107.758117646947, -21520.058395869542, -29460.314447917277, -17102.973711845127, -12704.776251885445, -16578.445324712437, 27463.34254304678, -15481.06407893468, -25162.297506606283, -3032.1705975735904, -31202.364707275, -27543.585305641333, -8261.20475068149, 6869.965120549813, -9421.19323267856, -22117.498173415446, 0.1666875, 0.86015625, -0.43137499999999995, 192.0, 2.5, 24.0, 13.0, 120.0, 121.0, 64.0, 0.0, 0.0, 0.0, 1.662064864670138E9, 0.0, 2022-09-01 16:41:04.670
250.0, -21077.73972484347, -21503.898084628356, -29418.58374101922, -17090.2332175056, -12661.212701942051, -16588.213037039404, 27390.632318333664, -15468.703564250894, -25078.657278854524, -2935.5887097822083, -31102.430057815323, -27446.019941093917, -8187.712214912441, 6939.791970228192, -9354.428571990558, -22025.27487579285, 0.1666875, 0.86015625, -0.43137499999999995, 192.0, 0.0, 0.0, 0.0, 0.0, 0.0, 0.0, 0.0, 0.0, 0.0, 1.6620648646701424E9, 0.0, 2022-09-01 16:41:04.670
252.0, -21087.529788914897, -21503.96513986172, -29442.477755841945, -17091.77548787302, -12690.493487178504, -16567.336507718148, 27518.551351851387, -15471.29636660771, -25133.419052770027, -3007.7848443728503, -31166.803081846607, -27515.57856983883, -8245.96086096297, 6851.614338352006, -9402.306008613827, -22102.813077308307, 0.1666875, 0.86015625, -0.43137499999999995, 192.0, 0.0, 0.0, 0.0, 0.0, 0.0, 0.0, 0.0, 0.0, 0.0, 1.6620648646701472E9, 0.0, 2022-09-01 16:41:04.670
254.0, -21063.613422347717, -21492.49869495615, -29395.24851980788, -17075.302252209458, -12645.45472210106, -16568.699964129923, 27349.102777135704, -15451.87270067605, -25058.071322211188, -2904.2515640558677, -31072.411665011845, -27414.749850600943, -8169.13791527008, 6974.61598808956, -9341.151635784106, -22009.673358163043, 0.1666875, 0.86015625, -0.43137499999999995, 192.0, 0.0, 0.0, 0.0, 0.0, 0.0, 0.0, 0.0, 0.0, 0.0, 1.6620648646701517E9, 0.0, 2022-09-01 16:41:04.670
0.0, -21126.243010311486, -21542.11956764693, -29469.16573872158, -17125.973656889637, -12729.005542874998, -16597.980749366376, 27570.78737864344, -15507.372082158576, -25147.45594828796, -3037.4009057761323, -31184.55036694412, -27536.54450613791, -8256.935567490527, 6819.114901913989, -9413.124252930194, -22119.733347860976, 0.1666875, 0.86015625, -0.43137499999999995, 192.0, 0.0, 0.0, 0.0, 0.0, 0.0, 0.0, 0.0, 0.0, 0.0, 1.662064864670156E9, 0.0, 2022-09-01 16:41:04.670
2.0, -21050.02356171889, -21476.606604648427, -29389.28060403831, -17065.489836393575, -12637.430445841605, -16548.51633888678, 27311.171866795048, -15442.261450560267, -25072.175272962486, -2917.081465373214, -31092.6399937439, -27434.173516532603, -8186.304055011757, 6982.684967837927, -9358.8095139038, -22016.334178010726, 0.16934375000000002, 0.862078125, -0.4316875, 192.0, 2.5, 48.0, 13.5, 0.0, 121.0, 64.0, 0.0, 0.0, 0.0, 1.6620648646701605E9, 0.0, 2022-09-01 16:41:04.670
4.0, -21127.695873701083, -21546.12052990443, -29486.75656160791, -17142.893927442306, -12733.610002232792, -16605.20036282544, 27618.530704799978, -15517.005684018814, -25138.40349178356, -3035.2327865639672, -31174.93911682834, -27530.5989421128, -8245.58088130723, 6820.679524025861, -9400.920200457598, -22111.440850668056, 0.16934375000000002, 0.862078125, -0.4316875, 192.0, 0.0, 0.0, 0.0, 0.0, 0.0, 0.0, 0.0, 0.0, 0.0, 1.6620648646701653E9, 0.0, 2022-09-01 16:41:04.670
6.0, -21039.78646275836, -21463.82140681999, -29396.67903145302, -17065.288670693477, -12635.955230707554, -16543.196623706415, 27278.426561168024, -15434.885374890016, -25087.64268012556, -2917.8861281736054, -31106.162799139358, -27441.5272404584, -8208.298171555778, 6971.218522932354, -9373.986348388953, -22039.155309099595, 0.16934375000000002, 0.862078125, -0.4316875, 192.0, 0.0, 0.0, 0.0, 0.0, 0.0, 0.0, 0.0, 0.0, 0.0, 1.6620648646701713E9, 0.0, 2022-09-01 16:41:04.670
8.0, -21142.202155852578, -21560.045666700087, -29499.921739092082, -17160.194177650712, -12748.451560551115, -16622.388854311568, 27643.832879523383, -15534.104768527124, -25127.384081767093, -3023.4757689804756, -31163.58443064504, -27520.965340252562, -8240.998773693893, 6808.274305853165, -9390.101956141229, -22117.498173415446, 0.16934375000000002, 0.862078125, -0.4316875, 192.0, 0.0, 0.0, 0.0, 0.0, 0.0, 0.0, 0.0, 0.0, 0.0, 1.6620648646701756E9, 0.0, 2022-09-01 16:41:04.670
10.0, -21054.40450363213, -21476.427790692782, -29399.24948206538, -17067.836769561385, -12663.246710687485, -16543.286030684238, 27248.92225848702, -15447.134130851524, -25114.5765321942, -2937.220387127446, -31127.128735438437, -27463.208432580046, -8241.691677772007, 6950.207883144365, -9388.760851473911, -22061.61881227718, 0.16934375000000002, 0.862078125, -0.4316875, 192.0, 0.0, 0.0, 0.0, 0.0, 0.0, 0.0, 0.0, 0.0, 0.0, 1.6620648646701803E9, 0.0, 2022-09-01 16:41:04.670
12.0, -21143.990295409, -21565.61125106946, -29488.298831975324, -17163.88221548584, -12755.849987965821, -16627.038017158273, 27648.839670281373, -15544.319515743198, -25122.35493926465, -3009.9753153294705, -31156.387168930432, -27520.093622218803, -8238.58478529272, 6807.1567186304, -9383.731708971467, -22111.37379543469, 0.16934375000000002, 0.862078125, -0.4316875, 192.0, 0.0, 0.0, 0.0, 0.0, 0.0, 0.0, 0.0, 0.0, 0.0, 1.6620648646701849E9, 0.0, 2022-09-01 16:41:04.670
14.0, -21035.606686545216, -21455.6630200938, -29386.82191214823, -17054.93981301067, -12649.723905292023, -16530.54553634471, 27234.326569357705, -15438.90868889197, -25116.141154306075, -2948.4633145884654, -31129.095688950503, -27465.37655179221, -8236.751942247385, 6962.90367399498, -9390.459584052514, -22067.966707702482, 0.16, 0.864, -0.432, 192.0, 2.5, 0.0, 13.5, 0.0, 121.0, 64.0, 0.0, 0.0, 0.0, 1.6620648646701894E9, 0.0, 2022-09-01 16:41:04.670
16.0, -21131.249801069476, -21554.614192797446, -29479.648706871118, -17155.63442178183, -12733.833519677344, -16622.25474384484, 27660.03789425348, -15529.07562602468, -25094.169389506507, -3002.5545361703084, -31130.392090128913, -27491.52809280492, -8210.823918679229, 6827.6756200403715, -9355.23323479095, -22087.770353289885, 0.16, 0.864, -0.432, 192.0, 0.0, 0.0, 0.0, 0.0, 0.0, 0.0, 0.0, 0.0, 0.0, 1.662064864670194E9, 0.0, 2022-09-01 16:41:04.670
18.0, -21021.54743928283, -21441.29084840904, -29377.121255054626, -17041.819339015405, -12623.795881723867, -16515.771033259756, 27249.302238142758, -15413.472403701831, -25109.21211352493, -2942.7412680079065, -31127.866343005462, -27465.555365747856, -8234.606174779676, 6956.33226112512, -9377.316758312792, -22062.378771588657, 0.16, 0.864, -0.432, 192.0, 0.0, 0.0, 0.0, 0.0, 0.0, 0.0, 0.0, 0.0, 0.0, 1.662064864670199E9, 0.0, 2022-09-01 16:41:04.670
20.0, -21143.27503958643, -21565.83476851401, -29484.141407506635, -17169.961889977683, -12725.94335388462, -16634.324685850705, 27652.125376716303, -15535.22235574989, -25075.416275908505, -2981.20862021549, -31111.77308699764, -27477.759418220452, -8185.544095700276, 6851.569634863095, -9335.586051414735, -22069.933661214553, 0.16, 0.864, -0.432, 192.0, 0.0, 0.0, 0.0, 0.0, 0.0, 0.0, 0.0, 0.0, 0.0, 1.6620648646702032E9, 0.0, 2022-09-01 16:41:04.670
22.0, -21059.232480434475, -21475.712534870214, -29403.026926878327, -17066.65212710525, -12645.655887801158, -16533.563021846177, 27269.150587219072, -15441.47913950433, -25153.82619545772, -2983.01911151637, -31179.297706997124, -27519.601883840787, -8265.898617017105, 6916.903783905957, -9418.95805823303, -22113.13958324666, 0.16, 0.864, -0.432, 192.0, 0.0, 0.0, 0.0, 0.0, 0.0, 0.0, 0.0, 0.0, 0.0, 1.662064864670208E9, 0.0, 2022-09-01 16:41:04.670
24.0, -21142.291562830396, -21563.711352790757, -29479.089913259737, -17166.609128309385, -12718.455519492092, -16630.30137184875, 27627.449050837644, -15532.78601560426, -25073.96341251891, -2970.7480038104063, -31105.58165378352, -27472.797330951373, -8178.458592707943, 6870.121582761, -9329.908708323086, -22057.88607095314, 0.162, 0.862, -0.43, 192.0, 2.5, 8.0, 13.0, 120.0, 121.0, 72.0, 0.0, 0.0, 0.0, 1.6620648646702127E9, 0.0, 2022-09-01 16:41:04.670
26.0, -21054.091579209755, -21470.169302245296, -29414.605130506174, -17075.838694076385, -12657.368201895739, -16532.378379390047, 27293.893968331096, -15446.776502940238, -25159.97292518293, -2988.2941232078224, -31180.191776775337, -27524.92159902115, -8273.319396176266, 6906.867850645524, -9414.152433175139, -22112.08905125726, 0.162, 0.862, -0.43, 192.0, 0.0, 0.0, 0.0, 0.0, 0.0, 0.0, 0.0, 0.0, 0.0, 1.6620648646702173E9, 0.0, 2022-09-01 16:41:04.670
28.0, -21121.392681764686, -21549.83091948401, -29475.714799846985, -17161.289413129023, -12718.388464258727, -16626.56863052471, 27575.302431023414, -15527.890983568548, -25069.560118861213, -2974.4583933899876, -31101.2901188481, -27467.05293262636, -8189.388595746589, 6883.666739900916, -9334.423760703059, -22048.6548004931, 0.162, 0.862, -0.43, 192.0, 0.0, 0.0, 0.0, 0.0, 0.0, 0.0, 0.0, 0.0, 0.0, 1.662064864670222E9, 0.0, 2022-09-01 16:41:04.670
30.0, -21056.55027109984, -21470.661040623312, -29418.337871830212, -17072.128304496804, -12666.711231078058, -16531.59606833411, 27332.294265305314, -15444.966011639359, -25160.21879437194, -2997.59244890123, -31182.829282621064, -27525.189819954616, -8283.332977692244, 6887.868867858514, -9419.606258822234, -22109.585655878265, 0.162, 0.862, -0.43, 192.0, 0.0, 0.0, 0.0, 0.0, 0.0, 0.0, 0.0, 0.0, 0.0, 1.6620648646702266E9, 0.0, 2022-09-01 16:41:04.670
0.0, -10553.622013762239, -10749.333888212906, -14712.365235372215, -8560.136981026768, -6333.657364089176, -8287.870381816672, 13631.41252176911, -7736.9222327378075, -12543.53076738486, -1512.4531403128076, -15564.056106097236, -13747.798055147894, -4097.320627846793, 3405.7800061440475, -4670.933445803338, -11034.653906184902, 0.158, 0.86, -0.43, 192.0, 2.0, 120.0, 13.0, 112.0, 121.0, 72.0, 0.0, 0.0, 0.0, 1.6620648652596998E9, 0.0, 2022-09-01 16:41:05.259
2.0, -21175.57331032435, -21558.011657954652, -29503.58742518275, -17177.382669136845, -12755.00062167652, -16615.05748213023, 27505.833209256318, -15538.373951718087, -25167.505463064368, -3001.6828181365513, -31117.271616133647, -27536.008064270984, -8295.134698764647, 6849.669736584394, -9437.666468342122, -22121.923818817595, 0.158, 0.86, -0.43, 192.0, 0.0, 0.0, 0.0, 0.0, 0.0, 0.0, 0.0, 0.0, 0.0, 1.6620648652598035E9, 0.0, 2022-09-01 16:41:05.259
4.0, -21097.99040531998, -21481.859264595423, -29416.236807851412, -17095.128249541314, -12669.572254368337, -16551.355010432602, 27108.93328296343, -15460.031087402236, -25168.064256675752, -2922.2000148534794, -31088.661383230854, -27487.19185438059, -8294.59825689772, 6985.076604494644, -9444.215529467527, -22079.99194621944, 0.158, 0.86, -0.43, 192.0, 0.0, 0.0, 0.0, 0.0, 0.0, 0.0, 0.0, 0.0, 0.0, 1.6620648652598343E9, 0.0, 2022-09-01 16:41:05.259
6.0, -21192.895912277214, -21571.109780205465, -29507.163704295603, -17184.803448296007, -12759.605081034313, -16633.96705793942, 27520.227732685536, -15550.667411168506, -25187.152646440583, -3012.0987310527244, -31126.77110752715, -27546.17810799815, -8308.903373349116, 6820.813634492592, -9440.035753254384, -22131.557420677833, 0.158, 0.86, -0.43, 192.0, 0.0, 0.0, 0.0, 0.0, 0.0, 0.0, 0.0, 0.0, 0.0, 1.6620648652598498E9, 0.0, 2022-09-01 16:41:05.259
8.0, -21072.08473349628, -21453.114921225897, -29388.163016815546, -17061.645336347265, -12644.583004067303, -16514.049948936696, 27107.770992251753, -15425.072959074136, -25173.7415997674, -2899.1106628311472, -31085.889766918393, -27481.49215954449, -8291.558419651798, 6977.924046268946, -9428.323439159803, -22067.854948980206, 0.158, 0.858, -0.426, 192.0, 2.0, 120.0, 13.0, 104.0, 121.0, 88.0, 0.0, 0.0, 0.0, 1.6620648652598565E9, 0.0, 2022-09-01 16:41:05.259
10.0, -21184.111676706278, -21561.163253922852, -29498.133599535657, -17177.136799947835, -12749.457389051604, -16617.270304831305, 27523.513439120467, -15536.116425528102, -25154.519099535835, -2990.283428464345, -31091.522406521133, -27515.53386634992, -8269.094916474214, 6837.35392538952, -9409.927953473087, -22094.297062670837, 0.158, 0.858, -0.426, 192.0, 0.0, 0.0, 0.0, 0.0, 0.0, 0.0, 0.0, 0.0, 0.0, 1.6620648652598631E9, 0.0, 2022-09-01 16:41:05.259
12.0, -21088.35680345974, -21463.843758564446, -29411.788810704806, -17071.033069018493, -12669.438143901605, -16523.527088585746, 27102.071297415652, -15442.328505793634, -25178.726038780933, -2942.5177505633537, -31104.978156683228, -27498.211264397058, -8307.40580647061, 6977.85699103558, -9452.485674915992, -22085.691641055542, 0.158, 0.858, -0.426, 192.0, 0.0, 0.0, 0.0, 0.0, 0.0, 0.0, 0.0, 0.0, 0.0, 1.6620648652598708E9, 0.0, 2022-09-01 16:41:05.259
14.0, -21189.140819208722, -21573.88139651792, -29500.70405014802, -17172.554692334495, -12759.538025800948, -16634.704665506444, 27498.524188819432, -15553.394323992054, -25156.664867003547, -2995.4243296890654, -31094.763409467152, -27514.30452040488, -8280.4048991686, 6847.1663412053995, -9418.399264621648, -22102.94718777504, 0.158, 0.858, -0.426, 192.0, 0.0, 0.0, 0.0, 0.0, 0.0, 0.0, 0.0, 0.0, 0.0, 1.6620648652598796E9, 0.0, 2022-09-01 16:41:05.259
16.0, -21081.964204545522, -21463.463778908706, -29396.47786575292, -17059.164292712725, -12660.497446119482, -16515.569867559658, 27125.741794793823, -15438.729874936329, -25188.002012729885, -2948.016279699359, -31107.146275895393, -27505.67674704513, -8316.681780419562, 6948.598557543583, -9442.069761999817, -22088.820885279285, 0.158, 0.858, -0.426, 192.0, 0.0, 0.0, 0.0, 0.0, 0.0, 0.0, 0.0, 0.0, 0.0, 1.6620648652598903E9, 0.0, 2022-09-01 16:41:05.259
18.0, -21176.08740044682, -21562.861986501455, -29473.099645745715, -17169.224282410658, -12735.062865622385, -16618.94668566545, 27489.717601504042, -15532.137815015056, -25125.819459655224, -2950.4749715894427, -31053.546792691566, -27482.25211885597, -8248.06192494177, 6882.347986978053, -9365.313871540293, -22043.424492290556, 0.158, 0.858, -0.43, 192.0, 2.0, 120.0, 13.0, 104.0, 121.0, 72.0, 0.0, 0.0, 0.0, 1.6620648652598972E9, 0.0, 2022-09-01 16:41:05.259
20.0, -21105.545294945874, -21482.507465184626, -29423.25525561038, -17095.754098386064, -12683.810315586366, -16531.46195786738, 27166.08669353565, -15455.49368327781, -25217.528667155348, -2970.792707299317, -31136.315302409566, -27539.22671547255, -8339.033524874869, 6914.4897955047845, -9445.221357968016, -22100.37673716268, 0.158, 0.858, -0.43, 192.0, 0.0, 0.0, 0.0, 0.0, 0.0, 0.0, 0.0, 0.0, 0.0, 1.662064865259904E9, 0.0, 2022-09-01 16:41:05.259
22.0, -21158.317763604853, -21545.718198504233, -29470.439788155534, -17173.44876211271, -12729.13965334173, -16617.247953086848, 27457.285220299393, -15524.761739344805, -25130.60273296866, -2944.1941313975017, -31058.91121136084, -27482.185063622605, -8254.610986067175, 6908.857155902047, -9369.247778564428, -22052.007562161394, 0.158, 0.858, -0.43, 192.0, 0.0, 0.0, 0.0, 0.0, 0.0, 0.0, 0.0, 0.0, 0.0, 1.6620648652599287E9, 0.0, 2022-09-01 16:41:05.259
24.0, -21112.630797938204, -21485.323784985994, -29440.533154074332, -17107.980502603114, -12705.849135619299, -16552.31613544418, 27208.175028344995, -15470.178779384945, -25212.298358952805, -2982.0132830158814, -31133.990720986218, -27538.377349183247, -8337.759475440917, 6915.115644349533, -9451.636308626688, -22122.750833362443, 0.158, 0.858, -0.43, 192.0, 0.0, 0.0, 0.0, 0.0, 0.0, 0.0, 0.0, 0.0, 0.0, 1.6620648652599359E9, 0.0, 2022-09-01 16:41:05.259
26.0, -21156.931955448625, -21542.58895428049, -29468.718703832474, -17158.383686349833, -12728.8043771749, -16615.86214493062, 27406.926740041585, -15526.862803323604, -25131.765023680335, -2941.824846485239, -31056.229002026204, -27475.993630408484, -8252.86754999966, 6901.391673253975, -9377.47322052398, -22053.706294739997, 0.158, 0.858, -0.43, 192.0, 0.0, 0.0, 0.0, 0.0, 0.0, 0.0, 0.0, 0.0, 0.0, 1.6620648652599423E9, 0.0, 2022-09-01 16:41:05.259
28.0, -21128.075853356822, -21503.853381139445, -29457.72164556046, -17109.098089825882, -12721.405949760194, -16554.484254656345, 27262.71328481594, -15489.468334849875, -25222.51310616888, -2992.004512787403, -31143.4008054019, -27545.21698298657, -8348.957699413026, 6885.588989924073, -9457.604224396257, -22127.869382842706, 0.156, 0.854, -0.43, 192.0, 2.0, 112.0, 13.0, 88.0, 121.0, 72.0, 0.0, 0.0, 0.0, 1.66206486525995E9, 0.0, 2022-09-01 16:41:05.259
30.0, -21165.157397408177, -21550.41206483985, -29461.54379386232, -17153.466302569665, -12723.238792805529, -16609.000159382842, 27359.18341388505, -15525.476995167375, -25141.286866818296, -2913.9075176605606, -31056.966609593226, -27470.360990805744, -8280.427250913055, 6926.380923555008, -9377.853200179721, -22046.263163836382, 0.156, 0.854, -0.43, 192.0, 0.0, 0.0, 0.0, 0.0, 0.0, 0.0, 0.0, 0.0, 0.0, 1.6620648652599576E9, 0.0, 2022-09-01 16:41:05.259
32.0, -21135.742501704994, -21506.02150035161, -29448.69154080052, -17105.700624668672, -12723.931696883643, -16544.6047836071, 27318.570294209756, -15491.122363939568, -25233.487812696436, -3001.8392803477386, -31154.822546818563, -27558.158643026192, -8371.734127012984, 6866.098268759045, -9448.261195213938, -22121.946170562052, 0.156, 0.854, -0.43, 192.0, 0.0, 0.0, 0.0, 0.0, 0.0, 0.0, 0.0, 0.0, 0.0, 1.6620648652599645E9, 0.0, 2022-09-01 16:41:05.259
34.0, -21147.119539632742, -21529.110852373942, -29445.62935181014, -17126.778319690027, -12707.570219942358, -16581.663975913998, 27304.198122524995, -15505.852163535616, -25136.056558615754, -2905.927944890016, -31045.880144343395, -27447.53985971688, -8275.06283224378, 6956.868702992047, -9358.18366505905, -22012.914361109062, 0.156, 0.854, -0.43, 192.0, 0.0, 0.0, 0.0, 0.0, 0.0, 0.0, 0.0, 0.0, 0.0, 1.6620648652599711E9, 0.0, 2022-09-01 16:41:05.259
36.0, -21165.17974915263, -21538.275067600618, -29479.022858026372, -17132.098034870392, -12739.689676724634, -16565.458961183904, 27369.755789012408, -15514.748157828828, -25243.926077357064, -3034.0704958522915, -31167.02659929116, -27571.03324783245, -8378.819630005317, 6858.632786110972, -9454.564387150334, -22124.29310372986, 0.156, 0.854, -0.43, 192.0, 0.0, 0.0, 0.0, 0.0, 0.0, 0.0, 0.0, 0.0, 0.0, 1.662064865259978E9, 0.0, 2022-09-01 16:41:05.259
38.0, -21133.261458070454, -21520.326616803006, -29430.63133128063, -17124.00670337757, -12684.302053964384, -16569.526978674767, 27248.609334064644, -15495.480954108352, -25144.192593597483, -2913.6840002160075, -31053.61384792493, -27462.403769779656, -8278.25913170089, 6968.022223475245, -9376.221522834483, -22010.992111085907, 0.16, 0.856, -0.42, 192.0, 2.5, 0.0, 13.0, 96.0, 121.0, 112.0, 0.0, 0.0, 0.0, 1.6620648652599864E9, 0.0, 2022-09-01 16:41:05.259
40.0, -21178.23316791453, -21558.615155054948, -29488.634108142152, -17168.754895777096, -12742.148368614718, -16585.754345149322, 27425.657501895133, -15528.293314968743, -25224.837687592233, -3037.914995898604, -31150.732177583242, -27575.905928123706, -8360.781772229884, 6829.150835174422, -9443.254404455949, -22116.067661770307, 0.16, 0.856, -0.42, 192.0, 0.0, 0.0, 0.0, 0.0, 0.0, 0.0, 0.0, 0.0, 0.0, 1.6620648652599928E9, 0.0, 2022-09-01 16:41:05.259
42.0, -21129.439309768597, -21519.074919113507, -29438.81206975127, -17144.01151466507, -12686.246655731995, -16571.739801375843, 27201.737725941864, -15490.272997650267, -25146.45011978747, -2919.473102029932, -31063.783891652096, -27482.319174089334, -8291.357253951699, 6959.685022793416, -9384.089336882751, -22020.603361201687, 0.16, 0.856, -0.42, 192.0, 0.0, 0.0, 0.0, 0.0, 0.0, 0.0, 0.0, 0.0, 0.0, 1.6620648652600005E9, 0.0, 2022-09-01 16:41:05.260
44.0, -21196.67335709016, -21574.015506984655, -29508.661271174107, -17190.145515220825, -12769.10457242782, -16613.358749551626, 27468.349333804767, -15546.889966355558, -25220.881428823643, -3022.7605131579057, -31159.561116643086, -27588.08762885185, -8370.728298512495, 6825.999239206224, -9442.561500377835, -22129.836336354772, 0.16, 0.856, -0.42, 192.0, 0.0, 0.0, 0.0, 0.0, 0.0, 0.0, 0.0, 0.0, 0.0, 1.662064865260008E9, 0.0, 2022-09-01 16:41:05.260
46.0, -21120.073928841823, -21513.531686488594, -29417.980243918926, -17112.786127661006, -12683.542094652903, -16564.430780938957, 27160.8116818442, -15476.280805621243, -25165.203233385473, -2931.766561480351, -31073.886880145896, -27484.71081074605, -8316.12298680818, 6965.027089718234, -9390.683101497067, -22034.21557357497, 0.16, 0.856, -0.42, 192.0, 0.0, 0.0, 0.0, 0.0, 0.0, 0.0, 0.0, 0.0, 0.0, 1.6620648652600164E9, 0.0, 2022-09-01 16:41:05.260
48.0, -21179.350755137297, -21570.260413916163, -29490.26578548739, -17172.93467199024, -12761.81790373539, -16615.079833874683, 27504.402697611178, -15543.470149453897, -25201.70363208099, -3051.214283849512, -31132.247284918703, -27566.965230341582, -8348.46596103501, 6807.357884330498, -9423.42840712409, -22120.403900194633, 0.164, 0.864, -0.42, 192.0, 2.5, 16.0, 13.5, 0.0, 121.0, 112.0, 0.0, 0.0, 0.0, 1.6620648652600236E9, 0.0, 2022-09-01 16:41:05.260
50.0, -21065.69213458206, -21462.18972947475, -29377.478882965912, -17068.507321895042, -12645.231204656508, -16526.32105664266, 27137.767033310778, -15445.055418617181, -25129.01575911233, -2921.350648564178, -31048.741167633674, -27462.426121524113, -8298.666274388584, 6979.488668380817, -9386.57038051729, -22029.477003750446, 0.164, 0.864, -0.42, 192.0, 0.0, 0.0, 0.0, 0.0, 0.0, 0.0, 0.0, 0.0, 0.0, 1.6620648652600305E9, 0.0, 2022-09-01 16:41:05.260
52.0, -21174.880406246237, -21571.087428461007, -29495.518445434387, -17183.17177095077, -12771.496209084537, -16626.99331366936, 27525.480392632533, -15563.854940397137, -25142.31504706324, -3009.237707762445, -31085.06275237355, -27524.20634319858, -8307.919896593083, 6829.821387508081, -9393.231200364971, -22083.03178346536, 0.164, 0.864, -0.42, 192.0, 0.0, 0.0, 0.0, 0.0, 0.0, 0.0, 0.0, 0.0, 0.0, 1.6620648652600963E9, 0.0, 2022-09-01 16:41:05.260
54.0, -21088.289748226376, -21484.094439040953, -29405.552674001778, -17094.502400696565, -12674.8919695487, -16543.777769062253, 27115.303530133195, -15472.928043952948, -25150.02639890032, -2943.7470965083953, -31076.85966215845, -27492.73508700551, -8329.377571270177, 6952.107781423067, -9418.354561132737, -22053.706294739997, 0.164, 0.864, -0.42, 192.0, 0.0, 0.0, 0.0, 0.0, 0.0, 0.0, 0.0, 0.0, 0.0, 1.6620648652601132E9, 0.0, 2022-09-01 16:41:05.260
56.0, -21199.62378735826, -21592.969786282752, -29508.102477562727, -17200.941407792736, -12779.945168488643, -16649.59092731368, 27535.181049726136, -15582.719812717416, -25159.59294552719, -3029.9130713836043, -31104.73228749422, -27544.188802741624, -8330.27164104839, 6826.513329328696, -9405.94934296004, -22093.782972548364, 0.164, 0.864, -0.42, 192.0, 0.0, 0.0, 0.0, 0.0, 0.0, 0.0, 0.0, 0.0, 0.0, 1.6620648652601185E9, 0.0, 2022-09-01 16:41:05.260
58.0, -21083.79704759086, -21476.293680226052, -29391.493426739387, -17077.984461544092, -12675.718984093546, -16539.754455060298, 27116.89050398952, -15473.844465475615, -25163.21392812895, -2967.4846491199314, -31092.796455955086, -27507.77781102393, -8350.07528663579, 6941.445999317885, -9420.075645455796, -22066.402085590613, 0.166, 0.852, -0.43, 192.0, 2.5, 24.0, 13.0, 80.0, 121.0, 72.0, 0.0, 0.0, 0.0, 1.6620648652601235E9, 0.0, 2022-09-01 16:41:05.260
60.0, -21176.802656269392, -21573.970803495744, -29478.17349173707, -17185.11637271838, -12755.939394943643, -16630.636648015578, 27534.26462820347, -15566.671260198505, -25127.31702653373, -2987.4224051740653, -31068.835385898998, -27513.410450626667, -8301.59435291223, 6833.330611387564, -9358.004851103407, -22063.65282102261, 0.166, 0.852, -0.43, 192.0, 0.0, 0.0, 0.0, 0.0, 0.0, 0.0, 0.0, 0.0, 0.0, 1.6620648652601285E9, 0.0, 2022-09-01 16:41:05.260
62.0, -21076.242157964964, -21470.25870922312, -29391.29226103929, -17084.3323569694, -12662.799675798378, -16517.648579794, 27135.196582698416, -15450.48689251982, -25172.333439866718, -2967.9987392424036, -31096.52919727912, -27518.327834406835, -8349.114161624213, 6929.711333478848, -9402.90950571412, -22068.36903910268, 0.166, 0.852, -0.43, 192.0, 0.0, 0.0, 0.0, 0.0, 0.0, 0.0, 0.0, 0.0, 0.0, 1.662064865260134E9, 0.0, 2022-09-01 16:41:05.260
64.0, -21168.554862565383, -21567.913480748353, -29478.218195225978, -17192.581855366454, -12741.23194709205, -16613.314046062715, 27525.100412976793, -15543.090169798157, -25105.814648367723, -2979.241666703423, -31044.606094909443, -27493.83032248382, -8272.939416520527, 6876.156553763933, -9335.18372001454, -22035.288457308827, 0.166, 0.852, -0.43, 192.0, 0.0, 0.0, 0.0, 0.0, 0.0, 0.0, 0.0, 0.0, 0.0, 1.6620648652601392E9, 0.0, 2022-09-01 16:41:05.260
66.0, -21086.725126114503, -21474.192616247252, -29414.605130506174, -17104.38187174581, -12680.993995784998, -16521.806004262686, 27164.991458057342, -15463.96499442637, -25184.85041676169, -2989.635227875141, -31109.426153829834, -27535.985712526526, -8354.635042504673, 6934.18168236991, -9423.584869335278, -22088.306795156812, 0.166, 0.852, -0.43, 192.0, 0.0, 0.0, 0.0, 0.0, 0.0, 0.0, 0.0, 0.0, 0.0, 1.6620648652601445E9, 0.0, 2022-09-01 16:41:05.260
68.0, -21160.307068861373, -21557.58697481, -29470.417436411077, -17187.463305886187, -12734.124092355263, -16616.130365864083, 27485.694287502087, -15549.996858834847, -25103.355956477637, -2982.192096971524, -31046.707158888243, -27492.980956194515, -8273.945245021016, 6884.31494049012, -9357.870740636676, -22048.90066968211, 0.164, 0.853, -0.431, 192.0, 2.5, 8.0, 13.0, 88.0, 121.0, 64.0, 0.0, 0.0, 0.0, 1.6620648652601504E9, 0.0, 2022-09-01 16:41:05.260
70.0, -21095.487009940985, -21484.362659974417, -29422.58470327672, -17109.969807859638, -12694.248580246995, -16539.776806804755, 27194.29459503825, -15488.238988904834, -25178.658983547568, -2994.7537773554063, -31115.68464227732, -27540.903096306694, -8352.668088992606, 6907.2701820457205, -9426.24472692546, -22107.84221981075, 0.164, 0.853, -0.431, 192.0, 0.0, 0.0, 0.0, 0.0, 0.0, 0.0, 0.0, 0.0, 0.0, 1.6620648652601583E9, 0.0, 2022-09-01 16:41:05.260
72.0, -21154.003876924977, -21556.55879456506, -29467.44465439852, -17180.93659650524, -12732.827691176855, -16629.496709048355, 27441.035502080384, -15558.199949049944, -25098.59503490866, -2950.2291024004344, -31039.19697275126, -27481.24629035548, -8270.525428119354, 6891.93688534938, -9347.723048653967, -22056.254393607902, 0.164, 0.853, -0.431, 192.0, 0.0, 0.0, 0.0, 0.0, 0.0, 0.0, 0.0, 0.0, 0.0, 1.6620648652601652E9, 0.0, 2022-09-01 16:41:05.260
74.0, -21113.346053760775, -21499.226570037197, -29441.896610486107, -17118.53052598602, -12715.616847946269, -16564.117856516583, 27244.407206107047, -15510.16605021549, -25198.28381517933, -2999.492347179931, -31128.82746801704, -27550.02260804446, -8368.917807211616, 6885.253713757243, -9434.313706673825, -22140.43106322659, 0.164, 0.853, -0.431, 192.0, 0.0, 0.0, 0.0, 0.0, 0.0, 0.0, 0.0, 0.0, 0.0, 1.6620648652601714E9, 0.0, 2022-09-01 16:41:05.260
76.0, -21154.249746113986, -21546.276992115618, -29456.134671704134, -17166.139741675823, -12732.894746410222, -16633.58707828368, 27391.928719512074, -15553.550786203241, -25106.14992453455, -2944.9987941978925, -31028.624597623897, -27457.642848210675, -8275.107535732692, 6916.210879827843, -9351.366383000182, -22059.093065153727, 0.164, 0.853, -0.431, 192.0, 0.0, 0.0, 0.0, 0.0, 0.0, 0.0, 0.0, 0.0, 0.0, 1.662064865260177E9, 0.0, 2022-09-01 16:41:05.260
78.0, -21120.766832919937, -21506.759107918635, -29441.896610486107, -17116.56357247395, -12725.831595162344, -16571.404525209015, 27292.798732852785, -15506.88034378056, -25208.587969373224, -3034.606937719219, -31131.576732585043, -27553.330666223846, -8386.75449928695, 6850.027364495679, -9454.899663317165, -22163.609822226743, 0.166, 0.8565, -0.4315, 192.0, 2.5, 32.0, 13.0, 112.0, 121.0, 64.0, 0.0, 0.0, 0.0, 1.662064865260183E9, 0.0, 2022-09-01 16:41:05.260
80.0, -21133.596734237282, -21528.01561689563, -29437.20274415049, -17137.060122139468, -12714.543964212415, -16607.43553727097, 27336.69755896301, -15515.59752411813, -25089.743744104355, -2939.589672039708, -31016.934635273774, -27445.125871315704, -8266.524465861854, 6945.983403442312, -9357.714278425488, -22055.89676569662, 0.166, 0.8565, -0.4315, 192.0, 0.0, 0.0, 0.0, 0.0, 0.0, 0.0, 0.0, 0.0, 0.0, 1.6620648652601893E9, 0.0, 2022-09-01 16:41:05.260
82.0, -21146.605449510273, -21525.244000583174, -29468.741055576927, -17136.277811083535, -12747.37867681726, -16584.592054437646, 27342.911343921583, -15505.986274002347, -25205.525780382846, -3035.366897030699, -31144.853668791497, -27563.970096584573, -8370.504781067943, 6856.174094220888, -9454.519683661423, -22169.28716531839, 0.166, 0.8565, -0.4315, 192.0, 0.0, 0.0, 0.0, 0.0, 0.0, 0.0, 0.0, 0.0, 0.0, 1.662064865260196E9, 0.0, 2022-09-01 16:41:05.260
84.0, -21124.968960877533, -21517.242076068174, -29437.269799383856, -17141.82104370845, -12703.435147218126, -16594.225656297884, 27271.83279655371, -15487.993119715826, -25107.02164256831, -2919.2048810964684, -31038.39230995087, -27459.207470322548, -8273.29704443181, 6970.391508387507, -9370.566531487291, -22056.120283141172, 0.166, 0.8565, -0.4315, 192.0, 0.0, 0.0, 0.0, 0.0, 0.0, 0.0, 0.0, 0.0, 0.0, 1.6620648652602022E9, 0.0, 2022-09-01 16:41:05.260
86.0, -21151.299315845885, -21535.302285588063, -29492.32214597728, -17175.236901669134, -12750.217348363085, -16596.95256912143, 27387.793646787843, -15514.278771195266, -25205.950463527497, -3027.521434726886, -31152.2520962062, -27584.42194276118, -8365.922673454605, 6828.100303185022, -9458.118314518728, -22179.367802067736, 0.166, 0.8565, -0.4315, 192.0, 0.0, 0.0, 0.0, 0.0, 0.0, 0.0, 0.0, 0.0, 0.0, 1.662064865260209E9, 0.0, 2022-09-01 16:41:05.260
88.0, -21112.519039215927, -21507.854343396946, -29452.290171657824, -17159.031886939036, -12691.029929045431, -16587.654243428024, 27212.19834234695, -15470.268186362766, -25119.605674696646, -2937.376849338633, -31053.63619966939, -27481.514511288944, -8280.78487882434, 6959.729726282326, -9394.684063754567, -22079.768428774885, 0.162, 0.8572500000000001, -0.43274999999999997, 192.0, 2.0, 120.0, 13.0, 104.0, 121.0, 56.0, 0.0, 0.0, 0.0, 1.6620648652602158E9, 0.0, 2022-09-01 16:41:05.260
90.0, -21165.38091485273, -21550.859099728954, -29517.065527089304, -17204.31652120549, -12759.918005456688, -16617.247953086848, 27430.329016486292, -15510.568381615685, -25190.5948150867, -3059.6185397647073, -31150.620418860963, -27590.076934108372, -8356.89256869466, 6808.8330994645485, -9465.807314611355, -22188.64377601669, 0.162, 0.8572500000000001, -0.43274999999999997, 192.0, 0.0, 0.0, 0.0, 0.0, 0.0, 0.0, 0.0, 0.0, 0.0, 1.6620648652602222E9, 0.0, 2022-09-01 16:41:05.260
92.0, -21085.69694586956, -21482.552168673537, -29422.182371876526, -17128.432348779723, -12676.210722471562, -16566.08481002865, 27161.079902777663, -15433.410159755966, -25117.348148506662, -2946.6528232875853, -31055.84902237046, -27490.164636393147, -8292.74306210793, 6959.841485004603, -9421.930840245586, -22096.867513283196, 0.162, 0.8572500000000001, -0.43274999999999997, 192.0, 0.0, 0.0, 0.0, 0.0, 0.0, 0.0, 0.0, 0.0, 0.0, 1.6620648652602289E9, 0.0, 2022-09-01 16:41:05.260
94.0, -21159.971792694545, -21550.099140417475, -29505.04028857235, -17184.490523873632, -12766.422363093181, -16621.651246744543, 27465.041275625383, -15504.756928057306, -25165.449102574483, -3033.1317225851685, -31115.528180066132, -27570.809730387897, -8335.501949250931, 6846.026402238179, -9457.894797074176, -22179.479560790012, 0.162, 0.8572500000000001, -0.43274999999999997, 192.0, 0.0, 0.0, 0.0, 0.0, 0.0, 0.0, 0.0, 0.0, 0.0, 1.662064865260235E9, 0.0, 2022-09-01 16:41:05.260
96.0, -21065.580375859783, -21460.267479451595, -29405.463267023955, -17081.00194704556, -12671.583911369315, -16547.935193530942, 27121.003224969296, -15414.969970580338, -25129.999235868363, -2923.5187677763424, -31053.122109546915, -27480.486331044, -8299.78386161135, 6980.42744164794, -9434.894852029664, -22096.71105107201, 0.162, 0.8572500000000001, -0.43274999999999997, 192.0, 0.0, 0.0, 0.0, 0.0, 0.0, 0.0, 0.0, 0.0, 0.0, 1.6620648652602417E9, 0.0, 2022-09-01 16:41:05.260
98.0, -21152.70747574657, -21537.671570500323, -29499.27353850288, -17156.975526449147, -12759.24745312303, -16615.28099957478, 27489.315270103845, -15500.644207077528, -25156.374294325626, -3007.047236805825, -31096.372735067933, -27536.72332009355, -8316.905297864116, 6840.460817868808, -9441.890948044176, -22151.316362776324, 0.164, 0.854625, -0.42937499999999995, 192.0, 2.5, 24.0, 13.0, 80.0, 121.0, 88.0, 0.0, 0.0, 0.0, 1.662064865260248E9, 0.0, 2022-09-01 16:41:05.260
100.0, -21064.798064803847, -21454.344267170938, -29409.777153703828, -17062.651164847754, -12666.577120611326, -16538.815681793178, 27091.297756588192, -15408.376205966022, -25137.7329394499, -2901.5470029767757, -31062.44278698478, -27475.233671097, -8309.149242538124, 6983.154354471488, -9443.164997478128, -22097.76158306141, 0.164, 0.854625, -0.42937499999999995, 192.0, 0.0, 0.0, 0.0, 0.0, 0.0, 0.0, 0.0, 0.0, 0.0, 1.6620648652602544E9, 0.0, 2022-09-01 16:41:05.260
102.0, -21149.444121056094, -21538.140957133885, -29493.037401799847, -17143.899755942795, -12756.8111129774, -16619.885458932575, 27508.046031957394, -15491.815268017683, -25138.26938131683, -3006.1308152831575, -31091.902386176873, -27523.96047400957, -8308.389283226643, 6838.292698656643, -9432.458511884035, -22136.407749224636, 0.164, 0.854625, -0.42937499999999995, 192.0, 0.0, 0.0, 0.0, 0.0, 0.0, 0.0, 0.0, 0.0, 0.0, 1.6620648652602663E9, 0.0, 2022-09-01 16:41:05.260
104.0, -21083.50647491294, -21466.995354532643, -29425.803354478285, -17072.28476670799, -12685.88902782071, -16560.116894259085, 27089.174340864938, -15423.687150917907, -25142.829137185712, -2948.887997733116, -31078.580746481508, -27483.81674096784, -8321.420350244087, 6983.176706215943, -9443.612032367235, -22104.17653372008, 0.164, 0.854625, -0.42937499999999995, 192.0, 0.0, 0.0, 0.0, 0.0, 0.0, 0.0, 0.0, 0.0, 0.0, 1.6620648652602732E9, 0.0, 2022-09-01 16:41:05.260
106.0, -21156.864900215256, -21543.058340914053, -29495.11611403419, -17152.30401185799, -12756.721705999578, -16623.48408978988, 27509.78946802491, -15493.938683740937, -25143.723206963925, -3003.2027367595124, -31092.61764199944, -27529.459003145577, -8309.305704749311, 6828.010896207202, -9430.290392671872, -22137.81590912532, 0.164, 0.854625, -0.42937499999999995, 192.0, 0.0, 0.0, 0.0, 0.0, 0.0, 0.0, 0.0, 0.0, 0.0, 1.662064865260282E9, 0.0, 2022-09-01 16:41:05.260
108.0, -21069.514282883916, -21453.9642875152, -29408.704269969974, -17055.073923477405, -12667.873521789734, -16521.35896937358, 27100.014936925763, -15391.724156346818, -25139.69989296197, -2935.4322475710214, -31076.345572035978, -27492.53392130541, -8315.430082730065, 6970.324453154141, -9440.371029421214, -22093.201827192526, 0.164, 0.8533124999999999, -0.4276875, 192.0, 2.5, 16.0, 13.0, 80.0, 121.0, 88.0, 0.0, 0.0, 0.0, 1.66206486526029E9, 0.0, 2022-09-01 16:41:05.260
110.0, -21176.601490569294, -21565.991230725198, -29502.55924493781, -17168.911357988283, -12748.563319273391, -16625.33928457967, 27501.228749898524, -15494.11749769658, -25126.154735822052, -2992.4738994209647, -31076.278516802613, -27520.384194896724, -8285.434041671044, 6852.061373241112, -9409.279752883882, -22096.912216772107, 0.164, 0.8533124999999999, -0.4276875, 192.0, 0.0, 0.0, 0.0, 0.0, 0.0, 0.0, 0.0, 0.0, 0.0, 1.6620648652602985E9, 0.0, 2022-09-01 16:41:05.260
112.0, -21095.107030285246, -21479.624090149893, -29437.2474476394, -17086.36636571483, -12680.837533573811, -16537.31811491467, 27120.13150693554, -15418.032159570714, -25189.343117397206, -2977.632341102641, -31128.82746801704, -27543.093567263317, -8350.544673269353, 6926.246813088276, -9473.697480404076, -22124.114289774214, 0.164, 0.8533124999999999, -0.4276875, 192.0, 0.0, 0.0, 0.0, 0.0, 0.0, 0.0, 0.0, 0.0, 0.0, 1.6620648652603056E9, 0.0, 2022-09-01 16:41:05.260
114.0, -21164.732714263526, -21556.17881490932, -29493.75265762242, -17169.02311671056, -12742.505996526002, -16627.216831113914, 27476.798293208874, -15497.291445409233, -25114.420069983014, -2965.338881652222, -31073.439845256788, -27511.845828514797, -8274.951073521504, 6878.235265998276, -9408.43038659458, -22097.336899916758, 0.164, 0.8533124999999999, -0.4276875, 192.0, 0.0, 0.0, 0.0, 0.0, 0.0, 0.0, 0.0, 0.0, 0.0, 1.662064865260396E9, 0.0, 2022-09-01 16:41:05.260
116.0, -21087.954472059548, -21471.957441801722, -29436.44278483901, -17083.214769746635, -12689.420603444649, -16537.94396375942, 27153.27914396276, -15418.121566548536, -25183.933995239022, -2993.8373558327385, -31130.63795931792, -27548.122709765757, -8353.450400048543, 6921.977629897312, -9478.25723627296, -22144.879060373194, 0.164, 0.8533124999999999, -0.4276875, 192.0, 0.0, 0.0, 0.0, 0.0, 0.0, 0.0, 0.0, 0.0, 0.0, 1.6620648652604015E9, 0.0, 2022-09-01 16:41:05.260
118.0, -21139.497594773486, -21538.565640278535, -29472.339686434232, -17152.080494413436, -12723.507013738992, -16610.609484983623, 27438.66621716812, -15482.092259179624, -25092.135380761076, -2961.9414164950153, -31047.578876921998, -27493.003307938972, -8263.395221638111, 6880.917475332913, -9398.595619034246, -22090.65372832462, 0.161, 0.8546562499999999, -0.42784374999999997, 192.0, 2.0, 120.0, 13.0, 96.0, 121.0, 80.0, 0.0, 0.0, 0.0, 1.6620648652604072E9, 0.0, 2022-09-01 16:41:05.260
120.0, -21085.048745280357, -21474.59494764745, -29433.29118887081, -17085.5840546589, -12694.203876758085, -16546.683495841444, 27198.496722995846, -15427.732816664316, -25172.624012544635, -2984.404919672599, -31113.740040509707, -27543.182974241136, -8346.3201935673, 6897.03308308519, -9473.429259470613, -22148.164766808128, 0.161, 0.8546562499999999, -0.42784374999999997, 192.0, 0.0, 0.0, 0.0, 0.0, 0.0, 0.0, 0.0, 0.0, 0.0, 1.6620648657408395E9, 0.0, 2022-09-01 16:41:05.740
122.0, -21145.53256577642, -21549.517995061637, -29470.573898622264, -17161.177654406747, -12727.329162040849, -16631.888345705076, 27388.33008865477, -15492.329358140154, -25106.060517556733, -2956.755811781384, -31042.90736233084, -27493.092714916795, -8275.040480499325, 6888.718234147816, -9403.222430136495, -22091.503094613923, 0.161, 0.8546562499999999, -0.42784374999999997, 192.0, 0.0, 0.0, 0.0, 0.0, 0.0, 0.0, 0.0, 0.0, 0.0, 1.6620648657409327E9, 0.0, 2022-09-01 16:41:05.740
124.0, -21112.206114793553, -21501.26057878263, -29456.06761647077, -17110.774470660028, -12713.784004900934, -16573.796161865732, 27241.34501711667, -15452.67736347644, -25188.002012729885, -3006.667257150085, -31131.576732585043, -27567.635782675243, -8362.882836208682, 6875.731870619282, -9479.710099662554, -22165.934403650095, 0.161, 0.8546562499999999, -0.42784374999999997, 192.0, 0.0, 0.0, 0.0, 0.0, 0.0, 0.0, 0.0, 0.0, 0.0, 1.6620648657409885E9, 0.0, 2022-09-01 16:41:05.740
126.0, -21134.98254239351, -21534.475271043215, -29455.64293332612, -17131.20396509218, -12720.17660381515, -16628.535584036777, 27329.187372826025, -15487.859009249094, -25106.909883846034, -2944.3505936086885, -31046.215420510223, -27488.06357241435, -8284.227047470456, 6905.280876789198, -9404.205906892528, -22078.807303763308, 0.161, 0.8546562499999999, -0.42784374999999997, 192.0, 0.0, 0.0, 0.0, 0.0, 0.0, 0.0, 0.0, 0.0, 0.0, 1.6620648657409933E9, 0.0, 2022-09-01 16:41:05.740
128.0, -21121.817364909337, -21504.188657306273, -29464.53892761933, -17086.545179670477, -12731.464234765082, -16581.663975913998, 27297.134971277115, -15467.027183416747, -25197.300338423294, -3028.2813940383667, -31140.204505944792, -27562.092550050325, -8373.70108052505, 6850.317937173598, -9479.799506640376, -22152.880984888197, 0.1615, 0.8543281249999999, -0.430921875, 192.0, 2.5, 8.0, 13.0, 88.0, 121.0, 56.0, 0.0, 0.0, 0.0, 1.6620648657409992E9, 0.0, 2022-09-01 16:41:05.740
130.0, -21114.150716561166, -21509.173096319806, -29445.048206454303, -17092.37898497331, -12690.292321478406, -16596.103202832128, 27275.69964834448, -15463.719125237361, -25101.567816921215, -2920.635392741608, -31038.280551228592, -27452.166670819126, -8274.660500843585, 6941.84833071808, -9397.34392134475, -22045.056169635795, 0.1615, 0.8543281249999999, -0.430921875, 192.0, 0.0, 0.0, 0.0, 0.0, 0.0, 0.0, 0.0, 0.0, 0.0, 1.6620648657410035E9, 0.0, 2022-09-01 16:41:05.741
132.0, -21141.464548285552, -21524.014654638133, -29491.87511108817, -17119.87163065334, -12745.545833771925, -16589.040051584252, 27347.4040445571, -15487.143753426524, -25191.17596044254, -3020.435931734554, -31140.33861641152, -27557.93512558164, -8364.626272276197, 6845.221739437788, -9472.535189692402, -22147.784787152385, 0.1615, 0.8543281249999999, -0.430921875, 192.0, 0.0, 0.0, 0.0, 0.0, 0.0, 0.0, 0.0, 0.0, 0.0, 1.662064865741009E9, 0.0, 2022-09-01 16:41:05.741
134.0, -21101.723146644013, -21500.165343304318, -29441.583686063732, -17114.10488058387, -12688.548885410892, -16567.917653073986, 27220.24497035086, -15461.126322880546, -25120.231523541395, -2932.3030033472783, -31049.612885667433, -27474.63017399671, -8293.4583179305, 6936.528615537717, -9419.494500099958, -22067.206748391003, 0.1615, 0.8543281249999999, -0.430921875, 192.0, 0.0, 0.0, 0.0, 0.0, 0.0, 0.0, 0.0, 0.0, 0.0, 1.662064865741019E9, 0.0, 2022-09-01 16:41:05.741
136.0, -21148.773568722438, -21539.191489123285, -29502.69335540454, -17160.127122417347, -12753.14542688673, -16607.18966808196, 27395.482646880468, -15505.82981179116, -25179.55305332578, -3025.4203707480874, -31127.508715094176, -27572.396704244224, -8355.171484371602, 6824.412265349897, -9475.373861238226, -22160.927612892105, 0.1615, 0.8543281249999999, -0.430921875, 192.0, 0.0, 0.0, 0.0, 0.0, 0.0, 0.0, 0.0, 0.0, 0.0, 1.6620648657410235E9, 0.0, 2022-09-01 16:41:05.741
138.0, -21106.66288216864, -21504.7250991732, -29441.762500019373, -17125.1913458337, -12694.09211803581, -16598.584246466668, 27160.94579231093, -15468.770619484261, -25123.360767765138, -2928.0114684118594, -31054.798490381065, -27491.30457536037, -8306.69055064804, 6949.202054643876, -9441.376857921703, -22080.014297963895, 0.1615, 0.8543281249999999, -0.430921875, 192.0, 0.0, 0.0, 0.0, 0.0, 0.0, 0.0, 0.0, 0.0, 0.0, 1.662064865741028E9, 0.0, 2022-09-01 16:41:05.741
140.0, -21170.745333522, -21554.234213141706, -29511.03055608637, -17174.521645846566, -12772.747906774033, -16635.643438773568, 27426.976254817993, -15526.840451579148, -25189.052544719285, -3042.2288825784785, -31135.510639609176, -27581.11388458179, -8364.447458320554, 6799.53477377114, -9487.153230566171, -22167.34256355078, 0.17, 0.858, -0.44, 192.0, 2.5, 40.0, 13.0, 104.0, 121.0, 32.0, 0.0, 0.0, 0.0, 1.6620648657410326E9, 0.0, 2022-09-01 16:41:05.741
142.0, -21069.82720730629, -21464.179034731274, -29403.67512746753, -17081.650147634762, -12664.833684543812, -16561.145074504027, 27122.389033125524, -15431.95729636637, -25123.271360787316, -2915.8744711726276, -31050.551658934553, -27476.597127508776, -8306.757605881407, 6960.75790652727, -9436.638288097178, -22068.74901875842, 0.17, 0.858, -0.44, 192.0, 0.0, 0.0, 0.0, 0.0, 0.0, 0.0, 0.0, 0.0, 0.0, 1.6620648657410488E9, 0.0, 2022-09-01 16:41:05.741
144.0, -21144.929068676123, -21535.950486177266, -29489.483474431454, -17160.77532300655, -12759.448618823126, -16622.5229647783, 27469.265755327437, -15510.814250804693, -25143.320875563728, -3012.9257455975708, -31090.02483964263, -27536.276285204447, -8326.963582869004, 6831.855396253514, -9443.813198067332, -22124.650731641144, 0.17, 0.858, -0.44, 192.0, 0.0, 0.0, 0.0, 0.0, 0.0, 0.0, 0.0, 0.0, 0.0, 1.662064865741053E9, 0.0, 2022-09-01 16:41:05.741
146.0, -21067.92730902759, -21463.10615099742, -29401.551711744276, -17085.293481980978, -12676.434239916116, -16561.23448148185, 27088.146160619995, -15434.72891267883, -25131.742671935877, -2923.7646369653507, -31054.530269447598, -27483.704982245563, -8314.111329807201, 6970.19034268741, -9441.309802688338, -22078.829655507765, 0.17, 0.858, -0.44, 192.0, 0.0, 0.0, 0.0, 0.0, 0.0, 0.0, 0.0, 0.0, 0.0, 1.6620648657410576E9, 0.0, 2022-09-01 16:41:05.741
148.0, -21163.056333429377, -21552.51312881865, -29492.366849466187, -17171.370049878366, -12772.971424218587, -16635.039941673273, 27483.90614794566, -15524.627628878074, -25145.734863964903, -3009.4612252069983, -31085.085104118003, -27538.064424760872, -8317.21822228649, 6827.653268295917, -9433.754913062443, -22125.298932230347, 0.17, 0.858, -0.44, 192.0, 0.0, 0.0, 0.0, 0.0, 0.0, 0.0, 0.0, 0.0, 0.0, 1.6620648657410622E9, 0.0, 2022-09-01 16:41:05.741
150.0, -21055.052704221333, -21446.610563589402, -29387.49246448189, -17056.727952567097, -12661.927957764621, -16531.640771823022, 27075.673887213932, -15414.76880488024, -25136.235372571395, -2927.0950468891915, -31054.977304336706, -27481.514511288944, -8312.725521650973, 6964.915330995957, -9432.145587461662, -22071.163007159594, 0.166, 0.852, -0.434, 192.0, 2.5, 24.0, 13.0, 80.0, 121.0, 56.0, 0.0, 0.0, 0.0, 1.6620648657410667E9, 0.0, 2022-09-01 16:41:05.741
152.0, -21165.135045663723, -21556.916422476344, -29500.03349781436, -17163.099904429902, -12767.964633460599, -16632.022456171806, 27493.271528872436, -15523.085358510658, -25141.085701118198, -2992.8315273322496, -31076.39027552489, -27522.462907131066, -8309.573925682775, 6830.760160775204, -9415.739407031466, -22103.349519175234, 0.166, 0.852, -0.434, 192.0, 0.0, 0.0, 0.0, 0.0, 0.0, 0.0, 0.0, 0.0, 0.0, 1.6620648657410712E9, 0.0, 2022-09-01 16:41:05.741
154.0, -21070.25189045094, -21461.541528885547, -29420.751860231387, -17064.171083470712, -12684.07853651983, -16542.07903648365, 27067.046113854187, -15432.449034744388, -25155.994314669886, -2934.7169917484516, -31079.184243581803, -27495.86433122925, -8338.072399863291, 6954.834694246614, -9453.826779583309, -22083.79174277684, 0.166, 0.852, -0.434, 192.0, 0.0, 0.0, 0.0, 0.0, 0.0, 0.0, 0.0, 0.0, 0.0, 1.6620648657410758E9, 0.0, 2022-09-01 16:41:05.741
156.0, -21167.370220109253, -21563.13020743492, -29515.27738753288, -17172.93467199024, -12777.173552176184, -16650.48499709189, 27474.093732129782, -15538.530413929275, -25130.60273296866, -3000.140547769135, -31074.57978422401, -27519.2442559295, -8306.131757036657, 6839.54439634614, -9436.168901463616, -22115.978254792484, 0.166, 0.852, -0.434, 192.0, 0.0, 0.0, 0.0, 0.0, 0.0, 0.0, 0.0, 0.0, 0.0, 1.6620648657410803E9, 0.0, 2022-09-01 16:41:05.741
158.0, -21054.65037282114, -21443.97305774368, -29410.425354293035, -17055.09627522186, -12669.147571223686, -16531.439606122924, 27081.127712861027, -15418.389787482, -25173.78630325631, -2955.0123757138704, -31095.00927865616, -27518.417241384657, -8352.533978525875, 6931.61123175755, -9480.201838040572, -22129.881039843684, 0.166, 0.852, -0.434, 192.0, 0.0, 0.0, 0.0, 0.0, 0.0, 0.0, 0.0, 0.0, 0.0, 1.6620648657410848E9, 0.0, 2022-09-01 16:41:05.741
160.0, -21141.17397560763, -21536.799852466567, -29481.12392200517, -17149.040657167516, -12736.51572901198, -16614.7222059634, 27472.05972338435, -15500.487744866341, -25092.33654646117, -2945.825808742739, -31027.48465865668, -27476.66418274214, -8264.557512349786, 6875.374242707997, -9389.073775896284, -22077.577957818266, 0.168, 0.852, -0.43, 192.0, 2.5, 32.0, 13.0, 80.0, 121.0, 72.0, 0.0, 0.0, 0.0, 1.662064865741089E9, 0.0, 2022-09-01 16:41:05.741
162.0, -21069.871910795202, -21457.652325350326, -29425.28926435581, -17065.869816049315, -12679.094097506297, -16520.062568195175, 27121.89729474751, -15419.082691560114, -25174.523910823336, -2971.083279977236, -31101.401877570377, -27524.273398431946, -8356.55729252783, 6921.016504885734, -9469.24948325747, -22120.783879850376, 0.168, 0.852, -0.43, 192.0, 0.0, 0.0, 0.0, 0.0, 0.0, 0.0, 0.0, 0.0, 0.0, 1.6620648657410936E9, 0.0, 2022-09-01 16:41:05.741
164.0, -21133.261458070454, -21527.54623026207, -29479.49224465993, -17145.95611643268, -12725.250449806506, -16606.653226215032, 27446.645789938666, -15489.334224383143, -25093.700002872945, -2946.5187128208536, -31033.832554081986, -27474.987801907995, -8268.692585074019, 6888.628827169994, -9384.312854327305, -22062.5575855443, 0.168, 0.852, -0.43, 192.0, 0.0, 0.0, 0.0, 0.0, 0.0, 0.0, 0.0, 0.0, 0.0, 1.6620648657410982E9, 0.0, 2022-09-01 16:41:05.741
166.0, -21070.74362882896, -21458.47933989517, -29437.895648228605, -17077.112743510337, -12682.22334173004, -16527.170422931962, 27165.259678990806, -15423.240116028801, -25172.60166080018, -2959.5497798382976, -31109.403802085377, -27528.229657200536, -8352.958661670526, 6913.975705382312, -9456.35252670676, -22115.642978625656, 0.168, 0.852, -0.43, 192.0, 0.0, 0.0, 0.0, 0.0, 0.0, 0.0, 0.0, 0.0, 0.0, 1.662064865741104E9, 0.0, 2022-09-01 16:41:05.741
168.0, -21139.56465000685, -21535.83872745499, -29479.447541171023, -17155.612070037376, -12727.217403318573, -16622.65707524503, 27400.623548105188, -15496.419727375476, -25086.033354524774, -2939.0085266838705, -31027.14938248985, -27469.042237882884, -8270.436021141531, 6912.098158848066, -9376.132115856662, -22055.293268596324, 0.168, 0.852, -0.43, 192.0, 0.0, 0.0, 0.0, 0.0, 0.0, 0.0, 0.0, 0.0, 0.0, 1.6620648657411084E9, 0.0, 2022-09-01 16:41:05.741
170.0, -21112.02730083791, -21495.33736650197, -29449.78677627883, -17104.136002556803, -12723.149385827708, -16558.216995980383, 27206.096316110652, -15451.470369275854, -25200.65310009159, -3010.958792085504, -31129.900351750894, -27559.49974769351, -8384.541676585875, 6871.842667084059, -9473.295149003881, -22144.85670862874, 0.168, 0.85, -0.428, 192.0, 2.5, 32.0, 13.0, 72.0, 121.0, 80.0, 0.0, 0.0, 0.0, 1.6620648657411127E9, 0.0, 2022-09-01 16:41:05.741
172.0, -21148.930030933625, -21541.896050202377, -29462.102587473702, -17144.883232698827, -12729.631391719746, -16610.81065068372, 27346.509974778888, -15490.407108116999, -25107.289863501774, -2942.920081963549, -31038.459365184233, -27480.799255466376, -8285.814021326783, 6899.759995908737, -9388.872610196187, -22052.499300539414, 0.168, 0.85, -0.428, 192.0, 0.0, 0.0, 0.0, 0.0, 0.0, 0.0, 0.0, 0.0, 0.0, 1.6620648657411172E9, 0.0, 2022-09-01 16:41:05.741
174.0, -21121.45973699805, -21500.902950871343, -29448.44567161151, -17095.843505363882, -12712.129975811242, -16545.36474291858, 27264.434369139002, -15451.67153497595, -25211.113716496675, -3005.370855971677, -31139.958636755782, -27565.802939629906, -8375.04218519237, 6856.151742476433, -9468.489523945991, -22130.48453694398, 0.168, 0.85, -0.428, 192.0, 0.0, 0.0, 0.0, 0.0, 0.0, 0.0, 0.0, 0.0, 0.0, 1.6620648657411218E9, 0.0, 2022-09-01 16:41:05.741
176.0, -21118.196382307575, -21515.006901622644, -29430.743090002907, -17111.936761371704, -12688.168905755152, -16575.85252235562, 27302.63350041312, -15466.602500272096, -25095.957529062933, -2923.250546842879, -31027.90934180133, -27461.71086570154, -8265.742154805917, 6938.473217305329, -9371.550008243325, -22021.340968768713, 0.168, 0.85, -0.428, 192.0, 0.0, 0.0, 0.0, 0.0, 0.0, 0.0, 0.0, 0.0, 0.0, 1.6620648657411263E9, 0.0, 2022-09-01 16:41:05.741
178.0, -21112.1837630491, -21494.242131023664, -29452.02195072436, -17093.407165218254, -12711.302961266394, -16550.527995887758, 27326.438108258022, -15456.253642589289, -25178.88250099212, -3001.0346175473474, -31115.48347657722, -27548.59209639932, -8354.255062848933, 6855.503541887229, -9446.67422135761, -22109.876228556186, 0.168, 0.85, -0.428, 192.0, 0.0, 0.0, 0.0, 0.0, 0.0, 0.0, 0.0, 0.0, 0.0, 1.6620648657411308E9, 0.0, 2022-09-01 16:41:05.741
180.0, -21117.458774740553, -21512.324692288006, -29446.948104733005, -17109.56747645944, -12692.683958135123, -16584.90497886002, 27244.027226451308, -15473.196264886412, -25098.617386653113, -2907.7384361908958, -31020.13093473088, -27451.697284185564, -8272.693547331519, 6957.5169035812505, -9380.602464747722, -22017.40706174458, 0.168, 0.858, -0.436, 192.0, 2.5, 32.0, 13.0, 104.0, 121.0, 48.0, 0.0, 0.0, 0.0, 1.6620648657411351E9, 0.0, 2022-09-01 16:41:05.741
182.0, -21138.380007550717, -21520.77365169211, -29472.809073067794, -17115.40128176228, -12728.156176585697, -16573.013850809795, 27375.544890826335, -15486.249683648311, -25198.060297734773, -3036.5515394868303, -31130.21327617327, -27566.674657663665, -8370.393022345665, 6818.019666435679, -9466.008480311451, -22129.590467165766, 0.168, 0.858, -0.436, 192.0, 0.0, 0.0, 0.0, 0.0, 0.0, 0.0, 0.0, 0.0, 0.0, 1.66206486574114E9, 0.0, 2022-09-01 16:41:05.741
184.0, -21106.126440301712, -21496.678471169293, -29418.896665441593, -17091.57432217292, -12665.258367688462, -16565.52601641727, 27189.399563002535, -15455.784255955728, -25106.641662912567, -2905.704427445463, -31019.683899841777, -27450.490289984977, -8279.01909101237, 6959.595615815594, -9388.984368918464, -22013.4955064649, 0.168, 0.858, -0.436, 192.0, 0.0, 0.0, 0.0, 0.0, 0.0, 0.0, 0.0, 0.0, 0.0, 1.6620648657411551E9, 0.0, 2022-09-01 16:41:05.741
186.0, -21151.52283329044, -21533.894125687377, -29487.762390108397, -17135.4955000276, -12748.317450084383, -16588.36949925059, 27415.755679101432, -15508.154393214512, -25185.096285950698, -3020.659449179107, -31115.125848665935, -27555.118805780272, -8359.194798373557, 6823.9205269718805, -9447.143607991173, -22117.207600737525, 0.168, 0.858, -0.436, 192.0, 0.0, 0.0, 0.0, 0.0, 0.0, 0.0, 0.0, 0.0, 0.0, 1.66206486574116E9, 0.0, 2022-09-01 16:41:05.741
188.0, -21090.16729476062, -21485.904930341832, -29427.815011479262, -17087.774525615518, -12682.22334173004, -16562.933214060453, 27137.23059144385, -15460.366363569066, -25126.11003233314, -2919.0037153963704, -31043.175583264303, -27464.594240736278, -8311.987914083948, 6958.008641959267, -9411.313761629315, -22040.60817248919, 0.168, 0.858, -0.436, 192.0, 0.0, 0.0, 0.0, 0.0, 0.0, 0.0, 0.0, 0.0, 0.0, 1.6620648657411644E9, 0.0, 2022-09-01 16:41:05.741
190.0, -21155.479092059028, -21541.35960833545, -29507.87896011817, -17152.81810198046, -12764.500113070026, -16614.766909452308, 27446.757548660942, -15528.874460324581, -25171.215852643953, -3016.412617732599, -31108.10740090697, -27546.379273698247, -8352.84690294825, 6817.371465846475, -9442.360334677736, -22122.594371151255, 0.162, 0.858, -0.436, 192.0, 2.5, 8.0, 13.0, 104.0, 121.0, 48.0, 0.0, 0.0, 0.0, 1.662064865741169E9, 0.0, 2022-09-01 16:41:05.741
192.0, -21059.478349623485, -21453.561956115005, -29410.939444415504, -17073.894092308772, -12662.55380660937, -16549.87979529855, 27099.50084680329, -15442.52967149373, -25112.698985659958, -2900.3176570317337, -31032.647911625852, -27457.709903444043, -8307.3611029817, 6957.762772770259, -9409.7714912619, -22041.63635273413, 0.162, 0.858, -0.436, 192.0, 0.0, 0.0, 0.0, 0.0, 0.0, 0.0, 0.0, 0.0, 0.0, 1.6620648657411735E9, 0.0, 2022-09-01 16:41:05.741
194.0, -21164.33038286333, -21553.74247476369, -29511.902274120126, -17176.73446854764, -12770.870360239787, -16626.747444480356, 27470.316287316837, -15540.139739530057, -25149.69112273349, -3009.237707762445, -31087.856720430464, -27539.22671547255, -8336.17250158459, 6802.77577671716, -9429.552785104846, -22113.340748946757, 0.162, 0.858, -0.436, 192.0, 0.0, 0.0, 0.0, 0.0, 0.0, 0.0, 0.0, 0.0, 0.0, 1.6620648657411783E9, 0.0, 2022-09-01 16:41:05.741
196.0, -21075.303384697843, -21464.357848686916, -29408.972490903438, -17080.979595301105, -12673.550864881381, -16540.581469605146, 27072.276422056726, -15443.691962205407, -25149.60171575567, -2941.824846485239, -31063.828595141007, -27493.673860272633, -8335.07726610628, 6959.752078026781, -9435.118369474218, -22066.93852745754, 0.162, 0.858, -0.436, 192.0, 0.0, 0.0, 0.0, 0.0, 0.0, 0.0, 0.0, 0.0, 0.0, 1.6620648657411828E9, 0.0, 2022-09-01 16:41:05.741
198.0, -21174.05339170139, -21561.07384694503, -29508.281291518368, -17175.34866039141, -12766.645880537735, -16629.608467770635, 27483.459113056557, -15540.519719185797, -25150.831061700712, -3015.4514927210207, -31084.2357378287, -27534.44344215911, -8325.980106112971, 6815.963305945791, -9415.270020397904, -22098.3650801617, 0.162, 0.858, -0.436, 192.0, 0.0, 0.0, 0.0, 0.0, 0.0, 0.0, 0.0, 0.0, 0.0, 1.6620648657411883E9, 0.0, 2022-09-01 16:41:05.741
200.0, -21077.40444867664, -21461.407418418818, -29409.374822303635, -17067.166217227725, -12666.107733977764, -16528.55623108819, 27064.654477197466, -15439.713351692362, -25161.045808916788, -2933.107666147669, -31076.077351102515, -27495.730220762518, -8344.2191295885, 6941.557758040161, -9438.739352075978, -22062.155254144105, 0.168, 0.858, -0.44, 192.0, 2.5, 32.0, 13.0, 104.0, 121.0, 32.0, 0.0, 0.0, 0.0, 1.6620648657411928E9, 0.0, 2022-09-01 16:41:05.741
202.0, -21178.61314757027, -21567.622908070436, -29503.54272169384, -17171.995898723115, -12766.467066582092, -16623.640552001067, 27487.460075314055, -15539.178614518478, -25136.59300048268, -2970.6362450881297, -31075.317391791035, -27523.245218187003, -8312.211431528502, 6820.29954437012, -9405.569363304301, -22074.7616380169, 0.168, 0.858, -0.44, 192.0, 0.0, 0.0, 0.0, 0.0, 0.0, 0.0, 0.0, 0.0, 0.0, 1.6620648657411973E9, 0.0, 2022-09-01 16:41:05.741
204.0, -21093.385945962185, -21476.58425290397, -29420.617749764653, -17077.29155746598, -12681.373975440738, -16528.533879343733, 27076.590308736602, -15444.206052327878, -25180.961213226466, -2958.6110065711746, -31099.30081359158, -27521.702947819587, -8359.731240240484, 6922.89405141998, -9453.133875505195, -22079.813132263796, 0.168, 0.858, -0.44, 192.0, 0.0, 0.0, 0.0, 0.0, 0.0, 0.0, 0.0, 0.0, 0.0, 1.662064865741202E9, 0.0, 2022-09-01 16:41:05.741
206.0, -21181.541226093916, -21562.660820801357, -29492.165683766092, -17172.845265012416, -12750.932604185655, -16616.264476330816, 27479.502854287966, -15529.545012658242, -25131.921485891522, -2991.333960453744, -31064.834423641496, -27513.16458143766, -8303.941286080037, 6858.521027388696, -9392.00185441993, -22062.46817856648, 0.168, 0.858, -0.44, 192.0, 0.0, 0.0, 0.0, 0.0, 0.0, 0.0, 0.0, 0.0, 0.0, 1.6620648657412064E9, 0.0, 2022-09-01 16:41:05.741
208.0, -21098.526847186906, -21476.62895639288, -29430.720738258453, -17083.997080802572, -12686.291359220906, -16528.399768877003, 27104.440582327916, -15449.212843085867, -25185.096285950698, -2971.6867770775293, -31104.933453194317, -27528.274360689447, -8361.65349026364, 6923.005810142256, -9445.735448090489, -22080.573091575276, 0.168, 0.858, -0.44, 192.0, 0.0, 0.0, 0.0, 0.0, 0.0, 0.0, 0.0, 0.0, 0.0, 1.662064865741211E9, 0.0, 2022-09-01 16:41:05.741
210.0, -21160.75410375048, -21551.01556194014, -29492.635070399654, -17164.619823052864, -12739.667324980179, -16611.794127439753, 27462.627287224208, -15526.996913790335, -25131.005064368852, -2980.694530093018, -31058.5312317051, -27505.63204355622, -8302.287256990345, 6844.774704548682, -9390.124307885684, -22051.426416805556, 0.169, 0.857, -0.437, 192.0, 2.5, 40.0, 13.0, 96.0, 121.0, 56.0, 0.0, 0.0, 0.0, 1.6620648657412157E9, 0.0, 2022-09-01 16:41:05.741
212.0, -21095.621120407715, -21475.757238359125, -29448.35626463369, -17088.579188415908, -12698.249542504496, -16532.46778636787, 27141.544478123724, -15461.595709514108, -25190.572463342247, -2979.7334050814397, -31113.02478468714, -27536.74567183801, -8383.312330640832, 6899.335312764087, -9463.795657610377, -22096.80045804983, 0.169, 0.857, -0.437, 192.0, 0.0, 0.0, 0.0, 0.0, 0.0, 0.0, 0.0, 0.0, 0.0, 1.66206486574122E9, 0.0, 2022-09-01 16:41:05.741
214.0, -21166.744371264504, -21555.37415210893, -29495.451390201022, -17160.887081728826, -12740.471987780571, -16611.481203017378, 27424.361100716724, -15531.824890592683, -25110.195590280964, -2927.206805611468, -31039.487545429176, -27479.994592665982, -8300.521469178375, 6879.084632287578, -9392.918275942597, -22040.40700678909, 0.169, 0.857, -0.437, 192.0, 0.0, 0.0, 0.0, 0.0, 0.0, 0.0, 0.0, 0.0, 0.0, 1.6620648657412243E9, 0.0, 2022-09-01 16:41:05.741
216.0, -21124.588981221794, -21503.763974161622, -29461.63320084014, -17104.42657523472, -12722.411778260683, -16540.335600416136, 27186.29267052325, -15477.241930632823, -25211.404289174592, -2998.1288907681574, -31135.175363442348, -27560.818500616373, -8399.204420948556, 6869.272216471698, -9483.487544475502, -22117.878153071186, 0.169, 0.857, -0.437, 192.0, 0.0, 0.0, 0.0, 0.0, 0.0, 0.0, 0.0, 0.0, 0.0, 1.6620648657412293E9, 0.0, 2022-09-01 16:41:05.741
218.0, -21157.490749060005, -21549.965029950745, -29471.646782356118, -17157.087285171423, -12731.79951093191, -16603.14400233555, 27372.70621928051, -15519.576134631174, -25119.583322952192, -2961.181457183535, -31040.068690785014, -27487.39302008069, -8293.54772490832, 6909.281839046698, -9391.331302086272, -22035.444919520014, 0.169, 0.857, -0.437, 192.0, 0.0, 0.0, 0.0, 0.0, 0.0, 0.0, 0.0, 0.0, 0.0, 1.6620648657412336E9, 0.0, 2022-09-01 16:41:05.741
220.0, -21125.237181810997, -21507.54141897457, -29455.86645077067, -17115.803613162472, -12725.161042828686, -16550.5056441433, 27236.360578103137, -15482.271073135267, -25202.597701859202, -3021.5088154684086, -31123.93243598133, -27562.092550050325, -8381.23361840649, 6862.83491406857, -9465.315576233337, -22112.93841754656, 0.1695, 0.8554999999999999, -0.4365, 192.0, 2.5, 40.0, 13.0, 88.0, 121.0, 48.0, 0.0, 0.0, 0.0, 1.662064865741238E9, 0.0, 2022-09-01 16:41:05.741
222.0, -21136.167184849644, -21531.390730308383, -29451.999598979903, -17144.59266002091, -12718.522574725459, -16593.42099349749, 27328.405061770092, -15507.908524025504, -25111.02260482581, -2932.0347824138144, -31021.047356253548, -27466.918822159627, -8288.2056579835, 6907.583106468094, -9377.450868779524, -22024.090233336716, 0.1695, 0.8554999999999999, -0.4365, 192.0, 0.0, 0.0, 0.0, 0.0, 0.0, 0.0, 0.0, 0.0, 0.0, 1.662064865741243E9, 0.0, 2022-09-01 16:41:05.741
224.0, -21138.603524995273, -21520.46072726974, -29476.25124171391, -17138.490633784608, -12742.126016870263, -16571.672746142478, 27299.414849211556, -15506.723881569373, -25208.543265884313, -3022.1570160576125, -31128.15691568338, -27567.635782675243, -8396.365749402732, 6834.872881754981, -9466.701384389566, -22134.82077536831, 0.1695, 0.8554999999999999, -0.4365, 192.0, 0.0, 0.0, 0.0, 0.0, 0.0, 0.0, 0.0, 0.0, 0.0, 1.6620648657412472E9, 0.0, 2022-09-01 16:41:05.741
226.0, -21119.202210808064, -21512.682320199292, -29436.82276449475, -17131.494537770097, -12697.646045404203, -16577.752420634322, 27275.342020433192, -15497.961997742892, -25105.837000112177, -2909.3254100472227, -31017.784001563075, -27462.068493612827, -8296.632265643151, 6923.475196775818, -9378.032014135362, -22031.73452994043, 0.1695, 0.8554999999999999, -0.4365, 192.0, 0.0, 0.0, 0.0, 0.0, 0.0, 0.0, 0.0, 0.0, 0.0, 1.6620648657412524E9, 0.0, 2022-09-01 16:41:05.741
228.0, -21154.920298447647, -21536.30811408855, -29484.901366818118, -17144.30208734299, -12750.530272785458, -16581.19458928044, 27349.236887602437, -15527.354541701621, -25196.27215817835, -3019.2065857895122, -31121.764316769164, -27567.16639604168, -8383.245275407467, 6841.131370202466, -9456.01725053993, -22130.32807473279, 0.1695, 0.8554999999999999, -0.4365, 192.0, 0.0, 0.0, 0.0, 0.0, 0.0, 0.0, 0.0, 0.0, 0.0, 1.6620648657412567E9, 0.0, 2022-09-01 16:41:05.741
230.0, -21123.1361178322, -21514.64927371136, -29438.92382847355, -17127.806499934974, -12702.295208250905, -16589.33062426217, 27206.744516699855, -15513.83173630616, -25122.01966309782, -2932.951203936482, -31031.306806958535, -27469.66808672763, -8306.891716348138, 6934.673420747927, -9399.601447534735, -22037.32246605426, 0.16775, 0.8587499999999999, -0.43825000000000003, 192.0, 2.5, 24.0, 13.0, 120.0, 121.0, 32.0, 0.0, 0.0, 0.0, 1.6620648657412672E9, 0.0, 2022-09-01 16:41:05.741
232.0, -21153.646249013695, -21535.45874779925, -29478.776988837362, -17150.627631023843, -12748.898595440221, -16594.627987698077, 27395.259129435915, -15540.676181396984, -25186.75031504039, -3032.4164667625987, -31105.916929950352, -27556.370503469767, -8372.404679346642, 6816.656210023905, -9450.87634931521, -22123.95782756303, 0.16775, 0.8587499999999999, -0.43825000000000003, 192.0, 0.0, 0.0, 0.0, 0.0, 0.0, 0.0, 0.0, 0.0, 0.0, 1.6620648657412715E9, 0.0, 2022-09-01 16:41:05.741
234.0, -21098.549198931363, -21489.16828503231, -29407.67608972503, -17100.58207518841, -12682.357452196771, -16562.955565804907, 27169.171234270485, -15486.54025632623, -25126.244142799875, -2922.222366597935, -31019.125106230393, -27457.732255188497, -8309.864498360694, 6942.474179562829, -9396.159278888617, -22032.539192740824, 0.16775, 0.8587499999999999, -0.43825000000000003, 192.0, 0.0, 0.0, 0.0, 0.0, 0.0, 0.0, 0.0, 0.0, 0.0, 1.6620648657412765E9, 0.0, 2022-09-01 16:41:05.741
236.0, -21154.76383623646, -21535.39169256588, -29470.573898622264, -17144.95028793219, -12746.976345417064, -16585.731993404865, 27455.09474934277, -15530.59554464764, -25179.150721925584, -3013.9092223536045, -31095.813941456552, -27541.39483468471, -8353.048068648348, 6813.325800100065, -9420.254459411439, -22109.071565755792, 0.16775, 0.8587499999999999, -0.43825000000000003, 192.0, 0.0, 0.0, 0.0, 0.0, 0.0, 0.0, 0.0, 0.0, 0.0, 1.6620648657412808E9, 0.0, 2022-09-01 16:41:05.741
238.0, -21091.88837908368, -21477.00893604862, -29403.92099665654, -17093.876551851816, -12670.063992746353, -16551.913804043987, 27139.286951933736, -15475.2526253763, -25127.205267811452, -2900.831747154206, -31029.742184846666, -27458.3804557777, -8308.523393693375, 6982.550857371195, -9383.396432804637, -22032.27097180736, 0.16775, 0.8587499999999999, -0.43825000000000003, 192.0, 0.0, 0.0, 0.0, 0.0, 0.0, 0.0, 0.0, 0.0, 0.0, 1.6620648657412853E9, 0.0, 2022-09-01 16:41:05.741
240.0, -21175.461551602075, -21553.831881741513, -29499.161779780603, -17172.219416167667, -12763.650746780724, -16613.29169431826, 27486.20837762456, -15556.881196127082, -25171.46172183296, -3000.855803591705, -31095.67983098982, -27540.053730017393, -8346.007269144926, 6812.63289602195, -9409.369159861704, -22105.98702502096, 0.169875, 0.861375, -0.436125, 192.0, 2.5, 48.0, 13.5, 0.0, 121.0, 56.0, 0.0, 0.0, 0.0, 1.6620648662208133E9, 0.0, 2022-09-01 16:41:06.220
242.0, -21080.198416733554, -21467.10711325492, -29404.837418179206, -17088.80270586046, -12676.74716433849, -16540.380303905047, 27105.111134661573, -15473.084506164136, -25148.908811677553, -2930.24664285739, -31047.3777112219, -27473.333772818303, -8335.07726610628, 6957.405144858974, -9405.926991215587, -22046.486681280934, 0.169875, 0.861375, -0.436125, 192.0, 0.0, 0.0, 0.0, 0.0, 0.0, 0.0, 0.0, 0.0, 0.0, 1.6620648662209E9, 0.0, 2022-09-01 16:41:06.220
244.0, -21182.256481916487, -21566.751190036677, -29500.636994914654, -17191.531323377054, -12776.502999842525, -16632.15656663854, 27497.67482253013, -15572.549768990251, -25166.61139328616, -3022.961678858004, -31083.565185495045, -27540.16548873967, -8352.355164570232, 6803.222811606266, -9413.079549441285, -22110.27855995638, 0.169875, 0.861375, -0.436125, 192.0, 0.0, 0.0, 0.0, 0.0, 0.0, 0.0, 0.0, 0.0, 0.0, 1.6620648662209857E9, 0.0, 2022-09-01 16:41:06.220
246.0, -21092.715393628525, -21476.763066859614, -29407.541979258298, -17093.72008964063, -12668.40996365666, -16545.968240018876, 27083.25112858428, -15474.358555598088, -25159.436483316003, -2940.81901798475, -31062.554545707055, -27494.411467839658, -8351.684612236573, 6944.329374352619, -9424.009552479929, -22070.738324014943, 0.169875, 0.861375, -0.436125, 192.0, 0.0, 0.0, 0.0, 0.0, 0.0, 0.0, 0.0, 0.0, 0.0, 1.6620648662209933E9, 0.0, 2022-09-01 16:41:06.220
248.0, -21187.106810463287, -21569.142826693398, -29498.44652395803, -17182.277701172556, -12761.10264791282, -16623.90877293453, 27501.5416743209, -15563.385553763575, -25152.149814623575, -3006.533146683353, -31079.452464515267, -27529.324892678847, -8327.634135202663, 6822.735884515749, -9401.501345813436, -22093.246530681437, 0.169875, 0.861375, -0.436125, 192.0, 0.0, 0.0, 0.0, 0.0, 0.0, 0.0, 0.0, 0.0, 0.0, 1.662064866220998E9, 0.0, 2022-09-01 16:41:06.220
250.0, -21089.65320463815, -21471.890386568357, -29406.938482158006, -17083.0806592799, -12665.347774666283, -16518.65440829449, 27082.580576250624, -15457.415933300965, -25170.724114265933, -2942.0707156742474, -31080.011258126648, -27503.843903999797, -8350.589376758264, 6947.771542998737, -9421.707322801032, -22066.782065246352, 0.16593750000000002, 0.8576874999999999, -0.4350625, 192.0, 2.5, 8.0, 13.0, 88.0, 121.0, 56.0, 0.0, 0.0, 0.0, 1.6620648662210023E9, 0.0, 2022-09-01 16:41:06.221
252.0, -21194.52758962245, -21580.85514078798, -29506.87313161768, -17205.88114331736, -12763.762505503, -16631.597773027155, 27495.596110295788, -15567.36416427662, -25131.608561469147, -2977.364120169177, -31067.114301575937, -27524.139287965216, -8307.003475070414, 6834.828178266071, -9378.6131594912, -22073.286422882848, 0.16593750000000002, 0.8576874999999999, -0.4350625, 192.0, 0.0, 0.0, 0.0, 0.0, 0.0, 0.0, 0.0, 0.0, 0.0, 1.6620648662210069E9, 0.0, 2022-09-01 16:41:06.221
254.0, -21077.516207398916, -21456.221813705186, -29409.01719439235, -17090.27792099451, -12667.337079922805, -16511.63596053552, 27100.640785770513, -15455.828959444638, -25177.362582369162, -2966.568227597264, -31099.144351380393, -27532.677654347142, -8360.64766176315, 6933.309964336153, -9435.632459596689, -22087.546835845333, 0.16593750000000002, 0.8576874999999999, -0.4350625, 192.0, 0.0, 0.0, 0.0, 0.0, 0.0, 0.0, 0.0, 0.0, 0.0, 1.6620648662210116E9, 0.0, 2022-09-01 16:41:06.221
0.0, -21179.551920837395, -21564.940698735798, -29508.191884540545, -17201.74607059313, -12764.187188647651, -16631.821290471707, 27478.698191487576, -15570.26989105581, -25106.216979767916, -2965.92002700806, -31041.43214719679, -27498.837113241807, -8295.335864464745, 6859.526855889185, -9376.869723423688, -22062.959916944495, 0.16593750000000002, 0.8576874999999999, -0.4350625, 192.0, 0.0, 0.0, 0.0, 0.0, 0.0, 0.0, 0.0, 0.0, 0.0, 1.662064866221016E9, 0.0, 2022-09-01 16:41:06.221
2.0, -21121.21386780904, -21502.847552638956, -29461.27557292886, -17130.86868892535, -12722.858813149789, -16566.889472829043, 27128.111079706083, -15509.607256604108, -25203.715289081967, -2993.7032453660067, -31117.651595789386, -27553.30831447939, -8400.14319421568, 6887.3100742471315, -9473.563369937345, -22130.10455728824, 0.16593750000000002, 0.8576874999999999, -0.4350625, 192.0, 0.0, 0.0, 0.0, 0.0, 0.0, 0.0, 0.0, 0.0, 0.0, 1.6620648662210207E9, 0.0, 2022-09-01 16:41:06.221
4.0, -21159.94944095009, -21546.008771182154, -29470.998581766915, -17174.566349335473, -12734.146444099719, -16612.598790240143, 27453.127795830704, -15549.303954756733, -25134.670750459525, -2983.153221983102, -31049.501126945157, -27510.325909891835, -8314.871289118682, 6838.1809399343665, -9389.274941596383, -22075.16396941709, 0.16496875, 0.8588437499999999, -0.43253125000000003, 192.0, 2.5, 16.0, 13.0, 112.0, 121.0, 72.0, 0.0, 0.0, 0.0, 1.662064866221035E9, 0.0, 2022-09-01 16:41:06.221
6.0, -21118.062271840845, -21491.895197855854, -29436.554543561288, -17113.255514294568, -12715.348627012805, -16538.972144004365, 27180.23534777586, -15491.323529639665, -25183.6434225611, -2972.2008672000015, -31093.221139099736, -27529.59311361231, -8367.174371144101, 6894.306170261642, -9425.060084469329, -22084.909329999606, 0.16496875, 0.8588437499999999, -0.43253125000000003, 192.0, 0.0, 0.0, 0.0, 0.0, 0.0, 0.0, 0.0, 0.0, 0.0, 1.6620648662210476E9, 0.0, 2022-09-01 16:41:06.221
8.0, -21160.172958394644, -21548.98155319471, -29462.773139807363, -17176.555654591997, -12734.638182477735, -16605.33447329217, 27415.643920379156, -15537.681047639973, -25131.40739576905, -2964.288349662823, -31039.86752508492, -27496.57958705182, -8305.997646569926, 6859.124524488989, -9366.990252374442, -22037.79185268782, 0.16496875, 0.8588437499999999, -0.43253125000000003, 192.0, 0.0, 0.0, 0.0, 0.0, 0.0, 0.0, 0.0, 0.0, 0.0, 1.662064866221052E9, 0.0, 2022-09-01 16:41:06.221
10.0, -21117.659940440648, -21497.9748723477, -29448.602133822696, -17131.785110448018, -12724.222269561562, -16546.884661541542, 27227.82221172121, -15493.335186640643, -25201.167190214062, -2996.050178533814, -31108.68854626281, -27558.002180815005, -8379.110202683236, 6881.4986206887515, -9439.901642787652, -22107.03755701036, 0.16496875, 0.8588437499999999, -0.43253125000000003, 192.0, 0.0, 0.0, 0.0, 0.0, 0.0, 0.0, 0.0, 0.0, 0.0, 1.6620648662210567E9, 0.0, 2022-09-01 16:41:06.221
12.0, -21145.018475653946, -21533.827070454012, -29465.88003228665, -17173.11348594588, -12730.99484813152, -16604.686272702966, 27360.54687029682, -15529.388550447055, -25118.711604918433, -2950.1396954226134, -31025.09302199996, -27485.470770057535, -8301.035559300848, 6888.673530658905, -9380.311892069805, -22051.582879016743, 0.16496875, 0.8588437499999999, -0.43253125000000003, 192.0, 0.0, 0.0, 0.0, 0.0, 0.0, 0.0, 0.0, 0.0, 0.0, 1.6620648662210612E9, 0.0, 2022-09-01 16:41:06.221
14.0, -21120.163335819645, -21492.20812227823, -29458.459253127487, -17130.421654036243, -12728.670266708168, -16549.23159470935, 27278.35950593466, -15490.608273817095, -25194.014631988364, -2999.134719268646, -31103.569996782542, -27544.032340530437, -8377.411470104631, 6858.49867564424, -9452.060991771341, -22127.221182253503, 0.16348437500000002, 0.8604218749999999, -0.432265625, 192.0, 2.5, 8.0, 13.0, 120.0, 121.0, 64.0, 0.0, 0.0, 0.0, 1.6620648662210658E9, 0.0, 2022-09-01 16:41:06.221
16.0, -21129.08168185731, -21514.313997544527, -29433.335892359722, -17143.609183264874, -12693.242751746506, -16575.18197002196, 27304.443991714, -15489.669500549973, -25101.903093088044, -2931.2077678689684, -31010.005594492628, -27453.5301272309, -8282.014224769382, 6922.201147341865, -9371.170028587583, -22038.998846888408, 0.16348437500000002, 0.8604218749999999, -0.432265625, 192.0, 0.0, 0.0, 0.0, 0.0, 0.0, 0.0, 0.0, 0.0, 0.0, 1.6620648662210703E9, 0.0, 2022-09-01 16:41:06.221
18.0, -21143.319743075343, -21510.335387031482, -29469.03162825485, -17139.16118611827, -12743.176548859663, -16558.88754831404, 27330.97551238245, -15486.294387137223, -25204.765821071367, -3018.044295077836, -31127.307549394078, -27563.232489017548, -8381.70300504005, 6854.542416875651, -9449.401134181158, -22145.66137142913, 0.16348437500000002, 0.8604218749999999, -0.432265625, 192.0, 0.0, 0.0, 0.0, 0.0, 0.0, 0.0, 0.0, 0.0, 0.0, 1.6620648662210748E9, 0.0, 2022-09-01 16:41:06.221
20.0, -21117.771699162924, -21500.522971215603, -29439.48262208493, -17130.354598802878, -12696.953141326088, -16564.766057105786, 27246.91060148604, -15466.334279338633, -25110.195590280964, -2921.2388898419013, -31024.04249001056, -27456.793481921373, -8294.397091197621, 6953.962976212857, -9376.623854234678, -22039.803509688798, 0.16348437500000002, 0.8604218749999999, -0.432265625, 192.0, 0.0, 0.0, 0.0, 0.0, 0.0, 0.0, 0.0, 0.0, 0.0, 1.6620648662210793E9, 0.0, 2022-09-01 16:41:06.221
22.0, -21142.917411675146, -21509.597779464457, -29487.516520919387, -17140.412883807767, -12750.463217552093, -16554.104275000605, 27381.222233917983, -15478.761849255783, -25200.250768691396, -3011.0481990633252, -31119.01505220116, -27557.13046278125, -8371.689423524072, 6851.748448818737, -9454.877311572709, -22139.581696937286, 0.16348437500000002, 0.8604218749999999, -0.432265625, 192.0, 0.0, 0.0, 0.0, 0.0, 0.0, 0.0, 0.0, 0.0, 0.0, 1.662064866221084E9, 0.0, 2022-09-01 16:41:06.221
24.0, -21096.694004141573, -21472.449180179738, -29428.507915557377, -17101.453793222165, -12687.632463888225, -16537.720446314866, 27193.109952582116, -15433.946601622893, -25124.97009336592, -2896.7190261744295, -31026.7246993452, -27452.345484774767, -8296.83343134325, 6986.216543461865, -9408.698607528044, -22048.520690026366, 0.16348437500000002, 0.8604218749999999, -0.432265625, 192.0, 0.0, 0.0, 0.0, 0.0, 0.0, 0.0, 0.0, 0.0, 0.0, 1.6620648662210884E9, 0.0, 2022-09-01 16:41:06.221
26.0, -21164.79976949689, -21531.346026819472, -29498.69239314704, -17157.91429971627, -12765.885921226254, -16577.61831016759, 27423.89171408316, -15484.908578980992, -25184.40338187258, -2999.5146989243867, -31106.095743905993, -27543.473546919056, -8354.657394249129, 6849.937957517857, -9460.77817210891, -22140.408711482134, 0.164, 0.858, -0.428, 192.0, 2.5, 16.0, 13.0, 104.0, 121.0, 80.0, 0.0, 0.0, 0.0, 1.6620648662210932E9, 0.0, 2022-09-01 16:41:06.221
28.0, -21105.098260056766, -21482.52981692908, -29422.517648043355, -17104.560685701454, -12689.755879611479, -16535.686437569435, 27142.483251390848, -15427.174023052934, -25138.15762259455, -2927.5867852672086, -31043.3767489644, -27475.121912374725, -8313.68664666255, 6965.585883329616, -9436.593584608268, -22072.191187404536, 0.164, 0.858, -0.428, 192.0, 0.0, 0.0, 0.0, 0.0, 0.0, 0.0, 0.0, 0.0, 0.0, 1.6620648662210977E9, 0.0, 2022-09-01 16:41:06.221
30.0, -21187.28562441893, -21560.49270158919, -29514.293910776843, -17173.560520834984, -12778.425249865682, -16596.796106910242, 27458.536917988888, -15502.11942221158, -25187.443219118504, -3009.3494664847217, -31111.52721780863, -27563.724227395564, -8352.668088992606, 6845.69112607135, -9469.137724535194, -22147.404807496645, 0.164, 0.858, -0.428, 192.0, 0.0, 0.0, 0.0, 0.0, 0.0, 0.0, 0.0, 0.0, 0.0, 1.6620648662211025E9, 0.0, 2022-09-01 16:41:06.221
32.0, -21099.979710576503, -21476.316031970506, -29430.228999880434, -17086.500476181565, -12686.447821432093, -16535.149995702504, 27106.07225967315, -15422.256639272768, -25157.246012359385, -2941.601329040686, -31076.971420880727, -27505.274415644937, -8338.318269052299, 6964.915330995957, -9458.364183707738, -22093.023013236885, 0.164, 0.858, -0.428, 192.0, 0.0, 0.0, 0.0, 0.0, 0.0, 0.0, 0.0, 0.0, 0.0, 1.6620648662211068E9, 0.0, 2022-09-01 16:41:06.221
34.0, -21171.304127133386, -21547.79691073858, -29512.326957264777, -17155.477959570642, -12759.850950223321, -16589.308272517716, 27481.49215954449, -15492.552875584708, -25173.138102667108, -3020.3912282456436, -31108.509732307168, -27558.31510523738, -8341.738085953963, 6833.218852665288, -9455.570215650823, -22142.465071972023, 0.164, 0.858, -0.428, 192.0, 0.0, 0.0, 0.0, 0.0, 0.0, 0.0, 0.0, 0.0, 0.0, 1.6620648662211115E9, 0.0, 2022-09-01 16:41:06.221
36.0, -21070.45305615104, -21452.489072381148, -29412.213493849456, -17056.3256211669, -12663.939614765599, -16509.758414001277, 27085.151026862983, -15397.133278505002, -25146.897154676575, -2914.175738594024, -31065.616734697433, -27493.11506666125, -8325.466015990498, 6981.746194570804, -9446.294241701871, -22084.529350343866, 0.162, 0.854, -0.426, 192.0, 2.5, 8.0, 13.0, 88.0, 121.0, 88.0, 0.0, 0.0, 0.0, 1.662064866221116E9, 0.0, 2022-09-01 16:41:06.221
38.0, -21170.00772595498, -21553.31779161904, -29521.737041680462, -17164.753933519594, -12773.999604463532, -16603.032243613274, 27495.99844169598, -15503.773451301271, -25145.01960814233, -2991.892754065127, -31076.81495866954, -27531.470660146555, -8314.357198996211, 6843.455951625819, -9432.279697928394, -22125.075414785795, 0.162, 0.854, -0.426, 192.0, 0.0, 0.0, 0.0, 0.0, 0.0, 0.0, 0.0, 0.0, 0.0, 1.6620648662211215E9, 0.0, 2022-09-01 16:41:06.221
40.0, -21067.524977627396, -21450.320953168983, -29417.577912518733, -17054.71629556612, -12670.823952057834, -16509.154916900985, 27075.673887213932, -15398.027348283214, -25166.298468863784, -2938.3826778391217, -31073.641010956886, -27503.173351666137, -8344.286184821867, 6975.934741012424, -9463.929768077109, -22106.99285352145, 0.162, 0.854, -0.426, 192.0, 0.0, 0.0, 0.0, 0.0, 0.0, 0.0, 0.0, 0.0, 0.0, 1.6620648662211263E9, 0.0, 2022-09-01 16:41:06.221
42.0, -21200.406098414194, -21581.592748355004, -29538.65731223313, -17181.026003483057, -12784.795497035444, -16639.19736614196, 27491.4386858271, -15525.164070745, -25145.667808731534, -2986.416576673577, -31077.597269725477, -27534.421090414657, -8319.632210687663, 6842.204253936321, -9435.185424707583, -22122.95199906254, 0.162, 0.854, -0.426, 192.0, 0.0, 0.0, 0.0, 0.0, 0.0, 0.0, 0.0, 0.0, 0.0, 1.6620648662211308E9, 0.0, 2022-09-01 16:41:06.221
44.0, -21091.866027339223, -21468.269403966595, -29430.54192430281, -17058.270222934512, -12675.69663234909, -16518.162669916474, 27080.524215760735, -15410.678435644919, -25204.877579793643, -2982.5497248828087, -31120.289101635113, -27548.748558610507, -8381.904170740148, 6927.27499333322, -9496.876239404231, -22131.870345100207, 0.162, 0.854, -0.426, 192.0, 0.0, 0.0, 0.0, 0.0, 0.0, 0.0, 0.0, 0.0, 0.0, 1.6620648662211356E9, 0.0, 2022-09-01 16:41:06.221
46.0, -21161.29054561741, -21540.35377983496, -29478.464064414988, -17133.886174426814, -12737.029819134454, -16594.315063275702, 27484.084961901306, -15481.645224290518, -25119.337453763183, -2968.557532853786, -31049.746996134163, -27502.83807549931, -8285.434041671044, 6876.9835683087795, -9403.535354558868, -22076.929757229063, 0.164, 0.854, -0.424, 192.0, 2.5, 16.0, 13.0, 88.0, 121.0, 96.0, 0.0, 0.0, 0.0, 1.66206486622114E9, 0.0, 2022-09-01 16:41:06.221
48.0, -21075.41514342012, -21447.079950222964, -29404.368031545644, -17044.300382649944, -12669.996937512988, -16502.002358675287, 27105.357003850582, -15400.150764006468, -25182.61524231616, -2954.3641751246664, -31097.222101357234, -27522.10527921978, -8346.07432437829, 6952.688926778905, -9463.885064588198, -22106.322301187793, 0.164, 0.854, -0.424, 192.0, 0.0, 0.0, 0.0, 0.0, 0.0, 0.0, 0.0, 0.0, 0.0, 1.6620648662211447E9, 0.0, 2022-09-01 16:41:06.221
50.0, -21156.551975792885, -21538.275067600618, -29473.34551493472, -17142.91627918676, -12734.884051666744, -16609.983636138873, 27456.01117086544, -15493.916331996481, -25105.233503011885, -2928.212634111957, -31031.642083125364, -27483.503816545468, -8264.468105371965, 6890.50637370424, -9383.552895015824, -22073.5099403274, 0.164, 0.854, -0.424, 192.0, 0.0, 0.0, 0.0, 0.0, 0.0, 0.0, 0.0, 0.0, 0.0, 1.6620648662211492E9, 0.0, 2022-09-01 16:41:06.221
52.0, -21101.343166988274, -21477.43361919327, -29437.11333717267, -17075.86104582084, -12698.406004715682, -16532.66895206797, 27137.14118446603, -15431.800834155183, -25204.095268737707, -2986.148355740113, -31116.846932988996, -27547.921544065663, -8367.531999055385, 6919.407179284952, -9474.032756570907, -22146.33192376279, 0.164, 0.854, -0.424, 192.0, 0.0, 0.0, 0.0, 0.0, 0.0, 0.0, 0.0, 0.0, 0.0, 1.6620648662211535E9, 0.0, 2022-09-01 16:41:06.221
54.0, -21156.686086259615, -21540.867869957434, -29478.665230115086, -17137.060122139468, -12731.37482778726, -16604.507458747325, 27413.788725589362, -15493.02226221827, -25118.130459562595, -2953.0901256907136, -31032.647911625852, -27485.984860180004, -8277.365061922677, 6901.436376742885, -9391.420709064092, -22080.260167152905, 0.164, 0.854, -0.424, 192.0, 0.0, 0.0, 0.0, 0.0, 0.0, 0.0, 0.0, 0.0, 0.0, 1.6620648662211585E9, 0.0, 2022-09-01 16:41:06.221
56.0, -21108.607483936248, -21481.68045063978, -29447.193973922014, -17070.049592262458, -12709.224249032051, -16528.958562488384, 27181.15176929853, -15431.666723688451, -25205.07874549374, -2980.6498266041076, -31110.63314803042, -27547.22863998755, -8369.856580478738, 6898.016559841223, -9476.312634505348, -22142.733292905486, 0.156, 0.858, -0.432, 192.0, 2.0, 112.0, 13.0, 104.0, 121.0, 64.0, 0.0, 0.0, 0.0, 1.6620648662211628E9, 0.0, 2022-09-01 16:41:06.221
58.0, -21159.23418512752, -21543.97476243672, -29482.755599350407, -17137.95419191768, -12735.666362722679, -16597.24314179935, 27362.357361597704, -15486.607311559595, -25123.8301543987, -2939.3885063396106, -31036.313597716526, -27485.895453202185, -8286.372814938166, 6904.297400033164, -9407.156337160628, -22073.93462347205, 0.156, 0.858, -0.432, 192.0, 0.0, 0.0, 0.0, 0.0, 0.0, 0.0, 0.0, 0.0, 0.0, 1.6620648662211673E9, 0.0, 2022-09-01 16:41:06.221
60.0, -21127.94174289009, -21502.15464856084, -29479.469892915477, -17095.217656519133, -12727.418569018671, -16533.495966612812, 27226.10112739815, -15445.10012210609, -25211.583103130237, -2994.217335488479, -31128.62630231694, -27560.55027968291, -8370.907112468138, 6883.107946289533, -9491.489468990501, -22149.595278453267, 0.156, 0.858, -0.432, 192.0, 0.0, 0.0, 0.0, 0.0, 0.0, 0.0, 0.0, 0.0, 0.0, 1.662064866221172E9, 0.0, 2022-09-01 16:41:06.221
62.0, -21143.02917039742, -21526.003959894653, -29478.397009181623, -17121.637418465307, -12711.593533944313, -16570.063420541694, 27310.702480161486, -15461.595709514108, -25129.97688412391, -2920.4565787859656, -31046.751862377154, -27480.508682788455, -8287.244532971923, 6938.875548705524, -9423.808386779832, -22069.017239691882, 0.156, 0.858, -0.432, 192.0, 0.0, 0.0, 0.0, 0.0, 0.0, 0.0, 0.0, 0.0, 0.0, 1.6620648662211766E9, 0.0, 2022-09-01 16:41:06.221
64.0, -21134.826080182323, -21503.763974161622, -29489.438770942543, -17100.358557743857, -12727.37386552976, -16530.344370644616, 27287.702535116976, -15445.904784906483, -25213.907684553586, -2989.501117408409, -31136.717633809763, -27560.12559653826, -8365.363879843222, 6876.938864819868, -9486.97441661053, -22145.124929562204, 0.156, 0.858, -0.432, 192.0, 0.0, 0.0, 0.0, 0.0, 0.0, 0.0, 0.0, 0.0, 0.0, 1.6620648662211812E9, 0.0, 2022-09-01 16:41:06.221
66.0, -21117.883457885204, -21503.898084628356, -29458.41454963858, -17111.825002649428, -12691.834591845822, -16560.027487281262, 27256.320685901726, -15451.559776253674, -25120.320930519218, -2910.1077211031584, -31035.53128666059, -27466.225918081513, -8283.556495136798, 6953.225368645832, -9412.699569785544, -22053.661591251086, 0.158, 0.868, -0.432, 192.0, 2.0, 120.0, 13.5, 16.0, 121.0, 64.0, 0.0, 0.0, 0.0, 1.6620648662211857E9, 0.0, 2022-09-01 16:41:06.221
68.0, -21137.46358602805, -21514.69397720027, -29488.45529418651, -17120.028092864526, -12735.688714467135, -16550.28212669875, 27340.631465987142, -15468.189474128423, -25199.781382057834, -2997.480690178954, -31122.72544178074, -27564.573593684865, -8363.575740286797, 6846.45108538283, -9484.605131698267, -22153.439778499578, 0.158, 0.868, -0.432, 192.0, 0.0, 0.0, 0.0, 0.0, 0.0, 0.0, 0.0, 0.0, 0.0, 1.6620648662211912E9, 0.0, 2022-09-01 16:41:06.221
70.0, -21094.995271562966, -21484.38501171887, -29421.891799198605, -17083.460638935645, -12684.07853651983, -16547.51051038629, 27207.90680741153, -15440.04862785919, -25110.620273425615, -2895.512031973843, -31010.81025729302, -27450.982028362996, -8278.214428211979, 6971.039708976711, -9411.71609302951, -22045.12322486916, 0.158, 0.868, -0.432, 192.0, 0.0, 0.0, 0.0, 0.0, 0.0, 0.0, 0.0, 0.0, 0.0, 1.662064866221197E9, 0.0, 2022-09-01 16:41:06.221
72.0, -21145.71137973206, -21525.288704072085, -29483.47085517298, -17120.139851586802, -12756.453485066115, -16565.928347817462, 27394.432114891068, -15485.847352248116, -25189.723097052945, -2998.888850079638, -31101.06660140355, -27550.290828977923, -8351.997536658948, 6857.314033188109, -9474.077460059818, -22138.95584809254, 0.158, 0.868, -0.432, 192.0, 0.0, 0.0, 0.0, 0.0, 0.0, 0.0, 0.0, 0.0, 0.0, 1.6620648662212017E9, 0.0, 2022-09-01 16:41:06.221
74.0, -21092.08954478378, -21479.825255849988, -29412.30290082728, -17074.385830686788, -12680.926940551632, -16533.205393934895, 27160.163481254993, -15436.539403979708, -25125.9312183775, -2893.030988339304, -31020.019176008605, -27457.709903444043, -8290.105556262202, 6990.061043508178, -9422.646096068156, -22042.619829490166, 0.158, 0.868, -0.432, 192.0, 0.0, 0.0, 0.0, 0.0, 0.0, 0.0, 0.0, 0.0, 0.0, 1.6620648662212064E9, 0.0, 2022-09-01 16:41:06.221
76.0, -21147.61127801076, -21524.618151738425, -29476.69827660302, -17123.649075466285, -12747.132807628252, -16564.743705361332, 27442.063682325326, -15482.181666157445, -25181.497655093393, -2998.6206291461745, -31094.405781555866, -27547.83213708784, -8333.467940505498, 6845.445256882341, -9454.698497617066, -22119.6215891387, 0.162, 0.864, -0.438, 192.0, 2.5, 8.0, 13.5, 0.0, 121.0, 40.0, 0.0, 0.0, 0.0, 1.6620648662212107E9, 0.0, 2022-09-01 16:41:06.221
78.0, -21086.74747785896, -21469.43169467827, -29414.672185739542, -17075.503417909553, -12676.657757360668, -16528.31036189918, 27125.764146538277, -15430.1915085544, -25136.41418652704, -2884.3585114906446, -31032.513801159123, -27467.321153559824, -8299.247419744423, 6980.449793392396, -9431.810311294832, -22044.229155090947, 0.162, 0.864, -0.438, 192.0, 0.0, 0.0, 0.0, 0.0, 0.0, 0.0, 0.0, 0.0, 0.0, 1.6620648662212155E9, 0.0, 2022-09-01 16:41:06.221
80.0, -21170.454760844084, -21553.183681152306, -29511.99168109795, -17158.271927627557, -12765.81886599289, -16596.103202832128, 27478.3852670652, -15512.177707216468, -25174.479207334425, -3001.012265802892, -31092.952918166273, -27546.6027911428, -8337.781827185372, 6826.200404906322, -9453.53620690539, -22125.3212839748, 0.162, 0.864, -0.438, 192.0, 0.0, 0.0, 0.0, 0.0, 0.0, 0.0, 0.0, 0.0, 0.0, 1.66206486622122E9, 0.0, 2022-09-01 16:41:06.221
82.0, -21081.74068710097, -21465.028401020576, -29422.83057246573, -17073.827037075407, -12666.085382233308, -16516.240419893315, 27099.724364247842, -15420.602610183074, -25149.48995703339, -2916.410913039555, -31053.14446129137, -27485.850749713274, -8328.550556725331, 6983.690796338416, -9446.718924846522, -22074.024030449873, 0.162, 0.864, -0.438, 192.0, 0.0, 0.0, 0.0, 0.0, 0.0, 0.0, 0.0, 0.0, 0.0, 1.6620648662212248E9, 0.0, 2022-09-01 16:41:06.221
84.0, -21186.659775574182, -21566.41591386985, -29532.80115518584, -17182.434163383743, -12777.777049276478, -16612.66584547351, 27496.132552162715, -15520.1125764981, -25180.60358531518, -3000.207603002501, -31097.937357179806, -27553.80005285741, -8339.480559763975, 6825.105169428011, -9451.435142926592, -22132.160917778125, 0.162, 0.864, -0.438, 192.0, 0.0, 0.0, 0.0, 0.0, 0.0, 0.0, 0.0, 0.0, 0.0, 1.6620648662212293E9, 0.0, 2022-09-01 16:41:06.221
86.0, -21073.93992828607, -21454.72424682668, -29422.40588932108, -17070.38486842929, -12671.338042180305, -16511.50185006879, 27087.967346664354, -15411.013711811747, -25171.215852643953, -2921.685924731007, -31071.00350511116, -27499.954700464572, -8334.116141094702, 6973.990139244812, -9462.141628520683, -22088.731478301466, 0.164, 0.856, -0.436, 192.0, 2.5, 16.0, 13.0, 96.0, 121.0, 48.0, 0.0, 0.0, 0.0, 1.6620648662212336E9, 0.0, 2022-09-01 16:41:06.221
88.0, -21188.47026687506, -21573.27789941763, -29532.197658085544, -17192.335986177444, -12784.549627846436, -16624.176993867994, 27506.280244145426, -15531.73548361486, -25161.850471717178, -2991.624533131663, -31082.514653505645, -27539.517288150466, -8319.341638009744, 6838.091532956545, -9445.131950990195, -22128.651693898642, 0.164, 0.856, -0.436, 192.0, 0.0, 0.0, 0.0, 0.0, 0.0, 0.0, 0.0, 0.0, 0.0, 1.6620648662212381E9, 0.0, 2022-09-01 16:41:06.221
90.0, -21092.98361456199, -21476.38308720387, -29444.44470935401, -17089.942644827683, -12701.758766383979, -16530.56788808917, 27083.40759079547, -15436.33823827961, -25200.921321025053, -2952.084297190225, -31099.792551969596, -27534.622256114755, -8371.667071779619, 6930.583051512605, -9494.104623091773, -22136.519507946912, 0.164, 0.856, -0.436, 192.0, 0.0, 0.0, 0.0, 0.0, 0.0, 0.0, 0.0, 0.0, 0.0, 1.662064866221243E9, 0.0, 2022-09-01 16:41:06.221
92.0, -21165.29150787491, -21553.094274174488, -29512.617529942698, -17161.82585499595, -12763.226063636073, -16603.613388969112, 27501.944005721096, -15511.663617093995, -25140.482204017902, -2969.3621956541774, -31058.978266594204, -27520.942988508104, -8310.73621639445, 6850.384992406964, -9440.929823032597, -22115.866496070208, 0.164, 0.856, -0.436, 192.0, 0.0, 0.0, 0.0, 0.0, 0.0, 0.0, 0.0, 0.0, 0.0, 1.6620648662212474E9, 0.0, 2022-09-01 16:41:06.221
94.0, -21091.59780640576, -21473.186787746763, -29448.803299522795, -17076.486894665588, -12701.602304172791, -16519.347312372603, 27103.434753827427, -15430.839709143605, -25188.717268552457, -2930.112532390658, -31091.45535128777, -27525.21217169907, -8360.535903040874, 6952.823037245636, -9493.255256802471, -22119.71099611652, 0.164, 0.856, -0.436, 192.0, 0.0, 0.0, 0.0, 0.0, 0.0, 0.0, 0.0, 0.0, 0.0, 1.662064866221252E9, 0.0, 2022-09-01 16:41:06.221
96.0, -21165.917356719656, -21551.954335207265, -29501.866340859695, -17152.10284615789, -12760.454447323615, -16600.640606956556, 27481.42510431112, -15506.321550169177, -25147.947686665975, -2968.021090986859, -31059.96174335024, -27519.087793718314, -8310.40094022762, 6856.442315154352, -9434.827796796299, -22092.531274858866, 0.163, 0.852, -0.434, 192.0, 2.5, 8.0, 13.0, 64.0, 121.0, 64.0, 0.0, 0.0, 0.0, 1.6620648662212565E9, 0.0, 2022-09-01 16:41:06.221
98.0, -21084.355841202243, -21462.25678470812, -29433.29118887081, -17055.94564151116, -12691.968702312553, -16500.102460396585, 27136.69414957692, -15418.434490970909, -25197.143876212107, -2956.6440530591076, -31094.651650744876, -27531.470660146555, -8359.954757685036, 6942.675345262926, -9475.753840893965, -22091.74896380293, 0.163, 0.852, -0.434, 192.0, 0.0, 0.0, 0.0, 0.0, 0.0, 0.0, 0.0, 0.0, 0.0, 1.662064866221261E9, 0.0, 2022-09-01 16:41:06.221
100.0, -21173.136970178723, -21562.16908242334, -29504.54855019433, -17164.150436419302, -12762.264938624496, -16604.887438403064, 27444.09769107076, -15515.150489229023, -25133.329645792204, -2950.027936700337, -31043.868487342417, -27499.798238253385, -8296.54285866533, 6881.073937544101, -9408.363331361215, -22052.253431350404, 0.163, 0.852, -0.434, 192.0, 0.0, 0.0, 0.0, 0.0, 0.0, 0.0, 0.0, 0.0, 0.0, 1.6620648662212656E9, 0.0, 2022-09-01 16:41:06.221
102.0, -21104.070079811823, -21485.72611638619, -29446.366959377166, -17082.119534268324, -12716.37680725775, -16519.906105983988, 27167.047818547228, -15440.428607514932, -25211.963082785976, -2987.8023848298058, -31124.021842959148, -27561.690218650132, -8394.912886013137, 6890.528725448696, -9497.12210859324, -22127.19883050905, 0.163, 0.852, -0.434, 192.0, 0.0, 0.0, 0.0, 0.0, 0.0, 0.0, 0.0, 0.0, 0.0, 1.6620648662212713E9, 0.0, 2022-09-01 16:41:06.221
104.0, -21140.816347696345, -21532.50831753115, -29468.4057794101, -17130.734578458618, -12724.311676539384, -16579.920539846487, 27401.204693461026, -15482.82986674665, -25115.6270641836, -2926.1339218776134, -31022.097888242948, -27477.848825198274, -8283.020053269871, 6916.3673420390305, -9400.607276035224, -22051.381713316645, 0.163, 0.852, -0.434, 192.0, 0.0, 0.0, 0.0, 0.0, 0.0, 0.0, 0.0, 0.0, 0.0, 1.662064866221276E9, 0.0, 2022-09-01 16:41:06.221
106.0, -21099.89030359868, -21476.137218014865, -29455.151194948103, -17082.030127290505, -12700.328254738839, -16507.478536066836, 27229.118612899616, -15430.750302165783, -25201.658928592078, -2952.7772012683395, -31106.87805496193, -27550.51434642248, -8369.342490356266, 6894.060301072634, -9481.49823921898, -22127.064720042315, 0.1605, 0.853, -0.432, 192.0, 2.0, 120.0, 13.0, 88.0, 121.0, 72.0, 0.0, 0.0, 0.0, 1.6620648667012377E9, 0.0, 2022-09-01 16:41:06.701
108.0, -21133.484975515006, -21519.812526680533, -29470.775064322363, -17138.87061344035, -12708.508993209482, -16572.432705453957, 27366.045399432827, -15475.722012009861, -25114.01773858282, -2905.8832414011054, -31019.169809719304, -27469.71279021654, -8270.123096719159, 6938.026182416223, -9395.511078299412, -22046.97841965895, 0.1605, 0.853, -0.432, 192.0, 0.0, 0.0, 0.0, 0.0, 0.0, 0.0, 0.0, 0.0, 0.0, 1.662064866701292E9, 0.0, 2022-09-01 16:41:06.701
110.0, -21127.94174289009, -21499.07010782601, -29484.543738906832, -17126.890078412303, -12727.150348085208, -16539.553289360203, 27288.417790939548, -15467.451866561398, -25218.37803344465, -2994.8431843332273, -31125.72057553775, -27568.261631519992, -8370.504781067943, 6868.154629248933, -9484.851000887276, -22153.23861279948, 0.1605, 0.853, -0.432, 192.0, 0.0, 0.0, 0.0, 0.0, 0.0, 0.0, 0.0, 0.0, 0.0, 1.6620648667013521E9, 0.0, 2022-09-01 16:41:06.701
112.0, -21124.99131262199, -21510.06716609802, -29461.02970373985, -17143.229203609135, -12712.286438022427, -16575.98663282235, 27305.24865451439, -15483.2545498913, -25122.042014842275, -2905.927944890016, -31028.356376690434, -27477.692362987087, -8288.250361472412, 6930.136016623499, -9419.606258822234, -22074.51576882789, 0.1605, 0.853, -0.432, 192.0, 0.0, 0.0, 0.0, 0.0, 0.0, 0.0, 0.0, 0.0, 0.0, 1.6620648667013583E9, 0.0, 2022-09-01 16:41:06.701
114.0, -21119.42572825262, -21499.40538399284, -29463.577802607753, -17121.3915492763, -12737.923888912665, -16546.951716774907, 27337.74809095241, -15479.275939378256, -25198.46262913497, -2990.059911019792, -31104.39701132739, -27558.538622681932, -8363.911016453627, 6849.379163906475, -9487.332044521814, -22161.598165225765, 0.1605, 0.853, -0.432, 192.0, 0.0, 0.0, 0.0, 0.0, 0.0, 0.0, 0.0, 0.0, 0.0, 1.6620648667013628E9, 0.0, 2022-09-01 16:41:06.701
116.0, -21100.784373376893, -21493.34806124545, -29422.428241065532, -17104.113650812345, -12685.263178975962, -16553.724295344866, 27250.77745327681, -15467.876549706049, -25108.988596080377, -2883.0621103122367, -31000.483751354666, -27453.686589442088, -8272.850009542706, 6966.591711830105, -9415.225316908995, -22053.259259850893, 0.15725, 0.8565, -0.433, 192.0, 2.0, 104.0, 13.0, 112.0, 121.0, 56.0, 0.0, 0.0, 0.0, 1.6620648667013676E9, 0.0, 2022-09-01 16:41:06.701
118.0, -21145.979600665523, -21520.527782503104, -29481.03451502735, -17123.939648144205, -12740.382580802749, -16551.220899965872, 27395.393239902645, -15490.563570328186, -25193.27702442134, -2984.047291761314, -31100.373697325434, -27557.97982907055, -8350.768190713905, 6847.009878994212, -9477.474925217024, -22135.446624213055, 0.15725, 0.8565, -0.433, 192.0, 0.0, 0.0, 0.0, 0.0, 0.0, 0.0, 0.0, 0.0, 0.0, 1.662064866701372E9, 0.0, 2022-09-01 16:41:06.701
120.0, -21106.908751357645, -21489.570616432502, -29426.54096204531, -17083.415935446734, -12693.443917446604, -16530.389074133524, 27205.649281221544, -15446.955316895881, -25125.86416314413, -2882.548020189765, -31024.489524899665, -27469.57867974981, -8286.395166682621, 6973.587807844617, -9416.722883787499, -22023.665550192065, 0.15725, 0.8565, -0.433, 192.0, 0.0, 0.0, 0.0, 0.0, 0.0, 0.0, 0.0, 0.0, 0.0, 1.662064866701377E9, 0.0, 2022-09-01 16:41:06.701
122.0, -21156.529624048428, -21529.73670121869, -29484.811959840295, -17116.116537584847, -12747.356325072806, -16549.253946453806, 27448.746853917462, -15490.697680794918, -25197.41209714557, -2996.11723376718, -31105.760467739165, -27556.772834869964, -8351.438743047565, 6837.73390504526, -9453.670317372122, -22085.155199188615, 0.15725, 0.8565, -0.433, 192.0, 0.0, 0.0, 0.0, 0.0, 0.0, 0.0, 0.0, 0.0, 0.0, 1.6620648667013812E9, 0.0, 2022-09-01 16:41:06.701
124.0, -21101.52198094392, -21483.62505240739, -29419.5448660308, -17071.793028329972, -12687.006615043476, -16523.258867652283, 27164.32090572368, -15448.162311096468, -25134.53663999279, -2889.2535435263567, -31025.316539444513, -27455.564135976332, -8304.07539654677, 6999.716997112871, -9405.211735393017, -21993.133067266117, 0.15725, 0.8565, -0.433, 192.0, 0.0, 0.0, 0.0, 0.0, 0.0, 0.0, 0.0, 0.0, 0.0, 1.6620648667013886E9, 0.0, 2022-09-01 16:41:06.701
126.0, -21175.32744113534, -21550.367361350938, -29502.53689319335, -17148.30304960049, -12761.303813612916, -16571.449228697926, 27480.39692406618, -15521.945419543437, -25203.75999257088, -3005.884946094149, -31105.44754331679, -27557.73395988154, -8364.13453389818, 6824.300506627621, -9458.610052896745, -22100.555551118323, 0.16062500000000002, 0.85825, -0.4375, 192.0, 2.5, 16.0, 13.0, 112.0, 121.0, 24.0, 0.0, 0.0, 0.0, 1.6620648667013931E9, 0.0, 2022-09-01 16:41:06.701
128.0, -21085.51813191392, -21469.521101656093, -29407.944310658495, -17069.71431609563, -12661.950309509077, -16513.044120436207, 27126.859382016588, -15437.411122013466, -25144.460814530947, -2898.3730552641223, -31032.513801159123, -27469.779845449906, -8318.358161253711, 6979.265150936264, -9424.188366435572, -22026.236000804427, 0.16062500000000002, 0.85825, -0.4375, 192.0, 0.0, 0.0, 0.0, 0.0, 0.0, 0.0, 0.0, 0.0, 0.0, 1.662064866701398E9, 0.0, 2022-09-01 16:41:06.701
130.0, -21182.457647616586, -21561.386771367404, -29509.197713041034, -17171.951195234204, -12772.233816651562, -16600.86412440111, 27500.53584582041, -15537.681047639973, -25169.584175298714, -2996.899544823116, -31086.24739482968, -27543.630009130244, -8335.636059717663, 6827.2062334068105, -9425.216546680516, -22102.32133893029, 0.16062500000000002, 0.85825, -0.4375, 192.0, 0.0, 0.0, 0.0, 0.0, 0.0, 0.0, 0.0, 0.0, 0.0, 1.6620648667014024E9, 0.0, 2022-09-01 16:41:06.701
132.0, -21090.301405227354, -21477.344212215452, -29429.53609580232, -17090.993176817083, -12681.619844629748, -16525.628152564546, 27092.7953234667, -15457.661802489973, -25174.143931167597, -2928.883186445616, -31068.790682410086, -27502.927482477127, -8344.55440575533, 6940.730743495315, -9454.229110983504, -22080.774257275374, 0.16062500000000002, 0.85825, -0.4375, 192.0, 0.0, 0.0, 0.0, 0.0, 0.0, 0.0, 0.0, 0.0, 0.0, 1.6620648667014077E9, 0.0, 2022-09-01 16:41:06.701
