%OpenBCI Raw EEG Data
%Number of channels = 16
%Sample Rate = 125 Hz
%Board = OpenBCI_GUI$BoardCytonSerialDaisy
Sample Index, EXG Channel 0, EXG Channel 1, EXG Channel 2, EXG Channel 3, EXG Channel 4, EXG Channel 5, EXG Channel 6, EXG Channel 7, EXG Channel 8, EXG Channel 9, EXG Channel 10, EXG Channel 11, EXG Channel 12, EXG Channel 13, EXG Channel 14, EXG Channel 15, Accel Channel 0, Accel Channel 1, Accel Channel 2, Other, Other, Other, Other, Other, Other, Other, Analog Channel 0, Analog Channel 1, Analog Channel 2, Timestamp, Other, Timestamp (Formatted)
60.0, -17937.610201550746, -20222.42787151669, -30325.259903104296, -14488.668976863502, -6917.395522283974, -11653.618413641265, 28460.744435875946, -11594.34158734579, -23081.864187939667, 3804.5798307156365, -22210.034395460414, -23749.063759930585, -1465.5591804455735, 10788.024757865043, -7798.501288712179, -19097.978663203558, 0.0, 0.0, 0.0, 192.0, 0.0, 0.0, 0.0, 0.0, 0.0, 0.0, 0.0, 0.0, 0.0, 1.6620654429431584E9, 0.0, 2022-09-01 16:50:42.943
62.0, -17991.65671964368, -20286.890302525797, -30396.517264427814, -14565.447219067482, -6989.010511518778, -11720.047798162437, 28721.566941924924, -11671.902140605705, -23074.309298313776, 3718.883242473989, -22224.115994467258, -23795.42127793089, -1456.0373373076127, 10693.968617197112, -7779.144678013883, -19129.181698463166, 0.0, 0.0, 0.0, 192.0, 0.0, 0.0, 0.0, 0.0, 0.0, 0.0, 0.0, 0.0, 0.0, 1.6620654429431653E9, 0.0, 2022-09-01 16:50:42.943
64.0, -17926.143756645175, -20213.19660105665, -30323.494115292327, -14484.668014606003, -6921.329429308108, -11653.461951430078, 28439.73379608796, -11599.326026359324, -23077.9973361489, 3796.309685267173, -22211.710776294563, -23756.193966411825, -1476.444479995308, 10785.163734574764, -7803.888059125908, -19109.758032531507, 0.0, 0.0, 0.0, 192.0, 0.0, 0.0, 0.0, 0.0, 0.0, 0.0, 0.0, 0.0, 0.0, 1.6620654429431713E9, 0.0, 2022-09-01 16:50:42.943
66.0, -17967.762704820958, -20257.743627756077, -30368.33171466967, -14531.87489889561, -6968.692775808904, -11698.098385107325, 28737.324921765918, -11649.975079295049, -23051.577574202725, 3736.652879315958, -22201.138401167205, -23765.671106060876, -1442.7827528456155, 10701.188230656175, -7764.169009228827, -19106.69584354113, 0.0, 0.0, 0.0, 192.0, 0.0, 0.0, 0.0, 0.0, 0.0, 0.0, 0.0, 0.0, 0.0, 1.6620654429431767E9, 0.0, 2022-09-01 16:50:42.943
68.0, -17924.847355466765, -20194.443487458648, -30311.267711075274, -14463.590319584648, -6915.093292605078, -11639.961497779072, 28440.404348421616, -11590.228866366013, -23072.632917479626, 3810.1677668294633, -22203.82061050184, -23731.137660877426, -1471.8176688930594, 10798.574781247948, -7793.315683998548, -19097.129296914256, 0.105, 0.431, -0.214, 192.0, 3.0, 72.0, 13.0, 120.0, 121.0, 80.0, 0.0, 0.0, 0.0, 1.6620654429431825E9, 0.0, 2022-09-01 16:50:42.943
70.0, -17984.75003060699, -20272.652241307766, -30374.72431358389, -14548.281079325805, -6975.912389267968, -11716.650333005231, 28731.759337396546, -11665.934224836139, -23060.115940584656, 3741.570263096126, -22200.78077325592, -23760.530204836155, -1441.3298894560207, 10711.872364505813, -7764.258416206649, -19104.30420688441, 0.105, 0.431, -0.214, 192.0, 0.0, 0.0, 0.0, 0.0, 0.0, 0.0, 0.0, 0.0, 0.0, 1.6620654429431868E9, 0.0, 2022-09-01 16:50:42.943
72.0, -17922.232201365496, -20199.472629961092, -30314.732231465845, -14476.084944735163, -6926.783254955203, -11644.789474581417, 28437.230400708962, -11598.409604836655, -23087.027440908845, 3790.721749153346, -22219.39977638719, -23755.411655355892, -1480.8477736530035, 10777.65354843778, -7805.340922515503, -19123.236134438055, 0.105, 0.431, -0.214, 192.0, 0.0, 0.0, 0.0, 0.0, 0.0, 0.0, 0.0, 0.0, 0.0, 1.6620654429431913E9, 0.0, 2022-09-01 16:50:42.943
74.0, -17974.80350432438, -20266.751380771566, -30366.744740813345, -14551.969117160932, -6962.1437146835, -11713.878716692772, 28721.72340413611, -11661.39682071171, -23043.37448398763, 3760.5468941386816, -22186.542712037888, -23750.74014076473, -1429.4834648947078, 10713.012303473033, -7749.796837544065, -19099.63269229325, 0.105, 0.431, -0.214, 192.0, 0.0, 0.0, 0.0, 0.0, 0.0, 0.0, 0.0, 0.0, 0.0, 1.6620654429431956E9, 0.0, 2022-09-01 16:50:42.943
76.0, -17938.101939928765, -20210.581446955377, -30331.317225851682, -14490.635930375569, -6940.149598139477, -11654.065448530371, 28444.852345568223, -11610.926581731628, -23091.56484503327, 3774.0026443007764, -22230.5980003593, -23765.22407117177, -1487.2403725672214, 10765.829475620923, -7801.854050380475, -19128.533497873963, 0.105, 0.431, -0.214, 192.0, 0.0, 0.0, 0.0, 0.0, 0.0, 0.0, 0.0, 0.0, 0.0, 1.6620654429432E9, 0.0, 2022-09-01 16:50:42.943
78.0, -17990.337966720817, -20281.77175304553, -30377.741799085357, -14555.634803251602, -6971.0173572322565, -11718.572583028386, 28691.48149388808, -11662.559111423387, -23062.686391197014, 3754.3778126690167, -22200.311386622358, -23756.350428623013, -1446.8507703364814, 10718.086149464387, -7772.260340721648, -19102.873695239272, 0.1565, 0.6435, -0.322, 192.0, 3.0, 64.0, 13.0, 96.0, 121.0, 72.0, 0.0, 0.0, 0.0, 1.6620654429432044E9, 0.0, 2022-09-01 16:50:42.943
80.0, -17952.004724979965, -20226.451185518647, -30339.922647466978, -14500.20247700244, -6938.026182416223, -11655.898291575706, 28473.551985448838, -11606.567991562843, -23111.39084236513, 3754.243702202285, -22248.54645115691, -23786.502931893225, -1504.4065123088972, 10739.141492741286, -7821.098902356494, -19136.93775378916, 0.1565, 0.6435, -0.322, 192.0, 0.0, 0.0, 0.0, 0.0, 0.0, 0.0, 0.0, 0.0, 0.0, 1.6620654429432087E9, 0.0, 2022-09-01 16:50:42.943
82.0, -17986.716984119055, -20280.073020466927, -30359.212202931907, -14552.416152050037, -6958.790953015203, -11705.228591588568, 28675.343534391348, -11646.644669371208, -23057.344324272195, 3766.403051185972, -22191.77302024043, -23755.970448967273, -1439.9440812997916, 10738.470940407627, -7759.586901615489, -19085.372279330764, 0.1565, 0.6435, -0.322, 192.0, 0.0, 0.0, 0.0, 0.0, 0.0, 0.0, 0.0, 0.0, 0.0, 1.6620654429432132E9, 0.0, 2022-09-01 16:50:42.943
84.0, -17956.095094215285, -20232.86613617732, -30343.76714751329, -14506.595075916657, -6960.914368738458, -11655.78653285343, 28503.59272999677, -11621.454253370077, -23103.590083550225, 3749.9074637779554, -22243.986695288026, -23793.70019360783, -1491.1519278469, 10730.871347292823, -7807.017303349651, -19133.428529909674, 0.1565, 0.6435, -0.322, 192.0, 0.0, 0.0, 0.0, 0.0, 0.0, 0.0, 0.0, 0.0, 0.0, 1.6620654429432175E9, 0.0, 2022-09-01 16:50:42.943
86.0, -17963.22530069653, -20257.609517289344, -30346.9634469704, -14538.692180954478, -6945.536368553206, -11691.392861770733, 28634.797469949423, -11641.168491979659, -23049.45415847947, 3784.686778150413, -22181.647680002177, -23743.36406509448, -1440.2346539777106, 10752.79840860348, -7759.653956848855, -19084.88054095275, 0.1565, 0.6435, -0.322, 192.0, 0.0, 0.0, 0.0, 0.0, 0.0, 0.0, 0.0, 0.0, 0.0, 1.662065442943222E9, 0.0, 2022-09-01 16:50:42.943
88.0, -17943.89104174269, -20222.00318837204, -30345.085900436152, -14515.178145787497, -6950.386697100008, -11650.3997624397, 28537.477974591016, -11625.455215627577, -23090.13433338813, 3747.0687922321313, -22235.29186669491, -23790.012155772707, -1484.602866721495, 10713.571097084416, -7795.595561932989, -19138.904707301226, 0.18025000000000002, 0.7497499999999999, -0.371, 192.0, 3.0, 48.0, 13.0, 96.0, 121.0, 112.0, 0.0, 0.0, 0.0, 1.6620654429432263E9, 0.0, 2022-09-01 16:50:42.943
90.0, -17956.22920468202, -20244.667857249722, -30340.369682356082, -14537.149910587063, -6916.836728672592, -11681.133411065748, 28603.259158522986, -11631.311372674869, -23040.51346069735, 3801.919973125455, -22172.304650819857, -23732.143489377915, -1432.5009503961744, 10783.08502234042, -7745.1923781862715, -19073.794075702917, 0.18025000000000002, 0.7497499999999999, -0.371, 192.0, 0.0, 0.0, 0.0, 0.0, 0.0, 0.0, 0.0, 0.0, 0.0, 1.6620654429432309E9, 0.0, 2022-09-01 16:50:42.943
92.0, -17954.910451759155, -20228.61930473081, -30352.640790062047, -14529.975000616909, -6954.722935524337, -11672.796210383918, 28580.594489645304, -11640.58734662382, -23093.129467145143, 3739.4244956284165, -22241.975038287048, -23800.785696600164, -1482.8147271650705, 10707.513774337027, -7784.978483316718, -19145.967858549102, 0.18025000000000002, 0.7497499999999999, -0.371, 192.0, 0.0, 0.0, 0.0, 0.0, 0.0, 0.0, 0.0, 0.0, 0.0, 1.6620654429432368E9, 0.0, 2022-09-01 16:50:42.943
94.0, -17952.7870360359, -20236.978857157097, -30327.67389150547, -14531.11493958413, -6923.542252009184, -11693.650387960719, 28558.399207401184, -11638.888614045218, -23045.922582855535, 3815.487482009826, -22173.332831064803, -23727.94136142032, -1438.804142332571, 10768.757554144568, -7746.667593320321, -19084.947596186114, 0.18025000000000002, 0.7497499999999999, -0.371, 192.0, 0.0, 0.0, 0.0, 0.0, 0.0, 0.0, 0.0, 0.0, 0.0, 1.6620654429432411E9, 0.0, 2022-09-01 16:50:42.943
96.0, -17966.846283298288, -20243.684380493687, -30362.654371578024, -14541.709666455945, -6975.822982290147, -11691.236399559546, 28604.197931790106, -11665.598948669309, -23088.413249065074, 3732.0260682137096, -22234.040169005417, -23794.504856408224, -1485.1840120773331, 10681.183419368675, -7781.379852459414, -19147.063094027413, 0.18025000000000002, 0.7497499999999999, -0.371, 192.0, 0.0, 0.0, 0.0, 0.0, 0.0, 0.0, 0.0, 0.0, 0.0, 1.6620654429432456E9, 0.0, 2022-09-01 16:50:42.943
98.0, -17937.945477717578, -20222.316112794415, -30317.369737311572, -14514.999331831854, -6918.401350784463, -11679.300568020411, 28507.370174809716, -11637.033419255427, -23045.922582855535, 3818.0579326221864, -22173.511645020444, -23720.945265405808, -1448.4600959372635, 10778.122935071342, -7760.436267904791, -19081.527779284454, 0.19112500000000002, 0.8038749999999999, -0.39549999999999996, 192.0, 3.0, 40.0, 13.0, 104.0, 121.0, 112.0, 0.0, 0.0, 0.0, 1.66206544294325E9, 0.0, 2022-09-01 16:50:42.943
100.0, -17971.495446144992, -20245.897203194763, -30363.794310545247, -14543.944840901477, -6969.944473498402, -11692.443393760133, 28638.731376973556, -11669.532855693444, -23080.008993149877, 3728.8074170121454, -22230.128613725738, -23789.118085994494, -1476.3327212730314, 10689.297102605951, -7778.16120125785, -19136.87069855579, 0.19112500000000002, 0.8038749999999999, -0.39549999999999996, 192.0, 0.0, 0.0, 0.0, 0.0, 0.0, 0.0, 0.0, 0.0, 0.0, 1.6620654429432545E9, 0.0, 2022-09-01 16:50:42.943
102.0, -17959.492559372495, -20236.867098434817, -30338.67094977748, -14527.851584893655, -6935.299269592675, -11681.558094210399, 28474.40135173814, -11638.48628264502, -23063.692219697503, 3808.4466825064046, -22193.225883630024, -23731.674102744353, -1463.5475234445958, 10780.13459207232, -7768.549951142068, -19080.432543806142, 0.19112500000000002, 0.8038749999999999, -0.39549999999999996, 192.0, 0.0, 0.0, 0.0, 0.0, 0.0, 0.0, 0.0, 0.0, 0.0, 1.662065442943259E9, 0.0, 2022-09-01 16:50:42.943
104.0, -17992.975472566544, -20269.031258706007, -30389.454113179938, -14567.391820835093, -6991.066872008667, -11710.4141963022, 28669.599136066336, -11679.88171337625, -23099.834990481733, 3703.080559144087, -22257.241279750026, -23816.253103763236, -1489.4084917793862, 10654.026049855478, -7797.182535789316, -19147.376018449788, 0.19112500000000002, 0.8038749999999999, -0.39549999999999996, 192.0, 0.0, 0.0, 0.0, 0.0, 0.0, 0.0, 0.0, 0.0, 0.0, 1.6620654429432633E9, 0.0, 2022-09-01 16:50:42.943
106.0, -17952.94349824709, -20228.686359964177, -30334.33471135315, -14511.512459696825, -6930.918327679436, -11672.237416772536, 28455.469424184495, -11623.465910371055, -23073.32582155774, 3802.724635925846, -22208.91680823765, -23741.97825693825, -1477.1597358178778, 10778.860542638367, -7778.8317535915085, -19088.188599132132, 0.19112500000000002, 0.8038749999999999, -0.39549999999999996, 192.0, 0.0, 0.0, 0.0, 0.0, 0.0, 0.0, 0.0, 0.0, 0.0, 1.6620654429432678E9, 0.0, 2022-09-01 16:50:42.943
108.0, -17979.676184615637, -20259.5317673125, -30374.187871716964, -14548.795169448278, -6969.028051975733, -11697.137260095747, 28704.758430094535, -11663.319070734868, -23084.65815599658, 3716.7151232618244, -22239.53869814142, -23795.75655409772, -1477.5620672180735, 10659.34576503584, -7774.227294233716, -19125.65012283923, 0.19112500000000002, 0.8038749999999999, -0.39549999999999996, 192.0, 0.0, 0.0, 0.0, 0.0, 0.0, 0.0, 0.0, 0.0, 0.0, 1.662065442943272E9, 0.0, 2022-09-01 16:50:42.943
110.0, -17930.614105536235, -20205.52995270848, -30311.982966897842, -14487.797258829745, -6905.638504700483, -11641.68258210213, 28442.72892984497, -11602.142346160692, -23057.746655672392, 3820.8742524235554, -22195.550465053377, -23727.13669861993, -1463.0334333221238, 10809.124804630854, -7767.387660430391, -19072.54237801342, 0.196, 0.854, -0.428, 192.0, 3.0, 16.0, 13.0, 88.0, 121.0, 80.0, 0.0, 0.0, 0.0, 1.662065442943277E9, 0.0, 2022-09-01 16:50:42.943
112.0, -17984.392402695707, -20266.10318018236, -30376.065418251208, -14560.865111454143, -6959.215636159854, -11702.814603187395, 28726.730194894102, -11670.225759771558, -23067.067333110255, 3734.373001381517, -22221.3443781548, -23781.071457990583, -1459.993596076202, 10686.749003738047, -7756.032974247096, -19107.232285408056, 0.196, 0.854, -0.428, 192.0, 0.0, 0.0, 0.0, 0.0, 0.0, 0.0, 0.0, 0.0, 0.0, 1.6620654429432812E9, 0.0, 2022-09-01 16:50:42.943
114.0, -17926.948419445565, -20199.874961361285, -30307.870245918068, -14486.232636717874, -6910.913516391935, -11640.96732627956, 28433.855287296214, -11604.802203750874, -23068.52019649985, 3807.709074939379, -22206.90515123667, -23741.50887030469, -1470.9683026037578, 10788.047109609499, -7772.550913399567, -19085.372279330764, 0.196, 0.854, -0.428, 192.0, 0.0, 0.0, 0.0, 0.0, 0.0, 0.0, 0.0, 0.0, 0.0, 1.6620654429432857E9, 0.0, 2022-09-01 16:50:42.943
116.0, -17986.381707952227, -20273.501607597067, -30379.507586897325, -14566.83302722371, -6975.465354378862, -11722.573545285886, 28725.143221037775, -11686.922512879672, -23051.309353269262, 3743.112533463542, -22207.128668681227, -23770.119103207482, -1449.3988692043865, 10695.555591053439, -7745.304136908548, -19096.034061435945, 0.196, 0.854, -0.428, 192.0, 0.0, 0.0, 0.0, 0.0, 0.0, 0.0, 0.0, 0.0, 0.0, 1.66206544294329E9, 0.0, 2022-09-01 16:50:42.943
118.0, -17938.146643417676, -20208.23451378757, -30318.19675185642, -14496.313273467216, -6928.437284044896, -11655.697125875608, 28423.171153446576, -11622.68359931512, -23082.221815850953, 3794.2533247772844, -22224.96536075656, -23756.909222234397, -1494.862317426481, 10765.628309920825, -7788.755928129665, -19105.26533189599, 0.196, 0.854, -0.428, 192.0, 0.0, 0.0, 0.0, 0.0, 0.0, 0.0, 0.0, 0.0, 0.0, 1.6620654429432943E9, 0.0, 2022-09-01 16:50:42.943
120.0, -18003.883123860734, -20288.3878694043, -30382.592127632157, -14582.546303575791, -6974.638339834016, -11732.877699479783, 28718.571808167915, -11694.387995527744, -23063.960440630966, 3734.082428703598, -22215.935255996617, -23779.238614945247, -1458.2725117531434, 10693.16395439672, -7752.38963990088, -19107.433451108154, 0.20400000000000001, 0.852, -0.43, 192.0, 3.0, 48.0, 13.0, 80.0, 121.0, 72.0, 0.0, 0.0, 0.0, 1.6620654429432988E9, 0.0, 2022-09-01 16:50:42.943
122.0, -17936.246745138975, -20205.798173641942, -30327.070394405175, -14502.43765144797, -6919.518938007229, -11653.68546887463, 28439.599685621226, -11622.884765015217, -23091.296624099807, 3772.3486152110836, -22237.72820684054, -23774.947080009828, -1496.8069191940929, 10754.608899904359, -7790.901695597375, -19126.052454239423, 0.20400000000000001, 0.852, -0.43, 192.0, 0.0, 0.0, 0.0, 0.0, 0.0, 0.0, 0.0, 0.0, 0.0, 1.662065442943303E9, 0.0, 2022-09-01 16:50:42.943
124.0, -17985.912321318665, -20272.875758752318, -30379.68640085297, -14575.952538961476, -6963.395412372996, -11725.635734276264, 28704.44550567216, -11686.07314659037, -23049.118882312643, 3753.617853357536, -22202.01011920096, -23764.97820198276, -1447.2307499922217, 10701.83643124538, -7744.655936319344, -19097.576331803364, 0.20400000000000001, 0.852, -0.43, 192.0, 0.0, 0.0, 0.0, 0.0, 0.0, 0.0, 0.0, 0.0, 0.0, 1.6620654429433086E9, 0.0, 2022-09-01 16:50:42.943
126.0, -17954.262251169952, -20223.23253431708, -30355.747682541336, -14524.029436591798, -6949.157351154966, -11669.30933824889, 28447.9145345586, -11642.666058858164, -23096.32576660225, 3761.3292051946173, -22250.69221862462, -23790.883873806462, -1504.4512157978077, 10738.090960751888, -7802.502250969679, -19134.12143398779, 0.20400000000000001, 0.852, -0.43, 192.0, 0.0, 0.0, 0.0, 0.0, 0.0, 0.0, 0.0, 0.0, 0.0, 1.6620654429433131E9, 0.0, 2022-09-01 16:50:42.943
128.0, -17991.924940577144, -20279.603633833365, -30382.614479376614, -14576.153704661574, -6959.215636159854, -11723.221745875091, 28679.210386182116, -11682.832143644351, -23053.23160329242, 3750.756830067257, -22207.53100008142, -23769.605013085013, -1463.3016542555874, 10705.949152225156, -7759.899826037864, -19095.38586084674, 0.20400000000000001, 0.852, -0.43, 192.0, 0.0, 0.0, 0.0, 0.0, 0.0, 0.0, 0.0, 0.0, 0.0, 1.6620654429433177E9, 0.0, 2022-09-01 16:50:42.943
130.0, -17965.661640842158, -20232.374397799304, -30352.506679595313, -14527.091625582174, -6942.787103985203, -11668.437620215132, 28484.102008831742, -11640.296773945902, -23103.590083550225, 3746.107667220553, -22259.252936751003, -23800.606882644523, -1509.7932827226261, 10734.514681639039, -7800.937628857807, -19136.55777413342, 0.21, 0.854, -0.43, 192.0, 3.0, 72.0, 13.0, 88.0, 121.0, 72.0, 0.0, 0.0, 0.0, 1.6620654429433222E9, 0.0, 2022-09-01 16:50:42.943
132.0, -17997.915208091166, -20282.330546656915, -30376.311287440218, -14577.60656805117, -6946.966880198345, -11723.445263319643, 28660.85960398431, -11675.254902274002, -23055.533832971316, 3766.9618447973544, -22203.708851779564, -23759.70319029131, -1448.1024680259786, 10727.093902479875, -7750.601500344455, -19084.746430486015, 0.21, 0.854, -0.43, 192.0, 0.0, 0.0, 0.0, 0.0, 0.0, 0.0, 0.0, 0.0, 0.0, 1.6620654429433267E9, 0.0, 2022-09-01 16:50:42.943
134.0, -17970.46726590005, -20239.05756939144, -30366.34240941315, -14545.30829731325, -6952.867740734547, -11682.049832588415, 28519.775392982414, -11658.669907888165, -23110.250903397908, 3727.2874983891847, -22267.54543394392, -23816.163696785414, -1510.150910633911, 10699.042463188465, -7805.765605660154, -19146.50430041603, 0.21, 0.854, -0.43, 192.0, 0.0, 0.0, 0.0, 0.0, 0.0, 0.0, 0.0, 0.0, 0.0, 1.6620654429433312E9, 0.0, 2022-09-01 16:50:42.943
136.0, -17959.17963495012, -20247.797101473465, -30349.735063282857, -14558.182902119506, -6928.593746256083, -11700.937056653149, 28626.840248923334, -11655.294794475412, -23043.46389096545, 3786.6984351513906, -22187.079153904815, -23749.913126219886, -1445.0849825245123, 10745.623498633326, -7754.87068353542, -19079.851398450304, 0.21, 0.854, -0.43, 192.0, 0.0, 0.0, 0.0, 0.0, 0.0, 0.0, 0.0, 0.0, 0.0, 1.6620654429433355E9, 0.0, 2022-09-01 16:50:42.943
138.0, -17958.21850993854, -20237.24707809056, -30372.39973216054, -14549.532777015304, -6959.930891982423, -11684.061489589392, 28559.18151845712, -11653.529006663442, -23084.747562974404, 3738.1951496833744, -22242.712645854073, -23797.790562843154, -1489.5202505016628, 10701.948189967656, -7786.185477517305, -19139.93288754617, 0.21, 0.854, -0.43, 192.0, 0.0, 0.0, 0.0, 0.0, 0.0, 0.0, 0.0, 0.0, 0.0, 1.66206544294334E9, 0.0, 2022-09-01 16:50:42.943
140.0, -17954.865748270244, -20243.86319444933, -30350.517374338793, -14543.028419378808, -6926.4032752994635, -11696.26554206199, 28579.812178589367, -11636.20640471058, -23044.17914678802, 3791.7052259093794, -22187.526188793923, -23740.234820870737, -1450.2035320047776, 10767.192932032696, -7759.698660337765, -19093.374203845764, 0.212, 0.856, -0.428, 192.0, 3.0, 80.0, 13.0, 96.0, 121.0, 80.0, 0.0, 0.0, 0.0, 1.6620654429433446E9, 0.0, 2022-09-01 16:50:42.943
142.0, -17975.518760146948, -20248.73587474059, -30370.835110048665, -14546.269422324827, -6958.254511148276, -11690.990530370538, 28593.625556662748, -11638.374523922745, -23084.85932169668, 3726.326373377606, -22242.377369687245, -23793.476676163278, -1485.027549866146, 10707.200849914652, -7786.252532750671, -19153.031009796978, 0.212, 0.856, -0.428, 192.0, 0.0, 0.0, 0.0, 0.0, 0.0, 0.0, 0.0, 0.0, 0.0, 1.662065442943353E9, 0.0, 2022-09-01 16:50:42.943
144.0, -17962.912376274155, -20245.718389239122, -30339.00622594431, -14544.92831765751, -6911.338199536586, -11700.55707699741, 28537.343864124283, -11618.503823101977, -23055.62323994914, 3795.6391329335133, -22195.706927264564, -23738.31257084758, -1449.0859447820121, 10775.41837399225, -7763.29729119507, -19105.980587718557, 0.212, 0.856, -0.428, 192.0, 0.0, 0.0, 0.0, 0.0, 0.0, 0.0, 0.0, 0.0, 0.0, 1.6620654429433575E9, 0.0, 2022-09-01 16:50:42.943
146.0, -17972.344812434294, -20252.20039513116, -30374.43374090597, -14561.669774254535, -6962.121362939044, -11701.629960731265, 28620.17942907565, -11644.297736203402, -23082.825312951245, 3715.7763499947014, -22246.15481450019, -23807.737089125763, -1476.310369528576, 10689.632378772782, -7790.2758467526255, -19170.84535012786, 0.212, 0.856, -0.428, 192.0, 0.0, 0.0, 0.0, 0.0, 0.0, 0.0, 0.0, 0.0, 0.0, 1.6620654429433618E9, 0.0, 2022-09-01 16:50:42.943
148.0, -17953.234070925006, -20240.5774880144, -30341.420214345482, -14539.96623038843, -6920.234193829799, -11690.632902459252, 28492.327450791294, -11608.602000308276, -23049.94589685749, 3803.395188259505, -22190.29780510638, -23744.83928022853, -1440.3687644444424, 10793.031548623032, -7774.96490180074, -19116.73177680156, 0.212, 0.856, -0.428, 192.0, 0.0, 0.0, 0.0, 0.0, 0.0, 0.0, 0.0, 0.0, 0.0, 1.662065442943369E9, 0.0, 2022-09-01 16:50:42.943
150.0, -17992.103754532785, -20275.267395409035, -30396.897244083553, -14576.757201761868, -6969.497438609295, -11715.063359148904, 28648.208516622606, -11643.426018169645, -23089.016746165365, 3699.7054457313357, -22248.524099412454, -23817.169525285903, -1462.0499565660903, 10683.329186836385, -7794.053291565573, -19177.03678334198, 0.198, 0.856, -0.428, 192.0, 3.0, 24.0, 13.0, 96.0, 121.0, 80.0, 0.0, 0.0, 0.0, 1.6620654429433732E9, 0.0, 2022-09-01 16:50:42.943
152.0, -17950.75302729047, -20235.637752489776, -30351.702016794923, -14530.600849461658, -6914.221574571321, -11683.949730867116, 28453.92715381708, -11595.637988524199, -23081.305394328287, 3791.74992939829, -22214.92942749613, -23762.005419970206, -1456.1490960298893, 10791.75749918908, -7794.455622965768, -19137.74241658955, 0.198, 0.856, -0.428, 192.0, 0.0, 0.0, 0.0, 0.0, 0.0, 0.0, 0.0, 0.0, 0.0, 1.6620654429433775E9, 0.0, 2022-09-01 16:50:42.943
154.0, -17980.480847416027, -20272.20520641866, -30396.897244083553, -14565.491922556392, -6961.719031538848, -11713.677550992674, 28672.01312446751, -11636.698143088597, -23085.082839141232, 3711.2612976147293, -22236.87884055124, -23808.429993203878, -1454.830343107026, 10688.40303282774, -7793.807422376564, -19180.52365547701, 0.198, 0.856, -0.428, 192.0, 0.0, 0.0, 0.0, 0.0, 0.0, 0.0, 0.0, 0.0, 0.0, 1.662065442943382E9, 0.0, 2022-09-01 16:50:42.943
156.0, -17939.80067250737, -20229.491022764567, -30337.508659065803, -14511.937142841476, -6909.840632658081, -11678.495905220021, 28430.0107872499, -11583.568046518332, -23072.588213990715, 3797.360217256572, -22209.699119293586, -23757.73623677924, -1450.449401193786, 10792.204534078186, -7804.312742270558, -19146.34783820484, 0.198, 0.856, -0.428, 192.0, 0.0, 0.0, 0.0, 0.0, 0.0, 0.0, 0.0, 0.0, 0.0, 1.6620654429433875E9, 0.0, 2022-09-01 16:50:42.943
158.0, -17987.968681808554, -20279.402468133267, -30391.39871494755, -14565.69308825649, -6964.80357227368, -11731.469539579099, 28700.06456375892, -11643.73894259202, -23079.785475705325, 3708.377922579995, -22236.58826787332, -23808.34058622606, -1440.2123022332553, 10675.886055932768, -7793.561553187556, -19185.776315424006, 0.198, 0.856, -0.428, 192.0, 0.0, 0.0, 0.0, 0.0, 0.0, 0.0, 0.0, 0.0, 0.0, 1.6620654429433918E9, 0.0, 2022-09-01 16:50:42.943
160.0, -17926.322570600816, -20204.747641652542, -30322.577693769657, -14488.19959022994, -6905.146766322466, -11666.001280069504, 28419.416060378084, -11572.258063823947, -23076.656231481582, 3812.7605691862786, -22208.179200670624, -23745.17455639536, -1446.5601976585624, 10795.646702724303, -7796.623742177933, -19150.102931273334, 0.202, 0.854, -0.424, 192.0, 3.0, 40.0, 13.0, 88.0, 121.0, 96.0, 0.0, 0.0, 0.0, 1.662065442943396E9, 0.0, 2022-09-01 16:50:42.943
162.0, -17985.107658518275, -20268.472465094623, -30390.25877598033, -14556.730038729911, -6959.550912326684, -11726.261583121013, 28706.50186616205, -11638.173358222648, -23072.342344801706, 3743.4478096303715, -22218.25983741997, -23783.37368766948, -1434.9819940307134, 10705.21154465813, -7780.01639604764, -19173.70637341814, 0.202, 0.854, -0.424, 192.0, 0.0, 0.0, 0.0, 0.0, 0.0, 0.0, 0.0, 0.0, 0.0, 1.6620654429434004E9, 0.0, 2022-09-01 16:50:42.943
164.0, -17924.556782788848, -20193.549417680435, -30319.537856523737, -14467.077191719674, -6895.915495862424, -11643.11309374727, 28416.890313254633, -11558.176464817103, -23083.18294086253, 3824.8752146810552, -22210.503782093976, -23742.98408543874, -1455.120915784945, 10813.416339566273, -7795.036768321606, -19146.101969015835, 0.202, 0.854, -0.424, 192.0, 0.0, 0.0, 0.0, 0.0, 0.0, 0.0, 0.0, 0.0, 0.0, 1.662065442943405E9, 0.0, 2022-09-01 16:50:42.943
166.0, -17991.634367899223, -20276.697907054175, -30396.53961617227, -14554.248995095373, -6953.270072134742, -11721.143033640747, 28715.666081388725, -11638.843910556307, -23069.548376744795, 3764.592559885092, -22208.313311137357, -23770.856710774508, -1429.4387614057973, 10716.49917560806, -7766.828866819009, -19149.968820806604, 0.202, 0.854, -0.424, 192.0, 0.0, 0.0, 0.0, 0.0, 0.0, 0.0, 0.0, 0.0, 0.0, 1.6620654429434092E9, 0.0, 2022-09-01 16:50:42.943
168.0, -17936.894945728178, -20208.726252165587, -30342.694263779435, -14480.354127926128, -6915.94265889438, -11652.031439784938, 28420.354833645208, -11575.834342936796, -23109.49094408643, 3803.9763336153433, -22233.794299816407, -23769.64971657392, -1478.0761573405455, 10786.236618308618, -7813.476957497234, -19162.1728732792, 0.202, 0.854, -0.424, 192.0, 0.0, 0.0, 0.0, 0.0, 0.0, 0.0, 0.0, 0.0, 0.0, 1.6620654429434135E9, 0.0, 2022-09-01 16:50:42.943
170.0, -17979.162094493164, -20264.91853772623, -30385.095523011154, -14542.983715889897, -6941.535406295706, -11711.196507358136, 28712.536837164982, -11627.466872628554, -23066.866167410157, 3769.2193709873404, -22199.95375871107, -23761.312515892092, -1421.9509270132694, 10723.159995455742, -7761.397392916369, -19137.45184391163, 0.202, 0.848, -0.42, 192.0, 3.0, 40.0, 13.0, 64.0, 121.0, 112.0, 0.0, 0.0, 0.0, 1.662065442943418E9, 0.0, 2022-09-01 16:50:42.943
172.0, -17944.181614420606, -20212.72721442309, -30356.977028486377, -14488.043128018753, -6926.783254955203, -11663.140256779225, 28433.09532798473, -11588.396023320678, -23122.723176803967, 3781.8928100934995, -22253.26266923698, -23781.742010324244, -1485.6981021998051, 10779.441687994205, -7823.714056457765, -19181.88711188878, 0.202, 0.848, -0.42, 192.0, 0.0, 0.0, 0.0, 0.0, 0.0, 0.0, 0.0, 0.0, 0.0, 1.6620654429434376E9, 0.0, 2022-09-01 16:50:42.943
174.0, -17978.93857704861, -20264.91853772623, -30393.00804054833, -14547.208195591951, -6945.893996464491, -11724.428740075677, 28684.597156595846, -11635.647611099197, -23071.872958168147, 3781.8034031156785, -22204.178238413126, -23753.735274521743, -1429.550520128074, 10734.179405472209, -7775.769564601132, -19150.438207440166, 0.202, 0.848, -0.42, 192.0, 0.0, 0.0, 0.0, 0.0, 0.0, 0.0, 0.0, 0.0, 0.0, 1.662065442943442E9, 0.0, 2022-09-01 16:50:42.943
176.0, -17940.515928329936, -20207.496906220545, -30362.408502389015, -14489.831267575179, -6925.620964243528, -11672.93032085065, 28453.793043350346, -11591.838191966795, -23117.850496512714, 3784.6420746615026, -22250.714570369073, -23779.350373667523, -1483.2170585652661, 10759.302766239973, -7826.865652425963, -19195.722841706614, 0.202, 0.848, -0.42, 192.0, 0.0, 0.0, 0.0, 0.0, 0.0, 0.0, 0.0, 0.0, 0.0, 1.6620654429434464E9, 0.0, 2022-09-01 16:50:42.943
178.0, -17975.898739802687, -20260.761113257544, -30383.039162521265, -14534.154776830052, -6938.1379411385, -11720.584240029364, 28659.362037105806, -11622.01304698146, -23060.697085940494, 3802.948153370399, -22193.62821503022, -23741.97825693825, -1424.3649154144425, 10757.201702261174, -7771.2545122211595, -19141.497509658042, 0.202, 0.848, -0.42, 192.0, 0.0, 0.0, 0.0, 0.0, 0.0, 0.0, 0.0, 0.0, 0.0, 1.6620654429434507E9, 0.0, 2022-09-01 16:50:42.943
180.0, -17959.291393672396, -20229.401615786748, -30373.182043216475, -14496.559142656226, -6936.685077748904, -11667.431791714644, 28483.565566964815, -11591.547619288876, -23120.420947125072, 3764.9054843074664, -22260.728151885054, -23796.963548298307, -1486.0333783666347, 10746.070533522432, -7820.78597793412, -19189.79962942596, 0.20800000000000002, 0.85, -0.43, 192.0, 3.0, 64.0, 13.0, 72.0, 121.0, 72.0, 0.0, 0.0, 0.0, 1.662065442943457E9, 0.0, 2022-09-01 16:50:42.943
0.0, -8994.699596726847, -10138.661877949462, -15197.95688366376, -7284.277055773385, -3482.7817657925807, -5864.49424797228, 14378.251359254285, -5835.772256347211, -11535.08711279477, 1873.299702799285, -11105.240715174761, -11889.205800200201, -712.2830405572702, 5347.185474298653, -3874.5631426052028, -9569.27353969497, 0.20600000000000002, 0.85, -0.43, 192.0, 3.0, 56.0, 13.0, 72.0, 121.0, 72.0, 0.0, 0.0, 0.0, 1.6620654435258455E9, 0.0, 2022-09-01 16:50:43.525
2.0, -17942.6840475421, -20213.241304545558, -30342.29193237924, -14503.15290727054, -6923.5869554980945, -11668.392916726223, 28490.561662979326, -11608.557296819365, -23108.328653374752, 3757.462353403849, -22241.192727231115, -23788.246367960735, -1489.989637135224, 10731.765417071036, -7812.627591207933, -19170.286556516476, 0.20600000000000002, 0.85, -0.43, 192.0, 0.0, 0.0, 0.0, 0.0, 0.0, 0.0, 0.0, 0.0, 0.0, 1.6620654435259123E9, 0.0, 2022-09-01 16:50:43.525
4.0, -17967.159207720662, -20256.067246921928, -30351.47849935037, -14545.554166502257, -6918.17783333991, -11706.547344511431, 28609.47294348156, -11635.40174191019, -23058.394856261595, 3806.390322016516, -22179.4348573011, -23736.07739640205, -1433.6632411078504, 10783.196781062697, -7754.446000390769, -19102.247846394523, 0.20600000000000002, 0.85, -0.43, 192.0, 0.0, 0.0, 0.0, 0.0, 0.0, 0.0, 0.0, 0.0, 0.0, 1.6620654435259287E9, 0.0, 2022-09-01 16:50:43.525
6.0, -17968.880292043723, -20243.237345604583, -30366.834147791167, -14529.796186661266, -6947.033935431712, -11699.663007219197, 28518.054308659353, -11639.760332078975, -23122.0079209814, 3730.953184479855, -22261.21989026307, -23813.012100817217, -1494.4376342818302, 10707.40201561475, -7807.285524283115, -19173.75107690705, 0.20600000000000002, 0.85, -0.43, 192.0, 0.0, 0.0, 0.0, 0.0, 0.0, 0.0, 0.0, 0.0, 0.0, 1.6620654435259364E9, 0.0, 2022-09-01 16:50:43.525
8.0, -17966.645117598193, -20250.613421274833, -30351.925534239475, -14523.15771855804, -6911.718179192327, -11696.444356017633, 28560.880251035724, -11628.517404617955, -23073.638745980115, 3801.718807425357, -22195.77398249793, -23739.74308249272, -1447.186046503311, 10770.188065789707, -7767.097087752472, -19098.20218064811, 0.198, 0.846, -0.432, 192.0, 3.0, 24.0, 13.0, 56.0, 121.0, 64.0, 0.0, 0.0, 0.0, 1.662065443525941E9, 0.0, 2022-09-01 16:50:43.525
10.0, -17963.180597207618, -20233.04495013296, -30364.330752412174, -14515.893401610067, -6942.094199907089, -11693.538629238443, 28566.8928702942, -11632.20544245308, -23115.749432533914, 3745.7723910537234, -22252.435654692134, -23792.649661618434, -1482.2335818092326, 10723.897603022768, -7791.840468864498, -19150.013524295515, 0.198, 0.846, -0.432, 192.0, 0.0, 0.0, 0.0, 0.0, 0.0, 0.0, 0.0, 0.0, 0.0, 1.6620654435259452E9, 0.0, 2022-09-01 16:50:43.525
12.0, -17946.59560282178, -20225.311246551424, -30341.733138767857, -14509.59020967367, -6911.4946617477735, -11682.228646544057, 28526.07858491881, -11615.419282367146, -23069.123693600144, 3825.61282224808, -22187.34737483828, -23722.21931483976, -1445.1520377578781, 10786.169563075253, -7764.2137127177375, -19093.888293968237, 0.198, 0.846, -0.432, 192.0, 0.0, 0.0, 0.0, 0.0, 0.0, 0.0, 0.0, 0.0, 0.0, 1.6620654435259497E9, 0.0, 2022-09-01 16:50:43.525
14.0, -17952.36235289125, -20226.00415062954, -30367.817624547202, -14525.415244748026, -6954.588825057605, -11699.528896752465, 28614.725603428556, -11641.906099546684, -23096.079897413245, 3757.7752778262234, -22234.174279472147, -23782.03258300216, -1481.540677731118, 10740.236728219597, -7797.1378323004055, -19152.94160281916, 0.198, 0.846, -0.432, 192.0, 0.0, 0.0, 0.0, 0.0, 0.0, 0.0, 0.0, 0.0, 0.0, 1.6620654435259535E9, 0.0, 2022-09-01 16:50:43.525
16.0, -17926.344922345274, -20204.077089318882, -30324.924626937467, -14497.408508945528, -6910.377074525008, -11672.684451661642, 28494.674383959104, -11608.803166008374, -23053.432768992516, 3847.3387178586386, -22170.29299381888, -23709.657634455878, -1447.320156970043, 10800.653493482292, -7776.1271925124165, -19098.760974259494, 0.198, 0.846, -0.432, 192.0, 0.0, 0.0, 0.0, 0.0, 0.0, 0.0, 0.0, 0.0, 0.0, 1.662065443525958E9, 0.0, 2022-09-01 16:50:43.525
18.0, -17967.919167032145, -20244.019656660515, -30369.494005381348, -14538.803939676756, -6956.913406480958, -11704.64744623273, 28652.455348069114, -11652.120846762758, -23089.732001987937, 3759.921045293933, -22229.815689303363, -23781.13851322395, -1473.2705322826544, 10717.88498376429, -7789.694701396787, -19153.41098945272, 0.198, 0.848, -0.428, 192.0, 3.0, 24.0, 13.0, 64.0, 121.0, 80.0, 0.0, 0.0, 0.0, 1.662065443525962E9, 0.0, 2022-09-01 16:50:43.525
20.0, -17937.252573639464, -20208.122755065295, -30323.583522270146, -14500.604808402635, -6904.766786666726, -11667.387088225734, 28453.413063694607, -11610.077215442327, -23066.441484265506, 3829.502025783304, -22186.922691693628, -23726.376739308445, -1453.5786454175288, 10781.855676395378, -7779.234084991705, -19105.69001504064, 0.198, 0.848, -0.428, 192.0, 0.0, 0.0, 0.0, 0.0, 0.0, 0.0, 0.0, 0.0, 0.0, 1.6620654435259664E9, 0.0, 2022-09-01 16:50:43.525
22.0, -17992.819010355357, -20266.080828437905, -30389.521168413303, -14561.26744285434, -6976.8288107906355, -11728.65321977773, 28673.77891227948, -11682.4074604997, -23100.41613583757, 3748.722821321824, -22240.432767919632, -23793.722545352288, -1479.0819858410343, 10730.156091470253, -7786.900733339875, -19152.203995252134, 0.198, 0.848, -0.428, 192.0, 0.0, 0.0, 0.0, 0.0, 0.0, 0.0, 0.0, 0.0, 0.0, 1.6620654435259707E9, 0.0, 2022-09-01 16:50:43.525
24.0, -17929.094186913277, -20197.08099330437, -30324.81286821519, -14493.049918776742, -6914.623905971516, -11668.59408242632, 28422.18767669054, -11617.788567279407, -23090.80488572179, 3820.2260518343514, -22206.391061114202, -23740.480690059747, -1481.0712910975567, 10780.782792661525, -7791.907524097864, -19118.385805891252, 0.198, 0.848, -0.428, 192.0, 0.0, 0.0, 0.0, 0.0, 0.0, 0.0, 0.0, 0.0, 0.0, 1.662065443525976E9, 0.0, 2022-09-01 16:50:43.525
26.0, -17974.825856068834, -20253.38503758729, -30391.041087036265, -14557.400591063571, -6979.600427103094, -11720.94186794065, 28709.072316774407, -11677.423021486167, -23090.04492641031, 3765.8442575745894, -22223.57955260033, -23770.588489841044, -1473.8516776384924, 10728.300896680463, -7781.379852459414, -19141.475157913585, 0.198, 0.848, -0.428, 192.0, 0.0, 0.0, 0.0, 0.0, 0.0, 0.0, 0.0, 0.0, 0.0, 1.6620654435259805E9, 0.0, 2022-09-01 16:50:43.525
28.0, -17917.44892805206, -20185.94982456563, -30314.24049308783, -14481.963453526909, -6908.186603568388, -11655.78653285343, 28415.370394631675, -11598.990750192494, -23083.98760366292, 3827.0880373821306, -22193.471752819034, -23730.064777143572, -1484.2675905546655, 10782.839153151412, -7796.511983455656, -19114.138974444744, 0.194, 0.842, -0.436, 192.0, 3.0, 8.0, 13.0, 40.0, 121.0, 48.0, 0.0, 0.0, 0.0, 1.6620654435259845E9, 0.0, 2022-09-01 16:50:43.525
30.0, -17979.363260193262, -20256.067246921928, -30373.807892061224, -14563.614376022146, -6961.875493750035, -11718.349065583834, 28734.709767664644, -11667.87882660375, -23073.638745980115, 3768.4370599314047, -22201.25015988948, -23759.70319029131, -1462.094660055001, 10720.12015820982, -7766.001852274162, -19127.237096695557, 0.194, 0.842, -0.436, 192.0, 0.0, 0.0, 0.0, 0.0, 0.0, 0.0, 0.0, 0.0, 0.0, 1.6620654435259895E9, 0.0, 2022-09-01 16:50:43.525
32.0, -17915.392567562172, -20178.03730702845, -30298.974251624855, -14481.650529104536, -6891.489850460273, -11644.230680970035, 28417.560865588293, -11590.407680321656, -23083.272347840353, 3813.3193627976616, -22199.752593010973, -23740.681855759845, -1478.2326195517326, 10782.235656051118, -7787.079547295517, -19121.179773948166, 0.194, 0.842, -0.436, 192.0, 0.0, 0.0, 0.0, 0.0, 0.0, 0.0, 0.0, 0.0, 0.0, 1.6620654435259938E9, 0.0, 2022-09-01 16:50:43.525
34.0, -17987.27577773044, -20265.6337935488, -30374.701961839433, -14573.35973660466, -6963.931854239924, -11726.730969754573, 28739.291875277984, -11674.45023947361, -23066.46383600996, 3778.2271240028294, -22197.092735420792, -23754.98697221124, -1449.2424069931994, 10727.74210306908, -7751.361459655936, -19118.96695124709, 0.194, 0.842, -0.436, 192.0, 0.0, 0.0, 0.0, 0.0, 0.0, 0.0, 0.0, 0.0, 0.0, 1.662065443525998E9, 0.0, 2022-09-01 16:50:43.525
36.0, -17933.49748057097, -20196.164571781705, -30320.43192630195, -14494.167505999507, -6922.871699675525, -11662.581463167842, 28411.704708541, -11611.77594802093, -23105.780554506848, 3795.974409100343, -22227.222886946547, -23761.670143803378, -1499.734997717738, 10744.394152688285, -7797.093128811494, -19143.26329747001, 0.194, 0.842, -0.436, 192.0, 0.0, 0.0, 0.0, 0.0, 0.0, 0.0, 0.0, 0.0, 0.0, 1.6620654435260024E9, 0.0, 2022-09-01 16:50:43.526
38.0, -17982.17957999463, -20260.470540579623, -30371.99740076034, -14554.941899173487, -6961.495514094296, -11718.661990006209, 28724.20444777065, -11669.26463475998, -23067.782588932823, 3788.151298540986, -22194.34347085279, -23740.167765637372, -1451.6340436499172, 10736.705152595658, -7749.908596266341, -19105.846477251827, 0.196, 0.846, -0.44, 192.0, 3.0, 16.0, 13.0, 56.0, 121.0, 32.0, 0.0, 0.0, 0.0, 1.6620654435260077E9, 0.0, 2022-09-01 16:50:43.526
40.0, -17942.952268475565, -20205.485249219568, -30327.85270546111, -14494.525133910793, -6931.186548612899, -11662.425000956655, 28418.879618511157, -11616.82744226783, -23114.743604033425, 3780.5293536817258, -22233.660189349677, -23765.38053338296, -1504.540622775629, 10740.303783452962, -7809.788919662109, -19140.089349757356, 0.196, 0.846, -0.44, 192.0, 0.0, 0.0, 0.0, 0.0, 0.0, 0.0, 0.0, 0.0, 0.0, 1.6620654435260117E9, 0.0, 2022-09-01 16:50:43.526
42.0, -17990.114449276265, -20272.49577909658, -30364.62132509009, -14561.222739365428, -6958.478028592829, -11713.23051610357, 28698.745810836055, -11666.157742280691, -23075.38218204763, 3778.9200280809437, -22194.544636552888, -23747.677951774356, -1458.3395669865092, 10734.134701983297, -7763.9231400398185, -19097.464573081084, 0.196, 0.846, -0.44, 192.0, 0.0, 0.0, 0.0, 0.0, 0.0, 0.0, 0.0, 0.0, 0.0, 1.662065443526016E9, 0.0, 2022-09-01 16:50:43.526
44.0, -17947.199099922072, -20215.655292946733, -30324.589350770635, -14507.712663139424, -6931.1641968684435, -11663.229663757047, 28443.511240900905, -11620.515480102955, -23112.419022610073, 3765.5313331522148, -22231.559125370877, -23778.679821333866, -1500.1149773734783, 10745.064705021943, -7802.077567825028, -19133.763806076506, 0.196, 0.846, -0.44, 192.0, 0.0, 0.0, 0.0, 0.0, 0.0, 0.0, 0.0, 0.0, 0.0, 1.6620654435260203E9, 0.0, 2022-09-01 16:50:43.526
46.0, -17980.905530560678, -20267.801912760962, -30364.420159389992, -14565.424867323027, -6954.633528546516, -11713.096405636836, 28673.130711690275, -11665.375431224757, -23069.19074883351, 3786.877249107033, -22189.314328350345, -23751.120120420474, -1453.3551279729759, 10746.495216667083, -7759.564549871034, -19095.83289573585, 0.196, 0.846, -0.44, 192.0, 0.0, 0.0, 0.0, 0.0, 0.0, 0.0, 0.0, 0.0, 0.0, 1.6620654435260246E9, 0.0, 2022-09-01 16:50:43.526
48.0, -17944.628649309714, -20212.548400467444, -30334.87115322008, -14510.752500385344, -6935.433380059408, -11670.471628960566, 28476.54711920585, -11628.048017984393, -23116.777612778857, 3753.9307777799104, -22245.3501516998, -23795.98007154227, -1509.189785622333, 10721.617725088327, -7804.8938876263965, -19152.69573363015, 0.19, 0.846, -0.446, 192.0, 2.5, 120.0, 13.0, 56.0, 121.0, 8.0, 0.0, 0.0, 0.0, 1.6620654435260296E9, 0.0, 2022-09-01 16:50:43.526
50.0, -17953.234070925006, -20232.977894899595, -30332.43481307445, -14525.795224403766, -6917.641391472983, -11686.140201823737, 28648.208516622606, -11636.027590754939, -23043.530946198814, 3818.750836700301, -22162.268717559426, -23715.960826392275, -1428.7458573276826, 10768.690498911203, -7729.970840212208, -19071.178921601644, 0.19, 0.846, -0.446, 192.0, 0.0, 0.0, 0.0, 0.0, 0.0, 0.0, 0.0, 0.0, 0.0, 1.6620654435260339E9, 0.0, 2022-09-01 16:50:43.526
52.0, -17957.726771560523, -20221.936133138675, -30339.788537000244, -14510.68544515198, -6941.401295828974, -11678.317091264378, 28520.669462760623, -11638.039247755916, -23109.200371408508, 3762.491495906293, -22235.560087628375, -23779.305670178615, -1491.956590647291, 10723.159995455742, -7782.676253637822, -19140.491681157553, 0.19, 0.846, -0.446, 192.0, 0.0, 0.0, 0.0, 0.0, 0.0, 0.0, 0.0, 0.0, 0.0, 1.662065443526038E9, 0.0, 2022-09-01 16:50:43.526
54.0, -17970.444914155592, -20248.400598573757, -30335.027615431263, -14529.349151772161, -6920.815339185637, -11686.475477990565, 28607.57304520286, -11639.760332078975, -23059.75831267337, 3822.103598368597, -22173.288127575892, -23721.951093906297, -1444.7273546132274, 10786.124859586342, -7739.045648461062, -19067.133255855235, 0.19, 0.846, -0.446, 192.0, 0.0, 0.0, 0.0, 0.0, 0.0, 0.0, 0.0, 0.0, 0.0, 1.6620654435260425E9, 0.0, 2022-09-01 16:50:43.526
56.0, -17979.22914972653, -20247.126549139804, -30353.043121462244, -14536.21113731994, -6964.065964706656, -11691.370510026278, 28555.135852710708, -11654.82540784185, -23126.81354603929, 3736.9434519938773, -22254.492015182022, -23810.553408927135, -1505.2111751092882, 10715.515698852027, -7799.931800357319, -19142.302172458432, 0.19, 0.846, -0.446, 192.0, 0.0, 0.0, 0.0, 0.0, 0.0, 0.0, 0.0, 0.0, 0.0, 1.6620654435260465E9, 0.0, 2022-09-01 16:50:43.526
58.0, -17957.056219226866, -20233.782557699986, -30326.779821727258, -14531.718436684423, -6920.457711274352, -11682.250998288513, 28557.952172512076, -11628.852680784785, -23061.81467316326, 3823.4894065248263, -22168.30368856236, -23726.622608497455, -1445.6214243914396, 10777.206513548674, -7747.807532287542, -19067.714401211073, 0.186, 0.844, -0.444, 192.0, 2.5, 104.0, 13.0, 48.0, 121.0, 16.0, 0.0, 0.0, 0.0, 1.6620654435260508E9, 0.0, 2022-09-01 16:50:43.526
60.0, -17970.713135089056, -20235.928325167697, -30360.15097619903, -14548.996335148375, -6962.769563528248, -11702.613437487298, 28595.1007717968, -11647.337573449324, -23118.409290124095, 3735.758809537746, -22245.953648800096, -23807.357109470024, -1501.4337302963413, 10696.650826531748, -7794.433271221313, -19157.166082521213, 0.186, 0.844, -0.444, 192.0, 0.0, 0.0, 0.0, 0.0, 0.0, 0.0, 0.0, 0.0, 0.0, 1.6620654435260556E9, 0.0, 2022-09-01 16:50:43.526
62.0, -17944.025152209422, -20213.241304545558, -30319.940187923934, -14519.8273086342, -6910.019446613723, -11679.568788953877, 28513.49455279047, -11609.697235786585, -23056.60671670517, 3832.0277729067534, -22167.364915295235, -23717.32428280405, -1443.1180290124453, 10777.474734482139, -7757.977576014707, -19094.40238409071, 0.186, 0.844, -0.444, 192.0, 0.0, 0.0, 0.0, 0.0, 0.0, 0.0, 0.0, 0.0, 0.0, 1.66206544352606E9, 0.0, 2022-09-01 16:50:43.526
64.0, -17975.18348398012, -20239.459900791633, -30365.269525679294, -14550.40449504906, -6961.495514094296, -11706.4132340447, 28637.18910660614, -11639.358000678778, -23104.32769111725, 3753.4166876574386, -22234.129575983236, -23785.94413828184, -1475.9527416172912, 10723.919954767223, -7781.960997815251, -19166.598518681352, 0.186, 0.844, -0.444, 192.0, 0.0, 0.0, 0.0, 0.0, 0.0, 0.0, 0.0, 0.0, 0.0, 1.6620654435260644E9, 0.0, 2022-09-01 16:50:43.526
66.0, -17941.164128919143, -20210.24617078855, -30334.87115322008, -14522.375407502104, -6918.043722873178, -11682.049832588415, 28471.74149414796, -11598.521363558933, -23074.823388436245, 3830.2843368392396, -22189.135514394704, -23726.846125942007, -1454.3386047290094, 10792.80803117848, -7779.412898947347, -19126.857117039814, 0.186, 0.844, -0.444, 192.0, 0.0, 0.0, 0.0, 0.0, 0.0, 0.0, 0.0, 0.0, 0.0, 1.6620654435260684E9, 0.0, 2022-09-01 16:50:43.526
68.0, -17988.46042018657, -20258.660049278744, -30386.794255589757, -14568.084724913208, -6967.351671141586, -11721.947696441139, 28670.04617095544, -11641.906099546684, -23108.127487674654, 3742.4196293854275, -22244.098454010305, -23792.94023429635, -1470.8341921370259, 10710.575963327405, -7797.338998000503, -19180.74717292156, 0.185, 0.843, -0.444, 192.0, 2.5, 96.0, 13.0, 40.0, 121.0, 16.0, 0.0, 0.0, 0.0, 1.6620654435260737E9, 0.0, 2022-09-01 16:50:43.526
70.0, -17924.959114189045, -20197.259807260016, -30319.716670479378, -14504.605770660135, -6895.960199351335, -11659.631032899742, 28444.494717656937, -11565.61959572072, -23078.42201929355, 3811.330057541139, -22195.371651097736, -23734.669236501366, -1448.5942064039955, 10779.195818805198, -7783.8161926050425, -19131.014541508503, 0.185, 0.843, -0.444, 192.0, 0.0, 0.0, 0.0, 0.0, 0.0, 0.0, 0.0, 0.0, 0.0, 1.6620654435260787E9, 0.0, 2022-09-01 16:50:43.526
72.0, -17975.921091547145, -20261.38696210229, -30388.783560846277, -14569.872864469633, -6959.327394882131, -11720.807757473918, 28696.801209068446, -11630.663172085664, -23070.71066745647, 3750.8462370450784, -22218.25983741997, -23779.976222512272, -1436.8371888205038, 10722.914126266734, -7770.740422098687, -19155.93673657617, 0.185, 0.843, -0.444, 192.0, 0.0, 0.0, 0.0, 0.0, 0.0, 0.0, 0.0, 0.0, 0.0, 1.6620654435260828E9, 0.0, 2022-09-01 16:50:43.526
74.0, -17920.30995134234, -20204.054737574428, -30316.229798344353, -14492.066442020709, -6883.21970501181, -11655.294794475412, 28415.61626382068, -11557.371802016713, -23066.061504609766, 3799.9977231022986, -22199.596130799786, -23750.628382042454, -1438.1782934878224, 10770.053955322976, -7787.168954273338, -19140.804605579928, 0.185, 0.843, -0.444, 192.0, 0.0, 0.0, 0.0, 0.0, 0.0, 0.0, 0.0, 0.0, 0.0, 1.6620654435260873E9, 0.0, 2022-09-01 16:50:43.526
76.0, -17971.89777754519, -20271.24408140708, -30385.29668871125, -14564.463742311447, -6958.075697192633, -11732.363609357311, 28707.55239815145, -11630.149081963193, -23062.99931561939, 3740.8103037846454, -22212.426032117135, -23786.502931893225, -1417.3911711443868, 10724.74696931207, -7770.0251662761175, -19163.245757013054, 0.185, 0.843, -0.444, 192.0, 0.0, 0.0, 0.0, 0.0, 0.0, 0.0, 0.0, 0.0, 0.0, 1.6620654435260913E9, 0.0, 2022-09-01 16:50:43.526
78.0, -17919.0806053973, -20211.90019987824, -30328.880885706054, -14495.083927522175, -6911.360551281042, -11679.322919764867, 28382.781551215834, -11577.421316793123, -23076.924452415045, 3784.7091298948685, -22211.911941994662, -23769.247385173727, -1448.415392448353, 10754.340678970895, -7815.734483687221, -19172.74524840656, 0.1835, 0.8434999999999999, -0.44, 192.0, 2.5, 88.0, 13.0, 48.0, 121.0, 48.0, 0.0, 0.0, 0.0, 1.6620654435260956E9, 0.0, 2022-09-01 16:50:43.526
80.0, -17956.720943060034, -20264.136226670293, -30375.953659528932, -14550.87388168262, -6958.94741522639, -11735.17992915868, 28701.875055059798, -11635.714666332564, -23053.455120736973, 3748.9463387663773, -22206.011081458462, -23781.42908590187, -1419.1122554674455, 10718.041445975477, -7791.751061886676, -19178.824922898402, 0.1835, 0.8434999999999999, -0.44, 192.0, 0.0, 0.0, 0.0, 0.0, 0.0, 0.0, 0.0, 0.0, 0.0, 1.6620654435261E9, 0.0, 2022-09-01 16:50:43.526
82.0, -17897.153544086643, -20189.28023448947, -30314.28519657674, -14466.63015683057, -6908.834804157592, -11663.542588179422, 28379.8981761811, -11567.586549232788, -23056.56201321626, 3800.534164969226, -22194.790505741898, -23752.41652159888, -1432.1656742293446, 10770.009251834066, -7813.0522743525835, -19168.654879171238, 0.1835, 0.8434999999999999, -0.44, 192.0, 0.0, 0.0, 0.0, 0.0, 0.0, 0.0, 0.0, 0.0, 0.0, 1.662065443526104E9, 0.0, 2022-09-01 16:50:43.526
84.0, -17955.22337618153, -20265.320869126426, -30376.19952871794, -14540.055637366253, -6951.481932578317, -11729.144958155746, 28702.54560739346, -11629.903212774183, -23038.501803696374, 3764.301987207173, -22184.86633120374, -23761.156053680905, -1409.545708840574, 10734.872309550323, -7784.687910638799, -19156.20495750963, 0.1835, 0.8434999999999999, -0.44, 192.0, 0.0, 0.0, 0.0, 0.0, 0.0, 0.0, 0.0, 0.0, 0.0, 1.6620654435261083E9, 0.0, 2022-09-01 16:50:43.526
86.0, -17914.654959995147, -20206.75929865352, -30321.66127224699, -14470.429953387971, -6912.209917570343, -11664.414306213177, 28393.398629832107, -11563.116200341727, -23072.454103523985, 3770.0016820432766, -22210.68259604962, -23774.321231165082, -1444.8167615910486, 10759.07924879542, -7808.894849883896, -19166.777332636993, 0.1835, 0.8434999999999999, -0.44, 192.0, 0.0, 0.0, 0.0, 0.0, 0.0, 0.0, 0.0, 0.0, 0.0, 1.6620654435261123E9, 0.0, 2022-09-01 16:50:43.526
88.0, -17968.768533321447, -20275.87089250933, -30379.26171770832, -14543.49780601237, -6946.922176709435, -11732.430664590676, 28692.979060766585, -11627.265706928458, -23047.487204967405, 3753.4166876574386, -22193.516456307945, -23769.627364829466, -1405.8800227499037, 10740.12496949732, -7763.118477239428, -19149.27591672849, 0.18475, 0.84575, -0.435, 192.0, 2.5, 104.0, 13.0, 64.0, 121.0, 72.0, 0.0, 0.0, 0.0, 1.6620654435261168E9, 0.0, 2022-09-01 16:50:43.526
90.0, -17926.0319979229, -20211.43081324468, -30342.917781223987, -14481.516418637804, -6921.4188362859295, -11679.41232674269, 28409.67069979557, -11580.751726716964, -23087.72034498696, 3758.0434987596873, -22231.849698048794, -23787.687574349355, -1458.5854361755178, 10733.687667094191, -7817.813195921564, -19188.12324859181, 0.18475, 0.84575, -0.435, 192.0, 0.0, 0.0, 0.0, 0.0, 0.0, 0.0, 0.0, 0.0, 0.0, 1.662065443526121E9, 0.0, 2022-09-01 16:50:43.526
92.0, -17949.680143556612, -20255.173177143715, -30367.392941402548, -14532.456044251448, -6934.047571903178, -11724.361684842312, 28666.559298820415, -11621.141328947704, -23045.028513077323, 3770.582827399114, -22189.359031839256, -23758.116216434984, -1405.8129675165378, 10737.88979505179, -7779.926989069819, -19150.28174522898, 0.18475, 0.84575, -0.435, 192.0, 0.0, 0.0, 0.0, 0.0, 0.0, 0.0, 0.0, 0.0, 0.0, 1.6620654435261252E9, 0.0, 2022-09-01 16:50:43.526
94.0, -17905.557800001836, -20196.298682248438, -30328.81383047269, -14474.945005767942, -6920.3012490631645, -11673.869094117772, 28441.96897053349, -11581.57874126181, -23067.693181955005, 3767.8112110866564, -22213.63302631772, -23776.489350377244, -1436.2783952091213, 10745.444684677683, -7811.197079562793, -19181.775353166504, 0.18475, 0.84575, -0.435, 192.0, 0.0, 0.0, 0.0, 0.0, 0.0, 0.0, 0.0, 0.0, 0.0, 1.6620654435261292E9, 0.0, 2022-09-01 16:50:43.526
96.0, -17933.07279742632, -20246.76892122852, -30353.177231928974, -14522.73303541339, -6927.722028222326, -11713.208164359114, 28637.412624050692, -11614.25699165547, -23024.12963201161, 3797.919010867955, -22158.111293090737, -23735.74212023522, -1391.284333620588, 10751.524359169527, -7773.400279688869, -19139.4187974237, 0.18475, 0.84575, -0.435, 192.0, 0.0, 0.0, 0.0, 0.0, 0.0, 0.0, 0.0, 0.0, 0.0, 1.6620654435261335E9, 0.0, 2022-09-01 16:50:43.526
98.0, -17914.8784774397, -20204.90410386373, -30343.09659517963, -14488.244293718852, -6938.56262428315, -11685.871980890273, 28470.243927269454, -11595.481526313011, -23072.163530846065, 3751.405030656461, -22213.454212362078, -23786.592338871043, -1444.8391133355037, 10734.805254316958, -7822.797634935097, -19196.303987062453, 0.187375, 0.846875, -0.4365, 192.0, 2.5, 120.0, 13.0, 64.0, 121.0, 40.0, 0.0, 0.0, 0.0, 1.6620654435261376E9, 0.0, 2022-09-01 16:50:43.526
100.0, -17919.997026919966, -20222.964313383618, -30340.81671724519, -14501.767099114311, -6916.389693783485, -11705.452109033122, 28599.146437543208, -11603.237581639003, -23019.50282090936, 3806.3232667831503, -22150.24347904247, -23723.06868112906, -1387.5962957854624, 10778.055879837977, -7770.829829076509, -19135.328428188375, 0.187375, 0.846875, -0.4365, 192.0, 0.0, 0.0, 0.0, 0.0, 0.0, 0.0, 0.0, 0.0, 0.0, 1.662065443526142E9, 0.0, 2022-09-01 16:50:43.526
102.0, -17918.07477689681, -20207.98864459856, -30350.20444991642, -14483.14809598304, -6940.976612684323, -11697.003149629016, 28509.247721343963, -11603.125822916725, -23068.52019649985, 3757.0823737481087, -22213.789488528906, -23776.22112944378, -1442.2016074897776, 10730.156091470253, -7812.1135010854605, -19199.16501035273, 0.187375, 0.846875, -0.4365, 192.0, 0.0, 0.0, 0.0, 0.0, 0.0, 0.0, 0.0, 0.0, 0.0, 1.662065443526147E9, 0.0, 2022-09-01 16:50:43.526
104.0, -17916.130175129198, -20223.23253431708, -30339.29679862223, -14487.573741385191, -6923.899879920469, -11711.598838758331, 28553.705341065568, -11604.802203750874, -23024.062576778244, 3819.108464611586, -22150.936383120585, -23711.199904823294, -1401.2979151365657, 10784.85081015239, -7779.547009414078, -19138.3682654343, 0.187375, 0.846875, -0.4365, 192.0, 0.0, 0.0, 0.0, 0.0, 0.0, 0.0, 0.0, 0.0, 0.0, 1.6620654435261512E9, 0.0, 2022-09-01 16:50:43.526
106.0, -17919.997026919966, -20216.839935402862, -30353.825432518177, -14484.958587283922, -6949.067944177144, -11699.148917096725, 28558.75683531247, -11615.955724234072, -23076.38801054812, 3739.9385857508883, -22216.605808330278, -23783.127818480472, -1455.1656192738558, 10710.061873204932, -7824.563422747067, -19205.736423222592, 0.187375, 0.846875, -0.4365, 192.0, 0.0, 0.0, 0.0, 0.0, 0.0, 0.0, 0.0, 0.0, 0.0, 1.6620654435261557E9, 0.0, 2022-09-01 16:50:43.526
108.0, -17916.040768151375, -20220.99735987155, -30318.464972789883, -14480.398831415037, -6915.495624005273, -11696.690225206641, 28520.356538338252, -11591.860543711251, -23025.940123312488, 3824.674048980957, -22141.056912071337, -23706.93072163233, -1405.2094704162444, 10806.062615640476, -7776.060137279051, -19124.040797238446, 0.1906875, 0.8504375, -0.43825000000000003, 192.0, 3.0, 8.0, 13.0, 88.0, 121.0, 32.0, 0.0, 0.0, 0.0, 1.6620654435261595E9, 0.0, 2022-09-01 16:50:43.526
110.0, -17931.39641659217, -20225.065377362418, -30349.288028393752, -14493.20638098793, -6948.687964521404, -11693.516277493987, 28603.482675967538, -11606.411529351655, -23075.00220239189, 3729.1650449234303, -22211.10727919427, -23786.927615037876, -1443.028622034624, 10693.812154985924, -7802.21167829176, -19186.916254391224, 0.1906875, 0.8504375, -0.43825000000000003, 192.0, 0.0, 0.0, 0.0, 0.0, 0.0, 0.0, 0.0, 0.0, 0.0, 1.6620654435261638E9, 0.0, 2022-09-01 16:50:43.526
112.0, -17900.93098889959, -20200.254941017025, -30309.77014419677, -14461.57866258367, -6896.742510407271, -11669.622262671264, 28488.907633889634, -11567.787714932885, -23033.942047827488, 3829.4796740388483, -22155.026752355905, -23708.20477106628, -1405.0083047161465, 10810.220040109163, -7779.994044303185, -19115.30126515642, 0.1906875, 0.8504375, -0.43825000000000003, 192.0, 0.0, 0.0, 0.0, 0.0, 0.0, 0.0, 0.0, 0.0, 0.0, 1.662065443526168E9, 0.0, 2022-09-01 16:50:43.526
114.0, -17921.472242054017, -20221.980836627583, -30358.943981998444, -14488.512514652315, -6957.606310559072, -11689.850591403318, 28638.41845255118, -11609.697235786585, -23053.589231203703, 3747.2923096766845, -22201.00429070047, -23765.13466419395, -1424.6107846034508, 10715.180422685198, -7793.382739231914, -19166.732629148082, 0.1906875, 0.8504375, -0.43825000000000003, 192.0, 0.0, 0.0, 0.0, 0.0, 0.0, 0.0, 0.0, 0.0, 0.0, 1.6620654435261729E9, 0.0, 2022-09-01 16:50:43.526
116.0, -17890.649186450148, -20193.750583380533, -30315.11221112159, -14453.219110157384, -6905.996132611768, -11670.091649304826, 28451.088482271254, -11572.570988246322, -23033.83028910521, 3842.577796289658, -22156.792540167873, -23699.442887239802, -1415.7147903102386, 10821.820595481468, -7791.147564786383, -19120.531573358963, 0.1906875, 0.8504375, -0.43825000000000003, 192.0, 0.0, 0.0, 0.0, 0.0, 0.0, 0.0, 0.0, 0.0, 0.0, 1.6620654435261772E9, 0.0, 2022-09-01 16:50:43.526
118.0, -17939.107768429254, -20242.276220593005, -30377.071246751697, -14517.078044066197, -6956.37696461403, -11715.309228337912, 28667.788644765456, -11629.299715673891, -23057.254917294376, 3740.564434595637, -22195.48340982001, -23768.28626016215, -1430.5339968841074, 10697.16491665422, -7796.623742177933, -19172.588786195374, 0.18934375, 0.85021875, -0.441125, 192.0, 2.5, 112.0, 13.0, 72.0, 121.0, 16.0, 0.0, 0.0, 0.0, 1.6620654435261822E9, 0.0, 2022-09-01 16:50:43.526
120.0, -17909.02232039241, -20208.23451378757, -30322.46593504738, -14481.762287826812, -6914.780368182704, -11682.675681433164, 28424.400499391617, -11583.545694773877, -23061.591155718703, 3819.197871589407, -22177.24438634448, -23728.96954166526, -1438.9829562882135, 10792.383348033829, -7809.185422561815, -19147.912460316715, 0.18934375, 0.85021875, -0.441125, 192.0, 0.0, 0.0, 0.0, 0.0, 0.0, 0.0, 0.0, 0.0, 0.0, 1.6620654440051706E9, 0.0, 2022-09-01 16:50:44.005
122.0, -17959.000820994475, -20262.191624902684, -30376.8700810516, -14542.581384489702, -6972.023185732745, -11734.46467333611, 28679.277441415485, -11644.051867014394, -23071.068295367753, 3718.078579673598, -22205.96637796955, -23793.74489709674, -1436.90424405387, 10674.67906173218, -7801.205849791271, -19186.64803345776, 0.18934375, 0.85021875, -0.441125, 192.0, 0.0, 0.0, 0.0, 0.0, 0.0, 0.0, 0.0, 0.0, 0.0, 1.6620654440052564E9, 0.0, 2022-09-01 16:50:44.005
124.0, -17892.392622517662, -20186.508618177013, -30306.752658695303, -14460.349316638627, -6904.655027944449, -11666.493018447522, 28406.63086254965, -11571.38634579019, -23058.774835917335, 3815.1522058429964, -22177.177331111114, -23731.539992277623, -1436.7924853315933, 10791.913961400267, -7805.027998093128, -19143.30800095892, 0.18934375, 0.85021875, -0.441125, 192.0, 0.0, 0.0, 0.0, 0.0, 0.0, 0.0, 0.0, 0.0, 0.0, 1.662065444005261E9, 0.0, 2022-09-01 16:50:44.005
126.0, -17947.288506899895, -20247.260659606538, -30379.306421197227, -14534.959439630442, -6962.076659450133, -11729.524937811488, 28695.884787545776, -11641.101436746292, -23047.263687522853, 3742.3972776409723, -22185.3357178373, -23765.648754316422, -1424.2755084366213, 10680.803439712936, -7780.306968725559, -19161.03293431198, 0.18934375, 0.85021875, -0.441125, 192.0, 0.0, 0.0, 0.0, 0.0, 0.0, 0.0, 0.0, 0.0, 0.0, 1.6620654440052657E9, 0.0, 2022-09-01 16:50:44.005
128.0, -17884.569511958303, -20173.432847670658, -30314.441658787928, -14455.074304947175, -6898.821222641614, -11650.667983373163, 28404.060411937287, -11564.591415475776, -23060.652382451583, 3815.75570294329, -22186.76622948244, -23731.495288788712, -1452.3940029613975, 10790.148173588297, -7807.866669638953, -19146.012562038013, 0.189671875, 0.8511093750000001, -0.44356249999999997, 192.0, 2.5, 120.0, 13.0, 80.0, 121.0, 8.0, 0.0, 0.0, 0.0, 1.66206544400527E9, 0.0, 2022-09-01 16:50:44.005
130.0, -17936.671428283626, -20240.219860103116, -30377.54063338526, -14531.584326217691, -6950.94549071139, -11713.31992308139, 28697.20354046864, -11626.05871272787, -23028.868201836136, 3761.239798216796, -22171.857615930752, -23745.710998262286, -1406.282354150099, 10705.636227802781, -7766.8512185634645, -19136.44601541114, 0.189671875, 0.8511093750000001, -0.44356249999999997, 192.0, 0.0, 0.0, 0.0, 0.0, 0.0, 0.0, 0.0, 0.0, 0.0, 1.6620654440052743E9, 0.0, 2022-09-01 16:50:44.005
132.0, -17897.06413710882, -20187.022708299482, -30334.513525308794, -14472.218092944395, -6913.640429215483, -11652.54552990741, 28403.076935181256, -11573.219188835525, -23063.401647019586, 3806.65854294998, -22200.378441855722, -23741.955905193798, -1451.2093605052664, 10786.817763664456, -7816.092111598506, -19156.517881932006, 0.189671875, 0.8511093750000001, -0.44356249999999997, 192.0, 0.0, 0.0, 0.0, 0.0, 0.0, 0.0, 0.0, 0.0, 0.0, 1.6620654440052788E9, 0.0, 2022-09-01 16:50:44.005
134.0, -17966.98039376502, -20276.07205820943, -30403.848636609157, -14561.580367276714, -6970.212694431865, -11742.690115295663, 28679.925642004688, -11651.003259539993, -23043.866222365647, 3747.0017369987654, -22191.124819651228, -23761.245460658727, -1423.448493891775, 10703.535163823983, -7787.593637417989, -19160.74236163406, 0.189671875, 0.8511093750000001, -0.44356249999999997, 192.0, 0.0, 0.0, 0.0, 0.0, 0.0, 0.0, 0.0, 0.0, 0.0, 1.6620654440052931E9, 0.0, 2022-09-01 16:50:44.005
136.0, -17904.21669533452, -20197.058641559917, -30342.42604284597, -14478.38717441406, -6919.340124051586, -11658.044059043415, 28417.560865588293, -11578.650662738164, -23083.249996095896, 3772.572132655637, -22224.495974123, -23769.202681684816, -1473.4940497272075, 10749.31153646845, -7834.532300774134, -19185.17281832371, 0.189671875, 0.8511093750000001, -0.44356249999999997, 192.0, 0.0, 0.0, 0.0, 0.0, 0.0, 0.0, 0.0, 0.0, 0.0, 1.6620654440052977E9, 0.0, 2022-09-01 16:50:44.005
138.0, -17938.303105628864, -20253.116816653826, -30372.39973216054, -14535.607640219647, -6928.504339278262, -11714.504565537522, 28677.891633259256, -11620.20255568058, -23019.145192998076, 3773.600312900581, -22163.073380359816, -23739.184288881337, -1405.7012087942612, 10721.818890788423, -7764.169009228827, -19133.115605487303, 0.189671875, 0.8511093750000001, -0.44356249999999997, 192.0, 0.0, 0.0, 0.0, 0.0, 0.0, 0.0, 0.0, 0.0, 0.0, 1.662065444005302E9, 0.0, 2022-09-01 16:50:44.005
140.0, -17925.182631633597, -20220.773842427, -30355.255944163317, -14496.849715334143, -6936.930946937913, -11672.237416772536, 28441.38782517765, -11592.732261745008, -23080.18780710552, 3762.491495906293, -22225.92648576814, -23779.99857425673, -1468.0402240801125, 10743.902414310267, -7825.457492525279, -19180.635414199285, 0.19, 0.84, -0.442, 192.0, 2.5, 120.0, 13.0, 32.0, 121.0, 24.0, 0.0, 0.0, 0.0, 1.6620654440053065E9, 0.0, 2022-09-01 16:50:44.005
142.0, -17960.40898089516, -20270.797046517975, -30379.798159575246, -14547.364657803138, -6944.865816219547, -11732.296554123945, 28647.984999178054, -11631.646648841697, -23043.441539220996, 3754.7354405803017, -22187.705002749564, -23762.51951009268, -1418.3746479004203, 10709.793652271468, -7781.871590837431, -19146.638410882762, 0.19, 0.84, -0.442, 192.0, 0.0, 0.0, 0.0, 0.0, 0.0, 0.0, 0.0, 0.0, 0.0, 1.662065444005311E9, 0.0, 2022-09-01 16:50:44.005
144.0, -17915.861954195734, -20209.106231821326, -30352.43962436195, -14484.958587283922, -6934.1593306254545, -11670.091649304826, 28474.0213720824, -11593.112241400748, -23084.36758331866, 3749.661594588947, -22232.38613991572, -23784.04424000314, -1468.7554799026823, 10729.016152503033, -7822.663524468366, -19183.56349272293, 0.19, 0.84, -0.442, 192.0, 0.0, 0.0, 0.0, 0.0, 0.0, 0.0, 0.0, 0.0, 0.0, 1.6620654440053153E9, 0.0, 2022-09-01 16:50:44.005
146.0, -17935.9338207166, -20247.28301135099, -30359.949810498932, -14518.530907455792, -6929.152539867466, -11718.147899883736, 28618.011309863487, -11618.302657401879, -23026.163640757044, 3789.3806444860274, -22160.592336725276, -23730.064777143572, -1412.160862941845, 10753.446609192682, -7772.819134333031, -19134.523765387985, 0.19, 0.84, -0.442, 192.0, 0.0, 0.0, 0.0, 0.0, 0.0, 0.0, 0.0, 0.0, 0.0, 1.6620654440053198E9, 0.0, 2022-09-01 16:50:44.005
148.0, -17920.86874495372, -20214.247133046047, -30353.28899065125, -14488.557218141224, -6941.334240595608, -11685.134373323248, 28508.9795004105, -11606.389177607201, -23084.9487286745, 3746.2194259428297, -22219.01979673145, -23783.776019069675, -1470.253046781188, 10722.467091377628, -7825.636306480922, -19196.75102195156, 0.19, 0.84, -0.442, 192.0, 0.0, 0.0, 0.0, 0.0, 0.0, 0.0, 0.0, 0.0, 0.0, 1.662065444005324E9, 0.0, 2022-09-01 16:50:44.005
150.0, -17923.841526966276, -20234.4754617781, -30336.167554398486, -14507.220924761406, -6921.75411245276, -11710.682417235663, 28585.333059469827, -11608.177317163625, -23030.74574837038, 3806.949115627899, -22148.52239471941, -23719.023015382652, -1412.7643600421382, 10771.193894290196, -7768.214674975237, -19129.584029863363, 0.19, 0.842, -0.444, 192.0, 2.5, 120.0, 13.0, 40.0, 121.0, 16.0, 0.0, 0.0, 0.0, 1.6620654440053284E9, 0.0, 2022-09-01 16:50:44.005
152.0, -17918.186535619086, -20213.733042923577, -30348.61747606009, -14494.25691297733, -6948.933833710413, -11682.563922710888, 28550.196117186086, -11606.299770629379, -23077.43854253752, 3740.2291584288073, -22214.616503073754, -23783.530149880666, -1452.5281134281295, 10704.11630917982, -7810.794748162598, -19193.37590853881, 0.19, 0.842, -0.444, 192.0, 0.0, 0.0, 0.0, 0.0, 0.0, 0.0, 0.0, 0.0, 0.0, 1.662065444005333E9, 0.0, 2022-09-01 16:50:44.005
154.0, -17906.78714594688, -20217.4210807587, -30328.81383047269, -14492.513476909815, -6911.896993147969, -11690.096460592325, 28547.737425296, -11592.732261745008, -23019.480469164904, 3817.1862145884297, -22144.029694083893, -23709.300006544592, -1402.2366884036885, 10787.264798553562, -7774.584922145001, -19118.139936702246, 0.19, 0.842, -0.444, 192.0, 0.0, 0.0, 0.0, 0.0, 0.0, 0.0, 0.0, 0.0, 0.0, 1.6620654440053375E9, 0.0, 2022-09-01 16:50:44.005
156.0, -17916.085471640286, -20215.61058945782, -30366.029484990777, -14501.34241596966, -6955.415839602451, -11686.4084227572, 28583.902547824688, -11613.429977110622, -23054.483300981916, 3745.16889395343, -22200.087869177805, -23771.12493170797, -1443.386249945909, 10700.83060274489, -7808.134890572416, -19176.679155430695, 0.19, 0.842, -0.444, 192.0, 0.0, 0.0, 0.0, 0.0, 0.0, 0.0, 0.0, 0.0, 0.0, 1.6620654440053418E9, 0.0, 2022-09-01 16:50:44.005
158.0, -17912.531544271893, -20220.371511026802, -30344.951789969422, -14499.77779385779, -6919.720103707326, -11688.062451846892, 28498.54123574987, -11600.197744393081, -23022.721472110927, 3816.0909791101194, -22150.042313342372, -23713.61389322447, -1419.2240141897219, 10787.309502042473, -7793.427442720824, -19119.548096602928, 0.19, 0.842, -0.444, 192.0, 0.0, 0.0, 0.0, 0.0, 0.0, 0.0, 0.0, 0.0, 0.0, 1.6620654440053463E9, 0.0, 2022-09-01 16:50:44.005
160.0, -17937.230221895006, -20235.302476322948, -30378.412351419018, -14522.241297035373, -6962.657804805971, -11694.008015872005, 28615.642024951223, -11629.545584862899, -23062.75344643038, 3725.5440623216705, -22209.944988482595, -23785.072420248085, -1453.0645552950568, 10690.92877995119, -7810.615934206955, -19176.634451941783, 0.19, 0.842, -0.442, 192.0, 2.5, 120.0, 13.0, 40.0, 121.0, 24.0, 0.0, 0.0, 0.0, 1.6620654440053506E9, 0.0, 2022-09-01 16:50:44.005
162.0, -17916.845430951766, -20219.09746159285, -30329.551438039714, -14492.714642609912, -6912.0311036147, -11686.319015779378, 28461.50439518743, -11597.336721102802, -23038.635914163104, 3820.0025343897983, -22166.068514116825, -23722.912218917874, -1423.4931973806856, 10804.363883061873, -7795.282637510614, -19122.006788493014, 0.19, 0.842, -0.442, 192.0, 0.0, 0.0, 0.0, 0.0, 0.0, 0.0, 0.0, 0.0, 0.0, 1.662065444005355E9, 0.0, 2022-09-01 16:50:44.005
164.0, -17949.613088323247, -20248.66881950722, -30376.467749651405, -14529.59502096117, -6966.725822296838, -11718.170251628191, 28643.38053982026, -11642.666058858164, -23062.529928985827, 3729.433265856894, -22208.96151172656, -23781.205568457317, -1437.217168476244, 10685.027919414988, -7800.40118699088, -19172.36526875082, 0.19, 0.842, -0.442, 192.0, 0.0, 0.0, 0.0, 0.0, 0.0, 0.0, 0.0, 0.0, 0.0, 1.6620654440053592E9, 0.0, 2022-09-01 16:50:44.005
166.0, -17901.02039587741, -20201.03725207296, -30316.185094855442, -14475.213226701408, -6906.934905878891, -11677.892408119727, 28431.28483668385, -11589.401851821167, -23043.195670031986, 3824.1823106029406, -22168.840130429286, -23717.972483393252, -1430.221072461733, 10798.41831903676, -7798.657750923366, -19126.25361993952, 0.19, 0.842, -0.442, 192.0, 0.0, 0.0, 0.0, 0.0, 0.0, 0.0, 0.0, 0.0, 0.0, 1.6620654440053647E9, 0.0, 2022-09-01 16:50:44.005
168.0, -17940.515928329936, -20245.76309272803, -30375.126644984084, -14529.975000616909, -6969.1398106980105, -11717.253830105523, 28672.683676801167, -11645.63884087072, -23044.246202021386, 3739.3797921395058, -22188.62142427223, -23764.97820198276, -1423.9402322697917, 10690.459393317627, -7790.052329308073, -19157.367248221308, 0.19, 0.842, -0.442, 192.0, 0.0, 0.0, 0.0, 0.0, 0.0, 0.0, 0.0, 0.0, 0.0, 1.662065444005369E9, 0.0, 2022-09-01 16:50:44.005
170.0, -17889.218674805008, -20187.402687955226, -30313.771106454267, -14470.586415599158, -6910.108853591544, -11663.587291668331, 28410.184789918043, -11588.641892509688, -23043.8885741101, 3819.130816356041, -22171.544691508378, -23720.297064816605, -1439.541749899596, 10795.8478684244, -7806.413806249358, -19127.25944844001, 0.19, 0.854, -0.44, 192.0, 2.5, 120.0, 13.0, 88.0, 121.0, 32.0, 0.0, 0.0, 0.0, 1.6620654440053735E9, 0.0, 2022-09-01 16:50:44.005
172.0, -17945.679181299114, -20249.406427074246, -30376.803025818233, -14542.335515300694, -6978.684005580427, -11723.98170518657, 28682.786665294967, -11658.155817765692, -23038.278286251818, 3738.2175014278296, -22183.10054339177, -23763.70415254881, -1426.3989241598756, 10700.137698666776, -7783.235047249204, -19149.83471033987, 0.19, 0.854, -0.44, 192.0, 0.0, 0.0, 0.0, 0.0, 0.0, 0.0, 0.0, 0.0, 0.0, 1.6620654440053775E9, 0.0, 2022-09-01 16:50:44.005
174.0, -17900.260436565928, -20192.878865346775, -30317.257978589296, -14477.090773235652, -6924.36926655403, -11668.169399281669, 28392.79513273181, -11596.822630980329, -23056.629068449627, 3811.03948486322, -22183.815799214342, -23733.5516492786, -1449.28711048211, 10785.096679341397, -7814.035751108618, -19140.268163713, 0.19, 0.854, -0.44, 192.0, 0.0, 0.0, 0.0, 0.0, 0.0, 0.0, 0.0, 0.0, 0.0, 1.662065444005382E9, 0.0, 2022-09-01 16:50:44.005
176.0, -17950.21658542354, -20256.849557977865, -30377.048895007243, -14542.82725367871, -6974.839505534113, -11724.27227786449, 28689.425133398192, -11656.948823565106, -23036.490146695396, 3739.335088650595, -22179.233691601003, -23760.686667047343, -1421.3474299129762, 10683.35153858084, -7784.464393194246, -19141.810434080417, 0.19, 0.854, -0.44, 192.0, 0.0, 0.0, 0.0, 0.0, 0.0, 0.0, 0.0, 0.0, 0.0, 1.6620654440053864E9, 0.0, 2022-09-01 16:50:44.005
178.0, -17900.34984354375, -20198.243284016047, -30323.53881878124, -14479.974148270387, -6919.138958351488, -11663.654346901698, 28396.840798478224, -11597.135555402703, -23059.601850462182, 3800.6459236915025, -22190.789543484396, -23738.46903305877, -1455.2773779961321, 10779.821667649945, -7816.539146487612, -19135.708407844115, 0.19, 0.854, -0.44, 192.0, 0.0, 0.0, 0.0, 0.0, 0.0, 0.0, 0.0, 0.0, 0.0, 1.662065444005391E9, 0.0, 2022-09-01 16:50:44.005
180.0, -17952.988201736, -20267.690154038686, -30385.117874755608, -14557.110018385652, -6961.830790261125, -11735.671667536697, 28689.603947353837, -11664.727230635552, -23036.914829840047, 3739.245681672774, -22184.374592825723, -23764.866443260486, -1422.8897002803924, 10683.30683509193, -7786.721919384232, -19142.88331781427, 0.19, 0.85, -0.446, 192.0, 2.5, 120.0, 13.0, 72.0, 121.0, 8.0, 0.0, 0.0, 0.0, 1.6620654440053952E9, 0.0, 2022-09-01 16:50:44.005
182.0, -17899.34401504326, -20196.008109570517, -30326.9586356829, -14479.683575592468, -6930.784217212703, -11664.682527146642, 28404.798019504313, -11603.729320017019, -23066.57559473224, 3784.4409089614046, -22203.664148290653, -23754.338771622035, -1467.86141012447, 10767.058821565965, -7821.12125410095, -19147.84540508335, 0.19, 0.85, -0.446, 192.0, 0.0, 0.0, 0.0, 0.0, 0.0, 0.0, 0.0, 0.0, 0.0, 1.6620654440053997E9, 0.0, 2022-09-01 16:50:44.005
184.0, -17944.27102139843, -20254.927307954706, -30364.286048923263, -14541.01676237783, -6954.834694246614, -11727.647391277242, 28682.987830995065, -11658.11111427678, -23023.99552154488, 3756.523580136726, -22163.29689780437, -23744.951038950807, -1413.0772844645126, 10714.26400116253, -7771.567436643534, -19120.330407658865, 0.19, 0.85, -0.446, 192.0, 0.0, 0.0, 0.0, 0.0, 0.0, 0.0, 0.0, 0.0, 0.0, 1.662065444005404E9, 0.0, 2022-09-01 16:50:44.005
186.0, -17902.920294156113, -20191.850685101832, -30320.498981535315, -14472.77688655578, -6928.057304389156, -11657.954652065595, 28430.994264005934, -11602.812898494352, -23068.050809866287, 3783.2562665052733, -22202.412450601158, -23755.74693152272, -1461.804087377082, 10760.554463929471, -7816.1591668318715, -19143.106835258823, 0.19, 0.85, -0.446, 192.0, 0.0, 0.0, 0.0, 0.0, 0.0, 0.0, 0.0, 0.0, 0.0, 1.6620654440054083E9, 0.0, 2022-09-01 16:50:44.005
188.0, -17931.128195658708, -20235.883621678786, -30341.01788294529, -14515.803994632244, -6933.377019569519, -11708.961332912604, 28669.465025599606, -11638.709800089575, -23015.971245285422, 3791.884039865022, -22150.936383120585, -23723.180439851338, -1404.1812901713004, 10733.531204883004, -7761.419744660824, -19096.88342772525, 0.19, 0.85, -0.446, 192.0, 0.0, 0.0, 0.0, 0.0, 0.0, 0.0, 0.0, 0.0, 0.0, 1.6620654440054128E9, 0.0, 2022-09-01 16:50:44.005
190.0, -17906.78714594688, -20194.71170839211, -30336.48047882086, -14477.29193893575, -6936.1486358819775, -11665.844817858317, 28458.82218585279, -11617.162718434658, -23065.27919355383, 3780.8869815930107, -22205.564046569354, -23753.22118439927, -1464.4639449672634, 10751.390248702795, -7814.1028063419835, -19139.195279979143, 0.192, 0.844, -0.444, 192.0, 3.0, 0.0, 13.0, 48.0, 121.0, 16.0, 0.0, 0.0, 0.0, 1.662065444005417E9, 0.0, 2022-09-01 16:50:44.005
192.0, -17925.40614907815, -20231.882659421284, -30352.394920873037, -14520.028474334298, -6932.728818980315, -11711.040045146949, 28638.753728718013, -11646.577614137843, -23013.400794673064, 3798.880135879533, -22147.89654587466, -23713.524486246646, -1408.1375489398897, 10748.439818434694, -7769.354613942459, -19090.848456722317, 0.192, 0.844, -0.444, 192.0, 0.0, 0.0, 0.0, 0.0, 0.0, 0.0, 0.0, 0.0, 0.0, 1.6620654440054214E9, 0.0, 2022-09-01 16:50:44.005
194.0, -17911.9280471716, -20200.456106717123, -30351.590258072647, -14491.731165853878, -6950.2972901221865, -11669.01876557097, 28488.482950744983, -11627.645686584197, -23067.357905788173, 3761.4186121724383, -22211.710776294563, -23767.83922527304, -1468.4649072247635, 10736.682800851202, -7830.710152472277, -19153.031009796978, 0.192, 0.844, -0.444, 192.0, 0.0, 0.0, 0.0, 0.0, 0.0, 0.0, 0.0, 0.0, 0.0, 1.6620654440054257E9, 0.0, 2022-09-01 16:50:44.005
196.0, -17941.968791719533, -20247.417121817725, -30347.52224058178, -14524.63293369209, -6934.874586448024, -11709.944809668637, 28605.89666436871, -11642.487244902522, -23016.150059241067, 3802.5458219702036, -22147.51656621892, -23715.491439758713, -1413.0102292311465, 10759.79450461799, -7775.255474478659, -19090.423773577666, 0.192, 0.844, -0.444, 192.0, 0.0, 0.0, 0.0, 0.0, 0.0, 0.0, 0.0, 0.0, 0.0, 1.66206544400543E9, 0.0, 2022-09-01 16:50:44.005
198.0, -17930.74821600297, -20222.941961639164, -30341.62138004558, -14500.001311302341, -6955.415839602451, -11676.685413919142, 28537.053291446366, -11630.149081963193, -23083.406458307083, 3736.2505479157626, -22225.054767734382, -23787.598167371532, -1475.86333463947, 10706.9773324701, -7823.021152379651, -19158.998925566546, 0.192, 0.844, -0.444, 192.0, 0.0, 0.0, 0.0, 0.0, 0.0, 0.0, 0.0, 0.0, 0.0, 1.6620654440054355E9, 0.0, 2022-09-01 16:50:44.005
200.0, -17938.146643417676, -20240.421025803214, -30339.989702700343, -14524.8788028811, -6932.728818980315, -11705.921495666684, 28572.100826752285, -11640.028553012438, -23021.447422676974, 3805.2950865382063, -22152.90333663265, -23717.391338037414, -1417.8829095224035, 10769.472809967137, -7771.388622687891, -19088.456820065596, 0.198, 0.846, -0.446, 192.0, 3.0, 24.0, 13.0, 56.0, 121.0, 8.0, 0.0, 0.0, 0.0, 1.6620654440054398E9, 0.0, 2022-09-01 16:50:44.005
202.0, -17941.45470159706, -20228.75341519754, -30371.796235060247, -14524.185898802985, -6964.71416529586, -11698.813640929895, 28572.301992452383, -11656.077105531349, -23077.058562881775, 3731.467274602327, -22227.87108753575, -23790.794466828644, -1473.1140700714673, 10704.049253946454, -7816.941477887807, -19163.335163990876, 0.198, 0.846, -0.446, 192.0, 0.0, 0.0, 0.0, 0.0, 0.0, 0.0, 0.0, 0.0, 0.0, 1.662065444005444E9, 0.0, 2022-09-01 16:50:44.005
204.0, -17927.46250956804, -20230.496851265056, -30343.700092279923, -14507.131517783586, -6929.666629989938, -11697.628998473763, 28531.97944545501, -11633.3453814203, -23031.41630070404, 3816.47095876586, -22162.782807681895, -23714.105631602484, -1434.8255318195263, 10785.90134214179, -7785.49257343919, -19096.302282369412, 0.198, 0.846, -0.446, 192.0, 0.0, 0.0, 0.0, 0.0, 0.0, 0.0, 0.0, 0.0, 0.0, 1.6620654440054483E9, 0.0, 2022-09-01 16:50:44.005
206.0, -17940.806501007857, -20233.603743744345, -30378.747627585846, -14519.313218511728, -6968.782182786726, -11691.03523385945, 28612.781001660944, -11647.717553105063, -23078.354964060185, 3728.852120501056, -22228.16166021367, -23786.592338871043, -1475.796279406104, 10700.562381811427, -7821.188309334316, -19160.49649244505, 0.198, 0.846, -0.446, 192.0, 0.0, 0.0, 0.0, 0.0, 0.0, 0.0, 0.0, 0.0, 0.0, 1.662065444005454E9, 0.0, 2022-09-01 16:50:44.005
208.0, -17921.136965887184, -20220.796194171453, -30339.654426533514, -14504.181087515484, -6919.898917662968, -11681.401631999212, 28498.25066307195, -11617.229773668025, -23035.372559472627, 3821.5671565016696, -22166.314383305835, -23715.69260545881, -1441.3745929449312, 10803.76038596158, -7793.226277020726, -19091.16138114469, 0.198, 0.846, -0.446, 192.0, 0.0, 0.0, 0.0, 0.0, 0.0, 0.0, 0.0, 0.0, 0.0, 1.662065444005458E9, 0.0, 2022-09-01 16:50:44.005
210.0, -17960.140759961698, -20259.62117429032, -30380.53576714227, -14553.489035783892, -6975.532409612229, -11714.571620770887, 28640.072481640877, -11672.013899327982, -23069.056638366776, 3718.458559329338, -22217.321064152846, -23793.431972674367, -1465.514476956663, 10687.97834968309, -7805.452681237779, -19155.087370286867, 0.194, 0.847, -0.443, 192.0, 2.5, 120.0, 13.0, 64.0, 121.0, 32.0, 0.0, 0.0, 0.0, 1.6620654440054626E9, 0.0, 2022-09-01 16:50:44.005
212.0, -17930.278829369407, -20228.976932642097, -30321.773030969267, -14508.673788151002, -6912.120510592522, -11687.973044869072, 28453.971857305987, -11631.154910463682, -23051.599925947183, 3803.3057812816837, -22180.328927079314, -23737.574963280556, -1450.0470697935905, 10784.336720029918, -7799.708282912766, -19111.233247665554, 0.194, 0.847, -0.443, 192.0, 0.0, 0.0, 0.0, 0.0, 0.0, 0.0, 0.0, 0.0, 0.0, 1.6620654440054667E9, 0.0, 2022-09-01 16:50:44.005
214.0, -17978.111562503764, -20277.05553496546, -30396.673726639, -14569.649347025079, -6982.439098648918, -11735.984591959072, 28659.786720250457, -11695.997321128527, -23076.320955314754, 3708.2661638577183, -22228.184011958125, -23798.394059943446, -1466.8779333684365, 10673.293253575952, -7807.68785568331, -19160.18356802268, 0.194, 0.847, -0.443, 192.0, 0.0, 0.0, 0.0, 0.0, 0.0, 0.0, 0.0, 0.0, 0.0, 1.6620654440054712E9, 0.0, 2022-09-01 16:50:44.005
216.0, -17920.26524785343, -20215.56588596891, -30330.266693862286, -14503.041148548264, -6928.3478770670745, -11686.453126246111, 28427.932075015557, -11626.639858083709, -23065.972097631944, 3798.1201765680526, -22200.892531978196, -23744.951038950807, -1473.4716979827522, 10781.833324650923, -7823.803463435586, -19127.371207162287, 0.194, 0.847, -0.443, 192.0, 0.0, 0.0, 0.0, 0.0, 0.0, 0.0, 0.0, 0.0, 0.0, 1.6620654440054755E9, 0.0, 2022-09-01 16:50:44.005
218.0, -17957.860882027257, -20255.776674244007, -30384.268508466306, -14553.556091017259, -6976.471182879351, -11717.70086499463, 28696.890616046265, -11668.661137659687, -23061.054713851776, 3719.889070974478, -22210.414375116157, -23782.18904521335, -1458.5630844310624, 10672.332128564374, -7797.651922422877, -19140.02229452399, 0.194, 0.847, -0.443, 192.0, 0.0, 0.0, 0.0, 0.0, 0.0, 0.0, 0.0, 0.0, 0.0, 1.6620654440054798E9, 0.0, 2022-09-01 16:50:44.005
220.0, -17909.290541325874, -20201.19371428415, -30330.445507817927, -14493.29578796575, -6924.033990387201, -11663.542588179422, 28424.355795902706, -11606.031549695916, -23056.584364960716, 3812.0229616192537, -22183.05583990286, -23729.058948643084, -1471.281227026132, 10791.42222302225, -7806.413806249358, -19098.11277367029, 0.194, 0.8454999999999999, -0.4455, 192.0, 3.0, 8.0, 13.0, 48.0, 121.0, 0.0, 0.0, 0.0, 0.0, 1.662065444005484E9, 0.0, 2022-09-01 16:50:44.005
222.0, -17967.002745509475, -20265.276165637515, -30398.193645261963, -14563.748486488877, -6984.160182971977, -11727.557984299421, 28712.49213367607, -11674.584349940342, -23057.254917294376, 3728.695658289869, -22200.35609011127, -23773.315402664593, -1465.2909595121098, 10666.431268028173, -7795.662617166355, -19127.952352518125, 0.194, 0.8454999999999999, -0.4455, 192.0, 0.0, 0.0, 0.0, 0.0, 0.0, 0.0, 0.0, 0.0, 0.0, 1.6620654440054884E9, 0.0, 2022-09-01 16:50:44.005
224.0, -17908.01649189192, -20196.455144459625, -30329.774955484267, -14485.897360551044, -6918.51310950674, -11657.060582287382, 28423.14880170212, -11601.516497315944, -23065.726228442934, 3811.620630219058, -22194.902264464174, -23734.870402201464, -1486.9497998893023, 10773.809048391468, -7814.661599953366, -19113.915457000192, 0.194, 0.8454999999999999, -0.4455, 192.0, 0.0, 0.0, 0.0, 0.0, 0.0, 0.0, 0.0, 0.0, 0.0, 1.6620654440054927E9, 0.0, 2022-09-01 16:50:44.005
226.0, -17968.7908850659, -20268.561872072445, -30389.655278880036, -14564.93312894501, -6969.028051975733, -11727.714446510607, 28718.77297386801, -11670.605739427298, -23046.213155533453, 3743.69367881938, -22191.48244756251, -23762.832434515054, -1457.1772762748333, 10692.225181129597, -7776.507172168157, -19122.096195470833, 0.194, 0.8454999999999999, -0.4455, 192.0, 0.0, 0.0, 0.0, 0.0, 0.0, 0.0, 0.0, 0.0, 0.0, 1.6620654440054972E9, 0.0, 2022-09-01 16:50:44.005
228.0, -17927.417806079127, -20208.39097599876, -30334.938208453445, -14503.86816309311, -6931.074789890622, -11670.762201638485, 28418.589045833236, -11620.761349291963, -23075.33747855872, 3795.2591532777733, -22214.124764695738, -23754.98697221124, -1490.5931342355175, 10768.019946577544, -7812.06879759655, -19130.433396152664, 0.194, 0.8454999999999999, -0.4455, 192.0, 0.0, 0.0, 0.0, 0.0, 0.0, 0.0, 0.0, 0.0, 0.0, 1.6620654440055015E9, 0.0, 2022-09-01 16:50:44.005
230.0, -17962.331230918317, -20260.783465001998, -30377.093598496154, -14569.023498180331, -6955.102915180078, -11727.803853488429, 28705.45133417265, -11671.522160949966, -23043.821518876735, 3745.9959084982765, -22191.236578373504, -23762.675972303867, -1447.8789505814257, 10679.417631556706, -7765.420706918324, -19119.45868962511, 0.194, 0.84575, -0.44975, 192.0, 3.0, 8.0, 13.0, 56.0, 120.5, 104.0, 0.0, 0.0, 0.0, 1.6620654440055068E9, 0.0, 2022-09-01 16:50:44.005
232.0, -17914.766718717423, -20196.030461314975, -30338.983874199854, -14503.465831692914, -6933.309964336153, -11664.838989357828, 28427.261522681896, -11618.01208472396, -23076.81269369277, 3785.0891095506086, -22216.851677519284, -23760.619611813978, -1492.8730121699587, 10754.228920248619, -7809.654809195377, -19131.72979733107, 0.194, 0.84575, -0.44975, 192.0, 0.0, 0.0, 0.0, 0.0, 0.0, 0.0, 0.0, 0.0, 0.0, 1.6620654440055113E9, 0.0, 2022-09-01 16:50:44.005
234.0, -17949.367219134238, -20250.747531741566, -30368.77874955878, -14561.580367276714, -6949.693793021893, -11723.869946464294, 28686.877034530287, -11665.442486458121, -23026.342454712685, 3772.259208233262, -22169.86831067423, -23742.35823659399, -1439.161770243856, 10708.74312028207, -7765.1524859848605, -19098.26923588148, 0.194, 0.84575, -0.44975, 192.0, 0.0, 0.0, 0.0, 0.0, 0.0, 0.0, 0.0, 0.0, 0.0, 1.6620654440055156E9, 0.0, 2022-09-01 16:50:44.005
236.0, -17917.20305886305, -20199.740850894555, -30341.643731790035, -14520.16258480103, -6935.701600992871, -11677.445373230621, 28442.840688567245, -11634.574727365343, -23071.358868045674, 3774.2485134897847, -22211.68842455011, -23768.487425862244, -1488.1791458343441, 10739.856748563856, -7815.30980054257, -19142.659800369718, 0.194, 0.84575, -0.44975, 192.0, 0.0, 0.0, 0.0, 0.0, 0.0, 0.0, 0.0, 0.0, 0.0, 1.66206544400552E9, 0.0, 2022-09-01 16:50:44.005
238.0, -17947.087341199796, -20247.752397984554, -30360.396845388037, -14569.381126091615, -6948.8891302215025, -11736.901013481738, 28646.174507877175, -11677.73594590854, -23024.50961166735, 3768.973501798332, -22162.224014070514, -23746.113329662483, -1434.222034719233, 10720.030751232, -7769.131096497906, -19114.29543665593, 0.194, 0.84575, -0.44975, 192.0, 0.0, 0.0, 0.0, 0.0, 0.0, 0.0, 0.0, 0.0, 0.0, 1.6620654440055242E9, 0.0, 2022-09-01 16:50:44.005
240.0, -17919.281771097394, -20202.825391629387, -30339.14033641104, -14517.435671977482, -6942.585938285106, -11682.78744015544, 28462.510223687917, -11646.35409669329, -23074.80103669179, 3755.920083036433, -22216.82932577483, -23780.244443445736, -1486.6145237224728, 10706.507945836538, -7811.9346871298185, -19159.870643600305, 0.195, 0.846875, -0.450875, 192.0, 3.0, 16.0, 13.0, 64.0, 120.5, 112.0, 0.0, 0.0, 0.0, 1.6620654444861395E9, 0.0, 2022-09-01 16:50:44.486
242.0, -17948.093169700285, -20249.16055788524, -30355.367702885593, -14559.568710275737, -6942.831807474114, -11729.547289555943, 28620.782926175943, -11676.283082518947, -23023.79435584478, 3787.234877018318, -22154.400903511156, -23729.12600387645, -1432.702116096272, 10736.012248517543, -7758.469314392724, -19093.642424779227, 0.195, 0.846875, -0.450875, 192.0, 0.0, 0.0, 0.0, 0.0, 0.0, 0.0, 0.0, 0.0, 0.0, 1.6620654444862309E9, 0.0, 2022-09-01 16:50:44.486
244.0, -17935.755006760955, -20216.99639761405, -30350.24915340533, -14528.92446862751, -6952.823037245636, -11684.374414011767, 28498.54123574987, -11654.512483419478, -23083.42881005154, 3740.1844549398966, -22223.803070044883, -23787.240539460247, -1496.471643027263, 10703.35634986834, -7811.621762707444, -19151.98047780758, 0.195, 0.846875, -0.450875, 192.0, 0.0, 0.0, 0.0, 0.0, 0.0, 0.0, 0.0, 0.0, 0.0, 1.662065444486236E9, 0.0, 2022-09-01 16:50:44.486
246.0, -17947.288506899895, -20243.95260142715, -30339.29679862223, -14549.868053182132, -6927.632621244505, -11714.4151585597, 28573.240765719507, -11654.333669463835, -23029.963437314444, 3792.3534264985833, -22162.33577279279, -23732.45641380029, -1431.7633428291492, 10750.384420202307, -7762.425573161313, -19087.741564243028, 0.195, 0.846875, -0.450875, 192.0, 0.0, 0.0, 0.0, 0.0, 0.0, 0.0, 0.0, 0.0, 0.0, 1.6620654444862418E9, 0.0, 2022-09-01 16:50:44.486
248.0, -17951.423579624126, -20230.586258242878, -30364.710732067913, -14543.810730434745, -6961.47316234984, -11695.93026589516, 28526.123288407718, -11657.775838109952, -23079.740772216413, 3734.1941874258746, -22228.429881147134, -23794.728373852777, -1479.1937445633107, 10692.649864274248, -7801.339960258003, -19148.761826606016, 0.195, 0.846875, -0.450875, 192.0, 0.0, 0.0, 0.0, 0.0, 0.0, 0.0, 0.0, 0.0, 0.0, 1.662065444486247E9, 0.0, 2022-09-01 16:50:44.486
250.0, -17940.44887309657, -20231.793252443465, -30344.28123763576, -14544.995372890875, -6924.928060165413, -11704.490984021544, 28531.55476231036, -11635.669962843653, -23037.27245775133, 3807.619667961558, -22168.616612984733, -23730.02007365466, -1434.6914213527944, 10779.352281016385, -7771.589788387989, -19094.98352944655, 0.1955, 0.8474375000000001, -0.45243750000000005, 192.0, 3.0, 16.0, 13.0, 64.0, 120.5, 104.0, 0.0, 0.0, 0.0, 1.6620654444862523E9, 0.0, 2022-09-01 16:50:44.486
252.0, -17950.596565079282, -20233.559040255434, -30371.99740076034, -14549.175149104018, -6969.542142098206, -11705.541516010942, 28568.54689938389, -11650.846797328806, -23075.717458214458, 3735.714106048835, -22223.15486945568, -23792.13557149596, -1477.1150323289673, 10695.600294542348, -7804.513907970657, -19160.31767848941, 0.1955, 0.8474375000000001, -0.45243750000000005, 192.0, 0.0, 0.0, 0.0, 0.0, 0.0, 0.0, 0.0, 0.0, 0.0, 1.6620654444862573E9, 0.0, 2022-09-01 16:50:44.486
254.0, -17938.884250984698, -20225.221839573605, -30336.256961376308, -14531.673733195512, -6928.1690631114325, -11700.288856063946, 28496.171950837608, -11616.894497501195, -23036.803071117767, 3818.236746577829, -22166.3814385392, -23723.22514334025, -1443.900340068381, 10785.230789808129, -7786.0513670505725, -19103.901875484215, 0.1955, 0.8474375000000001, -0.45243750000000005, 192.0, 0.0, 0.0, 0.0, 0.0, 0.0, 0.0, 0.0, 0.0, 0.0, 1.6620654444862623E9, 0.0, 2022-09-01 16:50:44.486
0.0, -17963.69468733009, -20239.214031602627, -30379.127607241586, -14554.293698584283, -6974.727746811837, -11706.256771833512, 28605.8519608798, -11638.68744834512, -23076.56682450376, 3732.473103102816, -22226.574686357344, -23786.100600493028, -1464.6427589229058, 10693.074547418899, -7811.040617351606, -19169.392486738263, 0.1955, 0.8474375000000001, -0.45243750000000005, 192.0, 0.0, 0.0, 0.0, 0.0, 0.0, 0.0, 0.0, 0.0, 0.0, 1.6620654444862676E9, 0.0, 2022-09-01 16:50:44.486
2.0, -17915.34786407326, -20198.891484605254, -30321.52716178026, -14508.718491639913, -6904.520917477717, -11669.957538838094, 28463.828976610777, -11577.287206326391, -23038.099472296177, 3825.322249570161, -22172.95285140906, -23714.060928113573, -1435.8760638089257, 10805.302656328995, -7791.013454319651, -19117.894067513236, 0.1955, 0.8474375000000001, -0.45243750000000005, 192.0, 0.0, 0.0, 0.0, 0.0, 0.0, 0.0, 0.0, 0.0, 0.0, 1.6620654444862728E9, 0.0, 2022-09-01 16:50:44.486
4.0, -17947.735541789003, -20232.62026698831, -30384.514377655316, -14551.87971018311, -6961.696679794393, -11706.882620678261, 28639.111356629295, -11629.299715673891, -23054.550356215284, 3742.7325538078017, -22206.636930303208, -23770.968469496784, -1448.3036337260764, 10702.35052136785, -7797.763681145154, -19171.202978039146, 0.19575, 0.84671875, -0.45121875, 192.0, 3.0, 16.0, 13.0, 56.0, 120.5, 120.0, 0.0, 0.0, 0.0, 1.6620654444862778E9, 0.0, 2022-09-01 16:50:44.486
6.0, -17913.224448350007, -20205.798173641942, -30335.452298575914, -14506.7738898723, -6918.043722873178, -11684.93320762315, 28427.127412215166, -11585.266779096935, -23048.51538521235, 3827.7809414602452, -22173.86927293173, -23720.520582261157, -1450.1811802603222, 10819.160737891287, -7808.626628950433, -19143.44211142565, 0.19575, 0.84671875, -0.45121875, 192.0, 0.0, 0.0, 0.0, 0.0, 0.0, 0.0, 0.0, 0.0, 0.0, 1.6620654444862866E9, 0.0, 2022-09-01 16:50:44.486
8.0, -17947.757893533457, -20244.690208994176, -30380.044028764252, -14548.169320603529, -6969.966825242856, -11722.506490052521, 28662.066598184898, -11633.367733164756, -23061.077065596233, 3730.59555656857, -22203.977072713027, -23784.84890280353, -1447.5883779035066, 10684.625588014793, -7807.330227772025, -19194.51584750603, 0.19575, 0.84671875, -0.45121875, 192.0, 0.0, 0.0, 0.0, 0.0, 0.0, 0.0, 0.0, 0.0, 0.0, 1.6620654444862916E9, 0.0, 2022-09-01 16:50:44.486
10.0, -17892.7726021734, -20181.45712393011, -30311.33476630864, -14472.57572085568, -6898.284780774687, -11661.866207345272, 28409.737755028935, -11563.339717786279, -23042.74863514288, 3835.76051423079, -22166.44849377257, -23718.799497938096, -1436.546616142585, 10814.600982022403, -7796.757852644665, -19142.548041647442, 0.19575, 0.84671875, -0.45121875, 192.0, 0.0, 0.0, 0.0, 0.0, 0.0, 0.0, 0.0, 0.0, 0.0, 1.662065444486297E9, 0.0, 2022-09-01 16:50:44.486
12.0, -17944.807463265355, -20239.772825214008, -30379.976973530887, -14534.311239041239, -6953.85121749058, -11718.393769072743, 28684.373639151294, -11626.639858083709, -23043.50859445436, 3753.975481268821, -22186.319194593336, -23761.69249554783, -1418.6875723227945, 10706.64205630327, -7779.479954180712, -19164.989193080568, 0.19575, 0.84671875, -0.45121875, 192.0, 0.0, 0.0, 0.0, 0.0, 0.0, 0.0, 0.0, 0.0, 0.0, 1.662065444486302E9, 0.0, 2022-09-01 16:50:44.486
14.0, -17890.269206794408, -20181.412420441204, -30325.505772293305, -14464.998479485332, -6891.60160918255, -11654.668945630663, 28398.80775199029, -11557.5282642279, -23056.763178916357, 3824.2270140918513, -22186.25213935997, -23731.137660877426, -1443.3638982014536, 10804.877973184344, -7809.006608606173, -19148.22538473909, 0.19687500000000002, 0.8453593749999999, -0.447609375, 192.0, 3.0, 24.0, 13.0, 48.0, 121.0, 16.0, 0.0, 0.0, 0.0, 1.6620654444863071E9, 0.0, 2022-09-01 16:50:44.486
16.0, -17927.194288634575, -20228.70871170863, -30380.356953186627, -14518.240334777873, -6944.3070226081645, -11703.149879354225, 28699.595177125357, -11609.808994508863, -23029.69521638098, 3759.9881005272987, -22178.563139267342, -23757.915050734886, -1416.1171217104343, 10723.875251278312, -7778.138849513394, -19145.87845157128, 0.19687500000000002, 0.8453593749999999, -0.447609375, 192.0, 0.0, 0.0, 0.0, 0.0, 0.0, 0.0, 0.0, 0.0, 0.0, 1.6620654444863122E9, 0.0, 2022-09-01 16:50:44.486
18.0, -17870.242043762453, -20161.6087748538, -30319.962539668388, -14445.395999598028, -6895.826088884603, -11638.754503578486, 28406.541455571827, -11547.313517011824, -23039.79820487478, 3838.66624100998, -22170.09182811878, -23721.392300294912, -1440.413467933353, 10824.681618771747, -7804.916239370852, -19129.673436841185, 0.19687500000000002, 0.8453593749999999, -0.447609375, 192.0, 0.0, 0.0, 0.0, 0.0, 0.0, 0.0, 0.0, 0.0, 0.0, 1.6620654444863174E9, 0.0, 2022-09-01 16:50:44.486
20.0, -17942.0358469529, -20251.35102884186, -30383.374438688094, -14536.92639314251, -6951.750153511782, -11730.150786656235, 28693.001412511043, -11633.703009331586, -23020.821573832225, 3769.5099436652595, -22160.458226258546, -23748.862594230486, -1413.6807815648058, 10720.880117521301, -7777.49064892419, -19146.34783820484, 0.19687500000000002, 0.8453593749999999, -0.447609375, 192.0, 0.0, 0.0, 0.0, 0.0, 0.0, 0.0, 0.0, 0.0, 0.0, 1.6620654444863226E9, 0.0, 2022-09-01 16:50:44.486
22.0, -17899.74634644346, -20189.90608333422, -30334.915856708987, -14472.508665622314, -6914.959182138346, -11671.83508537234, 28402.384031103138, -11576.348433059267, -23069.146045344598, 3794.8344701331225, -22203.373575612735, -23760.060818202594, -1466.0732705680455, 10785.633121208326, -7832.1853676063265, -19183.205864811644, 0.19687500000000002, 0.8453593749999999, -0.447609375, 192.0, 0.0, 0.0, 0.0, 0.0, 0.0, 0.0, 0.0, 0.0, 0.0, 1.6620654444863276E9, 0.0, 2022-09-01 16:50:44.486
24.0, -17948.60725982276, -20251.86511896433, -30381.87687180959, -14536.725227442412, -6947.123342409533, -11738.71150478262, 28677.71281930361, -11631.91486977516, -23031.438652448494, 3765.9336645524104, -22175.277432832412, -23752.952963465807, -1412.317325153032, 10710.911239494233, -7784.263227494148, -19160.94352733416, 0.19687500000000002, 0.8453593749999999, -0.447609375, 192.0, 0.0, 0.0, 0.0, 0.0, 0.0, 0.0, 0.0, 0.0, 0.0, 1.662065444486333E9, 0.0, 2022-09-01 16:50:44.486
26.0, -17893.264340551417, -20180.67481287418, -30331.786612485244, -14459.075267204675, -6901.659894187438, -11660.145123022214, 28428.15559246011, -11567.251273065958, -23069.458969766973, 3795.1250428110416, -22211.129630938725, -23758.719713535276, -1454.3609564734647, 10776.871237381845, -7820.853033167486, -19179.2272542986, 0.196, 0.85, -0.446, 192.0, 3.0, 16.0, 13.0, 72.0, 121.0, 8.0, 0.0, 0.0, 0.0, 1.662065444486338E9, 0.0, 2022-09-01 16:50:44.486
28.0, -17950.21658542354, -20261.230499891102, -30387.420104434506, -14540.59207923318, -6945.692830764393, -11736.632792548275, 28659.227926639072, -11629.076198229337, -23028.152946013564, 3768.2135424868516, -22172.99755489797, -23748.08028317455, -1404.6953802937724, 10723.294105922474, -7774.741384356187, -19146.1690242492, 0.196, 0.85, -0.446, 192.0, 0.0, 0.0, 0.0, 0.0, 0.0, 0.0, 0.0, 0.0, 0.0, 1.662065444486343E9, 0.0, 2022-09-01 16:50:44.486
30.0, -17906.585980246782, -20200.90314160623, -30357.535822097758, -14483.125744238585, -6926.336220066098, -11668.459971959588, 28448.49567991444, -11581.601093006266, -23087.94386243151, 3756.210655714352, -22234.218982961058, -23792.69436510734, -1472.1305933154338, 10737.956850285156, -7838.26504209817, -19197.30981556294, 0.196, 0.85, -0.446, 192.0, 0.0, 0.0, 0.0, 0.0, 0.0, 0.0, 0.0, 0.0, 0.0, 1.662065444486348E9, 0.0, 2022-09-01 16:50:44.486
32.0, -17939.465396340536, -20248.646467762766, -30366.521223368793, -14524.387064503082, -6920.077731618611, -11718.438472561655, 28640.452461296616, -11609.339607875301, -23022.855582577657, 3790.6099904310695, -22159.966487880527, -23736.65854175789, -1395.1511854113562, 10751.412600447251, -7773.06500352204, -19132.512108387007, 0.196, 0.85, -0.446, 192.0, 0.0, 0.0, 0.0, 0.0, 0.0, 0.0, 0.0, 0.0, 0.0, 1.6620654444863532E9, 0.0, 2022-09-01 16:50:44.486
34.0, -17910.8775151822, -20204.032385829974, -30348.550420826727, -14483.908055294522, -6918.334295551097, -11671.83508537234, 28498.6753462166, -11581.109354628248, -23076.276251825842, 3760.882170305511, -22223.043110733404, -23783.4630946473, -1446.515494169652, 10734.715847339136, -7819.064893611061, -19188.726745692104, 0.196, 0.85, -0.446, 192.0, 0.0, 0.0, 0.0, 0.0, 0.0, 0.0, 0.0, 0.0, 0.0, 1.6620654444863584E9, 0.0, 2022-09-01 16:50:44.486
36.0, -17941.857032997257, -20250.434607319192, -30368.35406641413, -14525.214079047928, -6914.89212690498, -11727.200356388135, 28618.972434875064, -11613.273514899436, -23029.449347191974, 3793.2474962767956, -22168.415447284635, -23739.050178414607, -1399.0850924354902, 10748.931556812711, -7774.875494822919, -19139.329390445877, 0.196, 0.846, -0.456, 192.0, 3.0, 16.0, 13.0, 56.0, 120.5, 96.0, 0.0, 0.0, 0.0, 1.6620654444863634E9, 0.0, 2022-09-01 16:50:44.486
38.0, -17923.953285688556, -20216.839935402862, -30363.63784833406, -14489.00425303033, -6929.331353823109, -11680.574617454366, 28539.9366664811, -11591.748784988975, -23092.503618300394, 3734.082428703598, -22240.432767919632, -23799.489295421758, -1461.6476251658949, 10710.9782947276, -7820.517757000656, -19196.0804696179, 0.196, 0.846, -0.456, 192.0, 0.0, 0.0, 0.0, 0.0, 0.0, 0.0, 0.0, 0.0, 0.0, 1.66206544448637E9, 0.0, 2022-09-01 16:50:44.486
40.0, -17923.886230455188, -20234.073130377907, -30352.43962436195, -14503.443479948459, -6909.1477285799665, -11702.300513064924, 28581.242690234507, -11591.637026266699, -23033.02562630482, 3802.814042903667, -22162.67104895962, -23726.622608497455, -1397.60987730144, 10763.974280831133, -7765.331299940503, -19117.290570412944, 0.196, 0.846, -0.456, 192.0, 0.0, 0.0, 0.0, 0.0, 0.0, 0.0, 0.0, 0.0, 0.0, 1.662065444486376E9, 0.0, 2022-09-01 16:50:44.486
42.0, -17922.54512578787, -20223.00901687253, -30378.25588920783, -14501.521229925303, -6946.318679609142, -11686.453126246111, 28574.961850042564, -11604.86925898424, -23079.584310005226, 3737.9716322388213, -22221.880820021728, -23787.32994643807, -1446.157866258367, 10703.199887657152, -7810.034788851117, -19184.345803778866, 0.196, 0.846, -0.456, 192.0, 0.0, 0.0, 0.0, 0.0, 0.0, 0.0, 0.0, 0.0, 0.0, 1.6620654444863825E9, 0.0, 2022-09-01 16:50:44.486
44.0, -17917.60539026325, -20228.306380308437, -30352.394920873037, -14500.336587469172, -6916.70261820586, -11696.086728106347, 28534.192268156086, -11594.766270490441, -23037.89830659608, 3814.302839553695, -22160.65939195864, -23722.308721817582, -1409.9703919852248, 10780.089888583409, -7791.2146200197485, -19129.91930603019, 0.196, 0.846, -0.456, 192.0, 0.0, 0.0, 0.0, 0.0, 0.0, 0.0, 0.0, 0.0, 0.0, 1.6620654444863892E9, 0.0, 2022-09-01 16:50:44.486
46.0, -17933.720998015524, -20234.76603445602, -30381.519243898303, -14513.702930653446, -6957.494551836795, -11692.443393760133, 28608.62357719226, -11617.922677746139, -23085.306356585785, 3724.046495443165, -22227.334645668823, -23794.214283730304, -1452.4834099392187, 10686.30196884894, -7825.815120436564, -19201.780164454005, 0.19, 0.842, -0.456, 192.0, 2.5, 120.0, 13.0, 40.0, 120.5, 96.0, 0.0, 0.0, 0.0, 1.662065444486396E9, 0.0, 2022-09-01 16:50:44.486
48.0, -17930.21177413604, -20238.945810669164, -30354.54068834075, -14504.82928810469, -6918.334295551097, -11699.528896752465, 28497.043668871363, -11595.4368228241, -23052.918678870046, 3809.787787173723, -22173.91397642064, -23726.55555326409, -1425.0578194925572, 10798.932409159233, -7802.1893265473045, -19141.65397186923, 0.19, 0.842, -0.456, 192.0, 0.0, 0.0, 0.0, 0.0, 0.0, 0.0, 0.0, 0.0, 0.0, 1.6620654444864025E9, 0.0, 2022-09-01 16:50:44.486
50.0, -17950.08247495681, -20256.938964955683, -30394.840883593668, -14529.617372705625, -6967.686947308415, -11712.26939109199, 28638.798432206924, -11628.986791251516, -23094.872903212658, 3704.39931206695, -22234.598962616798, -23809.547580426646, -1462.8099158775708, 10664.35255579383, -7829.413751293869, -19204.75294646656, 0.19, 0.842, -0.456, 192.0, 0.0, 0.0, 0.0, 0.0, 0.0, 0.0, 0.0, 0.0, 0.0, 1.662065444486409E9, 0.0, 2022-09-01 16:50:44.486
52.0, -17900.282788310386, -20207.13927830926, -30329.260865361797, -14473.939177267453, -6900.36349300903, -11669.152876037702, 28465.14772953364, -11570.693441712076, -23052.069312580745, 3817.0521041216975, -22170.024772885416, -23726.35438756399, -1426.9130142823476, 10794.059728867976, -7800.222373035237, -19129.36051241881, 0.19, 0.842, -0.456, 192.0, 0.0, 0.0, 0.0, 0.0, 0.0, 0.0, 0.0, 0.0, 0.0, 1.6620654444864154E9, 0.0, 2022-09-01 16:50:44.486
54.0, -17941.544108574883, -20246.590107272878, -30385.900185811544, -14520.229640034395, -6957.919234981446, -11702.479327020566, 28673.711857046113, -11622.996523737494, -23069.23545232242, 3729.5450245791703, -22205.92167448064, -23779.93151902336, -1429.416409661342, 10685.720823493102, -7798.188364289805, -19165.74915239205, 0.19, 0.842, -0.456, 192.0, 0.0, 0.0, 0.0, 0.0, 0.0, 0.0, 0.0, 0.0, 0.0, 1.662065444486421E9, 0.0, 2022-09-01 16:50:44.486
56.0, -17897.600578975747, -20200.299644505936, -30327.875057205565, -14470.34054641015, -6907.828975657103, -11662.648518401209, 28438.795022820836, -11569.799371933863, -23061.881728396624, 3814.883984909533, -22176.797351455374, -23726.75671896419, -1440.3687644444424, 10791.355167788885, -7807.330227772025, -19128.39938740723, 0.188, 0.848, -0.458, 192.0, 2.5, 112.0, 13.0, 64.0, 120.5, 88.0, 0.0, 0.0, 0.0, 1.6620654444864264E9, 0.0, 2022-09-01 16:50:44.486
58.0, -17952.340001146797, -20259.77763650151, -30389.945851557954, -14530.958477372942, -6957.069868692144, -11715.264524849, 28695.21423521212, -11634.887651787718, -23057.32197252774, 3731.556681580148, -22193.494104563488, -23773.47186487578, -1427.9188427828365, 10694.080375919388, -7786.699567639776, -19153.36628596381, 0.188, 0.848, -0.458, 192.0, 0.0, 0.0, 0.0, 0.0, 0.0, 0.0, 0.0, 0.0, 0.0, 1.6620654444864316E9, 0.0, 2022-09-01 16:50:44.486
60.0, -17911.235143093487, -20212.816621400907, -30332.32305435217, -14478.588340114158, -6903.671551188416, -11669.73402139354, 28421.070089467776, -11579.656491238653, -23072.23058607943, 3802.232897547829, -22191.214226629047, -23742.872326716464, -1449.2424069931994, 10787.600074720393, -7807.665503938855, -19134.83668981036, 0.188, 0.848, -0.458, 192.0, 0.0, 0.0, 0.0, 0.0, 0.0, 0.0, 0.0, 0.0, 0.0, 1.6620654444864368E9, 0.0, 2022-09-01 16:50:44.486
62.0, -17969.23791995501, -20281.659994323254, -30393.365668459617, -14553.533739272803, -6967.955168241879, -11739.13618792727, 28703.663194616223, -11651.092666517814, -23069.146045344598, 3707.8414807130675, -22209.699119293586, -23792.224978473783, -1435.741953342194, 10669.314643062908, -7791.013454319651, -19170.241853027565, 0.188, 0.848, -0.458, 192.0, 0.0, 0.0, 0.0, 0.0, 0.0, 0.0, 0.0, 0.0, 0.0, 1.662065444486442E9, 0.0, 2022-09-01 16:50:44.486
64.0, -17900.618064477214, -20203.27242651849, -30323.114135636588, -14473.693308078446, -6903.895068632969, -11666.470666703066, 28412.665833552583, -11576.86252318174, -23071.42592327904, 3787.793670629701, -22198.858523232764, -23751.343637865026, -1448.996537804191, 10779.41933624975, -7812.985219119218, -19152.606326652327, 0.188, 0.848, -0.458, 192.0, 0.0, 0.0, 0.0, 0.0, 0.0, 0.0, 0.0, 0.0, 0.0, 1.662065444486447E9, 0.0, 2022-09-01 16:50:44.486
66.0, -17947.623783066723, -20261.699886524664, -30382.078037509687, -14542.961364145443, -6957.896883236991, -11726.12747265428, 28706.747735351055, -11640.319125690357, -23039.574687430228, 3736.719934549324, -22182.385287569203, -23767.101617706016, -1412.607897830951, 10686.123154893297, -7776.462468679246, -19151.578146407384, 0.19, 0.844, -0.46, 192.0, 2.5, 120.0, 13.0, 48.0, 120.5, 80.0, 0.0, 0.0, 0.0, 1.662065444486452E9, 0.0, 2022-09-01 16:50:44.486
68.0, -17903.322625556306, -20198.533856693968, -30333.39593808603, -14470.497008621338, -6924.7045427208595, -11660.793323611419, 28408.53076082835, -11579.790601705385, -23068.00610637738, 3796.041464333709, -22199.97611045553, -23752.37181810997, -1453.7351076287162, 10777.810010648967, -7824.0269808801395, -19152.51691967451, 0.19, 0.844, -0.46, 192.0, 0.0, 0.0, 0.0, 0.0, 0.0, 0.0, 0.0, 0.0, 0.0, 1.662065444486458E9, 0.0, 2022-09-01 16:50:44.486
70.0, -17948.83077726731, -20264.33739237039, -30384.91670905551, -14536.725227442412, -6962.1437146835, -11726.261583121013, 28693.91783403371, -11638.821558811851, -23041.094606053186, 3752.947301023877, -22178.116104378238, -23756.3057251341, -1414.2619269206439, 10702.328169623395, -7788.375948473925, -19139.687018357163, 0.19, 0.844, -0.46, 192.0, 0.0, 0.0, 0.0, 0.0, 0.0, 0.0, 0.0, 0.0, 0.0, 1.6620654444864645E9, 0.0, 2022-09-01 16:50:44.486
72.0, -17894.046651607354, -20194.599949669835, -30334.915856708987, -14465.221996929884, -6922.044685130678, -11658.178169510147, 28419.416060378084, -11580.14822961667, -23081.61831875066, 3784.8432403616002, -22208.648587304186, -23759.434969357848, -1466.4532502237857, 10761.962623830155, -7833.571175762556, -19165.972669836603, 0.19, 0.844, -0.46, 192.0, 0.0, 0.0, 0.0, 0.0, 0.0, 0.0, 0.0, 0.0, 0.0, 1.6620654444864697E9, 0.0, 2022-09-01 16:50:44.486
74.0, -17933.58688754879, -20250.81458697493, -30367.370589658094, -14525.817576148222, -6931.231252101809, -11713.006998659015, 28690.162740965217, -11621.3424946478, -23025.068405278733, 3776.5954466575918, -22155.898470389664, -23735.138623134928, -1407.8916797508812, 10725.55163211246, -7765.599520873967, -19130.54515487494, 0.19, 0.844, -0.46, 192.0, 0.0, 0.0, 0.0, 0.0, 0.0, 0.0, 0.0, 0.0, 0.0, 1.6620654444864748E9, 0.0, 2022-09-01 16:50:44.486
76.0, -17905.423689535106, -20199.919664850197, -30343.744795768835, -14472.53101736677, -6924.212804342843, -11658.804018354896, 28452.87662182768, -11580.394098805678, -23075.359830303172, 3781.3787199710277, -22210.615540816252, -23761.13370193645, -1454.450363451286, 10766.947062843688, -7810.414768506857, -19170.264204772022, 0.196, 0.846, -0.46, 192.0, 3.0, 16.0, 13.0, 56.0, 120.5, 80.0, 0.0, 0.0, 0.0, 1.66206544448648E9, 0.0, 2022-09-01 16:50:44.486
78.0, -17942.169957419632, -20259.39765684577, -30376.57950837368, -14534.02066636332, -6937.780313227215, -11723.109987152815, 28665.486415086558, -11625.656381327675, -23034.23262050541, 3774.4496791898823, -22171.075304874816, -23743.453472072302, -1411.8479385194705, 10729.843167047879, -7768.617006375433, -19130.45574789712, 0.196, 0.846, -0.46, 192.0, 0.0, 0.0, 0.0, 0.0, 0.0, 0.0, 0.0, 0.0, 0.0, 1.662065444486485E9, 0.0, 2022-09-01 16:50:44.486
80.0, -17897.578227231294, -20201.014900328508, -30347.52224058178, -14480.689404092956, -6927.163234610944, -11665.688355647131, 28482.44797974205, -11587.05491865336, -23076.879748926134, 3765.732498852313, -22220.562067098865, -23778.76922831169, -1461.66997691035, 10749.780923102013, -7818.8637279109635, -19173.818132140415, 0.196, 0.846, -0.46, 192.0, 0.0, 0.0, 0.0, 0.0, 0.0, 0.0, 0.0, 0.0, 0.0, 1.66206544448649E9, 0.0, 2022-09-01 16:50:44.486
82.0, -17928.669503768626, -20249.138206140782, -30365.00130474583, -14525.325837770206, -6929.04078114519, -11717.164423127702, 28632.76346120399, -11619.286134157914, -23021.22390523242, 3790.1853072864187, -22154.490310488978, -23730.556515521588, -1402.9072407373478, 10748.395114945784, -7771.67919536581, -19121.1127187148, 0.196, 0.846, -0.46, 192.0, 0.0, 0.0, 0.0, 0.0, 0.0, 0.0, 0.0, 0.0, 0.0, 1.6620654444864953E9, 0.0, 2022-09-01 16:50:44.486
84.0, -17925.58496303379, -20228.32873205289, -30372.220918204897, -14502.370596214605, -6951.213711644854, -11687.950693124616, 28511.862875445233, -11613.519384088444, -23093.688260756524, 3732.3836961249945, -22237.907020796185, -23797.768211098697, -1478.3890817629197, 10710.821832516413, -7833.392361806913, -19188.95026313666, 0.196, 0.846, -0.46, 192.0, 0.0, 0.0, 0.0, 0.0, 0.0, 0.0, 0.0, 0.0, 0.0, 1.6620654444865005E9, 0.0, 2022-09-01 16:50:44.486
86.0, -17927.864840968232, -20244.53374678299, -30360.329790154672, -14516.854526621644, -6922.290554319687, -11710.570658513387, 28592.932652584634, -11619.330837646823, -23035.305504239263, 3786.139641540008, -22168.616612984733, -23735.02686441265, -1419.3804764009092, 10751.144379513786, -7785.760794372653, -19116.865887268294, 0.192, 0.846, -0.454, 192.0, 3.0, 0.0, 13.0, 56.0, 120.5, 104.0, 0.0, 0.0, 0.0, 1.6620654444865055E9, 0.0, 2022-09-01 16:50:44.486
88.0, -17913.805593705845, -20214.269484790504, -30360.10627271012, -14489.406584430526, -6944.575243541628, -11676.64071043023, 28550.620800330737, -11613.675846299631, -23083.38410656263, 3736.697582804869, -22227.06642473536, -23784.84890280353, -1464.0169100781573, 10718.421425631217, -7823.065855868561, -19166.151483792244, 0.192, 0.846, -0.454, 192.0, 0.0, 0.0, 0.0, 0.0, 0.0, 0.0, 0.0, 0.0, 0.0, 1.6620654444865105E9, 0.0, 2022-09-01 16:50:44.486
90.0, -17915.325512328807, -20228.19462158616, -30342.604856801616, -14495.910942067021, -6923.832824687103, -11698.657178718708, 28552.185422442606, -11610.948933476084, -23033.40560596056, 3811.0618366076756, -22156.792540167873, -23714.306797302583, -1412.5631943420403, 10784.984920619121, -7781.312797226048, -19096.21287539159, 0.192, 0.846, -0.454, 192.0, 0.0, 0.0, 0.0, 0.0, 0.0, 0.0, 0.0, 0.0, 0.0, 1.6620654444865155E9, 0.0, 2022-09-01 16:50:44.486
92.0, -17933.20690789305, -20238.834051946887, -30376.020714762297, -14509.500802695848, -6964.691813551404, -11696.690225206641, 28582.583794901824, -11634.038285498416, -23082.244167595407, 3721.5431000641706, -22224.808898545372, -23791.554426140123, -1462.251122266188, 10693.58863754137, -7819.8025011780865, -19170.085390816377, 0.192, 0.846, -0.454, 192.0, 0.0, 0.0, 0.0, 0.0, 0.0, 0.0, 0.0, 0.0, 0.0, 1.6620654444865208E9, 0.0, 2022-09-01 16:50:44.486
94.0, -17916.130175129198, -20232.217935588116, -30339.76618525579, -14492.468773420904, -6915.763844938737, -11689.962350125594, 28511.080564389296, -11607.797337507885, -23040.40170197507, 3805.3844935160273, -22166.85082517276, -23721.727576461744, -1423.8508252919705, 10786.773060175547, -7790.7452333861875, -19114.340140144843, 0.192, 0.846, -0.454, 192.0, 0.0, 0.0, 0.0, 0.0, 0.0, 0.0, 0.0, 0.0, 0.0, 1.662065444486526E9, 0.0, 2022-09-01 16:50:44.486
96.0, -17930.34588460277, -20237.649409490754, -30374.880775795078, -14514.328779498193, -6962.836618761614, -11690.387033270245, 28622.86163841029, -11630.484358130021, -23078.690240227013, 3723.8900332319777, -22223.221924689045, -23787.978147027272, -1457.065517552557, 10688.44773631665, -7813.856937152975, -19179.339013020875, 0.189, 0.845, -0.458, 192.0, 2.5, 104.0, 13.0, 48.0, 120.5, 72.0, 0.0, 0.0, 0.0, 1.6620654444865313E9, 0.0, 2022-09-01 16:50:44.486
98.0, -17904.328454056795, -20209.463859732612, -30327.67389150547, -14486.143229740052, -6907.940734379379, -11667.007108569993, 28484.25847104293, -11589.58066577681, -23040.46875720844, 3825.2104908478846, -22164.079208860305, -23712.339843790513, -1426.0636479930458, 10800.407624293282, -7794.5897334325, -19116.10592795681, 0.189, 0.845, -0.458, 192.0, 0.0, 0.0, 0.0, 0.0, 0.0, 0.0, 0.0, 0.0, 0.0, 1.6620654444865365E9, 0.0, 2022-09-01 16:50:44.486
100.0, -17949.434274367606, -20250.836938719385, -30385.40844743353, -14534.847680908166, -6971.218522932354, -11700.132393852758, 28658.087987671854, -11637.815730311362, -23066.106208098678, 3728.0251059562097, -22211.375500127735, -23779.730353323266, -1442.738049356705, 10685.519657793006, -7801.384663746913, -19166.26324251452, 0.189, 0.845, -0.458, 192.0, 0.0, 0.0, 0.0, 0.0, 0.0, 0.0, 0.0, 0.0, 0.0, 1.6620654444865415E9, 0.0, 2022-09-01 16:50:44.486
102.0, -17919.952323431055, -20225.937095396173, -30343.655388791012, -14499.666035135513, -6916.74732169477, -11682.45216398861, 28448.227458980975, -11600.644779282187, -23063.51340574186, 3799.3718742575497, -22188.57672078332, -23737.910239447385, -1451.0752500385345, 10795.311426557473, -7807.441986494302, -19123.526707115976, 0.189, 0.845, -0.458, 192.0, 0.0, 0.0, 0.0, 0.0, 0.0, 0.0, 0.0, 0.0, 0.0, 1.6620654444865477E9, 0.0, 2022-09-01 16:50:44.486
104.0, -17949.21075692305, -20258.615345789833, -30390.661107380525, -14536.59111697568, -6974.504229367284, -11715.4656905491, 28675.991734980555, -11648.54456764991, -23069.41426627806, 3709.1602336359306, -22220.182087443125, -23794.214283730304, -1450.5611599160625, 10663.346727293341, -7807.263172538659, -19158.70835288863, 0.189, 0.845, -0.458, 192.0, 0.0, 0.0, 0.0, 0.0, 0.0, 0.0, 0.0, 0.0, 0.0, 1.6620654449669435E9, 0.0, 2022-09-01 16:50:44.966
106.0, -17906.36246280223, -20209.24034228806, -30332.457164818905, -14478.923616280988, -6924.5257287652175, -11671.566864438875, 28417.516162099382, -11597.783755991908, -23057.791359161303, 3811.263002307773, -22185.693345748587, -23731.07060564406, -1450.1588285158668, 10790.371691032851, -7815.399207520391, -19118.251695424522, 0.1875, 0.8454999999999999, -0.459, 192.0, 2.5, 104.0, 13.0, 56.0, 120.5, 80.0, 0.0, 0.0, 0.0, 1.6620654449670126E9, 0.0, 2022-09-01 16:50:44.967
108.0, -17956.83270178231, -20263.28686038099, -30392.695116125957, -14544.570689746224, -6981.120345726054, -11724.786367986962, 28687.078200230386, -11661.061544544882, -23056.249088793887, 3728.941527478877, -22200.35609011127, -23774.947080009828, -1443.8556365794702, 10683.887980447767, -7797.249591022682, -19143.732684103572, 0.1875, 0.8454999999999999, -0.459, 192.0, 0.0, 0.0, 0.0, 0.0, 0.0, 0.0, 0.0, 0.0, 0.0, 1.662065444967033E9, 0.0, 2022-09-01 16:50:44.967
110.0, -17909.916390170623, -20205.77582189749, -30333.507696808305, -14482.991633771853, -6921.84351943058, -11663.408477712688, 28401.758182258392, -11596.733224002508, -23071.537682001315, 3806.166804571963, -22198.947930210583, -23741.218297626772, -1463.3463577444982, 10780.827496150434, -7819.31076280007, -19128.86877404079, 0.1875, 0.8454999999999999, -0.459, 192.0, 0.0, 0.0, 0.0, 0.0, 0.0, 0.0, 0.0, 0.0, 0.0, 1.6620654449670808E9, 0.0, 2022-09-01 16:50:44.967
112.0, -17960.520739617437, -20266.63962204929, -30391.465770180916, -14555.92537592952, -6972.71608981086, -11729.904917467227, 28702.277386459995, -11659.4522189441, -23055.980867860424, 3728.293326889673, -22200.557255811367, -23776.26583293269, -1435.5631393865515, 10683.530352536483, -7788.01832056264, -19145.207899237623, 0.1875, 0.8454999999999999, -0.459, 192.0, 0.0, 0.0, 0.0, 0.0, 0.0, 0.0, 0.0, 0.0, 0.0, 1.6620654449670851E9, 0.0, 2022-09-01 16:50:44.967
114.0, -17902.652073222645, -20191.537760679457, -30328.746775239324, -14478.521284880791, -6915.249754816265, -11660.703916633596, 28407.659042794592, -11593.939255945596, -23075.359830303172, 3789.425347974938, -22206.10048843628, -23750.427216342356, -1467.3696717464534, 10774.814876891956, -7815.801538920587, -19145.096140515347, 0.1875, 0.8454999999999999, -0.459, 192.0, 0.0, 0.0, 0.0, 0.0, 0.0, 0.0, 0.0, 0.0, 0.0, 1.6620654449670897E9, 0.0, 2022-09-01 16:50:44.967
116.0, -17972.613033367757, -20279.022488477527, -30400.45117145195, -14562.921471944032, -6986.060081250678, -11739.762036772017, 28692.53202587748, -11671.522160949966, -23051.979905602922, 3731.0872949465866, -22192.063592918348, -23767.056914217104, -1437.7312585987163, 10678.054175144933, -7786.185477517305, -19142.793910836448, 0.18875, 0.8447499999999999, -0.4575, 192.0, 2.5, 120.0, 13.0, 48.0, 120.5, 96.0, 0.0, 0.0, 0.0, 1.662065444967094E9, 0.0, 2022-09-01 16:50:44.967
118.0, -17911.659826238138, -20203.384185240768, -30334.04413867523, -14480.95762502642, -6932.594708513583, -11661.195655011614, 28407.547284072316, -11599.951875204073, -23085.082839141232, 3778.5624001696588, -22214.080061206827, -23760.619611813978, -1478.7243579297494, 10763.728411642125, -7833.861748440475, -19148.895937072746, 0.18875, 0.8447499999999999, -0.4575, 192.0, 0.0, 0.0, 0.0, 0.0, 0.0, 0.0, 0.0, 0.0, 0.0, 1.6620654449670992E9, 0.0, 2022-09-01 16:50:44.967
120.0, -17963.627632096726, -20272.987517474594, -30386.59308988966, -14558.048791652775, -6977.074679979644, -11733.70471402463, 28682.898424017243, -11667.364736481279, -23042.94980084298, 3746.152370709464, -22181.82649395782, -23758.138568179438, -1434.512607397152, 10696.807288742935, -7788.197134518282, -19128.667608340696, 0.18875, 0.8447499999999999, -0.4575, 192.0, 0.0, 0.0, 0.0, 0.0, 0.0, 0.0, 0.0, 0.0, 0.0, 1.6620654449671035E9, 0.0, 2022-09-01 16:50:44.967
122.0, -17906.988311646975, -20199.830257872374, -30337.57571429917, -14482.164619227007, -6937.489740549296, -11655.741829364519, 28429.67551108307, -11601.136517660203, -23087.832103709236, 3764.100821507075, -22224.808898545372, -23771.303745663616, -1485.7428056887159, 10753.357202214862, -7835.9404606748185, -19159.378905222286, 0.18875, 0.8447499999999999, -0.4575, 192.0, 0.0, 0.0, 0.0, 0.0, 0.0, 0.0, 0.0, 0.0, 0.0, 1.662065444967108E9, 0.0, 2022-09-01 16:50:44.967
124.0, -17957.190329693596, -20272.16050292975, -30378.032371763275, -14548.459893281448, -6956.734592525315, -11722.03710341896, 28670.448502355637, -11650.198596739603, -23034.90317283907, 3754.2884056911953, -22172.327002564314, -23745.487480817734, -1424.029639247613, 10715.69451280767, -7772.997948288674, -19106.49467784103, 0.18875, 0.8447499999999999, -0.4575, 192.0, 0.0, 0.0, 0.0, 0.0, 0.0, 0.0, 0.0, 0.0, 0.0, 1.6620654449671123E9, 0.0, 2022-09-01 16:50:44.967
126.0, -17902.987349389477, -20196.343385737346, -30332.703034007915, -14475.503799379327, -6928.549042767173, -11645.705896104086, 28462.48787194346, -11594.363939090246, -23080.210158849975, 3758.6693476044356, -22216.494049607998, -23769.605013085013, -1473.315235771565, 10735.900489795267, -7815.466262753757, -19133.316771187398, 0.18837500000000001, 0.843375, -0.45675, 192.0, 2.5, 112.0, 13.0, 40.0, 120.5, 96.0, 0.0, 0.0, 0.0, 1.6620654449671168E9, 0.0, 2022-09-01 16:50:44.967
128.0, -17932.178727648108, -20244.667857249722, -30354.09365345164, -14526.510480226336, -6933.0864468916, -11706.904972422717, 28647.135632888752, -11636.049942499392, -23019.256951720352, 3781.7810513712234, -22150.891679631673, -23725.46031778578, -1407.288182650588, 10743.075399765421, -7755.898863780363, -19077.01272690448, 0.18837500000000001, 0.843375, -0.45675, 192.0, 0.0, 0.0, 0.0, 0.0, 0.0, 0.0, 0.0, 0.0, 0.0, 1.6620654449671285E9, 0.0, 2022-09-01 16:50:44.967
130.0, -17917.337169329785, -20214.023615601494, -30342.649560290523, -14494.033395532775, -6942.228310373821, -11666.180094025147, 28494.54027349237, -11617.945029490595, -23081.417153050563, 3739.648013072969, -22219.332721153824, -23778.07632423357, -1473.4046427493863, 10715.873326763312, -7812.895812141396, -19142.25746896952, 0.18837500000000001, 0.843375, -0.45675, 192.0, 0.0, 0.0, 0.0, 0.0, 0.0, 0.0, 0.0, 0.0, 0.0, 1.6620654449671328E9, 0.0, 2022-09-01 16:50:44.967
132.0, -17945.008628965454, -20262.839825491887, -30350.696188294434, -14540.837948422188, -6935.746304481781, -11717.3655888278, 28610.52347547096, -11647.985774038527, -23022.676768622016, 3779.74704262579, -22153.5291854774, -23726.399091052903, -1410.6185925744287, 10759.526283684527, -7765.979500529707, -19094.000052690513, 0.18837500000000001, 0.843375, -0.45675, 192.0, 0.0, 0.0, 0.0, 0.0, 0.0, 0.0, 0.0, 0.0, 0.0, 1.662065444967137E9, 0.0, 2022-09-01 16:50:44.967
