%OpenBCI Raw EEG Data
%Number of channels = 16
%Sample Rate = 125 Hz
%Board = OpenBCI_GUI$BoardCytonSerialDaisy
Sample Index, EXG Channel 0, EXG Channel 1, EXG Channel 2, EXG Channel 3, EXG Channel 4, EXG Channel 5, EXG Channel 6, EXG Channel 7, EXG Channel 8, EXG Channel 9, EXG Channel 10, EXG Channel 11, EXG Channel 12, EXG Channel 13, EXG Channel 14, EXG Channel 15, Accel Channel 0, Accel Channel 1, Accel Channel 2, Other, Other, Other, Other, Other, Other, Other, Analog Channel 0, Analog Channel 1, Analog Channel 2, Timestamp, Other, Timestamp (Formatted)
0.0, -10831.342438619427, -20514.85574422547, -26301.297700559822, -10713.816966273424, -1458.6301396644283, -14065.662213046815, 44444.1416196992, -14257.574290940081, 0.0, 0.0, 0.0, 0.0, 0.0, 0.0, 0.0, 0.0, 0.07, 0.444, -0.196, 192.0, 2.0, 48.0, 13.5, 96.0, 121.5, 96.0, 0.0, 0.0, 0.0, 1.662064660806183E9, 0.0, 2022-09-01 16:37:40.806
172.0, -10728.993800758577, -20410.5178011081, -26198.2338068764, -10613.748206347014, -1314.841367583438, -13920.46528106514, 43831.703821623785, -14152.31992630004, -18906.73713764395, -1870.818659164746, -31512.673975548027, -23133.72023507598, 8843.0877140865, 21304.811096764934, 1654.6102350485605, -20125.77892849194, 0.07, 0.444, -0.196, 192.0, 0.0, 0.0, 0.0, 0.0, 0.0, 0.0, 0.0, 0.0, 0.0, 1.6620646608061886E9, 0.0, 2022-09-01 16:37:40.806
174.0, -10855.124694719874, -20535.754625291185, -26319.760241479904, -10740.102617752866, -1512.9672304352798, -14092.417251159819, 44479.70324512759, -14290.297244822652, -18980.90022574666, -1989.7522914114347, -31604.964328403992, -23234.303085124862, 8784.436736635773, 21184.983394740033, 1614.2653363067313, -20218.181040070183, 0.07, 0.444, -0.196, 192.0, 0.0, 0.0, 0.0, 0.0, 0.0, 0.0, 0.0, 0.0, 0.0, 1.6620646608061984E9, 0.0, 2022-09-01 16:37:40.806
176.0, -10736.772207829024, -20419.011464001116, -26203.464115078943, -10620.230212239054, -1365.8480484304487, -13987.609921408883, 43788.922582736326, -14171.56477827606, -18936.196736836046, -1930.7660377938794, -31543.094699751702, -23165.951450580535, 8808.93424855879, 21259.39235203175, 1630.0233161477229, -20165.386219666747, 0.07, 0.444, -0.196, 192.0, 0.0, 0.0, 0.0, 0.0, 0.0, 0.0, 0.0, 0.0, 0.0, 1.662064660806203E9, 0.0, 2022-09-01 16:37:40.806
178.0, -10843.680601558757, -20523.93055247433, -26312.652386743117, -10726.512757124037, -1453.5786454175288, -14058.911986221312, 44480.306742227884, -14270.471247490794, -18965.812798239327, -1995.2731722918957, -31592.87203465367, -23220.51205879594, 8781.665120323316, 21211.403156686207, 1629.4645225363402, -20209.48621147707, 0.07, 0.444, -0.196, 192.0, 0.0, 0.0, 0.0, 0.0, 0.0, 0.0, 0.0, 0.0, 0.0, 1.662064660806207E9, 0.0, 2022-09-01 16:37:40.806
180.0, -10701.679969034192, -20377.884254203353, -26174.451550775953, -10588.647197323704, -1296.1776609632566, -13871.134981052279, 43756.15492536485, -14125.162556786843, -18917.108347071215, -1927.7038488035023, -31527.33671991071, -23152.853328329722, 8792.058681495033, 21269.472988781094, 1640.2827668527088, -20145.426111868157, 0.101, 0.664, -0.29300000000000004, 192.0, 2.0, 16.0, 13.5, 80.0, 121.5, 104.0, 0.0, 0.0, 0.0, 1.6620646608062112E9, 0.0, 2022-09-01 16:37:40.806
182.0, -10847.458046371705, -20523.282351885122, -26306.818581440282, -10737.26394620704, -1453.7351076287162, -14038.147215622332, 44462.15712573018, -14277.601453972036, -18931.18994607806, -1975.8495063602338, -31552.929467312035, -23191.25362530394, 8824.17813827731, 21237.82291863238, 1665.6743485539375, -20173.90223430422, 0.101, 0.664, -0.29300000000000004, 192.0, 0.0, 0.0, 0.0, 0.0, 0.0, 0.0, 0.0, 0.0, 0.0, 1.6620646608062153E9, 0.0, 2022-09-01 16:37:40.806
184.0, -10718.153204697754, -20394.692766033742, -26195.663356264038, -10608.33908418883, -1324.094989787935, -13912.41865306123, 43767.55431503705, -14153.99630713419, -18953.966373678013, -1972.6308551586694, -31558.137423770124, -23197.44505851806, 8789.22000994921, 21267.483683524573, 1614.2206328178208, -20179.84779832933, 0.101, 0.664, -0.29300000000000004, 192.0, 0.0, 0.0, 0.0, 0.0, 0.0, 0.0, 0.0, 0.0, 0.0, 1.6620646608062196E9, 0.0, 2022-09-01 16:37:40.806
186.0, -10854.521197619582, -20533.720616545754, -26319.06733740179, -10743.097751509877, -1467.5261339576405, -14064.298756635042, 44427.042535190885, -14301.45076530585, -18919.298818027833, -1965.5453521663371, -31536.366824670655, -23185.73274442348, 8822.166481276332, 21248.574107715383, 1664.1544299309767, -20160.37942890876, 0.101, 0.664, -0.29300000000000004, 192.0, 0.0, 0.0, 0.0, 0.0, 0.0, 0.0, 0.0, 0.0, 0.0, 1.6620646608062248E9, 0.0, 2022-09-01 16:37:40.806
188.0, -10737.353353184862, -20411.121298208393, -26211.689557038495, -10625.10289253031, -1356.0579843590242, -13901.287484322487, 43795.85162351747, -14175.811609722568, -18977.502760589454, -2004.3703322852054, -31580.980906603447, -23225.384739087196, 8746.25995710611, 21241.801529145425, 1578.9495800673462, -20207.98864459856, 0.101, 0.664, -0.29300000000000004, 192.0, 0.0, 0.0, 0.0, 0.0, 0.0, 0.0, 0.0, 0.0, 0.0, 1.662064660806229E9, 0.0, 2022-09-01 16:37:40.806
190.0, -10867.842837314945, -20542.370741649956, -26328.700939262028, -10761.64969940778, -1435.3619736864537, -14013.694407188226, 44362.11071754822, -14299.68497749388, -18924.529126230376, -1973.7707941258902, -31535.271589192344, -23190.40425901464, 8793.22097220671, 21232.48085170756, 1648.6870227679042, -20164.939184777642, 0.1165, 0.773, -0.3435, 192.0, 2.0, 16.0, 13.5, 72.0, 121.5, 88.0, 0.0, 0.0, 0.0, 1.6620646608062334E9, 0.0, 2022-09-01 16:37:40.806
192.0, -10742.203681731664, -20409.959007496716, -26206.548655813775, -10621.660723884193, -1349.7547924226276, -13938.95017372968, 43840.219836261254, -14172.905882943378, -19000.525057378418, -2022.0282104048981, -31600.695145213027, -23254.330248156817, 8722.365942283386, 21241.68977042315, 1563.4598211598184, -20227.211144830126, 0.1165, 0.773, -0.3435, 192.0, 0.0, 0.0, 0.0, 0.0, 0.0, 0.0, 0.0, 0.0, 0.0, 1.6620646608062377E9, 0.0, 2022-09-01 16:37:40.806
194.0, -10849.760276050602, -20523.72938677423, -26298.570787736273, -10740.996687531077, -1460.1500582873891, -14017.382445023351, 44284.7513299884, -14279.59075922856, -18909.821678378783, -1951.1284769926642, -31509.432972602008, -23176.72499140799, 8835.957507605257, 21278.413686563217, 1676.179668447932, -20133.400873351202, 0.1165, 0.773, -0.3435, 192.0, 0.0, 0.0, 0.0, 0.0, 0.0, 0.0, 0.0, 0.0, 0.0, 1.6620646608062415E9, 0.0, 2022-09-01 16:37:40.806
196.0, -10757.045240049987, -20423.75003382564, -26220.205571675968, -10638.737456648047, -1376.0851473909793, -13949.56725234595, 43898.87081371198, -14187.300406372597, -19009.510458649453, -2037.1156379122303, -31605.791342948836, -23273.284527454918, 8723.77410218407, 21237.420587232184, 1572.4228706863967, -20229.15574659774, 0.1165, 0.773, -0.3435, 192.0, 0.0, 0.0, 0.0, 0.0, 0.0, 0.0, 0.0, 0.0, 0.0, 1.6620646608062468E9, 0.0, 2022-09-01 16:37:40.806
198.0, -10849.559110350503, -20522.92472397384, -26296.402668524108, -10742.203681731664, -1420.1627874568449, -13980.837342838926, 44183.78850028378, -14274.561616726116, -18901.55153293032, -1943.5288838778597, -31499.46409457494, -23174.668630918102, 8831.55421394756, 21289.34368960186, 1688.76370057627, -20119.78866097792, 0.1165, 0.773, -0.3435, 192.0, 0.0, 0.0, 0.0, 0.0, 0.0, 0.0, 0.0, 0.0, 0.0, 1.6620646608062515E9, 0.0, 2022-09-01 16:37:40.806
200.0, -10799.8488306819, -20466.37481050191, -26259.991676806414, -10684.200904870142, -1391.999589443158, -13961.547787373995, 43977.37014023902, -14222.347941678518, -19037.85247061878, -2079.583952377314, -31640.1683259211, -23312.93652211863, 8677.729508606137, 21195.019328000468, 1554.7873443111594, -20256.15665389975, 0.12325, 0.8245, -0.36475, 192.0, 2.0, 8.0, 13.5, 48.0, 121.5, 120.0, 0.0, 0.0, 0.0, 1.662064660806256E9, 0.0, 2022-09-01 16:37:40.806
202.0, -10831.387142108339, -20502.316415586047, -26266.339572231722, -10720.276620421007, -1375.3922433128648, -13935.597412061385, 44078.33296994364, -14241.235165743252, -18908.704091156018, -1959.5997881412254, -31504.739106266396, -23189.39843051415, 8801.960504288734, 21288.203750634642, 1677.9678080043566, -20126.203611636593, 0.12325, 0.8245, -0.36475, 192.0, 0.0, 0.0, 0.0, 0.0, 0.0, 0.0, 0.0, 0.0, 0.0, 1.6620646608062632E9, 0.0, 2022-09-01 16:37:40.806
204.0, -10797.747766703102, -20464.94429885677, -26244.770138832348, -10678.702375734136, -1396.7158075232278, -13944.0910749544, 44042.23490264832, -14215.597714853015, -19019.680502376617, -2072.610208107258, -31617.59306402124, -23307.32623426035, 8700.394177483819, 21214.688863121137, 1579.3519114675416, -20237.492947279567, 0.12325, 0.8245, -0.36475, 192.0, 0.0, 0.0, 0.0, 0.0, 0.0, 0.0, 0.0, 0.0, 0.0, 1.6620646608062675E9, 0.0, 2022-09-01 16:37:40.806
206.0, -10828.883746729345, -20505.87034295444, -26258.896441328103, -10718.309666908941, -1389.8985254643592, -13978.646871882305, 43967.736538378784, -14252.768665882191, -18896.83531485025, -1947.6416048576361, -31484.063742645234, -23184.391639756162, 8817.651428896359, 21316.92574225971, 1683.7345580738256, -20105.97528290454, 0.12325, 0.8245, -0.36475, 192.0, 0.0, 0.0, 0.0, 0.0, 0.0, 0.0, 0.0, 0.0, 0.0, 1.6620646608062716E9, 0.0, 2022-09-01 16:37:40.806
208.0, -10832.325915375463, -20506.71970924374, -26274.944993847013, -10721.573021599415, -1433.350316685476, -13974.802371835993, 44126.52333098929, -14256.993145584243, -19036.37725548473, -2105.0649410563638, -31629.953578705023, -23344.18426086715, 8687.944255822213, 21207.20102872861, 1557.1119257345113, -20258.123607411817, 0.12325, 0.8245, -0.36475, 192.0, 0.0, 0.0, 0.0, 0.0, 0.0, 0.0, 0.0, 0.0, 0.0, 1.6620646608062758E9, 0.0, 2022-09-01 16:37:40.806
210.0, -10829.889575229834, -20506.406784821367, -26258.315295972265, -10719.69547506517, -1379.7284817371944, -13961.90541528528, 43872.29458955462, -14249.77353212518, -18914.5155447144, -1986.9806750989767, -31497.00540268486, -23223.238971619485, 8773.819658019502, 21283.64399476576, 1656.018394949245, -20130.964533205573, 0.128625, 0.8512500000000001, -0.375375, 192.0, 2.0, 24.0, 13.5, 56.0, 121.5, 120.0, 0.0, 0.0, 0.0, 1.66206466080628E9, 0.0, 2022-09-01 16:37:40.806
212.0, -10877.834067086467, -20548.271602186156, -26308.696127974526, -10760.733277885114, -1447.543674414596, -14003.367901249874, 44197.22189870142, -14291.437183789873, -19035.95257234008, -2127.7519616785007, -31634.24511364044, -23366.714819278102, 8668.878217801835, 21184.491656362017, 1556.4637251453073, -20263.175101658715, 0.128625, 0.8512500000000001, -0.375375, 192.0, 0.0, 0.0, 0.0, 0.0, 0.0, 0.0, 0.0, 0.0, 0.0, 1.662064660806284E9, 0.0, 2022-09-01 16:37:40.806
214.0, -10831.208328152696, -20501.467049296745, -26247.832327822725, -10716.298009907963, -1354.9627488807141, -13933.80927250496, 43783.42405360032, -14242.732732621758, -18944.377475306686, -2015.3450388127612, -31523.805144286773, -23259.9405360151, 8761.816771247002, 21278.05605865193, 1629.1068946250552, -20158.099550974315, 0.128625, 0.8512500000000001, -0.375375, 192.0, 0.0, 0.0, 0.0, 0.0, 0.0, 0.0, 0.0, 0.0, 0.0, 1.6620646608062885E9, 0.0, 2022-09-01 16:37:40.806
216.0, -10876.180037996774, -20540.96258174927, -26293.78751442284, -10751.010269047054, -1430.802217817571, -13960.184330962222, 44261.773736688345, -14294.454669291339, -19033.985618828014, -2131.954089636098, -31624.186828635557, -23368.502958834524, 8661.18921770921, 21182.971737739055, 1567.796059584148, -20258.034200433995, 0.128625, 0.8512500000000001, -0.375375, 192.0, 0.0, 0.0, 0.0, 0.0, 0.0, 0.0, 0.0, 0.0, 0.0, 1.6620646608062923E9, 0.0, 2022-09-01 16:37:40.806
218.0, -10773.27260652454, -20442.078464278995, -26183.638117747083, -10645.353573006818, -1337.6401469278512, -13900.259304077543, 43703.1142357724, -14199.124479189453, -18904.390204476145, -1979.8951721066444, -31475.79359719677, -23219.84150646228, 8784.190867446765, 21321.9325330177, 1663.3497671305856, -20113.552524274888, 0.128625, 0.8512500000000001, -0.375375, 192.0, 0.0, 0.0, 0.0, 0.0, 0.0, 0.0, 0.0, 0.0, 0.0, 1.6620646608062968E9, 0.0, 2022-09-01 16:37:40.806
220.0, -10890.507506192625, -20557.39111392392, -26303.44346802753, -10763.236673264108, -1468.7107764137718, -14006.407738495796, 44303.54914707532, -14312.8278032336, -19007.275284203923, -2111.546946948403, -31592.939089887037, -23346.508842290503, 8691.989921568624, 21211.827839830858, 1592.2041645293432, -20233.179060599694, 0.128625, 0.8512500000000001, -0.375375, 192.0, 0.0, 0.0, 0.0, 0.0, 0.0, 0.0, 0.0, 0.0, 0.0, 1.662064660806301E9, 0.0, 2022-09-01 16:37:40.806
222.0, -10778.659376938269, -20449.387484715877, -26190.56715852823, -10660.262186558508, -1325.190225266245, -13860.98728906957, 43647.436040334236, -14195.034109954133, -18925.914934386605, -2010.4053032881384, -31492.266832860332, -23250.08341671031, 8749.97034668569, 21322.759547562546, 1639.500455796773, -20137.357132119792, 0.138, 0.874, -0.39, 192.0, 2.0, 40.0, 13.5, 40.0, 121.5, 104.0, 0.0, 0.0, 0.0, 1.6620646608063052E9, 0.0, 2022-09-01 16:37:40.806
224.0, -10911.294628536061, -20578.02177405617, -26319.939055435545, -10787.935350887223, -1394.3241708665098, -13983.586607406927, 44327.95725202051, -14317.946352713867, -18997.57462711032, -2118.9453743631097, -31582.612583948685, -23356.701237762125, 8668.967624779658, 21203.96002578259, 1598.7979291436588, -20218.985702870574, 0.138, 0.874, -0.39, 192.0, 0.0, 0.0, 0.0, 0.0, 0.0, 0.0, 0.0, 0.0, 0.0, 1.6620646608063095E9, 0.0, 2022-09-01 16:37:40.806
226.0, -10786.951874131188, -20452.919060339816, -26187.728486982407, -10656.864721401302, -1281.738434045128, -13849.409085441719, 43626.17953135724, -14177.420935323351, -18958.682591758086, -2050.92901598561, -31523.04518497529, -23299.19019927862, 8696.43791871523, 21290.84125648037, 1617.8639671640358, -20150.634068326246, 0.138, 0.874, -0.39, 192.0, 0.0, 0.0, 0.0, 0.0, 0.0, 0.0, 0.0, 0.0, 0.0, 1.6620646608063135E9, 0.0, 2022-09-01 16:37:40.806
228.0, -10926.359704298939, -20591.432820729355, -26314.35111932172, -10801.033473138032, -1459.9041890983808, -13980.524418416551, 44334.126333490174, -14332.36322788754, -18975.915786733127, -2105.4225689676487, -31553.756481856883, -23346.28532484595, 8724.712875451192, 21225.574162670873, 1637.533502284706, -20184.407554198213, 0.138, 0.874, -0.39, 192.0, 0.0, 0.0, 0.0, 0.0, 0.0, 0.0, 0.0, 0.0, 0.0, 1.6620646608063178E9, 0.0, 2022-09-01 16:37:40.806
230.0, -10795.512592257572, -20456.875319108407, -26195.015155674835, -10666.990061639555, -1325.8831293443598, -13856.807512856427, 43619.026973131535, -14214.055444485599, -18993.484257875, -2094.581972906825, -31552.549487656295, -23344.653647500712, 8695.230924514643, 21242.1144535678, 1589.7231208948042, -20191.873036846286, 0.138, 0.874, -0.39, 192.0, 0.0, 0.0, 0.0, 0.0, 0.0, 0.0, 0.0, 0.0, 0.0, 1.662064660806322E9, 0.0, 2022-09-01 16:37:40.806
232.0, -10918.961276884233, -20581.44159095783, -26312.831200698758, -10789.924656143745, -1446.2472732361882, -13938.14551092929, 44308.44417911103, -14334.64310582198, -18966.617461039717, -2096.504222929981, -31538.66905434955, -23341.122071876773, 8711.39123575583, 21223.718967881083, 1636.2371011062983, -20177.500865161524, 0.13, 0.878, -0.39, 192.0, 2.0, 8.0, 13.5, 56.0, 121.5, 104.0, 0.0, 0.0, 0.0, 1.6620646608063262E9, 0.0, 2022-09-01 16:37:40.806
234.0, -10790.32698754394, -20445.453577691744, -26186.56619627073, -10642.470197972083, -1307.5323471465526, -13847.196262740645, 43645.89376996682, -14199.951493734301, -18991.09262121828, -2087.6305803812243, -31544.838135819216, -23341.926734677167, 8662.552674120983, 21262.476892766583, 1584.6269231589943, -20176.964423294598, 0.13, 0.878, -0.39, 192.0, 0.0, 0.0, 0.0, 0.0, 0.0, 0.0, 0.0, 0.0, 0.0, 1.6620646608063314E9, 0.0, 2022-09-01 16:37:40.806
236.0, -10940.396599816871, -20595.769059153685, -26314.14995362162, -10792.629217222837, -1436.0325260201128, -13959.603185606384, 44283.589039276725, -14335.403065133461, -18959.08492315828, -2084.41192917966, -31521.301748907776, -23333.544830506424, 8697.399043726808, 21249.35641877132, 1639.634566263505, -20148.488300858535, 0.13, 0.878, -0.39, 192.0, 0.0, 0.0, 0.0, 0.0, 0.0, 0.0, 0.0, 0.0, 0.0, 1.6620646608063357E9, 0.0, 2022-09-01 16:37:40.806
238.0, -10782.682690940224, -20437.60811538793, -26164.88500414908, -10637.39635198073, -1293.5625068619856, -13800.369358106776, 43696.83339558046, -14180.080792913532, -19020.32870296582, -2123.5274819764477, -31566.29581049631, -23380.662307818213, 8627.907470215257, 21245.0648838359, 1577.0943852775558, -20196.544551437444, 0.13, 0.878, -0.39, 192.0, 0.0, 0.0, 0.0, 0.0, 0.0, 0.0, 0.0, 0.0, 0.0, 1.6620646608063397E9, 0.0, 2022-09-01 16:37:40.806
240.0, -10909.10415757944, -20565.907128561394, -26275.146159547112, -10767.394097732795, -1385.7858044845825, -13910.876382693814, 44228.98372757241, -14312.40312008895, -18920.28229478387, -2051.510161341448, -31470.719751205415, -23301.246559768508, 8753.63603277636, 21311.583675334892, 1693.5693256341608, -20111.496163785003, 0.13, 0.878, -0.39, 192.0, 0.0, 0.0, 0.0, 0.0, 0.0, 0.0, 0.0, 0.0, 0.0, 1.662064660806344E9, 0.0, 2022-09-01 16:37:40.806
242.0, -10811.337627331928, -20463.29026976708, -26196.646833020073, -10667.571206995393, -1310.4157221812873, -13805.264390142489, 43778.32785586451, -14217.363502664984, -19029.24704900349, -2139.9560141510983, -31572.1519675436, -23402.365851684317, 8627.594545792883, 21246.80831990341, 1580.0448155456563, -20210.62615044429, 0.134, 0.872, -0.39, 192.0, 2.0, 24.0, 13.5, 32.0, 121.5, 104.0, 0.0, 0.0, 0.0, 1.6620646608063483E9, 0.0, 2022-09-01 16:37:40.806
244.0, -10910.892297135866, -20569.572814652063, -26280.085895071734, -10770.009251834066, -1379.549667781552, -13900.594580244373, 44152.2725406018, -14318.30398062515, -18930.49704199994, -2065.4352981371044, -31477.537033264285, -23325.09587110232, 8727.886823163846, 21292.27176812551, 1680.3817964055297, -20121.5991522788, 0.134, 0.872, -0.39, 192.0, 0.0, 0.0, 0.0, 0.0, 0.0, 0.0, 0.0, 0.0, 0.0, 1.6620646608063524E9, 0.0, 2022-09-01 16:37:40.806
246.0, -10824.167528649275, -20477.19305481828, -26208.76147851485, -10671.840390186357, -1324.094989787935, -13823.346951406831, 43845.316033997064, -14229.880479559957, -19042.792206143404, -2175.1376599237515, -31588.558147973796, -23440.185003302697, 8611.255420596055, 21240.348665755828, 1557.894236790447, -20228.239325075072, 0.134, 0.872, -0.39, 192.0, 0.0, 0.0, 0.0, 0.0, 0.0, 0.0, 0.0, 0.0, 0.0, 1.662064660806357E9, 0.0, 2022-09-01 16:37:40.806
248.0, -10888.026462558088, -20546.952849263293, -26252.123862758144, -10736.056952006455, -1336.9472428497365, -13861.41197221422, 44061.68092032444, -14292.577122757093, -18900.344538729732, -2038.7696670019232, -31439.516715945807, -23303.14645804721, 8736.000506401124, 21339.54570764848, 1693.6140291230715, -20086.909244884166, 0.134, 0.872, -0.39, 192.0, 0.0, 0.0, 0.0, 0.0, 0.0, 0.0, 0.0, 0.0, 0.0, 1.662064660806361E9, 0.0, 2022-09-01 16:37:40.806
250.0, -10839.992563723632, -20495.94616841628, -26217.32219664123, -10684.335015336874, -1328.2747660010775, -13806.046701198424, 43939.21571245381, -14248.968869324788, -19042.255764276477, -2185.1065379508186, -31582.769046159872, -23452.74668368658, 8602.27001932502, 21225.68592139315, 1551.5239896206845, -20234.363703055824, 0.134, 0.872, -0.39, 192.0, 0.0, 0.0, 0.0, 0.0, 0.0, 0.0, 0.0, 0.0, 0.0, 1.6620646608063653E9, 0.0, 2022-09-01 16:37:40.806
252.0, -10899.314093508017, -20565.728314605753, -26257.465929682963, -10746.137588755797, -1365.6915862192616, -13852.203053498633, 43974.06208205964, -14309.519745054216, -18906.848896366228, -2061.8590190242553, -31439.516715945807, -23332.226077583564, 8738.503901780117, 21331.163803477742, 1674.7044533138817, -20104.388309048212, 0.138, 0.872, -0.394, 192.0, 2.0, 40.0, 13.5, 32.0, 121.5, 88.0, 0.0, 0.0, 0.0, 1.6620646608063693E9, 0.0, 2022-09-01 16:37:40.806
254.0, -10866.613491369902, -20528.736177532217, -26245.91007779957, -10700.092995177865, -1339.1824172952674, -13831.572393366385, 44025.42639081793, -14276.34975628254, -19055.331534782832, -2212.2862592084716, -31595.107209099202, -23496.824323752444, 8583.583960960385, 21251.368075772298, 1539.0070127257125, -20246.29953459496, 0.138, 0.872, -0.394, 192.0, 0.0, 0.0, 0.0, 0.0, 0.0, 0.0, 0.0, 0.0, 0.0, 1.6620646608063736E9, 0.0, 2022-09-01 16:37:40.806
0.0, -10870.860322816412, -20543.913012017372, -26231.873182281637, -10706.105614436343, -1310.4157221812873, -13818.764843793493, 43872.92043839937, -14277.221474316297, -18916.907181371116, -2067.536362115903, -31445.730500904385, -23363.652630287725, 8718.879070148358, 21361.405713725773, 1661.405165362974, -20097.682785711622, 0.138, 0.872, -0.394, 192.0, 0.0, 0.0, 0.0, 0.0, 0.0, 0.0, 0.0, 0.0, 0.0, 1.6620646608063776E9, 0.0, 2022-09-01 16:37:40.806
2.0, -10907.8748116344, -20578.804085112108, -26278.2530520264, -10743.880062565811, -1368.84318218746, -13835.796873068437, 44110.161854048, -14309.07271016511, -19047.709589923572, -2208.6652766067123, -31582.29965952631, -23514.83982978342, 8592.435251764686, 21252.329200783875, 1562.1634199814107, -20229.535726253478, 0.138, 0.872, -0.394, 192.0, 0.0, 0.0, 0.0, 0.0, 0.0, 0.0, 0.0, 0.0, 0.0, 1.662064660806382E9, 0.0, 2022-09-01 16:37:40.806
4.0, -10881.320939221494, -20561.5038349037, -26242.42320566454, -10725.909260023745, -1296.222364452167, -13815.613247825295, 43780.51832682113, -14285.938654653866, -18959.062571413826, -2112.5527754488917, -31474.452492529454, -23426.572790929415, 8655.71304031766, 21331.186155222196, 1634.046630149678, -20134.071425684862, 0.138, 0.872, -0.394, 192.0, 0.0, 0.0, 0.0, 0.0, 0.0, 0.0, 0.0, 0.0, 0.0, 1.6620646608063862E9, 0.0, 2022-09-01 16:37:40.806
6.0, -10932.171157857318, -20607.347262781535, -26303.82344768327, -10780.492219983606, -1381.9413044382698, -13843.396466183242, 44186.068378218224, -14346.288364683196, -19079.247901350012, -2253.569931217424, -31603.422058036576, -23572.75319966712, 8579.135963813778, 21221.707310880105, 1544.7290593062712, -20266.080828437905, 0.134, 0.876, -0.398, 192.0, 2.0, 24.0, 13.5, 48.0, 121.5, 72.0, 0.0, 0.0, 0.0, 1.6620646608063903E9, 0.0, 2022-09-01 16:37:40.806
8.0, -10841.065447457488, -20519.035520438614, -26209.70025178197, -10697.12021316531, -1277.513954343075, -13771.669718226161, 43701.259040982615, -14262.558729953615, -18961.94594644856, -2110.250545769995, -31465.51179474733, -23448.477500495614, 8676.746031850103, 21342.56319314995, 1629.8445021920804, -20138.050036197907, 0.134, 0.876, -0.398, 192.0, 0.0, 0.0, 0.0, 0.0, 0.0, 0.0, 0.0, 0.0, 0.0, 1.6620646608063946E9, 0.0, 2022-09-01 16:37:40.806
10.0, -10920.078864106998, -20595.322024264577, -26295.128619090156, -10770.232769278618, -1369.4019757988426, -13846.88333831827, 44243.80293414628, -14343.494396626282, -19060.00304937399, -2220.176425001195, -31576.465854223476, -23577.42471425828, 8583.405147004742, 21265.78495094597, 1555.055565244623, -20246.6795142507, 0.134, 0.876, -0.398, 192.0, 0.0, 0.0, 0.0, 0.0, 0.0, 0.0, 0.0, 0.0, 0.0, 1.6620646608063996E9, 0.0, 2022-09-01 16:37:40.806
12.0, -10814.198650622207, -20494.046270137584, -26188.17552187151, -10672.77916345348, -1165.464659388621, -13717.757310599962, 43646.050232178, -14223.778453323657, -18964.069362171813, -2100.03579855392, -31453.240687041365, -23472.08094264042, 8665.078421244434, 21389.23363557263, 1618.8027404311588, -20131.143347161218, 0.134, 0.876, -0.398, 192.0, 0.0, 0.0, 0.0, 0.0, 0.0, 0.0, 0.0, 0.0, 0.0, 1.662064660806404E9, 0.0, 2022-09-01 16:37:40.806
14.0, -10955.305213368561, -20623.149946111436, -26322.084822903256, -10812.164641876774, -1364.6857577187727, -13819.033064726957, 44296.888327227636, -14352.680963597413, -19054.68333419363, -2225.183215759184, -31562.607772661184, -23600.044679647053, 8558.617062403806, 21263.92975615618, 1551.3004721761313, -20241.024522903506, 0.134, 0.876, -0.398, 192.0, 0.0, 0.0, 0.0, 0.0, 0.0, 0.0, 0.0, 0.0, 0.0, 1.662064660806408E9, 0.0, 2022-09-01 16:37:40.806
16.0, -10834.62814505436, -20497.175514361326, -26194.881045208105, -10690.101765406343, -1272.2165909071673, -13742.43363647862, 43620.233967332126, -14233.903793561913, -19003.34137717979, -2143.353479308305, -31492.66916426053, -23536.43161492725, 8626.521662059029, 21347.391169952294, 1572.0428910306564, -20179.289004717946, 0.13, 0.878, -0.398, 192.0, 2.0, 8.0, 13.5, 56.0, 121.5, 72.0, 0.0, 0.0, 0.0, 1.6620646608064125E9, 0.0, 2022-09-01 16:37:40.806
18.0, -10939.25666084965, -20594.316195764088, -26297.855531913705, -10788.56119973197, -1356.0803361034796, -13853.857082588325, 44322.2128536955, -14330.55273658666, -19038.18774678561, -2207.793558572955, -31547.118013753658, -23609.879447207386, 8595.452737266152, 21283.040497665464, 1561.7834403256704, -20235.011903645027, 0.13, 0.878, -0.398, 192.0, 0.0, 0.0, 0.0, 0.0, 0.0, 0.0, 0.0, 0.0, 0.0, 1.6620646608064167E9, 0.0, 2022-09-01 16:37:40.806
20.0, -10809.884763942333, -20460.026915076603, -26170.204719329446, -10654.450733000129, -1213.878537878816, -13713.175202986624, 43618.0434963755, -14183.031223181633, -18987.695156061072, -2120.0406098414196, -31475.99476289687, -23549.32857147796, 8616.508080543052, 21387.736068694125, 1587.7114638938265, -20164.447446399623, 0.13, 0.878, -0.398, 192.0, 0.0, 0.0, 0.0, 0.0, 0.0, 0.0, 0.0, 0.0, 0.0, 1.662064660806421E9, 0.0, 2022-09-01 16:37:40.806
22.0, -10963.530655328113, -20608.084870348557, -26315.58046526676, -10807.359016818884, -1331.806341625016, -13828.219631698088, 44329.387763665654, -14312.067843922121, -19022.027435544423, -2188.7722240414887, -31527.00144374388, -23626.687959037776, 8580.678234181194, 21307.135678188286, 1578.5919521560613, -20215.00709235753, 0.13, 0.878, -0.398, 192.0, 0.0, 0.0, 0.0, 0.0, 0.0, 0.0, 0.0, 0.0, 0.0, 1.662064660806425E9, 0.0, 2022-09-01 16:37:40.806
24.0, -10829.733113018647, -20471.739229171184, -26187.057934648747, -10666.25245407253, -1152.3888888822662, -13680.966339226527, 43627.63239474683, -14160.500664770683, -19030.297580992887, -2167.0016249420196, -31519.781830284817, -23629.191354416773, 8552.515036167508, 21345.64773388478, 1543.8126377836036, -20206.289912019958, 0.13, 0.878, -0.398, 192.0, 0.0, 0.0, 0.0, 0.0, 0.0, 0.0, 0.0, 0.0, 0.0, 1.6620646608064291E9, 0.0, 2022-09-01 16:37:40.806
26.0, -10956.735725013701, -20596.4619632318, -26299.241340069933, -10778.36880426035, -1271.2554658955892, -13804.415023853187, 44297.8047487503, -14282.809410430124, -19002.782583568405, -2163.291235362439, -31506.929577223014, -23635.96393298673, 8562.953300828136, 21337.757568092056, 1590.1254522949998, -20188.453219944622, 0.136, 0.88, -0.398, 192.0, 2.0, 32.0, 13.5, 64.0, 121.5, 72.0, 0.0, 0.0, 0.0, 1.6620646608064337E9, 0.0, 2022-09-01 16:37:40.806
28.0, -10819.71953150267, -20453.164929528826, -26155.251402288843, -10618.822052338368, -1180.0379967734812, -13689.817630030828, 43653.02397644806, -14134.885565624902, -19023.972037312036, -2157.636244015246, -31514.149190682077, -23651.029008749607, 8532.331410924366, 21374.70500167668, 1558.1624577239106, -20194.510542692013, 0.136, 0.88, -0.398, 192.0, 0.0, 0.0, 0.0, 0.0, 0.0, 0.0, 0.0, 0.0, 0.0, 1.662064660806438E9, 0.0, 2022-09-01 16:37:40.806
30.0, -10982.41787939285, -20614.097489607037, -26298.12375284717, -10774.054917580475, -1303.2631639555889, -13824.464538629598, 44248.11682082615, -14283.9717011418, -18979.134437934692, -2138.5255025059587, -31483.460245544942, -23649.531441871102, 8617.446853810174, 21371.03931558601, 1621.2390805767873, -20161.31820217588, 0.136, 0.88, -0.398, 192.0, 0.0, 0.0, 0.0, 0.0, 0.0, 0.0, 0.0, 0.0, 0.0, 1.662064660806442E9, 0.0, 2022-09-01 16:37:40.806
32.0, -10886.663006146313, -20514.5428198031, -26217.612769319152, -10678.791782711958, -1214.683200679207, -13714.00221753147, 43722.8731778709, -14187.65803428388, -19075.42575304815, -2209.805215573933, -31570.922621598558, -23750.717789020277, 8491.405366826697, 21320.814945794937, 1507.9827914217462, -20255.44139807718, 0.136, 0.88, -0.398, 192.0, 0.0, 0.0, 0.0, 0.0, 0.0, 0.0, 0.0, 0.0, 0.0, 1.6620646608064466E9, 0.0, 2022-09-01 16:37:40.806
34.0, -10983.714280571257, -20613.5163442512, -26295.977985379457, -10778.435859493717, -1261.6665675242625, -13780.185732863634, 44189.10821546414, -14283.234093574774, -18999.340414922288, -2158.3962033267267, -31498.100638163167, -23702.907407630373, 8562.014527561012, 21329.50977438805, 1588.5384784386729, -20190.643690901245, 0.136, 0.88, -0.398, 192.0, 0.0, 0.0, 0.0, 0.0, 0.0, 0.0, 0.0, 0.0, 0.0, 1.6620646608064508E9, 0.0, 2022-09-01 16:37:40.806
36.0, -10891.781555626578, -20517.180325648824, -26208.47090583693, -10670.58869249686, -1190.878592834305, -13678.306481636344, 43800.00904798616, -14182.785353992625, -19086.132238642247, -2230.324116983905, -31576.06352282328, -23787.17348422688, 8464.538569991419, 21293.478762326093, 1495.5999249935062, -20266.281994138004, 0.132, 0.879, -0.399, 192.0, 2.0, 0.0, 13.5, 56.0, 121.5, 64.0, 0.0, 0.0, 0.0, 1.6620646608064551E9, 0.0, 2022-09-01 16:37:40.806
0.0, -5620.435550264782, -10245.458512956919, -13013.029159668586, -5327.918270578179, -581.8829634050088, -6409.183908603658, 21830.7029403094, -7106.357169909141, -9513.997675656996, -1101.8962981577276, -15762.02550673789, -11879.415736128776, 4258.543760602923, 10633.037761811944, 790.1118147506494, -10109.626961902019, 0.127, 0.8775, -0.3995, 192.0, 1.5, 104.0, 13.5, 48.0, 121.5, 64.0, 0.0, 0.0, 0.0, 1.6620646609339197E9, 0.0, 2022-09-01 16:37:40.933
2.0, -11402.340102474702, -20652.676600536895, -26176.776132199306, -10816.813804723479, -1320.4069519528093, -12983.457801754214, 44393.53727025238, -14382.699356400892, -19143.64327712575, -2459.228331950704, -31341.280799064734, -24483.18445482069, 7992.179154417415, 21167.012592197967, 1467.9508171022912, -20060.333020726805, 0.127, 0.8775, -0.3995, 192.0, 0.0, 0.0, 0.0, 0.0, 0.0, 0.0, 0.0, 0.0, 0.0, 1.6620646614136908E9, 0.0, 2022-09-01 16:37:41.413
4.0, -11302.09252859265, -20549.38918940892, -26092.666517813985, -10713.660504062236, -1230.2176630756455, -12880.326852837426, 44007.746160953786, -14279.88133190648, -19241.588621328905, -2539.6052050119883, -31431.961826319915, -24572.367915197363, 7893.250333458225, 21120.878591642213, 1357.421440770798, -20159.440655641636, 0.127, 0.8775, -0.3995, 192.0, 0.0, 0.0, 0.0, 0.0, 0.0, 0.0, 0.0, 0.0, 0.0, 1.6620646614137168E9, 0.0, 2022-09-01 16:37:41.413
6.0, -11406.944561832495, -20659.113902940026, -26163.298030292754, -10818.110205901887, -1342.4010684968316, -12993.069051869996, 44317.87661527117, -14384.37573723504, -19140.22346022409, -2461.3740994184136, -31335.648159461995, -24489.599405479363, 8004.450262123378, 21153.46743505805, 1468.3084450135761, -20066.21152951855, 0.127, 0.8775, -0.3995, 192.0, 0.0, 0.0, 0.0, 0.0, 0.0, 0.0, 0.0, 0.0, 0.0, 1.6620646614137213E9, 0.0, 2022-09-01 16:37:41.413
8.0, -11332.267383607315, -20575.36191646599, -26096.08633471565, -10734.715847339136, -1287.616942836874, -12910.12172819635, 44100.237679509846, -14303.30596009564, -19262.10752273888, -2573.646911817421, -31461.309666789733, -24612.39988951682, 7887.282417688659, 21086.434553436586, 1355.5885977254627, -20179.445466929134, 0.122, 0.876, -0.394, 192.0, 1.5, 104.0, 13.5, 48.0, 121.5, 88.0, 0.0, 0.0, 0.0, 1.662064661413726E9, 0.0, 2022-09-01 16:37:41.413
10.0, -11382.268235953838, -20625.161603112414, -26127.93757056446, -10779.665205438758, -1285.582934091441, -12941.570632644967, 44238.5949776882, -14336.766521545234, -19128.913477529703, -2446.1525614443494, -31325.232246545824, -24483.027992609503, 8020.074131497638, 21179.596624326306, 1488.7379394457269, -20032.30393317985, 0.122, 0.876, -0.394, 192.0, 0.0, 0.0, 0.0, 0.0, 0.0, 0.0, 0.0, 0.0, 0.0, 1.6620646614137304E9, 0.0, 2022-09-01 16:37:41.413
12.0, -11376.25561669536, -20612.97990238427, -26149.015265585815, -10770.61274893436, -1297.3175999304772, -12938.933126799242, 44203.36862842663, -14332.139710442987, -19269.885929809327, -2580.710063065298, -31467.143472092568, -24621.07236636548, 7873.245522170726, 21080.55604464484, 1359.0754698604906, -20164.827426055363, 0.122, 0.876, -0.394, 192.0, 0.0, 0.0, 0.0, 0.0, 0.0, 0.0, 0.0, 0.0, 0.0, 1.662064661413735E9, 0.0, 2022-09-01 16:37:41.413
14.0, -11357.457799608446, -20599.54650396663, -26116.426422169978, -10760.263891251552, -1247.9425964287038, -12917.542507355512, 44156.54172379276, -14320.829727748602, -19141.385750935766, -2452.5451603585675, -31331.602493715585, -24492.393373536277, 7994.503735840766, 21169.918318977157, 1462.7875641331154, -20041.73636933999, 0.122, 0.876, -0.394, 192.0, 0.0, 0.0, 0.0, 0.0, 0.0, 0.0, 0.0, 0.0, 0.0, 1.6620646614137397E9, 0.0, 2022-09-01 16:37:41.413
16.0, -11347.332459370191, -20579.65345140141, -26134.956018323424, -10751.054972535965, -1290.5673731049744, -12907.260704906072, 44297.46947258347, -14318.639256791981, -19239.353446883375, -2557.620711042966, -31438.041500811756, -24595.121991052867, 7875.279530916158, 21075.437495164573, 1375.548705524052, -20153.584498594344, 0.122, 0.876, -0.394, 192.0, 0.0, 0.0, 0.0, 0.0, 0.0, 0.0, 0.0, 0.0, 0.0, 1.6620646614137442E9, 0.0, 2022-09-01 16:37:41.413
18.0, -11316.084720621673, -20552.54078537712, -26095.88516901555, -10719.226088431607, -1256.9056459552821, -12917.900135266798, 44073.169716974466, -14299.953198427344, -19115.92711400117, -2420.7386279986654, -31301.382935212012, -24455.065960295913, 7982.72436651282, 21188.984356997535, 1469.157811302878, -20028.280619177895, 0.122, 0.872, -0.392, 192.0, 1.5, 104.0, 13.5, 32.0, 121.5, 96.0, 0.0, 0.0, 0.0, 1.6620646614137487E9, 0.0, 2022-09-01 16:37:41.413
20.0, -11350.662869294032, -20579.117009534482, -26113.051308757225, -10738.493292152083, -1316.7636176065944, -12901.851582747888, 44385.60240097075, -14322.617867305025, -19224.869516476338, -2540.1416468789157, -31417.88022731307, -24572.703191364195, 7887.148307221927, 21091.9777860615, 1389.0044556861467, -20139.32408563186, 0.122, 0.872, -0.392, 192.0, 0.0, 0.0, 0.0, 0.0, 0.0, 0.0, 0.0, 0.0, 0.0, 1.6620646614137533E9, 0.0, 2022-09-01 16:37:41.413
22.0, -11326.634744004577, -20559.805102325096, -26065.732665745338, -10713.660504062236, -1235.3138608114555, -12899.750518769088, 44001.62178297303, -14289.894913422457, -19112.21672442159, -2414.1895668732604, -31286.608432127054, -24450.50620442703, 8002.930343500418, 21220.92499982417, 1496.5163465161738, -20006.353557867238, 0.122, 0.872, -0.392, 192.0, 0.0, 0.0, 0.0, 0.0, 0.0, 0.0, 0.0, 0.0, 0.0, 1.6620646614137576E9, 0.0, 2022-09-01 16:37:41.413
24.0, -11430.324486532747, -20658.1751296729, -26166.673143705506, -10810.063577897976, -1364.8198681855044, -12973.265406282593, 44471.41074793467, -14377.60315866508, -19260.05116224899, -2589.829574803063, -31450.826698640194, -24625.185087345253, 7862.807257510097, 21055.745608299447, 1382.6565602608396, -20167.152007478715, 0.122, 0.872, -0.392, 192.0, 0.0, 0.0, 0.0, 0.0, 0.0, 0.0, 0.0, 0.0, 0.0, 1.6620646614137633E9, 0.0, 2022-09-01 16:37:41.413
26.0, -11343.689125023977, -20571.763285608686, -26070.985325692338, -10723.383512900295, -1243.427544048732, -12867.854579431365, 43944.177799722886, -14287.279759321185, -19160.98823082307, -2457.7307650721987, -31331.133107082023, -24502.161085863245, 7962.428982547401, 21168.33134512083, 1461.446459465797, -20047.212546731538, 0.122, 0.872, -0.392, 192.0, 0.0, 0.0, 0.0, 0.0, 0.0, 0.0, 0.0, 0.0, 0.0, 1.6620646614137676E9, 0.0, 2022-09-01 16:37:41.413
28.0, -11446.149521607103, -20664.2771559092, -26185.1803881145, -10823.653438526802, -1376.9121619358257, -13002.85911594142, 44521.88098691476, -14392.71293791687, -19263.180406472733, -2580.486545620745, -31454.335922519676, -24621.407642532307, 7868.551655835111, 21060.39477114615, 1382.030711416091, -20166.10147548932, 0.12, 0.878, -0.394, 192.0, 1.5, 96.0, 13.5, 56.0, 121.5, 88.0, 0.0, 0.0, 0.0, 1.662064661413772E9, 0.0, 2022-09-01 16:37:41.413
30.0, -11339.218776132915, -20558.776922080153, -26088.509093345296, -10723.31645766693, -1254.6928232542066, -12903.304446137483, 43895.383941576954, -14284.575198242093, -19183.18351306719, -2468.7948785775757, -31360.63740976303, -24517.874362215327, 7934.243432789259, 21172.511121333973, 1427.0694764935347, -20074.54873020038, 0.12, 0.878, -0.394, 192.0, 0.0, 0.0, 0.0, 0.0, 0.0, 0.0, 0.0, 0.0, 0.0, 1.6620646614137764E9, 0.0, 2022-09-01 16:37:41.413
32.0, -11471.98813819744, -20689.534627143697, -26230.353263658675, -10858.499808132627, -1389.2503248751552, -12987.145839589339, 44558.604903054824, -14410.147298592008, -19243.734388796616, -2558.8277052435524, -31442.51184970282, -24600.218188788676, 7876.575932094566, 21066.899128782647, 1386.9704469407138, -20148.80122528091, 0.12, 0.878, -0.394, 192.0, 0.0, 0.0, 0.0, 0.0, 0.0, 0.0, 0.0, 0.0, 0.0, 1.6620646614137807E9, 0.0, 2022-09-01 16:37:41.413
34.0, -11328.422883561003, -20545.008247495683, -26082.272956642268, -10704.809213257935, -1240.3430033138995, -12855.047029858475, 43873.21101107729, -14261.329384008573, -19214.766527982538, -2503.842413883497, -31390.633450822053, -24540.829603770926, 7888.5117636337, 21140.861051185257, 1381.5613247825295, -20102.60016949179, 0.12, 0.878, -0.394, 192.0, 0.0, 0.0, 0.0, 0.0, 0.0, 0.0, 0.0, 0.0, 0.0, 1.6620646614137852E9, 0.0, 2022-09-01 16:37:41.413
36.0, -11471.250530630414, -20687.545321887177, -26214.19295241749, -10841.735999791146, -1382.7683189831162, -13000.534534518069, 44571.121879949795, -14407.867420657567, -19228.490499078096, -2546.847170215508, -31418.282558713265, -24573.887833820325, 7870.026870969162, 21082.858274323735, 1404.807139016049, -20125.577762791847, 0.12, 0.878, -0.394, 192.0, 0.0, 0.0, 0.0, 0.0, 0.0, 0.0, 0.0, 0.0, 0.0, 1.6620646614137907E9, 0.0, 2022-09-01 16:37:41.413
38.0, -11322.969057913908, -20536.62634332494, -26068.593689035617, -10696.69553002066, -1251.0494889079916, -12856.030506614508, 43869.791194175625, -14264.704497421324, -19219.058062917957, -2503.0601028275614, -31387.146578687025, -24540.42727237073, 7863.947196477318, 21121.593847464785, 1384.3329410949875, -20100.07442236834, 0.124, 0.878, -0.394, 192.0, 1.5, 112.0, 13.5, 56.0, 121.5, 88.0, 0.0, 0.0, 0.0, 1.6620646614137952E9, 0.0, 2022-09-01 16:37:41.413
40.0, -11472.122248664171, -20682.315013684634, -26202.95002495647, -10847.681563816257, -1386.7469294961609, -13001.540363018557, 44553.307539618916, -14415.243496327817, -19207.837487201392, -2525.4341990273238, -31394.746171801828, -24556.878156289837, 7897.541868393644, 21086.2780912254, 1421.2356711906996, -20105.997634648997, 0.124, 0.878, -0.394, 192.0, 0.0, 0.0, 0.0, 0.0, 0.0, 0.0, 0.0, 0.0, 0.0, 1.6620646614137995E9, 0.0, 2022-09-01 16:37:41.413
42.0, -11336.223642375904, -20545.857613784985, -26067.20788087939, -10706.798518514457, -1247.4061545617765, -12850.844901900877, 43888.38784556244, -14274.315747537106, -19243.734388796616, -2530.3068793185807, -31412.225235965878, -24569.10456050689, 7853.330117861047, 21104.204190278553, 1376.2192578577112, -20117.73230048803, 0.124, 0.878, -0.394, 192.0, 0.0, 0.0, 0.0, 0.0, 0.0, 0.0, 0.0, 0.0, 0.0, 1.6620646614138043E9, 0.0, 2022-09-01 16:37:41.413
44.0, -11463.852103215708, -20679.76691481673, -26177.71490546643, -10834.046999698521, -1356.639129714862, -12993.001996636629, 44512.87323389926, -14403.933513633432, -19184.83754215688, -2503.4177307388463, -31364.16898538697, -24532.33594087791, 7916.47379594729, 21111.55791420435, 1458.2054565197775, -20064.91512834014, 0.124, 0.878, -0.394, 192.0, 0.0, 0.0, 0.0, 0.0, 0.0, 0.0, 0.0, 0.0, 0.0, 1.6620646614138088E9, 0.0, 2022-09-01 16:37:41.413
46.0, -11321.24797359085, -20535.3969973799, -26049.617057993062, -10691.778146240491, -1255.2516168655893, -12847.805064654955, 43923.68125005737, -14263.877482876478, -19244.98608648611, -2542.0638969020724, -31411.331166187665, -24574.44662743171, 7848.524492803156, 21113.27899852741, 1369.6031414989402, -20117.486431299025, 0.124, 0.878, -0.394, 192.0, 0.0, 0.0, 0.0, 0.0, 0.0, 0.0, 0.0, 0.0, 0.0, 1.6620646614138205E9, 0.0, 2022-09-01 16:37:41.413
48.0, -11444.629602984143, -20662.958402986336, -26158.425350001497, -10817.841984968423, -1343.093972574946, -12949.438446693237, 44458.96082627307, -14388.667272170458, -19157.344896476854, -2480.0601577830503, -31333.569447227652, -24501.937568418693, 7940.725438681297, 21126.0865481003, 1473.2481805381992, -20047.8830990652, 0.127, 0.877, -0.392, 192.0, 2.0, 8.0, 13.5, 48.0, 121.5, 104.0, 0.0, 0.0, 0.0, 1.6620646614138248E9, 0.0, 2022-09-01 16:37:41.413
50.0, -11337.72120925441, -20550.372666164956, -26073.667535026972, -10704.161012668732, -1254.9163406987598, -12854.979974625108, 43991.69760843487, -14282.474134263293, -19251.557499355975, -2558.64889128791, -31424.83161983867, -24583.923767080756, 7830.061951883073, 21084.311137713332, 1363.3446530514543, -20135.434882096637, 0.127, 0.877, -0.392, 192.0, 0.0, 0.0, 0.0, 0.0, 0.0, 0.0, 0.0, 0.0, 0.0, 1.662064661413829E9, 0.0, 2022-09-01 16:37:41.413
52.0, -11443.824940183753, -20659.627993062495, -26165.80142567175, -10814.623333766858, -1341.194074296245, -12963.85532186691, 44384.90949689264, -14386.432097724928, -19137.183622978166, -2465.48682039819, -31322.68414767792, -24481.1280943308, 7946.067505606116, 21155.970830437047, 1484.893439399414, -20026.090148221272, 0.127, 0.877, -0.392, 192.0, 0.0, 0.0, 0.0, 0.0, 0.0, 0.0, 0.0, 0.0, 0.0, 1.6620646614138336E9, 0.0, 2022-09-01 16:37:41.413
54.0, -11372.29935792677, -20586.336622993545, -26123.936608306958, -10750.049144035476, -1295.9988470076141, -12885.467754062147, 44073.90732454149, -14325.724759784312, -19270.10944725388, -2591.975342270773, -31457.643980699064, -24612.936331383746, 7814.885117397919, 21067.79319856086, 1347.452562743731, -20160.401780653214, 0.127, 0.877, -0.392, 192.0, 0.0, 0.0, 0.0, 0.0, 0.0, 0.0, 0.0, 0.0, 0.0, 1.662064661413838E9, 0.0, 2022-09-01 16:37:41.413
56.0, -11416.39934973709, -20640.69606550885, -26165.80142567175, -10811.359979076384, -1320.1834345082564, -12891.346262853893, 44306.34311513223, -14366.449638181883, -19148.873585328292, -2488.1291375314163, -31340.58789498662, -24505.267978342534, 7919.111301793016, 21128.85816441276, 1455.120915784945, -20051.54878515587, 0.127, 0.877, -0.392, 192.0, 0.0, 0.0, 0.0, 0.0, 0.0, 0.0, 0.0, 0.0, 0.0, 1.6620646614138434E9, 0.0, 2022-09-01 16:37:41.413
58.0, -11375.830933550707, -20590.963434095793, -26134.30781773422, -10763.102562797376, -1337.0366498275578, -12894.02847218853, 44165.61653204162, -14323.958971972344, -19237.967638727147, -2572.2834554056476, -31433.526448431785, -24596.083116064445, 7824.07168436905, 21084.333489457786, 1362.4058797843313, -20142.22981241105, 0.1305, 0.8765000000000001, -0.395, 192.0, 2.0, 24.0, 13.5, 48.0, 121.5, 72.0, 0.0, 0.0, 0.0, 1.662064661413848E9, 0.0, 2022-09-01 16:37:41.413
60.0, -11418.656875927076, -20637.857393963026, -26155.69843717795, -10812.879897699344, -1315.2660507280889, -12873.509570778559, 44225.27333799283, -14350.89282404099, -19138.435320667664, -2471.231218723204, -31329.032043103227, -24495.053231126458, 7919.223060515293, 21144.86201344276, 1455.7467646296936, -20047.145491498173, 0.1305, 0.8765000000000001, -0.395, 192.0, 0.0, 0.0, 0.0, 0.0, 0.0, 0.0, 0.0, 0.0, 0.0, 1.6620646614138525E9, 0.0, 2022-09-01 16:37:41.413
62.0, -11412.756015390876, -20625.22865834578, -26157.106597078633, -10792.651568967292, -1376.2416096021664, -12927.734902827133, 44266.869934424154, -14356.03372526571, -19272.411676932774, -2607.2192319892924, -31468.66339071553, -24634.19284036074, 7772.506209910657, 21023.916724195093, 1341.9540336077255, -20180.719516363086, 0.1305, 0.8765000000000001, -0.395, 192.0, 0.0, 0.0, 0.0, 0.0, 0.0, 0.0, 0.0, 0.0, 0.0, 1.6620646614138567E9, 0.0, 2022-09-01 16:37:41.413
64.0, -11395.63457913811, -20612.957550639814, -26123.087242017657, -10785.65547295278, -1310.2369082256448, -12924.136271969828, 44143.26478758631, -14343.069713481631, -19128.466442640598, -2460.904712784852, -31308.848417860085, -24487.632451967296, 7926.554432696633, 21136.569516249838, 1459.7924303761042, -20042.138700740183, 0.1305, 0.8765000000000001, -0.395, 192.0, 0.0, 0.0, 0.0, 0.0, 0.0, 0.0, 0.0, 0.0, 0.0, 1.6620646614138613E9, 0.0, 2022-09-01 16:37:41.413
66.0, -11418.679227671531, -20624.08871937856, -26148.724692907894, -10797.591304491914, -1360.5953884834514, -12906.098414194395, 44358.31092099082, -14360.258204967762, -19257.637173847816, -2590.477775392267, -31440.74606189085, -24621.58645648795, 7802.457547480768, 21026.286009107353, 1352.2134843127114, -20174.483379660058, 0.1305, 0.8765000000000001, -0.395, 192.0, 0.0, 0.0, 0.0, 0.0, 0.0, 0.0, 0.0, 0.0, 0.0, 1.6620646614138656E9, 0.0, 2022-09-01 16:37:41.413
68.0, -11404.172945520038, -20608.688367448853, -26112.961901779403, -10779.151115316286, -1312.673248371273, -12893.067347176951, 44059.602208090095, -14341.885071025501, -19142.50333815853, -2452.1651807028275, -31308.803714371174, -24487.185417078188, 7916.250278502736, 21156.037885670412, 1450.5611599160625, -20043.189232729583, 0.12925, 0.8752500000000001, -0.3945, 192.0, 2.0, 0.0, 13.5, 40.0, 121.5, 88.0, 0.0, 0.0, 0.0, 1.662064661413872E9, 0.0, 2022-09-01 16:37:41.413
70.0, -11425.228288796938, -20618.478431520278, -26145.304876006234, -10795.356130046384, -1360.0142431276136, -12868.100448620373, 44436.43026786212, -14358.067734011143, -19269.975336787145, -2583.7946038001305, -31454.85001264215, -24629.54367751404, 7793.628608420922, 21042.55807907082, 1352.906388390826, -20171.018859269483, 0.12925, 0.8752500000000001, -0.3945, 192.0, 0.0, 0.0, 0.0, 0.0, 0.0, 0.0, 0.0, 0.0, 0.0, 1.6620646614138763E9, 0.0, 2022-09-01 16:37:41.413
72.0, -11372.679337582511, -20573.88670133194, -26080.238947896833, -10743.924766054723, -1302.3690941773766, -12823.642828898768, 43987.76370141074, -14302.367186828518, -19127.058282739912, -2417.139997141361, -31298.56661541064, -24475.338992516878, 7938.087932835571, 21181.8988540052, 1478.411433507375, -20014.489592848968, 0.12925, 0.8752500000000001, -0.3945, 192.0, 0.0, 0.0, 0.0, 0.0, 0.0, 0.0, 0.0, 0.0, 0.0, 1.6620646614138808E9, 0.0, 2022-09-01 16:37:41.413
74.0, -11450.776332709353, -20651.93899296987, -26164.862652404627, -10818.154909390798, -1391.1949266427669, -12888.529943052525, 44507.68762918564, -14376.8431993536, -19245.455473119673, -2564.415641357379, -31432.36415772011, -24617.92077039728, 7820.2718878116475, 21066.78737006037, 1381.0025311711468, -20139.5028995875, 0.12925, 0.8752500000000001, -0.3945, 192.0, 0.0, 0.0, 0.0, 0.0, 0.0, 0.0, 0.0, 0.0, 0.0, 1.6620646614138854E9, 0.0, 2022-09-01 16:37:41.413
76.0, -11383.184657476504, -20588.59414918353, -26095.549892848718, -10754.430085948718, -1285.8288032804494, -12820.11125327483, 43934.45479088483, -14301.249599605751, -19160.161216278222, -2465.9338552872964, -31330.037871603716, -24520.154240149768, 7885.963664765795, 21162.76576075146, 1428.097656738479, -20037.19896521556, 0.12925, 0.8752500000000001, -0.3945, 192.0, 0.0, 0.0, 0.0, 0.0, 0.0, 0.0, 0.0, 0.0, 0.0, 1.6620646614138896E9, 0.0, 2022-09-01 16:37:41.413
78.0, -11483.432231358556, -20687.81354282064, -26201.31834761123, -10859.036249999554, -1384.444699817264, -12895.324873366937, 44552.36876635179, -14393.450545483893, -19241.029827717524, -2577.9160950083847, -31427.871457084595, -24625.855639678914, 7812.560535974567, 21037.64069529065, 1369.8937141768592, -20133.669094284665, 0.124625, 0.876625, -0.39425, 192.0, 1.5, 96.0, 13.5, 56.0, 121.5, 88.0, 0.0, 0.0, 0.0, 1.662064661413894E9, 0.0, 2022-09-01 16:37:41.413
80.0, -11391.007768035863, -20596.484314976253, -26105.83169529816, -10764.063687808954, -1319.8481583414268, -12866.781695697511, 43903.922307958885, -14311.30788461064, -19192.817114927428, -2493.2700387561367, -31356.949371927905, -24546.305781162475, 7835.985164163729, 21135.94366740509, 1398.3921883573757, -20062.523491683423, 0.124625, 0.876625, -0.39425, 192.0, 0.0, 0.0, 0.0, 0.0, 0.0, 0.0, 0.0, 0.0, 0.0, 1.6620646614138985E9, 0.0, 2022-09-01 16:37:41.413
82.0, -11498.832583288264, -20700.978720304814, -26208.85088549267, -10878.079936275475, -1411.4903106081856, -12961.173112532273, 44585.181127212185, -14424.988856910331, -19254.99966800209, -2592.2659149486917, -31438.868515356604, -24634.572820016485, 7786.967788573241, 21008.896351921125, 1369.4243275432977, -20150.209385181595, 0.124625, 0.876625, -0.39425, 192.0, 0.0, 0.0, 0.0, 0.0, 0.0, 0.0, 0.0, 0.0, 0.0, 1.662064661413903E9, 0.0, 2022-09-01 16:37:41.413
84.0, -11351.847511750164, -20552.853709799496, -26063.519843044265, -10739.275603208018, -1275.5693525754634, -12787.880037770277, 43880.855307681006, -14286.519800009704, -19196.03576612899, -2503.0824545720166, -31357.306999839187, -24547.780996296526, 7834.286431585126, 21092.22365525051, 1398.3474848684652, -20085.143457072194, 0.124625, 0.876625, -0.39425, 192.0, 0.0, 0.0, 0.0, 0.0, 0.0, 0.0, 0.0, 0.0, 0.0, 1.6620646614139073E9, 0.0, 2022-09-01 16:37:41.413
86.0, -11488.148449438626, -20686.13716198649, -26192.04237366228, -10869.027479771075, -1386.031673673591, -12962.983603833152, 44579.86141203182, -14429.749778479312, -19210.94437968068, -2547.3389085935246, -31386.140750186536, -24585.10840953689, 7837.818007209064, 21024.96725618449, 1414.8207205320264, -20124.84015522482, 0.124625, 0.876625, -0.39425, 192.0, 0.0, 0.0, 0.0, 0.0, 0.0, 0.0, 0.0, 0.0, 0.0, 1.6620646614139118E9, 0.0, 2022-09-01 16:37:41.413
88.0, -11355.647308307565, -20547.668105085864, -26054.042703395215, -10721.483614621595, -1278.4974310991088, -12852.6330414573, 43896.18860437735, -14293.985282657777, -19216.934647194703, -2515.0182861111507, -31369.712218011886, -24557.660467345773, 7829.637268738422, 21086.635719136684, 1397.1404906678786, -20098.174524089638, 0.12331249999999999, 0.8783125, -0.393125, 192.0, 1.5, 104.0, 13.5, 64.0, 121.5, 96.0, 0.0, 0.0, 0.0, 1.6620646614139163E9, 0.0, 2022-09-01 16:37:41.413
90.0, -11512.064816005804, -20699.123525515024, -26196.04333591978, -10871.128543749875, -1434.4008486748755, -12957.820350863976, 44567.05386245893, -14442.982011196855, -19206.51873427853, -2530.485693274223, -31374.11551166958, -24568.076380261944, 7851.787847493631, 21076.912710298624, 1440.0781917665233, -20090.46317225256, 0.12331249999999999, 0.8783125, -0.393125, 192.0, 0.0, 0.0, 0.0, 0.0, 0.0, 0.0, 0.0, 0.0, 0.0, 1.6620646614139206E9, 0.0, 2022-09-01 16:37:41.413
92.0, -11371.561750359744, -20554.440683655823, -26069.800683236204, -10726.758626313047, -1290.7685388050722, -12792.417441894704, 43929.76092454921, -14290.744279711758, -19246.66246732026, -2541.661565501877, -31402.83750329465, -24586.29305199302, 7795.68496891081, 21078.142056243665, 1380.6225515154067, -20101.840210180308, 0.12331249999999999, 0.8783125, -0.393125, 192.0, 0.0, 0.0, 0.0, 0.0, 0.0, 0.0, 0.0, 0.0, 0.0, 1.662064661413925E9, 0.0, 2022-09-01 16:37:41.413
94.0, -11502.14064146765, -20693.5355894012, -26188.644908505074, -10867.48520940366, -1414.418389131831, -12942.017667534074, 44515.51073974499, -14416.539897506225, -19183.541140978472, -2504.5800214505225, -31351.808470703185, -24543.221240427643, 7861.913187731885, 21089.049707537855, 1458.8536571089815, -20046.67610486461, 0.12331249999999999, 0.8783125, -0.393125, 192.0, 0.0, 0.0, 0.0, 0.0, 0.0, 0.0, 0.0, 0.0, 0.0, 1.6620646614139295E9, 0.0, 2022-09-01 16:37:41.413
96.0, -11394.069957026239, -20588.03535557215, -26094.745230048327, -10775.060746080964, -1310.1698529922787, -12822.480538187092, 43984.79091939818, -14307.262218864229, -19269.30478445349, -2577.647874074921, -31429.860762341115, -24621.58645648795, 7768.952282542263, 21047.63192506217, 1357.6226064708958, -20129.243448882517, 0.12331249999999999, 0.8783125, -0.393125, 192.0, 0.0, 0.0, 0.0, 0.0, 0.0, 0.0, 0.0, 0.0, 0.0, 1.6620646614139335E9, 0.0, 2022-09-01 16:37:41.413
98.0, -11516.915144552606, -20713.67451115543, -26192.936443440492, -10904.276180777095, -1403.9130692378367, -12928.248992949604, 44461.21835246305, -14427.604011011603, -19184.32345203441, -2525.389495538413, -31351.67436023645, -24559.739179580116, 7852.2572341271925, 21059.1207217122, 1450.896436082892, -20067.284413252404, 0.12165625, 0.88015625, -0.39456250000000004, 192.0, 1.5, 96.0, 13.5, 72.0, 121.5, 80.0, 0.0, 0.0, 0.0, 1.662064661413938E9, 0.0, 2022-09-01 16:37:41.413
100.0, -11383.609340621155, -20572.903224575904, -26069.97949719185, -10760.956795329666, -1313.7908355940385, -12833.924631348209, 44049.38746087402, -14302.344835084063, -19271.09292400991, -2598.4796999072673, -31431.090108286156, -24633.365825815898, 7763.498456895168, 21027.671817263585, 1355.5438942365522, -20146.409588624192, 0.12165625, 0.88015625, -0.39456250000000004, 192.0, 0.0, 0.0, 0.0, 0.0, 0.0, 0.0, 0.0, 0.0, 0.0, 1.6620646614139433E9, 0.0, 2022-09-01 16:37:41.413
102.0, -11467.942472451028, -20662.399609374956, -26138.197021269443, -10852.107209218408, -1365.6915862192616, -12912.289847408516, 44373.26423803142, -14388.622568681547, -19143.755035848026, -2480.39543394988, -31303.059316046158, -24512.107612145857, 7892.982112524762, 21112.004949093458, 1484.4911079992185, -20025.553706354345, 0.12165625, 0.88015625, -0.39456250000000004, 192.0, 0.0, 0.0, 0.0, 0.0, 0.0, 0.0, 0.0, 0.0, 0.0, 1.6620646614139478E9, 0.0, 2022-09-01 16:37:41.413
104.0, -11408.017445566351, -20593.01979458568, -26097.338032405143, -10783.912036885267, -1310.9521640482146, -12845.301669275961, 44136.44750552744, -14324.40600686145, -19267.583700130428, -2595.0822347500607, -31424.943378560947, -24627.800241446526, 7755.787105058087, 21017.2112008585, 1355.678004703284, -20154.724437561566, 0.12165625, 0.88015625, -0.39456250000000004, 192.0, 0.0, 0.0, 0.0, 0.0, 0.0, 0.0, 0.0, 0.0, 0.0, 1.662064661413952E9, 0.0, 2022-09-01 16:37:41.413
106.0, -11467.6071962842, -20656.342286627565, -26135.55951542372, -10841.825406768967, -1351.9899668681583, -12886.920617451742, 44298.542356317324, -14382.274673256241, -19141.899841058235, -2476.9532653037627, -31298.05252528817, -24503.301024830464, 7891.216324712793, 21095.151733774153, 1478.545543974107, -20030.672255834612, 0.12165625, 0.88015625, -0.39456250000000004, 192.0, 0.0, 0.0, 0.0, 0.0, 0.0, 0.0, 0.0, 0.0, 0.0, 1.6620646614139564E9, 0.0, 2022-09-01 16:37:41.413
108.0, -11468.367155595679, -20649.927335968892, -26151.541012709262, -10826.402703094805, -1391.2619818761327, -12893.000291943586, 44244.60759694667, -14377.916083087455, -19294.003462076602, -2625.748828142742, -31454.939419619972, -24657.662172038818, 7736.832825759987, 20999.329805294252, 1344.7927051535494, -20171.778818580966, 0.122828125, 0.8810781249999999, -0.39428125, 192.0, 1.5, 112.0, 13.5, 72.0, 121.5, 88.0, 0.0, 0.0, 0.0, 1.662064661413961E9, 0.0, 2022-09-01 16:37:41.413
110.0, -11508.332074681768, -20696.39661269148, -26176.932594410493, -10864.646537857836, -1384.0200166726133, -12905.27139964955, 44221.80881760226, -14389.650748926491, -19187.385641024786, -2523.5119490041675, -31349.81916544666, -24554.799444055494, 7838.64502175391, 21068.97784101699, 1437.3065754540653, -20053.7839596014, 0.122828125, 0.8810781249999999, -0.39428125, 192.0, 0.0, 0.0, 0.0, 0.0, 0.0, 0.0, 0.0, 0.0, 0.0, 1.6620646614139655E9, 0.0, 2022-09-01 16:37:41.413
112.0, -11489.534257594856, -20672.435542635387, -26170.584698985185, -10843.345325391929, -1372.7994409560492, -12877.73405048061, 44340.720098104495, -14366.717859115346, -19316.891648398836, -2655.320186057113, -31490.344582837177, -24690.273367199108, 7705.920363178297, 20987.05869758829, 1328.2077107677117, -20167.46493190109, 0.122828125, 0.8810781249999999, -0.39428125, 192.0, 0.0, 0.0, 0.0, 0.0, 0.0, 0.0, 0.0, 0.0, 0.0, 1.6620646614139698E9, 0.0, 2022-09-01 16:37:41.413
114.0, -11472.859856231196, -20661.19261517437, -26136.475936946386, -10833.957592720699, -1341.641109185351, -12852.588337968391, 44133.005336881324, -14348.054152495164, -19175.69567867466, -2501.786053393609, -31337.212781573868, -24537.968580480647, 7848.412734080879, 21104.27124551192, 1454.7632878736601, -20012.54499108136, 0.122828125, 0.8810781249999999, -0.39428125, 192.0, 0.0, 0.0, 0.0, 0.0, 0.0, 0.0, 0.0, 0.0, 0.0, 1.6620646614139743E9, 0.0, 2022-09-01 16:37:41.413
116.0, -11511.818946816797, -20693.557941145653, -26190.075420150213, -10877.856418830923, -1388.1327376523898, -12890.742765753599, 44424.47208457853, -14393.003510594788, -19297.91501735628, -2635.8518166365407, -31470.451530271952, -24674.13540770238, 7727.24392738866, 20982.275424274856, 1350.8947313898482, -20155.573803850868, 0.122828125, 0.8810781249999999, -0.39428125, 192.0, 0.0, 0.0, 0.0, 0.0, 0.0, 0.0, 0.0, 0.0, 0.0, 1.6620646614139786E9, 0.0, 2022-09-01 16:37:41.413
118.0, -11446.797722196308, -20637.36565558501, -26123.2660559733, -10831.722418275169, -1329.9734985796808, -12821.787634108978, 44040.580873558625, -14337.548832601171, -19185.396335768262, -2510.235012797715, -31341.81724093166, -24552.541917865507, 7824.652829724888, 21077.583262632284, 1427.449456149275, -20054.141587512684, 0.122828125, 0.8810781249999999, -0.39428125, 192.0, 0.0, 0.0, 0.0, 0.0, 0.0, 0.0, 0.0, 0.0, 0.0, 1.662064661413983E9, 0.0, 2022-09-01 16:37:41.413
120.0, -11525.967601057006, -20711.416984965443, -26204.358184857156, -10906.556058711536, -1436.5242643981296, -12926.46085339318, 44477.736291615525, -14421.524336519758, -19274.42333393375, -2626.8217118765965, -31444.769375892807, -24664.65826805333, 7729.255584389638, 20976.73219164994, 1359.544856494052, -20165.52033013348, 0.128, 0.878, -0.4, 192.0, 2.0, 0.0, 13.5, 56.0, 121.5, 64.0, 0.0, 0.0, 0.0, 1.6620646614139872E9, 0.0, 2022-09-01 16:37:41.413
122.0, -11441.83563492723, -20626.88268743547, -26104.982329008857, -10815.293886100519, -1332.029859069569, -12863.652451473768, 43962.50623017624, -14334.464291866338, -19198.583864996894, -2518.7063239462764, -31348.500412523797, -24564.410694171274, 7809.185422561815, 21083.953509802046, 1401.834357003493, -20073.83347437781, 0.128, 0.878, -0.4, 192.0, 0.0, 0.0, 0.0, 0.0, 0.0, 0.0, 0.0, 0.0, 0.0, 1.6620646618930209E9, 0.0, 2022-09-01 16:37:41.893
124.0, -11548.341697256768, -20725.610342694563, -26212.47186809443, -10912.859250647933, -1442.089848767501, -12944.99044954663, 44529.68174572966, -14433.348409336617, -19280.503008425596, -2622.1501972854376, -31442.64596016955, -24659.047980195046, 7739.269165905615, 20975.704011404992, 1352.6828709462727, -20163.55337662141, 0.128, 0.878, -0.4, 192.0, 0.0, 0.0, 0.0, 0.0, 0.0, 0.0, 0.0, 0.0, 0.0, 1.662064661893073E9, 0.0, 2022-09-01 16:37:41.893
126.0, -11440.069847115261, -20615.773870441186, -26097.516846360788, -10793.925618401245, -1328.5429869345412, -12848.028582099509, 43920.03791571116, -14323.26606789423, -19215.28061810501, -2522.729637948232, -31358.78221497324, -24565.841205816414, 7788.06302405155, 21063.1216839697, 1389.1832696417891, -20071.48654121, 0.128, 0.878, -0.4, 192.0, 0.0, 0.0, 0.0, 0.0, 0.0, 0.0, 0.0, 0.0, 0.0, 1.6620646618930776E9, 0.0, 2022-09-01 16:37:41.893
128.0, -11541.457359964534, -20716.2896652567, -26202.99472844538, -10893.212067271717, -1446.0908110250011, -12916.849603277398, 44575.50282186304, -14428.878060445555, -19269.930633298234, -2603.9558772988175, -31430.106631530125, -24642.2171166202, 7736.519901337612, 20982.320127763764, 1371.100708377446, -20132.12682391725, 0.128, 0.878, -0.4, 192.0, 0.0, 0.0, 0.0, 0.0, 0.0, 0.0, 0.0, 0.0, 0.0, 1.662064661893082E9, 0.0, 2022-09-01 16:37:41.893
130.0, -11432.202033066993, -20608.286036048656, -26095.616948082086, -10790.103470099386, -1332.4545422142198, -12795.501982629536, 43902.245927124735, -14320.539155070683, -19215.41472857174, -2528.496388017701, -31353.52955502624, -24566.95879303918, 7777.088317523995, 21071.436532907075, 1394.4359295887864, -20066.233881263004, 0.13, 0.874, -0.392, 192.0, 2.0, 8.0, 13.5, 40.0, 121.5, 96.0, 0.0, 0.0, 0.0, 1.6620646618930862E9, 0.0, 2022-09-01 16:37:41.893
132.0, -11539.222185519004, -20712.400461721478, -26189.270757349823, -10888.808773614022, -1435.4290289198195, -12934.172205230261, 44597.65340061825, -14426.9558104224, -19238.638191060807, -2573.266932161681, -31392.667459567485, -24614.67976745126, 7760.793895816076, 21002.950787896014, 1399.643886046873, -20099.135649101216, 0.13, 0.874, -0.392, 192.0, 0.0, 0.0, 0.0, 0.0, 0.0, 0.0, 0.0, 0.0, 0.0, 1.6620646618930962E9, 0.0, 2022-09-01 16:37:41.893
134.0, -11424.31186727427, -20600.954663867316, -26079.501340329807, -10782.61563570686, -1317.2330042401559, -12812.623418882302, 43906.02337193768, -14309.296227609662, -19229.116347922845, -2531.200949096793, -31362.894935953016, -24579.609880400883, 7767.6335296194, 21064.708657826028, 1391.2619818761327, -20069.653698164668, 0.13, 0.874, -0.392, 192.0, 0.0, 0.0, 0.0, 0.0, 0.0, 0.0, 0.0, 0.0, 0.0, 1.6620646618931005E9, 0.0, 2022-09-01 16:37:41.893
136.0, -11562.825627663808, -20734.327523032134, -26204.402888346063, -10924.21393683123, -1387.3951300853646, -12931.199423217706, 44597.765159340524, -14442.736142007845, -19227.99876070008, -2565.6002838135105, -31378.049418693714, -24603.906226623803, 7772.930893055308, 21013.389052556642, 1410.9091652523477, -20096.140515344207, 0.13, 0.874, -0.392, 192.0, 0.0, 0.0, 0.0, 0.0, 0.0, 0.0, 0.0, 0.0, 0.0, 1.6620646618931048E9, 0.0, 2022-09-01 16:37:41.893
138.0, -11414.342989247203, -20580.368707223977, -26064.190395377922, -10777.005347848577, -1309.387541936343, -12800.173497220696, 43932.376078650486, -14298.455631548839, -19253.256231934578, -2564.46034484629, -31389.046476965726, -24607.706023181203, 7731.781331513087, 21047.475462850984, 1365.0433856300576, -20111.60792250728, 0.13, 0.874, -0.392, 192.0, 0.0, 0.0, 0.0, 0.0, 0.0, 0.0, 0.0, 0.0, 0.0, 1.662064661893109E9, 0.0, 2022-09-01 16:37:41.893
140.0, -11551.605051947243, -20720.42473798093, -26191.148303884067, -10922.269335063618, -1454.092735540001, -12947.89617632582, 44572.99942648404, -14447.698229276924, -19204.88705693329, -2547.36126033798, -31349.305075324188, -24579.00638330059, 7800.35648350197, 21019.334616581753, 1438.021831276635, -20083.981166360518, 0.132, 0.87, -0.396, 192.0, 2.0, 16.0, 13.5, 24.0, 121.5, 80.0, 0.0, 0.0, 0.0, 1.6620646618931143E9, 0.0, 2022-09-01 16:37:41.893
142.0, -11425.138881819115, -20592.952739352317, -26078.249642640312, -10796.764289947068, -1353.4428302577533, -12836.852709871855, 43980.61114318504, -14330.195108675374, -19263.001592517092, -2576.418528129879, -31388.286517654244, -24613.763345928593, 7725.522843065602, 21017.322959580775, 1360.5283332500856, -20136.64187629722, 0.132, 0.87, -0.396, 192.0, 0.0, 0.0, 0.0, 0.0, 0.0, 0.0, 0.0, 0.0, 0.0, 1.6620646618931196E9, 0.0, 2022-09-01 16:37:41.893
144.0, -11551.158017058136, -20722.414043237455, -26185.09098113668, -10924.079826364497, -1443.5203604126407, -12925.74559757061, 44525.30080381642, -14458.203549170918, -19197.198056840665, -2541.2815858461363, -31331.557790226674, -24567.85286281739, 7798.993027090196, 21020.429852060064, 1435.7866568311044, -20084.763477416454, 0.132, 0.87, -0.396, 192.0, 0.0, 0.0, 0.0, 0.0, 0.0, 0.0, 0.0, 0.0, 0.0, 1.662064661893124E9, 0.0, 2022-09-01 16:37:41.893
146.0, -11435.443036013012, -20601.915788878894, -26087.346802633623, -10796.160792846775, -1346.4243824987868, -12822.97227656511, 44042.95015847089, -14337.034742478698, -19282.715831126672, -2600.938391797351, -31407.30785218571, -24637.612657262405, 7702.8134706990095, 20997.139334337633, 1345.3962022538426, -20145.26964965697, 0.132, 0.87, -0.396, 192.0, 0.0, 0.0, 0.0, 0.0, 0.0, 0.0, 0.0, 0.0, 0.0, 1.662064661893128E9, 0.0, 2022-09-01 16:37:41.893
148.0, -11545.435970477578, -20710.52291518723, -26172.46224551943, -10893.368529482905, -1409.3445431404762, -12904.399681615792, 44454.13284947072, -14425.771167966268, -19177.03678334198, -2513.297201788092, -31310.05541206067, -24544.495289861596, 7808.246649294692, 21048.88362275167, 1458.7642501311602, -20022.715034808523, 0.132, 0.87, -0.396, 192.0, 0.0, 0.0, 0.0, 0.0, 0.0, 0.0, 0.0, 0.0, 0.0, 1.6620646618931324E9, 0.0, 2022-09-01 16:37:41.893
150.0, -11459.225292113459, -20619.663073976408, -26105.272901686778, -10809.191859864219, -1334.0191643260914, -12803.39214842226, 44126.34451703364, -14332.69850405437, -19296.126877799856, -2609.2532407347253, -31424.83161983867, -24651.73895975816, 7668.302377260015, 20990.657328445595, 1348.257225544122, -20118.291094099415, 0.128, 0.876, -0.394, 192.0, 2.0, 0.0, 13.5, 48.0, 121.5, 88.0, 0.0, 0.0, 0.0, 1.6620646618931365E9, 0.0, 2022-09-01 16:37:41.893
152.0, -11516.445757919046, -20684.550188130164, -26154.804367399738, -10887.19944801324, -1387.4621853187307, -12890.161620397761, 44381.42262475761, -14402.503001988292, -19176.053306585945, -2506.6140301959554, -31305.540359680697, -24541.634266571316, 7812.605239463478, 21065.625079348694, 1467.1014508129897, -20018.512906850923, 0.128, 0.876, -0.394, 192.0, 0.0, 0.0, 0.0, 0.0, 0.0, 0.0, 0.0, 0.0, 0.0, 1.6620646618931408E9, 0.0, 2022-09-01 16:37:41.893
154.0, -11462.846274715219, -20622.5688007556, -26116.895808803536, -10832.817653753478, -1371.5700950110072, -12834.841052870877, 44217.807855344756, -14354.782027576213, -19281.642947392815, -2609.5438134126443, -31410.861779554103, -24644.519346299094, 7700.466537531202, 20994.479476747452, 1361.2435890726554, -20146.834271768843, 0.128, 0.876, -0.394, 192.0, 0.0, 0.0, 0.0, 0.0, 0.0, 0.0, 0.0, 0.0, 0.0, 1.6620646618931448E9, 0.0, 2022-09-01 16:37:41.893
156.0, -11511.394263672146, -20671.675583323908, -26132.765547366806, -10876.917645563799, -1381.3154555935212, -12865.015907885541, 44292.23916438093, -14393.092917572609, -19167.73845764857, -2499.953210348274, -31289.223586228323, -24531.19600191069, 7813.0522743525835, 21090.502570927452, 1469.5154392141628, -20034.986142514485, 0.128, 0.876, -0.394, 192.0, 0.0, 0.0, 0.0, 0.0, 0.0, 0.0, 0.0, 0.0, 0.0, 1.6620646618931491E9, 0.0, 2022-09-01 16:37:41.893
158.0, -11533.008400560428, -20684.796057319174, -26163.52154773731, -10895.715462650713, -1401.4320256032975, -12858.220977571127, 44315.194405936534, -14408.09093810212, -19315.10350884241, -2646.2453778082586, -31439.717881645905, -24680.326840916496, 7668.23532202665, 20952.94993554949, 1337.3495742499322, -20183.692298375645, 0.128, 0.876, -0.394, 192.0, 0.0, 0.0, 0.0, 0.0, 0.0, 0.0, 0.0, 0.0, 0.0, 1.6620646618931534E9, 0.0, 2022-09-01 16:37:41.893
160.0, -11537.724618640497, -20693.04385102318, -26150.535184208773, -10894.307302750029, -1405.3882843718868, -12906.32193163895, 44207.77192208433, -14414.505888760792, -19218.342807095385, -2541.7956759686085, -31331.133107082023, -24574.357220453887, 7762.53733188359, 21032.700959766025, 1414.1725199428226, -20082.8412273933, 0.126, 0.882, -0.404, 192.0, 1.5, 120.0, 13.5, 72.0, 121.5, 48.0, 0.0, 0.0, 0.0, 1.6620646618931575E9, 0.0, 2022-09-01 16:37:41.893
162.0, -11520.960810299017, -20669.552167600654, -26156.41369300052, -10874.235436229163, -1427.672973593828, -12882.78554472751, 44395.95125865356, -14399.440812997917, -19319.86443041139, -2646.71476444182, -31441.193096779956, -24680.416247894318, 7661.686260901244, 20956.1462350066, 1321.904518831315, -20187.156818766216, 0.126, 0.882, -0.404, 192.0, 0.0, 0.0, 0.0, 0.0, 0.0, 0.0, 0.0, 0.0, 0.0, 1.6620646618931618E9, 0.0, 2022-09-01 16:37:41.893
164.0, -11496.284484420357, -20652.833062748083, -26120.002701282825, -10862.925453534777, -1379.0579294035351, -12854.912919391743, 44117.09089482915, -14376.574978420136, -19176.634451941783, -2499.327361503525, -31283.4344844144, -24527.32915011992, 7791.594599675489, 21082.254777223443, 1432.4115434183532, -20030.560497112336, 0.126, 0.882, -0.404, 192.0, 0.0, 0.0, 0.0, 0.0, 0.0, 0.0, 0.0, 0.0, 0.0, 1.662064661893167E9, 0.0, 2022-09-01 16:37:41.893
166.0, -11547.4252757341, -20700.732851115805, -26174.250385075855, -10909.10415757944, -1445.5543691580738, -12909.585286329424, 44479.211506749576, -14426.553479022203, -19314.12003208638, -2657.868284925018, -31432.967654820404, -24685.467742141216, 7658.042926555029, 20941.01410401036, 1321.099856030924, -20171.24237671404, 0.126, 0.882, -0.404, 192.0, 0.0, 0.0, 0.0, 0.0, 0.0, 0.0, 0.0, 0.0, 0.0, 1.6620646618931713E9, 0.0, 2022-09-01 16:37:41.893
168.0, -11497.89381002114, -20654.554147071143, -26106.07756448717, -10864.132447735365, -1357.6896617042617, -12845.949869865164, 44045.02887070523, -14364.058001525165, -19194.717013206126, -2523.8919286599075, -31300.734734622805, -24556.14054872281, 7774.383756444902, 21054.851538521238, 1429.6622788503503, -20031.767491312923, 0.126, 0.882, -0.404, 192.0, 0.0, 0.0, 0.0, 0.0, 0.0, 0.0, 0.0, 0.0, 0.0, 1.6620646618931756E9, 0.0, 2022-09-01 16:37:41.893
170.0, -11569.933482400595, -20720.514144958754, -26186.253271848356, -10926.560869999037, -1410.4621303632416, -12896.151887911785, 44550.11124016181, -14434.510700048293, -19309.58262796195, -2665.1102501285377, -31433.50409668733, -24695.056640512543, 7664.770801636077, 20934.28622892931, 1352.7275744351834, -20156.825501540363, 0.134, 0.88, -0.4, 192.0, 2.0, 24.0, 13.5, 64.0, 121.5, 64.0, 0.0, 0.0, 0.0, 1.66206466189318E9, 0.0, 2022-09-01 16:37:41.893
172.0, -11483.923969736574, -20634.03524566117, -26092.64416606953, -10835.790435766034, -1331.3146032469992, -12819.954791063643, 43989.775358411716, -14348.635297851002, -19208.016301157037, -2534.397248553902, -31315.129258052024, -24570.46801691866, 7742.241947918171, 21066.40739040463, 1419.0675519785348, -20036.707226837545, 0.134, 0.88, -0.4, 192.0, 0.0, 0.0, 0.0, 0.0, 0.0, 0.0, 0.0, 0.0, 0.0, 1.662064661893184E9, 0.0, 2022-09-01 16:37:41.893
174.0, -11567.854770166252, -20719.57537169163, -26179.36893455612, -10920.190622829274, -1457.1325727859228, -12925.209155703684, 44593.40656917174, -14439.919822206477, -19281.19591250371, -2639.942185871862, -31404.40212540652, -24667.586346576973, 7670.47049647218, 20948.367827936152, 1374.5652287680184, -20127.634123281732, 0.134, 0.88, -0.4, 192.0, 0.0, 0.0, 0.0, 0.0, 0.0, 0.0, 0.0, 0.0, 0.0, 1.6620646618931882E9, 0.0, 2022-09-01 16:37:41.893
176.0, -11454.196149611014, -20607.704890692818, -26062.603421521595, -10811.605848265392, -1354.64982445834, -12823.598125409857, 43950.63745387047, -14331.715027298336, -19203.613007499338, -2533.88315843143, -31302.120542779037, -24564.745970338103, 7758.625776603911, 21050.872928008193, 1409.0092669736466, -20046.02790427541, 0.134, 0.88, -0.4, 192.0, 0.0, 0.0, 0.0, 0.0, 0.0, 0.0, 0.0, 0.0, 0.0, 1.6620646618931923E9, 0.0, 2022-09-01 16:37:41.893
178.0, -11601.851773482773, -20749.504357517286, -26202.07830692271, -10955.461675579749, -1488.804994679093, -12941.682391367245, 44634.198502802676, -14473.20156970043, -19263.58273787293, -2618.260993750214, -31378.11647392708, -24645.324009099488, 7698.745453208144, 20967.657383401085, 1384.1988306282558, -20120.928599945142, 0.134, 0.88, -0.4, 192.0, 0.0, 0.0, 0.0, 0.0, 0.0, 0.0, 0.0, 0.0, 0.0, 1.6620646618931963E9, 0.0, 2022-09-01 16:37:41.893
180.0, -11477.285501633347, -20624.289885078655, -26076.93088971745, -10822.267630370574, -1363.612873984918, -12814.925648561199, 43942.94845377785, -14343.092065226087, -19260.498197138095, -2574.2727606621697, -31356.412930060975, -24612.221075561178, 7689.245961814638, 21008.650482732115, 1360.6400919723621, -20094.017099620953, 0.126, 0.88, -0.4, 192.0, 1.5, 120.0, 13.5, 64.0, 121.5, 64.0, 0.0, 0.0, 0.0, 1.662064661893202E9, 0.0, 2022-09-01 16:37:41.893
182.0, -11610.479546842522, -20754.91347967547, -26199.641966777082, -10953.606480789958, -1437.0830580095123, -12926.706722582188, 44634.533778969504, -14465.758438796813, -19270.08709550942, -2610.0802552795717, -31377.31181112669, -24643.088834653954, 7691.905819404819, 20967.612679912174, 1383.2824091055882, -20109.462155039568, 0.126, 0.88, -0.4, 192.0, 0.0, 0.0, 0.0, 0.0, 0.0, 0.0, 0.0, 0.0, 0.0, 1.6620646618932064E9, 0.0, 2022-09-01 16:37:41.893
184.0, -11471.921082964074, -20614.3657105405, -26066.02323842326, -10818.490185557626, -1346.2679202875997, -12788.036499981465, 43942.7696398222, -14320.136823670486, -19271.09292400991, -2588.3767114134685, -31359.743339984816, -24630.393043803342, 7677.75716516461, 21002.950787896014, 1367.5020775201415, -20096.58755023331, 0.126, 0.88, -0.4, 192.0, 0.0, 0.0, 0.0, 0.0, 0.0, 0.0, 0.0, 0.0, 0.0, 1.6620646618932104E9, 0.0, 2022-09-01 16:37:41.893
186.0, -11618.168546935147, -20760.412008811476, -26215.33289138471, -10976.449963623281, -1495.5775732490508, -12957.306260741505, 44615.82536886041, -14476.755497068823, -19251.311630166965, -2607.5545081561218, -31357.3517033281, -24640.004293919123, 7705.942714922752, 20960.683639131028, 1399.9568104692473, -20102.80133519189, 0.126, 0.88, -0.4, 192.0, 0.0, 0.0, 0.0, 0.0, 0.0, 0.0, 0.0, 0.0, 0.0, 1.6620646618932147E9, 0.0, 2022-09-01 16:37:41.893
188.0, -11480.772373768375, -20615.75151869673, -26095.795762037727, -10845.960479493198, -1374.542877023563, -12855.628175214313, 43978.733596650796, -14343.159120459453, -19292.394136475818, -2621.032610062672, -31383.145616429523, -24655.181128404278, 7645.034211282041, 20971.099552047202, 1331.6498794138288, -20139.771120520963, 0.126, 0.88, -0.4, 192.0, 0.0, 0.0, 0.0, 0.0, 0.0, 0.0, 0.0, 0.0, 0.0, 1.6620646618932188E9, 0.0, 2022-09-01 16:37:41.893
190.0, -11614.033474210915, -20747.045665627204, -26210.28139713781, -10976.137039200907, -1485.7204539442605, -12962.380106732859, 44577.425071886195, -14462.808008528711, -19248.115330709858, -2602.0559790201164, -31350.981456158337, -24625.140383856346, 7691.9505228937305, 20959.454293185987, 1385.4952318066637, -20118.335797588326, 0.134, 0.878, -0.401, 192.0, 2.0, 56.0, 13.5, 48.0, 121.5, 56.0, 0.0, 0.0, 0.0, 1.662064661893223E9, 0.0, 2022-09-01 16:37:41.893
192.0, -11486.628530815666, -20612.421108772887, -26092.197131180423, -10832.012990953088, -1366.228028086189, -12830.795387124466, 44029.78498098672, -14312.64898927796, -19312.935389630245, -2640.4786277387893, -31409.923006286983, -24667.854567510436, 7606.768024774555, 20973.91587184857, 1311.6897716152396, -20163.12869347676, 0.134, 0.878, -0.401, 192.0, 0.0, 0.0, 0.0, 0.0, 0.0, 0.0, 0.0, 0.0, 0.0, 1.662064661893227E9, 0.0, 2022-09-01 16:37:41.893
194.0, -11584.082136640804, -20714.948560589382, -26176.686725221483, -10929.73481771169, -1434.7584765861604, -12918.190707944717, 44517.500045001514, -14401.765394421267, -19208.61979825733, -2563.1192401789713, -31322.23711278881, -24586.874197348858, 7726.931002966286, 21012.852610689715, 1419.3357729119984, -20070.525416198423, 0.134, 0.878, -0.401, 192.0, 0.0, 0.0, 0.0, 0.0, 0.0, 0.0, 0.0, 0.0, 0.0, 1.6620646618932314E9, 0.0, 2022-09-01 16:37:41.893
196.0, -11500.397205400135, -20623.55227751163, -26118.84041057115, -10848.9109097613, -1367.6361879868732, -12825.63213415529, 44105.51269120129, -14320.829727748602, -19305.91694187128, -2643.741982429264, -31418.617834880097, -24682.517311873118, 7612.154795188284, 20958.336705963222, 1304.3807511783543, -20172.538777892445, 0.134, 0.878, -0.401, 192.0, 0.0, 0.0, 0.0, 0.0, 0.0, 0.0, 0.0, 0.0, 0.0, 1.6620646618932366E9, 0.0, 2022-09-01 16:37:41.893
198.0, -11577.443668537579, -20702.185714505402, -26176.552614754753, -10931.612364245935, -1435.8537120644703, -12914.256800920582, 44447.874361023234, -14407.174516579453, -19201.08726037589, -2558.850056988008, -31315.352775496576, -24599.190008543734, 7714.436377815769, 21010.192753099534, 1394.7265022667054, -20092.653643209178, 0.134, 0.878, -0.401, 192.0, 0.0, 0.0, 0.0, 0.0, 0.0, 0.0, 0.0, 0.0, 0.0, 1.6620646618932407E9, 0.0, 2022-09-01 16:37:41.893
200.0, -11492.507039607412, -20608.196629070837, -26092.912387002994, -10834.024647954066, -1369.93841766577, -12801.983988521575, 44188.97410499741, -14312.805451489146, -19299.166715045776, -2647.6982411978533, -31406.36907891859, -24697.202407980254, 7610.612524820867, 20949.91009830357, 1290.321503915966, -20198.33269099387, 0.134, 0.876, -0.3975, 192.0, 2.0, 24.0, 13.5, 40.0, 121.5, 88.0, 0.0, 0.0, 0.0, 1.6620646618932447E9, 0.0, 2022-09-01 16:37:41.893
202.0, -11560.769267173919, -20679.297528183168, -26118.63924487105, -10889.814602114511, -1417.9723165002247, -12901.426899603237, 44360.72490939199, -14377.223179009341, -19166.106780303333, -2525.098922860494, -31269.509347618743, -24573.507854164585, 7757.329375425503, 21037.998323201933, 1433.6632411078504, -20062.277622494417, 0.134, 0.876, -0.3975, 192.0, 0.0, 0.0, 0.0, 0.0, 0.0, 0.0, 0.0, 0.0, 0.0, 1.6620646618932493E9, 0.0, 2022-09-01 16:37:41.893
204.0, -11524.85001383424, -20639.265553863712, -26095.125209704067, -10840.461950357194, -1393.385397599387, -12852.990669368586, 44276.324722328754, -14328.474024352316, -19298.138534800833, -2650.0228226212053, -31406.816113807694, -24710.83697209799, 7623.531833116035, 20983.43771498653, 1318.6858676297509, -20180.965385552096, 0.134, 0.876, -0.3975, 192.0, 0.0, 0.0, 0.0, 0.0, 0.0, 0.0, 0.0, 0.0, 0.0, 1.662064661893253E9, 0.0, 2022-09-01 16:37:41.893
206.0, -11567.877121910708, -20679.47634213881, -26133.547858422742, -10884.919570078799, -1389.2950283640657, -12876.348242324382, 44276.68235024004, -14370.808228350668, -19181.194207810666, -2528.228167084237, -31289.111827506047, -24594.317328252477, 7723.801758742543, 21046.491986094952, 1427.4718078937303, -20056.86850033623, 0.134, 0.876, -0.3975, 192.0, 0.0, 0.0, 0.0, 0.0, 0.0, 0.0, 0.0, 0.0, 0.0, 1.6620646618932574E9, 0.0, 2022-09-01 16:37:41.893
208.0, -11545.726543155497, -20648.340362112565, -26132.22910549988, -10860.377354666873, -1394.547688311063, -12836.964468594131, 44374.471232232005, -14352.368039175039, -19319.663264711293, -2668.3959565634677, -31440.120213046102, -24737.882582888913, 7581.465850051147, 20936.834327797216, 1300.8715272988711, -20205.418193986203, 0.134, 0.876, -0.3975, 192.0, 0.0, 0.0, 0.0, 0.0, 0.0, 0.0, 0.0, 0.0, 0.0, 1.6620646618932617E9, 0.0, 2022-09-01 16:37:41.893
210.0, -11545.346563499757, -20652.631897047984, -26123.60133214013, -10861.092610489442, -1397.0510836900573, -12876.482352791114, 44195.32200042272, -14360.884053812511, -19180.255434543542, -2526.395324038902, -31289.80473158416, -24593.378554985353, 7727.6239070444, 21053.488082109463, 1410.2609646631438, -20069.787808631398, 0.133, 0.873, -0.39675000000000005, 192.0, 2.0, 16.0, 13.5, 24.0, 121.5, 80.0, 0.0, 0.0, 0.0, 1.6620646618932657E9, 0.0, 2022-09-01 16:37:41.893
212.0, -11548.14053155667, -20652.408379603432, -26142.08622480467, -10857.181055209763, -1431.2716044511324, -12881.600902271379, 44463.7440995865, -14366.494341670794, -19294.428145221253, -2657.1530291024483, -31417.991986035348, -24725.164440293844, 7607.997370719597, 20954.045171027803, 1304.581916878452, -20197.639786915755, 0.133, 0.873, -0.39675000000000005, 192.0, 0.0, 0.0, 0.0, 0.0, 0.0, 0.0, 0.0, 0.0, 0.0, 1.66206466189327E9, 0.0, 2022-09-01 16:37:41.893
214.0, -11525.274696978891, -20629.65430374793, -26100.288462673245, -10831.409493852794, -1383.5059265501413, -12847.425084999215, 44125.13752283306, -14333.749036043768, -19165.190358780666, -2515.487672744712, -31276.90777503345, -24587.432990960242, 7727.780369255587, 21057.958431000523, 1414.5972030874734, -20062.657602150157, 0.133, 0.873, -0.39675000000000005, 192.0, 0.0, 0.0, 0.0, 0.0, 0.0, 0.0, 0.0, 0.0, 0.0, 1.6620646618932748E9, 0.0, 2022-09-01 16:37:41.893
216.0, -11594.520401301432, -20690.518103899733, -26170.0259053738, -10895.313131250517, -1455.3220814850429, -12891.972111698642, 44554.60394079732, -14396.13275481853, -19295.925712099757, -2665.8925611844734, -31424.809268094217, -24735.31213227655, 7605.091643940407, 20938.488356886908, 1319.8928618303373, -20202.132487551273, 0.133, 0.873, -0.39675000000000005, 192.0, 0.0, 0.0, 0.0, 0.0, 0.0, 0.0, 0.0, 0.0, 0.0, 1.6620646618932793E9, 0.0, 2022-09-01 16:37:41.893
218.0, -11509.382606671168, -20608.84482966004, -26073.935755960436, -10811.851717454401, -1351.9452633792478, -12832.315305747426, 44063.62552209205, -14315.979399201799, -19194.538199250484, -2539.381687567435, -31309.67543240493, -24614.8585814069, 7702.746415465644, 21043.027465704377, 1400.3367901249874, -20086.842189650797, 0.133, 0.873, -0.39675000000000005, 192.0, 0.0, 0.0, 0.0, 0.0, 0.0, 0.0, 0.0, 0.0, 0.0, 1.6620646618932831E9, 0.0, 2022-09-01 16:37:41.893
220.0, -11608.557296819365, -20707.572484919132, -26174.406847287042, -10914.535631482082, -1433.5291306411184, -12908.333588639927, 44620.02749681801, -14419.982066152343, -19278.893682824815, -2646.200674319348, -31407.017279507792, -24718.391861723885, 7614.322914400449, 20935.493223129895, 1349.4418680002534, -20186.061583287905, 0.1325, 0.8714999999999999, -0.39637500000000003, 192.0, 2.0, 16.0, 13.5, 24.0, 121.5, 80.0, 0.0, 0.0, 0.0, 1.6620646618932874E9, 0.0, 2022-09-01 16:37:41.893
222.0, -11508.4661851485, -20607.481373248265, -26063.676305255452, -10806.75551971859, -1353.1299058353788, -12819.328942218894, 44021.26896634924, -14311.64316077747, -19212.687815748195, -2554.7373360082315, -31319.53255170972, -24630.437747292253, 7659.004051566608, 21014.193715357032, 1382.4553945607418, -20104.41066079267, 0.1325, 0.8714999999999999, -0.39637500000000003, 192.0, 0.0, 0.0, 0.0, 0.0, 0.0, 0.0, 0.0, 0.0, 0.0, 1.6620646618932917E9, 0.0, 2022-09-01 16:37:41.893
224.0, -11620.560183591866, -20712.780441377217, -26173.043390875268, -10909.685302935279, -1474.9022096278918, -12888.239370374606, 44666.02738690703, -14418.193926595919, -19273.216339733164, -2639.606909705032, -31398.657727081507, -24709.585274408495, 7632.338420431426, 20938.175432464534, 1360.1260018498901, -20169.767161579988, 0.1325, 0.8714999999999999, -0.39637500000000003, 192.0, 0.0, 0.0, 0.0, 0.0, 0.0, 0.0, 0.0, 0.0, 0.0, 1.662064661893296E9, 0.0, 2022-09-01 16:37:41.893
226.0, -11517.406882930623, -20608.621312215488, -26069.845386725116, -10798.083042869932, -1359.254283816133, -12806.588447879369, 44003.409922529456, -14298.366224571017, -19232.402054357775, -2565.9132082358847, -31338.10685135208, -24641.859488708913, 7656.701821887711, 21019.82635495977, 1371.7936124555604, -20099.761497945965, 0.1325, 0.8714999999999999, -0.39637500000000003, 192.0, 0.0, 0.0, 0.0, 0.0, 0.0, 0.0, 0.0, 0.0, 0.0, 1.6620646618933E9, 0.0, 2022-09-01 16:37:41.893
228.0, -11635.714666332564, -20722.05641532617, -26184.37572531411, -10912.032236103087, -1473.8516776384924, -12913.094510208906, 44687.75328251759, -14414.19296433842, -19272.52343565505, -2635.4047817474348, -31391.952203744913, -24702.052736527057, 7617.340399901915, 20952.391141938107, 1357.287330304066, -20139.189975165125, 0.1325, 0.8714999999999999, -0.39637500000000003, 192.0, 0.0, 0.0, 0.0, 0.0, 0.0, 0.0, 0.0, 0.0, 0.0, 1.6620646618933053E9, 0.0, 2022-09-01 16:37:41.893
230.0, -11487.254379660413, -20574.043163543127, -26039.2458485658, -10764.823647120435, -1334.0862195594573, -12757.034630421953, 43995.765625925735, -14259.20596828532, -19234.503118336575, -2568.036623959139, -31333.681205949928, -24639.199631118732, 7646.710592116188, 21039.607648802717, 1370.1172316214124, -20078.50498896897, 0.13025, 0.87175, -0.3961875, 192.0, 2.0, 0.0, 13.5, 32.0, 121.5, 80.0, 0.0, 0.0, 0.0, 1.6620646618933094E9, 0.0, 2022-09-01 16:37:41.893
232.0, -11627.265706928458, -20716.066147812147, -26171.992858885867, -10910.422910502304, -1461.7817356326266, -12902.186858914716, 44688.647352295804, -14404.738176433824, -19237.677066049226, -2601.3407231975466, -31352.25550559229, -24665.194709920255, 7643.961327548186, 20964.125807777145, 1402.4602058482417, -20103.807163692378, 0.13025, 0.87175, -0.3961875, 192.0, 0.0, 0.0, 0.0, 0.0, 0.0, 0.0, 0.0, 0.0, 0.0, 1.6620646618933136E9, 0.0, 2022-09-01 16:37:41.893
234.0, -11513.025941017384, -20599.859428389005, -26059.20595636439, -10791.690443955713, -1376.7333479801832, -12820.178308508195, 44018.02796340323, -14301.0260821612, -19263.046296006, -2595.618676616988, -31358.513994039775, -24665.64174480936, 7614.479376611635, 20988.936244122535, 1347.832542399471, -20128.25997212648, 0.13025, 0.87175, -0.3961875, 192.0, 0.0, 0.0, 0.0, 0.0, 0.0, 0.0, 0.0, 0.0, 0.0, 1.6620646618933177E9, 0.0, 2022-09-01 16:37:41.893
236.0, -11655.227739242047, -20745.034008626226, -26188.890777694083, -10937.379114315405, -1501.411378551886, -12955.316955484981, 44652.1916570892, -14447.228842643362, -19241.074531206435, -2610.5049384242225, -31347.986322401324, -24668.34630588845, 7641.033249024541, 20946.356170935174, 1382.8800777053928, -20131.92565821715, 0.13025, 0.87175, -0.3961875, 192.0, 0.0, 0.0, 0.0, 0.0, 0.0, 0.0, 0.0, 0.0, 0.0, 1.6620646618933218E9, 0.0, 2022-09-01 16:37:41.893
238.0, -11520.066740520804, -20604.910922635907, -26065.64325876752, -10793.590342234414, -1365.2669030746106, -12816.333808461883, 44049.78979227421, -14306.949294441856, -19293.10939229839, -2633.6166421910098, -31390.07465721067, -24699.437582425784, 7579.208323861161, 20956.52621466234, 1315.2436989836335, -20165.676792344668, 0.13025, 0.87175, -0.3961875, 192.0, 0.0, 0.0, 0.0, 0.0, 0.0, 0.0, 0.0, 0.0, 0.0, 1.662064661893326E9, 0.0, 2022-09-01 16:37:41.893
240.0, -11633.300677931391, -20717.96604609085, -26165.600259971652, -10900.655198175335, -1442.8498080789816, -12909.875859007343, 44601.65436287575, -14415.444662027916, -19230.23393514561, -2586.946199768329, -31334.10588909458, -24645.68163701077, 7648.6551938838, 20979.39204924012, 1405.2988773940656, -20101.035547379917, 0.133125, 0.873875, -0.39809375, 192.0, 2.0, 32.0, 13.5, 48.0, 121.5, 64.0, 0.0, 0.0, 0.0, 1.6620646618933303E9, 0.0, 2022-09-01 16:37:41.893
242.0, -11506.700397336532, -20585.42020147088, -26050.377017304545, -10765.807123876468, -1366.1386211083677, -12775.184246919662, 44107.36788599109, -14291.504239023237, -19283.00640380459, -2615.511729182211, -31374.74136051433, -24679.16455020482, 7578.895399438787, 20982.54364520832, 1338.9588998507143, -20133.043245439916, 0.133125, 0.873875, -0.39809375, 192.0, 0.0, 0.0, 0.0, 0.0, 0.0, 0.0, 0.0, 0.0, 0.0, 1.6620646623749611E9, 0.0, 2022-09-01 16:37:42.374
244.0, -11611.217154409547, -20691.56863588913, -26128.898695576037, -10870.279177460574, -1436.7254300982274, -12851.895433890277, 44532.58747250885, -14387.057946569676, -19191.096030604367, -2540.07459164555, -31284.172091981425, -24595.859598619892, 7697.985493896663, 21018.39584331463, 1435.4290289198195, -20041.803424573354, 0.133125, 0.873875, -0.39809375, 192.0, 0.0, 0.0, 0.0, 0.0, 0.0, 0.0, 0.0, 0.0, 0.0, 1.6620646623749673E9, 0.0, 2022-09-01 16:37:42.374
246.0, -11531.957868571028, -20607.682538948364, -26061.44113080992, -10783.867333396356, -1374.3417113234655, -12775.161895175206, 44185.95661949595, -14302.054262406144, -19297.42327897826, -2627.1793397878814, -31384.48672109684, -24691.45800965524, 7579.990634917097, 20964.841063599713, 1327.514806689597, -20131.635085539234, 0.133125, 0.873875, -0.39809375, 192.0, 0.0, 0.0, 0.0, 0.0, 0.0, 0.0, 0.0, 0.0, 0.0, 1.6620646623749716E9, 0.0, 2022-09-01 16:37:42.374
248.0, -11637.547509377899, -20721.072938570134, -26149.417596986008, -10897.794174885055, -1468.7107764137718, -12872.637852744801, 44461.26305595196, -14404.224086311351, -19202.22719934311, -2544.45553355879, -31292.151664751967, -24607.124877825365, 7672.102173817418, 21016.78651771385, 1423.8508252919705, -20034.270886691917, 0.133125, 0.873875, -0.39809375, 192.0, 0.0, 0.0, 0.0, 0.0, 0.0, 0.0, 0.0, 0.0, 0.0, 1.6620646623749757E9, 0.0, 2022-09-01 16:37:42.374
250.0, -11568.771191688918, -20644.18293764388, -26093.672346314474, -10826.626220539358, -1442.223959234233, -12868.50278002057, 44279.45396655249, -14340.163986702442, -19337.008218408613, -2676.152011889459, -31424.764564605306, -24738.553135222573, 7538.1034658078515, 20914.817859508737, 1293.6072103508961, -20162.18992020964, 0.1315625, 0.8749374999999999, -0.401046875, 192.0, 2.0, 8.0, 13.5, 48.0, 121.5, 48.0, 0.0, 0.0, 0.0, 1.6620646623749797E9, 0.0, 2022-09-01 16:37:42.374
252.0, -11595.168601890637, -20676.950595015358, -26108.379794166067, -10863.730116335168, -1417.2570606776549, -12878.046974902985, 44374.82886014329, -14374.920949330444, -19194.314681805932, -2535.35837356548, -31276.90777503345, -24595.077287563956, 7678.986511109652, 21016.563000269296, 1426.5330346266073, -20023.34088365327, 0.1315625, 0.8749374999999999, -0.401046875, 192.0, 0.0, 0.0, 0.0, 0.0, 0.0, 0.0, 0.0, 0.0, 0.0, 1.662064662374984E9, 0.0, 2022-09-01 16:37:42.374
254.0, -11583.299825584869, -20658.532757584187, -26107.843352299136, -10853.24714818563, -1436.5913196314955, -12854.935271136197, 44372.68309267558, -14366.092010270599, -19308.06270933899, -2645.3289562855907, -31391.59457583363, -24709.160591263844, 7536.896471607265, 20927.893630015093, 1318.842329840938, -20149.136501447738, 0.1315625, 0.8749374999999999, -0.401046875, 192.0, 0.0, 0.0, 0.0, 0.0, 0.0, 0.0, 0.0, 0.0, 0.0, 1.662064662374988E9, 0.0, 2022-09-01 16:37:42.374
0.0, -11597.560238547354, -20678.984603760793, -26101.40604989601, -10874.280139718074, -1443.3415464569982, -12858.958585138153, 44299.168205162074, -14372.730478373824, -19206.3846238118, -2548.3000336051027, -31291.14583625148, -24614.769174429082, 7666.648348170323, 21006.415308286585, 1404.315400638032, -20068.983145831007, 0.1315625, 0.8749374999999999, -0.401046875, 192.0, 0.0, 0.0, 0.0, 0.0, 0.0, 0.0, 0.0, 0.0, 0.0, 1.6620646623749983E9, 0.0, 2022-09-01 16:37:42.374
2.0, -11572.950967902061, -20652.207213903333, -26094.49936085932, -10845.401685881816, -1446.2472732361882, -12865.150018352273, 44462.201829219084, -14344.120245471031, -19294.76342138808, -2649.8216569211077, -31402.25635793881, -24721.342291991987, 7573.530980769513, 20933.52626961783, 1330.2864230020552, -20172.002336025518, 0.1315625, 0.8749374999999999, -0.401046875, 192.0, 0.0, 0.0, 0.0, 0.0, 0.0, 0.0, 0.0, 0.0, 0.0, 1.6620646623750024E9, 0.0, 2022-09-01 16:37:42.375
4.0, -11562.378592774701, -20647.781568501185, -26070.672401269963, -10841.043095713032, -1378.767356725616, -12799.43588965367, 44208.82245407373, -14321.634390548992, -19170.353611749844, -2517.812254168064, -31267.832966784594, -24592.77505788506, 7687.435470513758, 21041.149919170133, 1442.894511567892, -20040.9317065396, 0.1315625, 0.8749374999999999, -0.401046875, 192.0, 0.0, 0.0, 0.0, 0.0, 0.0, 0.0, 0.0, 0.0, 0.0, 1.662064662375012E9, 0.0, 2022-09-01 16:37:42.375
6.0, -11631.758407563973, -20707.997168063783, -26152.703303420938, -10900.185811541774, -1488.7826429346376, -12885.065422661952, 44556.88381873177, -14391.327129760639, -19316.19874432072, -2677.2025438788587, -31427.156201262023, -24750.444263272795, 7547.714715923634, 20904.9830919484, 1332.0075073251137, -20185.279272231972, 0.126, 0.878, -0.40800000000000003, 192.0, 1.5, 120.0, 13.5, 56.0, 121.5, 32.0, 0.0, 0.0, 0.0, 1.662064662375016E9, 0.0, 2022-09-01 16:37:42.375
8.0, -11553.884929881684, -20633.118824138503, -26074.226328638357, -10828.168490906775, -1393.5418598105741, -12844.6311169423, 44127.68562170096, -14332.296172654174, -19197.1310016073, -2533.1231991199493, -31288.038943772193, -24609.248293548622, 7658.869941099876, 21024.319055595286, 1424.5213776256296, -20052.44285493408, 0.126, 0.878, -0.40800000000000003, 192.0, 0.0, 0.0, 0.0, 0.0, 0.0, 0.0, 0.0, 0.0, 0.0, 1.66206466237502E9, 0.0, 2022-09-01 16:37:42.375
10.0, -11611.217154409547, -20689.601682377062, -26134.12900377858, -10887.601779413437, -1479.7972416636042, -12889.289902364006, 44595.39587442826, -14390.7459844048, -19294.2046277767, -2653.4426395228675, -31392.73451480085, -24721.342291991987, 7554.464942749137, 20912.694443785484, 1338.4671614726976, -20166.83908305634, 0.126, 0.878, -0.40800000000000003, 192.0, 0.0, 0.0, 0.0, 0.0, 0.0, 0.0, 0.0, 0.0, 0.0, 1.6620646623750243E9, 0.0, 2022-09-01 16:37:42.375
12.0, -11526.772263857398, -20608.39779477093, -26029.791060661206, -10803.156888861286, -1380.6225515154067, -12789.8693430268, 44048.91807424046, -14293.046509390655, -19188.346766036364, -2528.272870573148, -31266.71537956183, -24595.747839897616, 7656.634766654345, 21043.943887227048, 1415.08894146549, -20046.58669788679, 0.126, 0.878, -0.40800000000000003, 192.0, 0.0, 0.0, 0.0, 0.0, 0.0, 0.0, 0.0, 0.0, 0.0, 1.6620646623750281E9, 0.0, 2022-09-01 16:37:42.375
14.0, -11627.533927861921, -20703.280949983713, -26133.88313458957, -10896.408366728827, -1479.4843172412297, -12881.73501273811, 44641.06048835045, -14388.46610647036, -19270.53413039853, -2638.131694570982, -31368.92990695595, -24698.007070780644, 7573.709794725156, 20922.842135768195, 1366.0492141305465, -20132.909134973186, 0.126, 0.878, -0.40800000000000003, 192.0, 0.0, 0.0, 0.0, 0.0, 0.0, 0.0, 0.0, 0.0, 0.0, 1.6620646623750322E9, 0.0, 2022-09-01 16:37:42.375
16.0, -11502.095937978738, -20579.519340934676, -26008.445144706388, -10774.144324558298, -1372.642978744862, -12778.805229521422, 44007.23207083131, -14268.124314322988, -19195.544027750973, -2533.9725654092513, -31274.918469776927, -24595.613729430883, 7658.1993887662165, 21027.87298296368, 1413.9937059871802, -20037.310723937837, 0.126, 0.882, -0.404, 192.0, 1.5, 120.0, 13.5, 72.0, 121.5, 48.0, 0.0, 0.0, 0.0, 1.6620646623750365E9, 0.0, 2022-09-01 16:37:42.375
18.0, -11649.796265339406, -20725.409176994464, -26162.26985004781, -10925.331524053994, -1518.5998700380171, -12926.393798159814, 44678.11968065735, -14422.351351064606, -19253.122121467844, -2617.903365838929, -31347.71810146786, -24670.98381173418, 7603.214097406161, 20941.796415066292, 1378.1638596253229, -20119.676902255644, 0.126, 0.882, -0.404, 192.0, 0.0, 0.0, 0.0, 0.0, 0.0, 0.0, 0.0, 0.0, 0.0, 1.6620646623750403E9, 0.0, 2022-09-01 16:37:42.375
20.0, -11536.562327928821, -20610.543562238643, -26055.897898185005, -10812.164641876774, -1411.4903106081856, -12800.553476876436, 44000.90652715046, -14306.88223920849, -19253.166824956756, -2586.65562709041, -31324.71815642335, -24640.071349152488, 7583.030472163019, 20977.089819561224, 1342.8928068748482, -20108.657492239177, 0.126, 0.882, -0.404, 192.0, 0.0, 0.0, 0.0, 0.0, 0.0, 0.0, 0.0, 0.0, 0.0, 1.6620646623750443E9, 0.0, 2022-09-01 16:37:42.375
22.0, -11674.69610866262, -20745.05636037068, -26186.27562359281, -10940.061323650041, -1525.0595241856008, -12945.124560013362, 44692.40244536429, -14438.981048939355, -19271.025868776545, -2630.0627148226163, -31357.038778905724, -24679.522178116105, 7568.144210355785, 20909.94517921748, 1353.845161657949, -20138.340608875824, 0.126, 0.882, -0.404, 192.0, 0.0, 0.0, 0.0, 0.0, 0.0, 0.0, 0.0, 0.0, 0.0, 1.6620646623750484E9, 0.0, 2022-09-01 16:37:42.375
24.0, -11532.226089504491, -20601.60286445652, -26036.67539795344, -10792.204534078186, -1391.999589443158, -12802.565133877413, 44003.16405334044, -14281.580064485082, -19258.53124362603, -2585.202763700815, -31329.456726247878, -24646.508651555618, 7570.468791779136, 20989.763258667383, 1343.9880423531583, -20102.22018983605, 0.126, 0.882, -0.404, 192.0, 0.0, 0.0, 0.0, 0.0, 0.0, 0.0, 0.0, 0.0, 0.0, 1.6620646623750525E9, 0.0, 2022-09-01 16:37:42.375
26.0, -11678.317091264378, -20746.620982482553, -26165.533204738287, -10936.999134659665, -1515.895308958925, -12931.333533684437, 44680.4442620807, -14416.092862617119, -19255.312592424463, -2614.3941419594457, -31342.308979309677, -24669.30743090003, 7582.494030296091, 20931.89459227259, 1384.4670515617195, -20101.54963750239, 0.132, 0.878, -0.398, 192.0, 2.0, 16.0, 13.5, 56.0, 121.5, 72.0, 0.0, 0.0, 0.0, 1.6620646623750565E9, 0.0, 2022-09-01 16:37:42.375
28.0, -11546.106522811238, -20614.54452449614, -26052.12045337206, -10811.337627331928, -1418.4417031337862, -12805.58261937888, 44034.76942000025, -14288.419698288406, -19278.983089802634, -2617.098703038538, -31356.122357383058, -24675.87884376989, 7563.964434142642, 20959.543700163806, 1335.8743591158818, -20111.563219018368, 0.132, 0.878, -0.398, 192.0, 0.0, 0.0, 0.0, 0.0, 0.0, 0.0, 0.0, 0.0, 0.0, 1.6620646623750606E9, 0.0, 2022-09-01 16:37:42.375
30.0, -11686.296664034924, -20759.29442158871, -26186.0297544038, -10961.787219260601, -1529.8427974990366, -12943.671696623767, 44647.341328542396, -14433.348409336617, -19244.00260973008, -2615.1541012709263, -31338.173906585445, -24667.049904710046, 7600.21896364915, 20927.04426372579, 1379.0579294035351, -20105.97528290454, 0.132, 0.878, -0.398, 192.0, 0.0, 0.0, 0.0, 0.0, 0.0, 0.0, 0.0, 0.0, 0.0, 1.6620646623750646E9, 0.0, 2022-09-01 16:37:42.375
32.0, -11554.935461871084, -20622.255876333224, -26066.87260471256, -10824.52515656056, -1412.674953064317, -12821.184137008684, 44087.18426074794, -14303.417718817916, -19297.959720845192, -2641.842084150563, -31379.301116383213, -24699.683451614794, 7527.620497658312, 20928.497127115385, 1304.0454750115246, -20147.08014095785, 0.132, 0.878, -0.398, 192.0, 0.0, 0.0, 0.0, 0.0, 0.0, 0.0, 0.0, 0.0, 0.0, 1.662064662375069E9, 0.0, 2022-09-01 16:37:42.375
34.0, -11667.901178348206, -20736.406235266477, -26162.001629114347, -10943.235271362695, -1518.6892770158383, -12896.55421931198, 44587.282191190985, -14413.008321882287, -19225.070682176432, -2590.522478881178, -31312.022365572735, -24639.132575885367, 7602.7894142615105, 20940.58942086571, 1384.5341067950853, -20078.92967211362, 0.132, 0.878, -0.398, 192.0, 0.0, 0.0, 0.0, 0.0, 0.0, 0.0, 0.0, 0.0, 0.0, 1.6620646623750727E9, 0.0, 2022-09-01 16:37:42.375
36.0, -11555.494255482467, -20619.70777746532, -26062.11168314358, -10821.865298970379, -1392.3572173544428, -12823.642828898768, 44154.57477028069, -14306.725776997302, -19295.478677210653, -2643.7866859181745, -31374.2049186474, -24698.722326603216, 7526.614669157823, 20919.57878107772, 1300.0221610095693, -20144.420283367668, 0.132, 0.88, -0.396, 192.0, 2.0, 16.0, 13.5, 64.0, 121.5, 80.0, 0.0, 0.0, 0.0, 1.662064662375078E9, 0.0, 2022-09-01 16:37:42.375
38.0, -11655.49596017551, -20726.504412472776, -26138.93462883647, -10925.73385545419, -1494.4599860262856, -12925.94676327071, 44523.69147821564, -14412.717749204368, -19203.74711796607, -2567.1425541809267, -31280.305240190657, -24614.992691873635, 7615.306391156482, 20954.000467538892, 1397.7439877681718, -20058.58958465929, 0.132, 0.88, -0.396, 192.0, 0.0, 0.0, 0.0, 0.0, 0.0, 0.0, 0.0, 0.0, 0.0, 1.662064662375082E9, 0.0, 2022-09-01 16:37:42.375
40.0, -11564.52436024241, -20631.755367726728, -26058.44599705291, -10828.481415329148, -1436.8371888205038, -12804.219162967107, 44240.874855622635, -14320.852079493055, -19308.800316906014, -2656.169552346415, -31378.652915794006, -24708.534742419095, 7511.169613739206, 20926.261952669855, 1297.4517103972091, -20153.115111960782, 0.132, 0.88, -0.396, 192.0, 0.0, 0.0, 0.0, 0.0, 0.0, 0.0, 0.0, 0.0, 0.0, 1.662064662375086E9, 0.0, 2022-09-01 16:37:42.375
42.0, -11646.219986226557, -20720.491793214296, -26117.767526837295, -10909.126509323896, -1519.0022014382128, -12908.914733995764, 44439.98419523051, -14398.770260664256, -19194.672309717218, -2553.910321463385, -31262.021513226216, -24602.855694634403, 7622.07896972644, 20963.05292404329, 1417.5252816111185, -20038.294200693872, 0.132, 0.88, -0.396, 192.0, 0.0, 0.0, 0.0, 0.0, 0.0, 0.0, 0.0, 0.0, 0.0, 1.66206466237509E9, 0.0, 2022-09-01 16:37:42.375
44.0, -11586.00438666396, -20651.08962668057, -26071.901747215004, -10839.14319743433, -1466.4085467348752, -12837.232689527595, 44326.213815953, -14326.998809218267, -19315.0588053535, -2668.3065495856467, -31384.68788679694, -24721.11877454743, 7498.29500893295, 20889.739202229885, 1313.4332076827536, -20147.683638058144, 0.132, 0.88, -0.396, 192.0, 0.0, 0.0, 0.0, 0.0, 0.0, 0.0, 0.0, 0.0, 0.0, 1.662064662375094E9, 0.0, 2022-09-01 16:37:42.375
46.0, -11636.228756455035, -20703.169191261433, -26098.88030277256, -10891.982721326676, -1448.2589302371657, -12845.547538464969, 44351.49363893195, -14357.84421656659, -19187.60915846934, -2539.8734259454523, -31253.527850333197, -24590.606938672896, 7636.764065833577, 20998.793363427325, 1433.5067788966633, -20010.399223613647, 0.136, 0.882, -0.402, 192.0, 2.0, 32.0, 13.5, 72.0, 121.5, 56.0, 0.0, 0.0, 0.0, 1.6620646623750982E9, 0.0, 2022-09-01 16:37:42.375
48.0, -11623.041227226404, -20680.415115405933, -26095.415782381988, -10868.088706503953, -1498.8185761950704, -12865.172370096729, 44420.1358461542, -14351.742190330291, -19338.68459924276, -2692.938171975395, -31411.733497587862, -24743.291705047097, 7491.276561173983, 20883.2795480823, 1298.0105040085919, -20160.93822252014, 0.136, 0.882, -0.402, 192.0, 0.0, 0.0, 0.0, 0.0, 0.0, 0.0, 0.0, 0.0, 0.0, 1.6620646623751023E9, 0.0, 2022-09-01 16:37:42.375
50.0, -11618.72734054653, -20677.554092115653, -26074.226328638357, -10871.374412938883, -1466.3414915015092, -12865.619404985835, 44261.25964656587, -14347.249489694774, -19191.096030604367, -2538.8005422115975, -31254.310161389134, -24586.11423803738, 7634.327725687948, 21023.939075939546, 1429.0140782611463, -20011.53916258087, 0.136, 0.882, -0.402, 192.0, 0.0, 0.0, 0.0, 0.0, 0.0, 0.0, 0.0, 0.0, 0.0, 1.6620646623751063E9, 0.0, 2022-09-01 16:37:42.375
52.0, -11630.68552383012, -20681.979737517802, -26099.863779528594, -10878.996357798143, -1496.9857331497353, -12896.487164078613, 44502.36791400527, -14362.001641035276, -19320.378520533865, -2675.5038113002556, -31395.126151457567, -24727.33255950601, 7502.631247357279, 20887.74989697336, 1322.5303676760636, -20151.08110321535, 0.136, 0.882, -0.402, 192.0, 0.0, 0.0, 0.0, 0.0, 0.0, 0.0, 0.0, 0.0, 0.0, 1.6620646623751104E9, 0.0, 2022-09-01 16:37:42.375
54.0, -11611.038340453904, -20669.86509202303, -26062.379904077043, -10871.061488516509, -1445.3084999690652, -12845.279317531506, 44174.199601912456, -14338.532309357204, -19188.257359058545, -2531.0221351411506, -31248.65517004194, -24582.850883346902, 7628.382161662837, 21007.711709464995, 1428.2094154607553, -20015.048386460352, 0.136, 0.882, -0.402, 192.0, 0.0, 0.0, 0.0, 0.0, 0.0, 0.0, 0.0, 0.0, 0.0, 1.6620646623751144E9, 0.0, 2022-09-01 16:37:42.375
56.0, -11690.096460592325, -20746.464520271365, -26147.02596032929, -10941.670649250824, -1507.4239978103635, -12940.274231466561, 44579.99552249855, -14403.307664788685, -19337.946991675733, -2705.812776781652, -31415.756811589818, -24753.99819064119, 7465.996738195031, 20851.048332577746, 1307.8899750578375, -20174.058696515407, 0.136, 0.88, -0.4, 192.0, 2.0, 32.0, 13.5, 64.0, 121.5, 64.0, 0.0, 0.0, 0.0, 1.6620646623751185E9, 0.0, 2022-09-01 16:37:42.375
58.0, -11600.935351960106, -20656.968135472314, -26042.06216836717, -10846.318107404484, -1430.6904590952945, -12853.549462979969, 44101.93641208845, -14311.352588099551, -19232.066778190947, -2572.328158894558, -31291.81638858514, -24627.152040857323, 7579.811820961455, 20979.77202889586, 1387.5962957854624, -20047.279601964903, 0.136, 0.88, -0.4, 192.0, 0.0, 0.0, 0.0, 0.0, 0.0, 0.0, 0.0, 0.0, 0.0, 1.6620646623751223E9, 0.0, 2022-09-01 16:37:42.375
60.0, -11697.852515918317, -20743.692903958905, -26146.690684162462, -10937.245003848673, -1544.9525767508242, -12909.495879351602, 44636.36662201484, -14401.094842087608, -19312.711872185693, -2669.4688402973225, -31389.44880836592, -24725.365605993942, 7518.433930687182, 20886.252330094856, 1338.4671614726976, -20135.36782686327, 0.136, 0.88, -0.4, 192.0, 0.0, 0.0, 0.0, 0.0, 0.0, 0.0, 0.0, 0.0, 0.0, 1.6620646623751264E9, 0.0, 2022-09-01 16:37:42.375
62.0, -11599.974226948527, -20648.340362112565, -26052.165156860967, -10846.563976593492, -1440.9722615447358, -12817.652561384746, 44050.437992863415, -14313.319541611618, -19249.456435377175, -2576.8879147634407, -31306.14385678099, -24638.014988662602, 7562.086887608396, 20976.48632246093, 1362.6293972288845, -20056.265003235938, 0.136, 0.88, -0.4, 192.0, 0.0, 0.0, 0.0, 0.0, 0.0, 0.0, 0.0, 0.0, 0.0, 1.6620646623751307E9, 0.0, 2022-09-01 16:37:42.375
64.0, -11684.754393667507, -20733.478156742833, -26146.511870206818, -10939.21195736074, -1530.7145155327935, -12922.973981258152, 44672.844668965896, -14415.981103894843, -19309.023834350566, -2665.1102501285377, -31376.216575648377, -24718.66008265735, 7500.306665933927, 20872.908338655037, 1322.7985886095273, -20133.289114628926, 0.136, 0.88, -0.4, 192.0, 0.0, 0.0, 0.0, 0.0, 0.0, 0.0, 0.0, 0.0, 0.0, 1.6620646623751347E9, 0.0, 2022-09-01 16:37:42.375
66.0, -11581.645796495175, -20633.118824138503, -26034.01554036326, -10835.544566577026, -1426.5553863710627, -12819.999494552552, 44008.86374817655, -14301.495468794761, -19237.118272437845, -2564.9520832243065, -31285.781417582206, -24625.073328622977, 7564.098544609374, 20975.48049396044, 1374.2299526011889, -20047.748988598465, 0.134, 0.874, -0.402, 192.0, 2.0, 24.0, 13.5, 40.0, 121.5, 56.0, 0.0, 0.0, 0.0, 1.6620646623751385E9, 0.0, 2022-09-01 16:37:42.375
68.0, -11693.583332727354, -20743.894069659003, -26146.690684162462, -10956.847483735977, -1536.5483208356288, -12904.17616417124, 44685.18283190523, -14410.214353825373, -19297.378575489354, -2659.7234797148085, -31367.29822961071, -24713.429774454806, 7506.296933447949, 20877.04341137927, 1341.5069987186193, -20128.63995178222, 0.134, 0.874, -0.402, 192.0, 0.0, 0.0, 0.0, 0.0, 0.0, 0.0, 0.0, 0.0, 0.0, 1.6620646623751447E9, 0.0, 2022-09-01 16:37:42.375
70.0, -11565.127857342704, -20620.199515843335, -26020.604493690076, -10824.413397838283, -1434.803180075071, -12829.051951056952, 43996.2350125593, -14284.955177897833, -19241.499214351086, -2574.563333340089, -31292.732810107806, -24633.477584538174, 7545.993631600575, 20967.590328167717, 1371.3465775664542, -20059.081323037306, 0.134, 0.874, -0.402, 192.0, 0.0, 0.0, 0.0, 0.0, 0.0, 0.0, 0.0, 0.0, 0.0, 1.6620646623751488E9, 0.0, 2022-09-01 16:37:42.375
72.0, -11713.677550992674, -20768.25747111529, -26162.873347148103, -10980.428574136326, -1555.9719867672904, -12940.341286699926, 44692.08952094192, -14435.740045993334, -19275.607976389885, -2651.073354610605, -31344.700615966394, -24698.36469869193, 7534.840111117377, 20896.221208121922, 1362.1376588508676, -20116.480602798536, 0.134, 0.874, -0.402, 192.0, 0.0, 0.0, 0.0, 0.0, 0.0, 0.0, 0.0, 0.0, 0.0, 1.6620646623751528E9, 0.0, 2022-09-01 16:37:42.375
74.0, -11573.599168491266, -20624.55810601212, -26024.404290247476, -10838.42794161176, -1425.8401305484929, -12793.311511672917, 44012.417675544944, -14297.650968748447, -19264.633269862326, -2619.3115257396134, -31316.202141785878, -24670.872053011903, 7523.619535400812, 20939.53888887631, 1341.1717225517896, -20098.912131656663, 0.134, 0.874, -0.402, 192.0, 0.0, 0.0, 0.0, 0.0, 0.0, 0.0, 0.0, 0.0, 0.0, 1.6620646623751569E9, 0.0, 2022-09-01 16:37:42.375
76.0, -11718.594934772842, -20766.581090281143, -26148.478823718888, -10977.209922934762, -1558.0059955127235, -12932.205251718195, 44657.28785482501, -14435.225955870863, -19249.76935979955, -2631.7614474012194, -31310.793019627694, -24675.54356760306, 7550.9557188696535, 20897.674071511516, 1391.127871409401, -20088.250349551483, 0.132, 0.873, -0.401, 192.0, 2.0, 8.0, 13.5, 32.0, 121.5, 64.0, 0.0, 0.0, 0.0, 1.6620646623751607E9, 0.0, 2022-09-01 16:37:42.375
78.0, -11580.930540672605, -20623.015835644703, -26019.57631344513, -10826.559165305993, -1442.6262906344284, -12797.133659974774, 44028.354469341575, -14292.822991946101, -19293.3552614874, -2635.8518166365407, -31338.710348452372, -24693.804942823048, 7501.290142689961, 20912.716795529937, 1325.6372601553512, -20104.053032881384, 0.132, 0.873, -0.401, 192.0, 0.0, 0.0, 0.0, 0.0, 0.0, 0.0, 0.0, 0.0, 0.0, 1.662064662375165E9, 0.0, 2022-09-01 16:37:42.375
80.0, -11721.299495851934, -20765.172930380457, -26148.344713252154, -10966.011698962653, -1556.6648908454051, -12942.487054167636, 44599.53094715249, -14431.269697102272, -19240.180461428223, -2605.22992673277, -31298.790132855196, -24655.561108060017, 7557.25891080605, 20932.81101379526, 1401.2979151365657, -20051.884061322697, 0.132, 0.873, -0.401, 192.0, 0.0, 0.0, 0.0, 0.0, 0.0, 0.0, 0.0, 0.0, 0.0, 1.662064662375169E9, 0.0, 2022-09-01 16:37:42.375
82.0, -11577.86835168223, -20619.26074257621, -26027.01944434875, -10825.620392038869, -1417.055894977557, -12792.238627939061, 44088.79358634873, -14285.782192442679, -19310.67786344026, -2648.838180165074, -31360.816223718673, -24709.138239519387, 7464.610930038802, 20917.053033954267, 1319.4011234523207, -20111.719681229555, 0.132, 0.873, -0.401, 192.0, 0.0, 0.0, 0.0, 0.0, 0.0, 0.0, 0.0, 0.0, 0.0, 1.662064662375173E9, 0.0, 2022-09-01 16:37:42.375
84.0, -11704.334521810357, -20746.53157550473, -26136.207716012923, -10965.430553606815, -1545.511370362207, -12907.685388050722, 44538.44362955614, -14411.75662419279, -19204.685891233195, -2565.265007646681, -31260.99333298127, -24617.54079074154, 7573.866256936343, 20955.609793139673, 1430.7798660731157, -20029.286447678383, 0.132, 0.873, -0.401, 192.0, 0.0, 0.0, 0.0, 0.0, 0.0, 0.0, 0.0, 0.0, 0.0, 1.6620646623751771E9, 0.0, 2022-09-01 16:37:42.375
86.0, -11627.936259262116, -20656.56580407212, -26065.86677621207, -10877.789363597556, -1486.2568958111879, -12849.392038511281, 44165.48242157488, -14335.380713389006, -19343.043189411546, -2679.2812561132023, -31387.951241487415, -24736.273257288132, 7452.675098499668, 20894.857751710148, 1292.5566783614968, -20163.106341732306, 0.13, 0.8734999999999999, -0.4005, 192.0, 2.0, 0.0, 13.5, 40.0, 121.5, 64.0, 0.0, 0.0, 0.0, 1.6620646623751812E9, 0.0, 2022-09-01 16:37:42.375
88.0, -11726.507452310021, -20757.036895398724, -26145.573096939697, -10978.975710746732, -1519.024553182668, -12914.457966620681, 44467.67800661064, -14424.027731898754, -19252.25040343409, -2592.6235428599766, -31296.309089220656, -24647.53683180056, 7545.568948455924, 20925.926676503026, 1395.6876272782836, -20072.045334821385, 0.13, 0.8734999999999999, -0.4005, 192.0, 0.0, 0.0, 0.0, 0.0, 0.0, 0.0, 0.0, 0.0, 0.0, 1.6620646623751853E9, 0.0, 2022-09-01 16:37:42.375
90.0, -11632.138387219715, -20658.197481417355, -26064.950354689405, -10873.542532151048, -1483.3288172875425, -12827.308514989438, 44257.1469255861, -14323.601344061059, -19341.8138434665, -2670.9887589202835, -31388.01829672078, -24736.36266426595, 7446.930700174654, 20877.870425924117, 1305.967725034681, -20155.774969550966, 0.13, 0.8734999999999999, -0.4005, 192.0, 0.0, 0.0, 0.0, 0.0, 0.0, 0.0, 0.0, 0.0, 0.0, 1.6620646623751893E9, 0.0, 2022-09-01 16:37:42.375
92.0, -11700.26650431949, -20733.254639298277, -26112.224294212378, -10945.537501041592, -1527.5852713090505, -12868.88275967631, 44389.91628765062, -14388.80138263719, -19212.397243070274, -2552.9268447073514, -31257.193536423867, -24617.272569808076, 7581.1305738843175, 20960.683639131028, 1427.5835666160067, -20020.34574989626, 0.13, 0.8734999999999999, -0.4005, 192.0, 0.0, 0.0, 0.0, 0.0, 0.0, 0.0, 0.0, 0.0, 0.0, 1.662064662375193E9, 0.0, 2022-09-01 16:37:42.375
94.0, -11681.602797699308, -20707.505429685763, -26110.994948267336, -10921.9787623857, -1523.8525299850144, -12843.178253552707, 44362.98243558198, -14372.12698127353, -19365.573747822495, -2711.6242303400318, -31418.103744757624, -24778.27218511965, 7411.234964279529, 20834.68685563646, 1285.15825094679, -20168.023725512474, 0.13, 0.8734999999999999, -0.4005, 192.0, 0.0, 0.0, 0.0, 0.0, 0.0, 0.0, 0.0, 0.0, 0.0, 1.6620646623751972E9, 0.0, 2022-09-01 16:37:42.375
96.0, -11699.037158374449, -20731.511203230766, -26108.044517999235, -10949.426704576816, -1518.8457392270254, -12890.40748958677, 44314.45679836951, -14400.871324643056, -19234.57017356994, -2581.2465049322254, -31276.05840874415, -24639.82547996348, 7535.354201239848, 20956.794435595802, 1406.2376506611886, -20037.713055338034, 0.131, 0.87575, -0.39925, 192.0, 2.0, 16.0, 13.5, 56.0, 121.5, 72.0, 0.0, 0.0, 0.0, 1.6620646623752012E9, 0.0, 2022-09-01 16:37:42.375
98.0, -11702.613437487298, -20730.192450307903, -26112.425459912476, -10949.806684232555, -1549.4229256418855, -12876.638815002301, 44459.85489605128, -14411.868382915067, -19375.31910840501, -2723.962393279361, -31415.846218567636, -24780.596766543003, 7404.9764758320425, 20826.88609682156, 1284.644160824318, -20190.04019380095, 0.131, 0.87575, -0.39925, 192.0, 0.0, 0.0, 0.0, 0.0, 0.0, 0.0, 0.0, 0.0, 0.0, 1.6620646623752065E9, 0.0, 2022-09-01 16:37:42.375
100.0, -11672.170361539169, -20704.66675813994, -26051.181680104935, -10908.098329078954, -1483.0382446096237, -12865.6864602192, 44224.13339902561, -14376.79849586469, -19235.888926492804, -2578.743109553231, -31260.546298092166, -24629.45427053622, 7563.092716108885, 20945.73032209043, 1411.3114966525432, -20042.831604818297, 0.131, 0.87575, -0.39925, 192.0, 0.0, 0.0, 0.0, 0.0, 0.0, 0.0, 0.0, 0.0, 0.0, 1.6620646623752117E9, 0.0, 2022-09-01 16:37:42.375
102.0, -11708.313132323401, -20734.99807536579, -26102.478933629864, -10932.931117168799, -1519.3821810939528, -12864.993556141086, 44542.7128127471, -14397.18328680793, -19346.261840613108, -2702.3929598799896, -31389.046476965726, -24755.674571475338, 7441.834502438844, 20843.94047784096, 1324.45261769922, -20156.736094562544, 0.131, 0.87575, -0.39925, 192.0, 0.0, 0.0, 0.0, 0.0, 0.0, 0.0, 0.0, 0.0, 0.0, 1.6620646623752155E9, 0.0, 2022-09-01 16:37:42.375
104.0, -11649.483340917033, -20679.051658994158, -26045.616095735564, -10881.455049688228, -1473.0023113491907, -12812.735177604578, 44152.00431966833, -14338.420550634928, -19232.022074702036, -2572.194048427826, -31260.36748413652, -24626.30267456802, 7543.490236221581, 20954.15692975008, 1408.964563484736, -20025.330188909793, 0.131, 0.87575, -0.39925, 192.0, 0.0, 0.0, 0.0, 0.0, 0.0, 0.0, 0.0, 0.0, 0.0, 1.6620646623752196E9, 0.0, 2022-09-01 16:37:42.375
106.0, -11732.94475471315, -20759.003848910794, -26149.954038852935, -10975.131210700418, -1578.50254517824, -12911.172260185751, 44619.289889250984, -14430.845013957622, -19340.942125432746, -2707.4668058713446, -31386.945412986926, -24755.89808891989, 7444.494360029025, 20839.514832438806, 1319.9599170637032, -20145.359056634792, 0.1325, 0.875875, -0.399625, 192.0, 2.0, 24.0, 13.5, 48.0, 121.5, 64.0, 0.0, 0.0, 0.0, 1.6620646626839037E9, 0.0, 2022-09-01 16:37:42.683
108.0, -11632.11603547526, -20662.176091930403, -26045.01259863527, -10887.378261968883, -1448.1918750037999, -12812.57871539339, 44091.58755440564, -14327.9822859743, -19248.13768245431, -2594.8810690499627, -31276.013705255238, -24645.145195143843, 7514.522375407502, 20939.851813298683, 1373.6041037564403, -20047.950154298564, 0.1325, 0.875875, -0.399625, 192.0, 0.0, 0.0, 0.0, 0.0, 0.0, 0.0, 0.0, 0.0, 0.0, 1.6620646626839235E9, 0.0, 2022-09-01 16:37:42.683
110.0, -11708.044911389938, -20731.757072419772, -26109.251512199822, -10957.249815136172, -1555.1002687335335, -12893.804954743977, 44666.80969796297, -14402.547705477204, -19310.610808206893, -2685.517392816233, -31356.14470912751, -24733.255771786666, 7456.609005523802, 20867.812140919228, 1340.4788184736751, -20134.429053596148, 0.1325, 0.875875, -0.399625, 192.0, 0.0, 0.0, 0.0, 0.0, 0.0, 0.0, 0.0, 0.0, 0.0, 1.6620646626839283E9, 0.0, 2022-09-01 16:37:42.683
112.0, -11600.398910093178, -20623.529925767176, -25990.697859608874, -10838.897328245323, -1442.2910144675989, -12795.926665774186, 44044.33596662712, -14287.816201188112, -19222.164955397246, -2564.9967867132173, -31246.41999559641, -24618.68072970876, 7557.549483483968, 20964.550490921796, 1400.4038453583535, -20027.833584288786, 0.1325, 0.875875, -0.399625, 192.0, 0.0, 0.0, 0.0, 0.0, 0.0, 0.0, 0.0, 0.0, 0.0, 1.6620646626839323E9, 0.0, 2022-09-01 16:37:42.683
114.0, -11735.761074514518, -20755.807549453682, -26128.98810255386, -10965.050573951075, -1571.2382282302653, -12899.012911202064, 44702.03604722453, -14418.842127185122, -19286.62738640635, -2653.062659867127, -31330.194333814903, -24697.783553336092, 7492.125927463285, 20876.819893934717, 1367.546781009052, -20099.292111312403, 0.1325, 0.875875, -0.399625, 192.0, 0.0, 0.0, 0.0, 0.0, 0.0, 0.0, 0.0, 0.0, 0.0, 1.6620646626839364E9, 0.0, 2022-09-01 16:37:42.683
116.0, -11609.63018055322, -20630.3695595705, -26012.267293008244, -10842.138331191341, -1424.700191581272, -12800.620532109802, 44018.85497794807, -14296.846305948056, -19264.43210416223, -2596.691560350843, -31283.099208247568, -24645.145195143843, 7498.876154288788, 20933.77213880684, 1353.3310715354767, -20049.87240432172, 0.13325, 0.8739375, -0.4008125, 192.0, 2.0, 24.0, 13.5, 32.0, 121.5, 56.0, 0.0, 0.0, 0.0, 1.6620646626839404E9, 0.0, 2022-09-01 16:37:42.683
118.0, -11770.674499353707, -20791.97267198237, -26161.331076780687, -11012.525679174147, -1597.859155876536, -12926.349094670904, 44711.84846304041, -14461.377496883571, -19303.21238079219, -2669.647654252965, -31334.239999561312, -24713.027443054612, 7458.374793335771, 20848.65669592103, 1333.996812581636, -20109.842134695307, 0.13325, 0.8739375, -0.4008125, 192.0, 0.0, 0.0, 0.0, 0.0, 0.0, 0.0, 0.0, 0.0, 0.0, 1.6620646626839445E9, 0.0, 2022-09-01 16:37:42.683
120.0, -11629.858509285274, -20649.167376657413, -26005.29354873819, -10861.204369211719, -1483.574686476551, -12799.570000120402, 44011.769474955734, -14314.124204412008, -19302.854752880903, -2639.070467838105, -31312.357641739567, -24691.681527099794, 7447.623604252769, 20889.091001640678, 1327.1795305227674, -20093.68182345412, 0.13325, 0.8739375, -0.4008125, 192.0, 0.0, 0.0, 0.0, 0.0, 0.0, 0.0, 0.0, 0.0, 0.0, 1.6620646626839488E9, 0.0, 2022-09-01 16:37:42.683
122.0, -11754.357725901333, -20775.34297410762, -26117.20873322591, -10980.853257280976, -1584.403405714441, -12910.233486918627, 44680.690131269715, -14433.124891892063, -19285.129819527843, -2653.0850116115826, -31312.491752206297, -24700.21989348172, 7502.430081657181, 20862.26890829431, 1385.2940661065659, -20085.232864050016, 0.13325, 0.8739375, -0.4008125, 192.0, 0.0, 0.0, 0.0, 0.0, 0.0, 0.0, 0.0, 0.0, 0.0, 1.662064662683954E9, 0.0, 2022-09-01 16:37:42.683
124.0, -11656.501788676, -20673.106094969047, -26035.40134851949, -10878.437564186761, -1482.5912097205176, -12797.759508819523, 44018.16207386996, -14331.044474964676, -19315.617598964884, -2656.0801453685935, -31331.2448658043, -24706.254864484654, 7453.837389211344, 20908.46996408343, 1332.7227631476835, -20096.229922322025, 0.13325, 0.8739375, -0.4008125, 192.0, 0.0, 0.0, 0.0, 0.0, 0.0, 0.0, 0.0, 0.0, 0.0, 1.6620646626839592E9, 0.0, 2022-09-01 16:37:42.683
126.0, -11765.645356851264, -20784.708355034396, -26136.587695668662, -10988.944588773798, -1574.1886584983658, -12910.12172819635, 44619.55811018445, -14432.56609828068, -19284.839246849926, -2654.4037645344456, -31314.458705718363, -24696.151875990854, 7481.9335319916645, 20867.968603130415, 1378.0744526475016, -20073.632308677712, 0.133625, 0.87396875, -0.39840625, 192.0, 2.0, 24.0, 13.5, 40.0, 121.5, 80.0, 0.0, 0.0, 0.0, 1.6620646626839645E9, 0.0, 2022-09-01 16:37:42.683
128.0, -11635.759369821475, -20652.117806925515, -26017.72111865534, -10859.259767444108, -1464.3074827560763, -12778.62641556578, 44019.816102959645, -14286.564503498616, -19322.881915912858, -2668.7312327302975, -31341.996054887302, -24720.448222213774, 7436.112455858285, 20886.207626605945, 1320.2504897416222, -20085.21051230556, 0.133625, 0.87396875, -0.39840625, 192.0, 0.0, 0.0, 0.0, 0.0, 0.0, 0.0, 0.0, 0.0, 0.0, 1.66206466268397E9, 0.0, 2022-09-01 16:37:42.683
130.0, -11746.266394408512, -20765.06117165818, -26121.276750716777, -10992.610274864468, -1543.1420854499443, -12890.295730864495, 44501.96558260508, -14405.609894467581, -19242.683856807216, -2610.549641913133, -31266.223641183813, -24660.858471495925, 7523.9548115676425, 20899.149286645566, 1408.673990806817, -20017.82000277281, 0.133625, 0.87396875, -0.39840625, 192.0, 0.0, 0.0, 0.0, 0.0, 0.0, 0.0, 0.0, 0.0, 0.0, 1.6620646626839817E9, 0.0, 2022-09-01 16:37:42.683
132.0, -11644.118922247759, -20659.538586084676, -26034.10494734108, -10901.102233064441, -1482.0324161091348, -12796.910142530221, 44112.531138960265, -14316.985227702287, -19325.184145591753, -2673.425099065912, -31339.313845552668, -24732.02642584162, 7417.001714348998, 20854.69166692396, 1304.805434323005, -20122.113242401272, 0.133625, 0.87396875, -0.39840625, 192.0, 0.0, 0.0, 0.0, 0.0, 0.0, 0.0, 0.0, 0.0, 0.0, 1.6620646626839945E9, 0.0, 2022-09-01 16:37:42.683
