%OpenBCI Raw EEG Data
%Number of channels = 16
%Sample Rate = 125 Hz
%Board = OpenBCI_GUI$BoardCytonSerialDaisy
Sample Index, EXG Channel 0, EXG Channel 1, EXG Channel 2, EXG Channel 3, EXG Channel 4, EXG Channel 5, EXG Channel 6, EXG Channel 7, EXG Channel 8, EXG Channel 9, EXG Channel 10, EXG Channel 11, EXG Channel 12, EXG Channel 13, EXG Channel 14, EXG Channel 15, Accel Channel 0, Accel Channel 1, Accel Channel 2, Other, Other, Other, Other, Other, Other, Other, Analog Channel 0, Analog Channel 1, Analog Channel 2, Timestamp, Other, Timestamp (Formatted)
0.0, -13624.774053665884, 233.82159874696717, -40807.37868635401, -40855.7925648442, -30561.026103618875, -33247.59402842451, -29383.5362057133, -12268.358441395574, 0.0, 0.0, 0.0, 0.0, 0.0, 0.0, 0.0, 0.0, 0.0, 0.0, 0.0, 192.0, 0.0, 0.0, 0.0, 0.0, 0.0, 0.0, 0.0, 0.0, 0.0, 1.6689765217556293E9, 0.0, 2022-11-20 15:35:21.755
76.0, -13568.514712871876, 251.6582908223022, -40713.0096212637, -40747.58776993606, -30466.299410617285, -33145.62537021939, -29289.83769295665, -12170.748373359249, -29819.797553991983, -7831.671277483854, -34139.85331533591, -38234.93876873717, -28787.32577411244, -16877.802238202363, -28425.92041801458, -39811.720229592356, 0.0, 0.0, 0.0, 192.0, 0.0, 0.0, 0.0, 0.0, 0.0, 0.0, 0.0, 0.0, 0.0, 1.6689765217556376E9, 0.0, 2022-11-20 15:35:21.755
78.0, -13583.155105490103, 270.9478462872322, -40759.43419449737, -40814.486541090795, -30519.094231020717, -33204.365754647944, -29340.933780781485, -12225.532499019206, -29752.384692714775, -7760.548026627068, -34083.92925070873, -38177.69595118713, -28734.06156707544, -16823.800423598343, -28358.90988813757, -39747.90599917245, 0.0, 0.0, 0.0, 192.0, 0.0, 0.0, 0.0, 0.0, 0.0, 0.0, 0.0, 0.0, 0.0, 1.6689765217556436E9, 0.0, 2022-11-20 15:35:21.755
80.0, -13560.87041626816, 250.9430349997324, -40694.234155921244, -40733.50617092921, -30446.339302818695, -33131.34260551246, -29275.934907905452, -12157.158512730422, -29802.139675872288, -7812.605239463478, -34118.1050679809, -38217.75027725104, -28770.517262282046, -16857.01511585893, -28396.23730137793, -39788.60852582556, 0.04, 0.47900000000000004, -0.056, 192.0, 1.0, 64.0, 14.5, 120.0, 126.0, 64.0, 0.0, 0.0, 0.0, 1.6689765217556503E9, 0.0, 2022-11-20 15:35:21.755
82.0, -13585.569093891276, 267.97506427467636, -40771.19121208086, -40820.767381282734, -30524.12337352316, -33208.45612388326, -29349.338036696678, -12234.964935179345, -29745.209782744623, -7747.7181253097215, -34071.41227381376, -38167.39179699324, -28722.215142514127, -16806.813097812308, -28350.259763033362, -39739.25587406825, 0.04, 0.47900000000000004, -0.056, 192.0, 0.0, 0.0, 0.0, 0.0, 0.0, 0.0, 0.0, 0.0, 0.0, 1.6689765217556567E9, 0.0, 2022-11-20 15:35:21.755
84.0, -13581.366965933677, 218.82357821745615, -40724.05138302462, -40750.78406939317, -30463.08075941572, -33144.95481788574, -29293.99511742534, -12175.442239694863, -29825.1396209168, -7829.458454782779, -34148.79401311803, -38245.91347526473, -28795.908843983278, -16875.29884282337, -28429.921380272077, -39812.92722379294, 0.04, 0.47900000000000004, -0.056, 192.0, 0.0, 0.0, 0.0, 0.0, 0.0, 0.0, 0.0, 0.0, 0.0, 1.6689765217556632E9, 0.0, 2022-11-20 15:35:21.755
86.0, -13579.668233355074, 269.9196660422881, -40763.30104628814, -40818.88983474849, -30510.220588471962, -33197.07908595551, -29335.926990023494, -12221.464481528341, -29738.616018130306, -7748.0086979876405, -34070.45114880218, -38167.6600179267, -28714.9284738217, -16796.687757574055, -28348.382216499118, -39732.349185031555, 0.04, 0.47900000000000004, -0.056, 192.0, 0.0, 0.0, 0.0, 0.0, 0.0, 0.0, 0.0, 0.0, 0.0, 1.66897652175567E9, 0.0, 2022-11-20 15:35:21.755
88.0, -13610.558344192308, 186.52530747953745, -40748.63830192546, -40782.0765116306, -30481.051561957785, -33169.85466120895, -29315.408088613523, -12196.341120760575, -29837.23191466712, -7847.31749860257, -34168.75412091662, -38264.890106307284, -28807.88937901132, -16894.856619221762, -28441.074900755277, -39825.8018285992, 0.04, 0.47900000000000004, -0.056, 192.0, 0.0, 0.0, 0.0, 0.0, 0.0, 0.0, 0.0, 0.0, 0.0, 1.6689765217556765E9, 0.0, 2022-11-20 15:35:21.755
90.0, -13576.606044364697, 271.14901198732997, -40763.50221198824, -40811.1337794225, -30504.85616980269, -33194.03924870959, -29331.926027765996, -12219.877507672014, -29751.580029914385, -7756.368250413925, -34084.97978269813, -38175.974866864075, -28722.081032047397, -16806.99191176795, -28357.434673003518, -39739.09941185706, 0.057999999999999996, 0.7175, -0.084, 192.0, 1.0, 48.0, 14.5, 112.0, 126.0, 64.0, 0.0, 0.0, 0.0, 1.6689765217556827E9, 0.0, 2022-11-20 15:35:21.755
92.0, -13606.669140657084, 189.47573774763796, -40744.436173967864, -40771.481784758784, -30480.917451491056, -33167.3289140855, -29311.876512989584, -12196.139955060478, -29834.460298354665, -7842.556577033589, -34168.217679049696, -38259.0786527489, -28802.994346975607, -16893.40375583217, -28434.883467541156, -39821.756162852784, 0.057999999999999996, 0.7175, -0.084, 192.0, 0.0, 0.0, 0.0, 0.0, 0.0, 0.0, 0.0, 0.0, 0.0, 1.6689765217556884E9, 0.0, 2022-11-20 15:35:21.755
94.0, -13566.145427959613, 273.92062829978806, -40749.26415077021, -40792.112444891034, -30500.855207545188, -33182.483396826196, -29325.712242807418, -12212.032045368202, -29737.856058818827, -7748.29927066556, -34065.95844816667, -38156.55120093241, -28707.619453384814, -16798.118269219194, -28341.006140828868, -39730.85161815305, 0.057999999999999996, 0.7175, -0.084, 192.0, 0.0, 0.0, 0.0, 0.0, 0.0, 0.0, 0.0, 0.0, 0.0, 1.6689765217556949E9, 0.0, 2022-11-20 15:35:21.755
96.0, -13637.022809627391, 153.62353964132544, -40779.818985440616, -40805.14351190848, -30529.84542010372, -33208.41142039435, -29355.529469910798, -12236.596612524583, -29844.026844981534, -7851.251405626704, -34173.62680120788, -38260.218591716126, -28822.954454774197, -16911.508668840965, -28446.551078146826, -39836.68712814893, 0.057999999999999996, 0.7175, -0.084, 192.0, 0.0, 0.0, 0.0, 0.0, 0.0, 0.0, 0.0, 0.0, 0.0, 1.6689765217557013E9, 0.0, 2022-11-20 15:35:21.755
98.0, -13553.047305708804, 276.8487068234333, -40739.42938320987, -40788.335000078085, -30502.30807093478, -33182.39398984837, -29326.449850374443, -12212.166155834933, -29755.871564849804, -7772.528561655112, -34077.961334939166, -38170.588096450345, -28734.77682289801, -16825.856784088228, -28367.828234175235, -39757.67371149942, 0.057999999999999996, 0.7175, -0.084, 192.0, 0.0, 0.0, 0.0, 0.0, 0.0, 0.0, 0.0, 0.0, 0.0, 1.6689765217557077E9, 0.0, 2022-11-20 15:35:21.755
100.0, -13636.59812648274, 158.29505423248463, -40784.31168607613, -40817.839302759094, -30549.917286624586, -33218.849685054985, -29372.695609652474, -12251.61698479855, -29836.71782454465, -7847.161036391382, -34167.368312760394, -38254.45184164665, -28828.698853099213, -16918.996503233495, -28455.894107329146, -39841.17982878445, 0.065, 0.83575, -0.095, 192.0, 1.0, 32.0, 14.5, 104.0, 126.0, 88.0, 0.0, 0.0, 0.0, 1.6689765217557144E9, 0.0, 2022-11-20 15:35:21.755
102.0, -13536.05997992277, 291.8914308418549, -40714.97657477577, -40762.49638348775, -30485.812483526766, -33158.70114072575, -29307.5179228208, -12189.725004401804, -29753.07759679289, -7766.024204018618, -34066.919573178246, -38160.17218353417, -28732.8322211304, -16820.581772396778, -28369.303449309285, -39749.20240035086, 0.065, 0.83575, -0.095, 192.0, 0.0, 0.0, 0.0, 0.0, 0.0, 0.0, 0.0, 0.0, 0.0, 1.6689765217557204E9, 0.0, 2022-11-20 15:35:21.755
104.0, -13621.287181530855, 176.77994689702356, -40773.448738270854, -40807.132817164995, -30540.641312675634, -33211.495961129185, -29363.933725825995, -12245.537310306707, -29816.24362662359, -7819.444873266802, -34144.14485027133, -38226.46745758861, -28811.644472079814, -16894.364880843747, -28430.368415161185, -39815.140046494016, 0.065, 0.83575, -0.095, 192.0, 0.0, 0.0, 0.0, 0.0, 0.0, 0.0, 0.0, 0.0, 0.0, 1.668976521755725E9, 0.0, 2022-11-20 15:35:21.755
106.0, -13527.789834474306, 291.42204420829347, -40697.0057722337, -40739.541141932146, -30471.641477542104, -33144.50778299663, -29298.063134916203, -12183.421812465407, -29741.20882048712, -7752.300232923059, -34053.73204394961, -38140.97203504706, -28722.68452914769, -16806.209600712016, -28351.578515956226, -39739.837019424085, 0.065, 0.83575, -0.095, 192.0, 0.0, 0.0, 0.0, 0.0, 0.0, 0.0, 0.0, 0.0, 0.0, 1.6689765217557344E9, 0.0, 2022-11-20 15:35:21.755
108.0, -13624.349370521233, 175.6847114187135, -40776.60033423905, -40812.07255268962, -30546.117490067183, -33218.268539699144, -29375.75779864285, -12259.32833663563, -29806.52061778553, -7799.909448612863, -34133.818344332976, -38208.29548934645, -28801.765001030566, -16876.95287191306, -28416.130353943154, -39808.94861327989, 0.065, 0.83575, -0.095, 192.0, 0.0, 0.0, 0.0, 0.0, 0.0, 0.0, 0.0, 0.0, 0.0, 1.66897652175574E9, 0.0, 2022-11-20 15:35:21.755
110.0, -13542.094950925703, 261.6048171049139, -40707.33227817205, -40749.331206003575, -30479.844567757198, -33151.593285988965, -29309.57428331069, -12193.0777660701, -29766.622753932807, -7776.3060064680585, -34078.9448116952, -38165.51425045899, -28747.986703871098, -16825.70032187704, -28380.345211070206, -39770.190688394396, 0.065, 0.83575, -0.095, 192.0, 0.0, 0.0, 0.0, 0.0, 0.0, 0.0, 0.0, 0.0, 0.0, 1.6689765217557461E9, 0.0, 2022-11-20 15:35:21.755
112.0, -13629.579678723774, 166.94517933668845, -40785.608087254535, -40832.27852967722, -30553.158289570605, -33235.03234804062, -29385.01142084735, -12270.839485030114, -29803.771353217526, -7809.1183673284495, -34133.79599258852, -38215.671565016695, -28806.03418422153, -16882.831380704807, -28421.606531334703, -39813.57542438214, 0.07200000000000001, 0.9520000000000001, -0.11, 192.0, 1.0, 32.0, 14.5, 96.0, 126.0, 72.0, 0.0, 0.0, 0.0, 1.6689765217557526E9, 0.0, 2022-11-20 15:35:21.755
114.0, -13551.72855278594, 243.61166281839166, -40703.01839149218, -40748.72770890328, -30464.93595420551, -33151.61563773342, -29301.058268673216, -12189.143859045966, -29767.293306266467, -7789.225314763226, -34085.62798328733, -38177.87476514278, -28753.59699172938, -16839.021961572405, -28378.512368024873, -39776.49388033079, 0.07200000000000001, 0.9520000000000001, -0.11, 192.0, 0.0, 0.0, 0.0, 0.0, 0.0, 0.0, 0.0, 0.0, 0.0, 1.6689765217557588E9, 0.0, 2022-11-20 15:35:21.755
116.0, -13640.040295128858, 166.7887171255013, -40799.42146532792, -40840.45926814786, -30549.827879646768, -33238.273350986645, -29382.038638834794, -12271.420630385952, -29799.546873515475, -7808.336056272514, -34138.154582757306, -38217.54911155094, -28802.860236508877, -16879.366860314236, -28408.28489163934, -39806.75814232328, 0.07200000000000001, 0.9520000000000001, -0.11, 192.0, 0.0, 0.0, 0.0, 0.0, 0.0, 0.0, 0.0, 0.0, 0.0, 1.6689765217557654E9, 0.0, 2022-11-20 15:35:21.755
118.0, -13559.417552878565, 231.7428865126236, -40704.314792670586, -40739.608197165515, -30454.40828256706, -33136.25998929262, -29285.52380627678, -12172.491809426763, -29791.254376322555, -7795.863782866452, -34111.153675455294, -38195.24207058454, -28768.818529703443, -16841.659467418132, -28380.412266303574, -39777.455005342366, 0.07200000000000001, 0.9520000000000001, -0.11, 192.0, 0.0, 0.0, 0.0, 0.0, 0.0, 0.0, 0.0, 0.0, 0.0, 1.6689765217557716E9, 0.0, 2022-11-20 15:35:21.755
120.0, -13635.480539259976, 173.67305441773587, -40801.54488105117, -40847.14243974, -30556.488699494446, -33240.41911845435, -29386.732505170407, -12275.980386254834, -29793.37779204581, -7786.878381595419, -34128.31981519697, -38201.67937298767, -28784.37534384434, -16856.031639102894, -28386.156664628586, -39784.42874961242, 0.07200000000000001, 0.9520000000000001, -0.11, 192.0, 0.0, 0.0, 0.0, 0.0, 0.0, 0.0, 0.0, 0.0, 0.0, 1.6689765217557776E9, 0.0, 2022-11-20 15:35:21.755
122.0, -13551.594442319209, 228.63599403333595, -40696.11170245549, -40735.3166622301, -30449.714416231447, -33136.349396270445, -29284.115646376093, -12170.904835570436, -29799.18924560419, -7814.996876120195, -34118.26153019208, -38206.66381200121, -28778.78740773051, -16863.877101406706, -28398.226606634453, -39793.74942705029, 0.078, 0.96, -0.108, 192.0, 1.0, 56.0, 15.0, 0.0, 126.0, 80.0, 0.0, 0.0, 0.0, 1.668976521755783E9, 0.0, 2022-11-20 15:35:21.755
124.0, -13596.83437309675, 213.70502873719082, -40778.54493600666, -40827.36114589705, -30542.697673165523, -33227.030423525626, -29372.270926507823, -12261.51880759225, -29750.976532814093, -7762.671442350322, -34083.973954197645, -38167.19063129314, -28748.65725620476, -16838.15024353865, -28364.319010295752, -39756.824345210116, 0.078, 0.96, -0.108, 192.0, 0.0, 0.0, 0.0, 0.0, 0.0, 0.0, 0.0, 0.0, 0.0, 1.6689765217557888E9, 0.0, 2022-11-20 15:35:21.755
126.0, -13559.484608111932, 213.19093861471876, -40705.275917682164, -40738.02122330919, -30472.669657787046, -33151.45917552223, -29305.66272803101, -12189.993225335267, -29803.145504372776, -7817.008533121173, -34118.66386159228, -38207.96021317961, -28791.729067770135, -16882.25023534897, -28417.53851384384, -39803.91947077745, 0.078, 0.96, -0.108, 192.0, 0.0, 0.0, 0.0, 0.0, 0.0, 0.0, 0.0, 0.0, 0.0, 1.6689765217557952E9, 0.0, 2022-11-20 15:35:21.755
128.0, -13598.935437075548, 213.70502873719082, -40772.956999892835, -40826.444724374385, -30553.985304115453, -33230.71846136075, -29379.937574855994, -12268.067868717655, -29756.36330322782, -7764.303119695559, -34082.498739063594, -38166.63183768175, -28754.55811674096, -16840.81010112883, -28373.28205982233, -39761.49585980128, 0.078, 0.96, -0.108, 192.0, 0.0, 0.0, 0.0, 0.0, 0.0, 0.0, 0.0, 0.0, 0.0, 1.6689765217558014E9, 0.0, 2022-11-20 15:35:21.755
130.0, -13569.945224517016, 195.10837735037535, -40700.447940879814, -40734.9143308299, -30469.89804147459, -33144.664245207816, -29302.265262873803, -12187.400422978453, -29808.152295130767, -7826.5974314925, -34121.21196046018, -38213.503445804534, -28793.628966048836, -16879.880950436705, -28411.212970162986, -39802.198386454394, 0.078, 0.96, -0.108, 192.0, 0.0, 0.0, 0.0, 0.0, 0.0, 0.0, 0.0, 0.0, 0.0, 1.6689765217558076E9, 0.0, 2022-11-20 15:35:21.755
132.0, -13598.153126019613, 212.18511011422996, -40781.18244185239, -40827.24938717477, -30547.883277879155, -33226.248112469686, -29375.71309515394, -12263.262243659765, -29751.736492125572, -7763.610215617445, -34080.531785551524, -38164.17314579167, -28750.69126495019, -16831.556478924333, -28362.776739928337, -39754.455060297856, 0.082, 0.9520000000000001, -0.114, 192.0, 1.0, 72.0, 14.5, 96.0, 126.0, 56.0, 0.0, 0.0, 0.0, 1.668976521755814E9, 0.0, 2022-11-20 15:35:21.755
134.0, -13596.655559141107, 159.56910366643712, -40729.37109820498, -40756.90844737392, -30483.80082652579, -33162.635047749885, -29322.448888116945, -12205.147708075967, -29826.637187795306, -7842.713039244776, -34152.07971955296, -38238.269178661016, -28821.32277742896, -16898.410546590156, -28436.44808965303, -39822.337308208625, 0.082, 0.9520000000000001, -0.114, 192.0, 0.0, 0.0, 0.0, 0.0, 0.0, 0.0, 0.0, 0.0, 0.0, 1.6689765217558205E9, 0.0, 2022-11-20 15:35:21.755
136.0, -13590.97821604946, 211.4698542916601, -40768.754871935234, -40818.7333725373, -30530.739489881933, -33210.46778088424, -29361.072702535716, -12249.0912376751, -29751.89295433676, -7765.9124452963415, -34083.23634663062, -38168.26351502699, -28748.858421904853, -16827.37670271119, -28362.083835850222, -39749.694138728875, 0.082, 0.9520000000000001, -0.114, 192.0, 0.0, 0.0, 0.0, 0.0, 0.0, 0.0, 0.0, 0.0, 0.0, 1.6689765217558267E9, 0.0, 2022-11-20 15:35:21.755
138.0, -13608.792556380338, 139.2737197010183, -40737.082450042064, -40765.58092422258, -30486.415980627058, -33167.28421059659, -29324.237027673367, -12210.243905811776, -29830.95107447518, -7848.546844547612, -34161.780376646566, -38247.32163516541, -28821.300425684505, -16901.025700691425, -28434.34702567423, -39818.80573258469, 0.082, 0.9520000000000001, -0.114, 192.0, 0.0, 0.0, 0.0, 0.0, 0.0, 0.0, 0.0, 0.0, 0.0, 1.6689765217558353E9, 0.0, 2022-11-20 15:35:21.755
140.0, -13585.256169468901, 211.60396475839195, -40768.26313355722, -40817.39226786998, -30519.965949054476, -33211.09362972899, -29355.931801310995, -12247.28074637422, -29744.807451344426, -7763.364346428436, -34076.352009338385, -38161.60269517931, -28739.82831714491, -16822.749891608943, -28352.852565390178, -39740.954606646854, 0.082, 0.9520000000000001, -0.114, 192.0, 0.0, 0.0, 0.0, 0.0, 0.0, 0.0, 0.0, 0.0, 0.0, 1.6689765217558415E9, 0.0, 2022-11-20 15:35:21.755
142.0, -13628.372684523189, 118.6877630576805, -40764.23981955527, -40790.570174523615, -30505.7502395809, -33200.47655111272, -29345.024150016805, -12233.601478767572, -29836.71782454465, -7856.280548129148, -34173.20211806323, -38255.6811875917, -28836.454908425203, -16924.047997480393, -28445.142918246143, -39833.75904962529, 0.08, 0.9460000000000001, -0.112, 192.0, 1.0, 64.0, 14.5, 72.0, 126.0, 64.0, 0.0, 0.0, 0.0, 1.6689765217558477E9, 0.0, 2022-11-20 15:35:21.755
144.0, -13585.83731482474, 203.35617105438365, -40763.50221198824, -40805.2329188863, -30515.361489696683, -33212.09945822948, -29350.52267915281, -12244.442074828396, -29749.993056058058, -7773.199113988771, -34080.15180589579, -38164.66488416969, -28745.773881170022, -16834.126929536695, -28357.345266025695, -39743.65916772594, 0.08, 0.9460000000000001, -0.112, 192.0, 0.0, 0.0, 0.0, 0.0, 0.0, 0.0, 0.0, 0.0, 0.0, 1.6689765217558532E9, 0.0, 2022-11-20 15:35:21.755
146.0, -13641.493158518453, 108.40596060823925, -40768.03961611266, -40791.53129953519, -30522.71521362248, -33210.06544948405, -29355.596525144163, -12243.525653305729, -29848.407786894775, -7869.51278084669, -34180.4664350112, -38264.64423711828, -28850.737673132146, -16937.59315462031, -28457.52578467438, -39841.04571831771, 0.08, 0.9460000000000001, -0.112, 192.0, 0.0, 0.0, 0.0, 0.0, 0.0, 0.0, 0.0, 0.0, 0.0, 1.6689765217558594E9, 0.0, 2022-11-20 15:35:21.755
148.0, -13577.857742054195, 217.8177497169673, -40738.82588610958, -40787.083302388586, -30499.156474966585, -33189.255975396154, -29332.909504522027, -12222.917344917936, -29744.606285644328, -7771.790954088087, -34069.758244724064, -38158.83107886685, -28736.050872331965, -16826.661446888622, -28354.908925880067, -39735.657243210946, 0.08, 0.9460000000000001, -0.112, 192.0, 0.0, 0.0, 0.0, 0.0, 0.0, 0.0, 0.0, 0.0, 0.0, 1.6689765217558658E9, 0.0, 2022-11-20 15:35:21.755
150.0, -13652.870196446205, 100.3146291154181, -40782.0765116306, -40817.41461961444, -30536.61799867368, -33221.978929278725, -29371.399208474068, -12257.249624401287, -29840.070586212947, -7859.387440608435, -34177.918336143295, -38263.43724291769, -28844.322722473473, -16932.094625484304, -28457.77165386339, -39838.51997119427, 0.08, 0.9460000000000001, -0.112, 192.0, 0.0, 0.0, 0.0, 0.0, 0.0, 0.0, 0.0, 0.0, 0.0, 1.6689765217558725E9, 0.0, 2022-11-20 15:35:21.755
152.0, -13554.723686542951, 230.24531963411806, -40718.68696435535, -40766.78791842317, -30479.352829379182, -33164.04320765057, -29313.91052173502, -12204.27599004221, -29746.32736996739, -7773.735555855698, -34073.468634303645, -38165.335436503345, -28743.158727068752, -16831.444720202056, -28368.56584174226, -39750.72231897382, 0.076, 0.9520000000000001, -0.112, 192.0, 1.0, 48.0, 14.5, 96.0, 126.0, 64.0, 0.0, 0.0, 0.0, 1.6689765217558787E9, 0.0, 2022-11-20 15:35:21.755
154.0, -13653.965431924515, 107.48953908557166, -40784.04346514267, -40817.32521263662, -30544.932847611053, -33224.12469674643, -29373.00853407485, -12264.0445547157, -29816.981234190614, -7832.45358853979, -34155.36542598789, -38235.452858859644, -28827.55891413199, -16909.742881028997, -28438.23622920945, -39822.11379076407, 0.076, 0.9520000000000001, -0.112, 192.0, 0.0, 0.0, 0.0, 0.0, 0.0, 0.0, 0.0, 0.0, 0.0, 1.6689765217558851E9, 0.0, 2022-11-20 15:35:21.755
156.0, -13573.677965841052, 204.7866826995233, -40719.02224052218, -40756.88609562947, -30484.136102692617, -33162.52328902761, -29310.75892576682, -12206.533516232195, -29768.522652211508, -7783.68208213831, -34088.310192621975, -38171.8621458843, -28759.900183665777, -16836.89854584915, -28372.47739702194, -39764.40158658047, 0.076, 0.9520000000000001, -0.112, 192.0, 0.0, 0.0, 0.0, 0.0, 0.0, 0.0, 0.0, 0.0, 0.0, 1.6689765217558913E9, 0.0, 2022-11-20 15:35:21.755
158.0, -13639.637963728663, 123.69455381566928, -40776.510927261224, -40808.29510787667, -30534.718100394977, -33212.680603585315, -29361.96677231393, -12254.455656344373, -29814.679004511716, -7812.627591207933, -34145.26243749409, -38217.86203597332, -28816.40539364879, -16886.67588075112, -28415.2586359094, -39805.68525858942, 0.076, 0.9520000000000001, -0.112, 192.0, 0.0, 0.0, 0.0, 0.0, 0.0, 0.0, 0.0, 0.0, 0.0, 1.6689765217558982E9, 0.0, 2022-11-20 15:35:21.755
160.0, -13562.546797102308, 210.48637753562662, -40709.38863866194, -40752.41574673841, -30471.8426432422, -33155.39308254637, -29302.622890785085, -12194.910609115435, -29764.946373098657, -7776.663634379343, -34082.11875940785, -38165.53660220344, -28753.038198117996, -16831.400016713145, -28370.62220223215, -39762.16641213494, 0.076, 0.9520000000000001, -0.112, 192.0, 0.0, 0.0, 0.0, 0.0, 0.0, 0.0, 0.0, 0.0, 0.0, 1.6689765217559044E9, 0.0, 2022-11-20 15:35:21.755
162.0, -13650.679725489585, 118.75481829104642, -40794.638192014485, -40838.64877684698, -30557.38276927266, -33243.63776965592, -29389.124141827124, -12283.401165413996, -29804.643071251285, -7809.788919662109, -34137.68519612375, -38215.15747489422, -28815.55602735949, -16893.739031998997, -28419.684281311547, -39814.916529049464, 0.074, 0.9540000000000001, -0.11, 192.0, 1.0, 40.0, 14.5, 104.0, 126.0, 72.0, 0.0, 0.0, 0.0, 1.6689765217559109E9, 0.0, 2022-11-20 15:35:21.755
164.0, -13563.060887224781, 199.55637449698145, -40701.520824613675, -40741.88807509996, -30467.104073417675, -33151.101547610946, -29297.07965816017, -12192.630731180994, -29777.709219182638, -7801.49642246919, -34090.88064323433, -38179.99818086603, -28768.79617795899, -16859.742028682474, -28388.302432096298, -39784.07112170114, 0.074, 0.9540000000000001, -0.11, 192.0, 0.0, 0.0, 0.0, 0.0, 0.0, 0.0, 0.0, 0.0, 0.0, 1.6689765217559173E9, 0.0, 2022-11-20 15:35:21.755
166.0, -13643.08013237478, 127.42729513970556, -40794.5264332922, -40828.814009286645, -30559.215612317996, -33235.546438163095, -29382.91035686855, -12277.545008366706, -29796.149408358266, -7810.101844084484, -34126.889303551834, -38202.64049799925, -28805.74361154361, -16891.97324418703, -28410.67652829606, -39801.37137190955, 0.074, 0.9540000000000001, -0.11, 192.0, 0.0, 0.0, 0.0, 0.0, 0.0, 0.0, 0.0, 0.0, 0.0, 1.6689765217559237E9, 0.0, 2022-11-20 15:35:21.755
168.0, -13570.660480339586, 184.08896733390895, -40707.84636829452, -40734.60140640753, -30473.429617098525, -33147.16764058681, -29299.359536094613, -12192.094289314067, -29790.405010033253, -7813.946344130796, -34105.565739341466, -38188.84947167033, -28785.247061878094, -16874.06949687833, -28403.255749136897, -39787.0439037137, 0.074, 0.9540000000000001, -0.11, 192.0, 0.0, 0.0, 0.0, 0.0, 0.0, 0.0, 0.0, 0.0, 0.0, 1.6689765217559304E9, 0.0, 2022-11-20 15:35:21.755
170.0, -13628.752664178928, 149.82374308392323, -40782.54589826416, -40811.37964861151, -30553.247696548427, -33230.785516594115, -29377.367124243632, -12273.074659475644, -29781.28549829549, -7790.588771175, -34110.885454521835, -38180.40051226622, -28793.941890471207, -16873.62246198922, -28393.62214727666, -39779.55606932117, 0.074, 0.9540000000000001, -0.11, 192.0, 0.0, 0.0, 0.0, 0.0, 0.0, 0.0, 0.0, 0.0, 0.0, 1.6689765217559388E9, 0.0, 2022-11-20 15:35:21.755
172.0, -13572.359212918189, 171.92961835022192, -40692.26720240917, -40715.66947885388, -30468.199308895986, -33146.60884697543, -29295.55973953721, -12191.915475358424, -29797.021126392025, -7815.242745309204, -34104.89518700781, -38181.87572740027, -28791.7961230035, -16872.728392211007, -28395.0526589218, -39782.97588622283, 0.074, 0.9520000000000001, -0.114, 192.0, 1.0, 40.0, 14.5, 96.0, 126.0, 56.0, 0.0, 0.0, 0.0, 1.6689765217559454E9, 0.0, 2022-11-20 15:35:21.755
174.0, -13621.913030375605, 151.5671791514372, -40776.957962150336, -40817.213453914344, -30556.466347749993, -33235.38997595191, -29380.541071956286, -12279.891941534514, -29765.259297521032, -7776.082489023506, -34086.209128643175, -38158.18287827765, -28776.55223328498, -16855.852825147253, -28368.074103364244, -39762.702854001865, 0.074, 0.9520000000000001, -0.114, 192.0, 0.0, 0.0, 0.0, 0.0, 0.0, 0.0, 0.0, 0.0, 0.0, 1.6689765217559526E9, 0.0, 2022-11-20 15:35:21.755
176.0, -13566.480704126443, 165.13468803580858, -40687.305115140094, -40717.63643236595, -30460.55501229227, -33139.74686142765, -29288.65305050052, -12183.868847354513, -29805.268920096034, -7827.491501270712, -34118.99913775911, -38199.15362586422, -28807.062364466474, -16888.39696507418, -28407.43552535004, -39801.48313063182, 0.074, 0.9520000000000001, -0.114, 192.0, 0.0, 0.0, 0.0, 0.0, 0.0, 0.0, 0.0, 0.0, 0.0, 1.6689765217559588E9, 0.0, 2022-11-20 15:35:21.755
178.0, -13613.732291904962, 160.30671123346227, -40776.60033423905, -40822.77903828371, -30551.973647114475, -33229.734984604715, -29375.891909109585, -12272.672328075449, -29754.50810843803, -7772.126230254917, -34080.688247762715, -38156.75236663251, -28767.477425036126, -16850.75662741144, -28362.32970503923, -39747.660129983444, 0.074, 0.9520000000000001, -0.114, 192.0, 0.0, 0.0, 0.0, 0.0, 0.0, 0.0, 0.0, 0.0, 0.0, 1.6689765217559657E9, 0.0, 2022-11-20 15:35:21.755
180.0, -13577.366003676178, 151.9471588071774, -40708.427513650364, -40722.24089172374, -30471.93205022002, -33136.3717480149, -29298.17489363848, -12188.383899734486, -29809.582806775907, -7834.375838562947, -34128.54333264152, -38206.574405023384, -28811.33154765744, -16894.230770377013, -28421.025385978865, -39793.57061309464, 0.074, 0.9520000000000001, -0.114, 192.0, 0.0, 0.0, 0.0, 0.0, 0.0, 0.0, 0.0, 0.0, 0.0, 1.6689765217559724E9, 0.0, 2022-11-20 15:35:21.755
182.0, -13591.246436982923, 184.1783743117302, -40764.06100559962, -40794.615840270024, -30534.159306783597, -33208.7914000501, -29358.546955412265, -12257.271976145743, -29737.900762307738, -7752.8813782788975, -34064.90791617727, -38132.83600006533, -28747.383206770803, -16823.91218232062, -28358.261687548365, -39723.85552213854, 0.078, 0.9540000000000001, -0.112, 192.0, 1.0, 72.0, 14.5, 112.0, 126.0, 72.0, 0.0, 0.0, 0.0, 1.668976521755978E9, 0.0, 2022-11-20 15:35:21.755
184.0, -13620.616629197197, 107.04250419646553, -40733.39441220694, -40752.23693278276, -30501.637518601125, -33180.605850291955, -29329.221466686904, -12225.264278085742, -29827.039519195503, -7847.563367791578, -34148.503440440116, -38220.81246624142, -28831.246951967118, -16910.05580545137, -28440.829031566267, -39812.59194762611, 0.078, 0.9540000000000001, -0.112, 192.0, 0.0, 0.0, 0.0, 0.0, 0.0, 0.0, 0.0, 0.0, 0.0, 1.6689765217559848E9, 0.0, 2022-11-20 15:35:21.755
186.0, -13604.948056334026, 169.51562994904876, -40764.59744746655, -40805.47878807531, -30534.62869341716, -33216.323937931535, -29355.104786766147, -12256.132037178522, -29757.16796602821, -7776.663634379343, -34083.12458790834, -38152.7067008861, -28760.950715655177, -16841.927688351596, -28364.810748673768, -39744.799106693165, 0.078, 0.9540000000000001, -0.112, 192.0, 0.0, 0.0, 0.0, 0.0, 0.0, 0.0, 0.0, 0.0, 0.0, 1.6689765217559912E9, 0.0, 2022-11-20 15:35:21.755
188.0, -13633.915917148104, 90.77043423300198, -40747.096031558045, -40768.1737265794, -30502.866864546166, -33182.975135204215, -29329.176763197993, -12223.856118185058, -29846.105557215877, -7865.668280800377, -34171.99512386264, -38240.75022229555, -28850.290638243037, -16926.50668937048, -28446.6628368691, -39829.73573562333, 0.078, 0.9540000000000001, -0.112, 192.0, 0.0, 0.0, 0.0, 0.0, 0.0, 0.0, 0.0, 0.0, 0.0, 1.6689765217559977E9, 0.0, 2022-11-20 15:35:21.755
190.0, -13596.812021352294, 176.77994689702356, -40763.45750849933, -40801.276660117706, -30528.079632291752, -33205.14806570388, -29349.516850652322, -12246.677249273927, -29751.93765782567, -7774.026128533617, -34081.15763439627, -38151.11972702977, -28758.201451087174, -16833.99281906996, -28361.346228283197, -39738.160638589936, 0.078, 0.9540000000000001, -0.112, 192.0, 0.0, 0.0, 0.0, 0.0, 0.0, 0.0, 0.0, 0.0, 0.0, 1.668976521756004E9, 0.0, 2022-11-20 15:35:21.756
192.0, -13632.463053758509, 87.86470745381206, -40757.087261329565, -40761.89288638745, -30512.723983850956, -33184.49505382717, -29336.70930107943, -12229.868737443536, -29843.13277520332, -7864.036603455139, -34176.35371403143, -38246.38286189829, -28855.431539467758, -16925.81378529236, -28456.92228757409, -39829.71338387887, 0.079, 0.9540000000000001, -0.111, 192.0, 1.0, 64.0, 14.5, 104.0, 126.0, 72.0, 0.0, 0.0, 0.0, 1.6689765217560108E9, 0.0, 2022-11-20 15:35:21.756
194.0, -13569.654651839097, 194.86250816136697, -40723.55964464661, -40749.91235135941, -30493.792056297312, -33174.25795486665, -29316.771545025298, -12218.804623938158, -29733.98920702806, -7760.950358027263, -34058.18004109622, -38132.16544773167, -28745.192735814184, -16812.646903115143, -28351.533812467318, -39722.89439712696, 0.079, 0.9540000000000001, -0.111, 192.0, 0.0, 0.0, 0.0, 0.0, 0.0, 0.0, 0.0, 0.0, 0.0, 1.6689765217560177E9, 0.0, 2022-11-20 15:35:21.756
196.0, -13633.245364814446, 87.30591384242939, -40729.192284249344, -40751.34286300455, -30496.98835575442, -33186.84198699498, -29329.556742853732, -12232.618002011539, -29814.924873700726, -7833.928803673841, -34138.221637990675, -38208.9213381912, -28826.441326909226, -16898.388194845702, -28419.77368828937, -39805.17116846695, 0.079, 0.9540000000000001, -0.111, 192.0, 0.0, 0.0, 0.0, 0.0, 0.0, 0.0, 0.0, 0.0, 0.0, 1.6689765217560244E9, 0.0, 2022-11-20 15:35:21.756
0.0, -6820.411303092397, -21.412971188184166, -20377.683088503254, -20390.55769330951, -15271.4047159439, -16604.708624447423, -14679.418764045093, -6130.5470622238, -14861.697240078121, -3874.6749013274793, -17022.66389401721, -19062.43938951962, -14362.627489880026, -8405.798185562871, -14159.696001970293, -19859.256727606862, 0.076, 0.9560000000000001, -0.106, 192.0, 1.0, 48.0, 14.5, 112.0, 126.0, 88.0, 0.0, 0.0, 0.0, 1.6689765218589516E9, 0.0, 2022-11-20 15:35:21.858
2.0, -13558.702297055996, 35.338107983840466, -40665.847440463, -40691.48489135324, -30455.816442467745, -33122.53601819706, -29272.582146237153, -12175.419887950407, -29773.84236739187, -7803.351617258981, -34089.763056011565, -38156.14886953221, -28821.61335010688, -16843.134682552183, -28382.915661682568, -39758.21015336635, 0.076, 0.9560000000000001, -0.106, 192.0, 0.0, 0.0, 0.0, 0.0, 0.0, 0.0, 0.0, 0.0, 0.0, 1.6689765223387797E9, 0.0, 2022-11-20 15:35:22.338
4.0, -13610.759509892407, 13.008715272988711, -40752.95218860533, -40792.06774140212, -30538.964931841485, -33217.91091178786, -29356.87057457812, -12266.436191372419, -29746.863811834315, -7766.962977285741, -34076.8437477164, -38135.71937510007, -28805.006003976585, -16830.684760890577, -28365.056617862778, -39744.508534015244, 0.076, 0.9560000000000001, -0.106, 192.0, 0.0, 0.0, 0.0, 0.0, 0.0, 0.0, 0.0, 0.0, 0.0, 1.668976522338848E9, 0.0, 2022-11-20 15:35:22.338
6.0, -13568.335898916233, 15.579165885349022, -40674.609324289486, -40703.91246127039, -30451.703721487967, -33139.36688177191, -29280.22644284087, -12187.825106123104, -29780.816111661927, -7811.420597007346, -34099.84369276091, -38169.5599162054, -28820.540466373026, -16857.5292059814, -28397.310185111786, -39781.27715364422, 0.076, 0.9560000000000001, -0.106, 192.0, 0.0, 0.0, 0.0, 0.0, 0.0, 0.0, 0.0, 0.0, 0.0, 1.6689765223388655E9, 0.0, 2022-11-20 15:35:22.338
8.0, -13588.631282881652, 37.0368405624438, -40735.428420952376, -40777.65086622845, -30519.697728121013, -33209.01491749465, -29341.716091837417, -12253.80745575517, -29729.809430814916, -7751.719087567221, -34061.532802764516, -38124.27528193895, -28782.98953568811, -16816.29023746136, -28346.459966475963, -39735.00904262174, 0.076, 0.9520000000000001, -0.114, 192.0, 1.0, 48.0, 14.5, 96.0, 126.0, 56.0, 0.0, 0.0, 0.0, 1.6689765223389428E9, 0.0, 2022-11-20 15:35:22.338
10.0, -13556.221253421458, 23.20111074460873, -40655.85621069148, -40681.11368192598, -30443.187706850495, -33112.79065761455, -29263.864965899586, -12170.189579747866, -29777.440998249174, -7803.753948659176, -34097.943794482206, -38164.48607021404, -28825.681367597746, -16850.75662741144, -28388.1012663962, -39770.57066805013, 0.076, 0.9520000000000001, -0.114, 192.0, 0.0, 0.0, 0.0, 0.0, 0.0, 0.0, 0.0, 0.0, 0.0, 1.6689765223389502E9, 0.0, 2022-11-20 15:35:22.338
12.0, -13569.721707072462, 55.45467799361682, -40713.05432475261, -40762.29521778765, -30517.686071120035, -33180.315277614034, -29329.08735622017, -12237.714199747348, -29706.02717471447, -7725.969877954707, -34031.29089251648, -38094.234537391014, -28770.874890193332, -16783.544931834334, -28323.57178015373, -39697.882795081474, 0.076, 0.9520000000000001, -0.114, 192.0, 0.0, 0.0, 0.0, 0.0, 0.0, 0.0, 0.0, 0.0, 0.0, 1.6689765223389573E9, 0.0, 2022-11-20 15:35:22.338
14.0, -13586.172590991568, -13.299287950907702, -40684.95818197229, -40714.01544976419, -30468.623992040637, -33139.009253860626, -29287.84838770013, -12193.681263170394, -29788.32629779891, -7818.5955069775, -34110.17019869926, -38178.65707619871, -28844.255667240104, -16867.699249708563, -28402.89812122561, -39782.05946470016, 0.076, 0.9520000000000001, -0.114, 192.0, 0.0, 0.0, 0.0, 0.0, 0.0, 0.0, 0.0, 0.0, 0.0, 1.668976522338964E9, 0.0, 2022-11-20 15:35:22.338
16.0, -13561.988003490926, 64.30596879791842, -40719.22340622228, -40763.725729432794, -30484.806655026277, -33172.60392577695, -29304.321623363692, -12220.27983907221, -29708.73173579356, -7733.167139669316, -34039.67279668722, -38101.11887468325, -28761.509509266558, -16791.055117971315, -28321.828344086214, -39709.03631556467, 0.076, 0.9520000000000001, -0.114, 192.0, 0.0, 0.0, 0.0, 0.0, 0.0, 0.0, 0.0, 0.0, 0.0, 1.6689765223389704E9, 0.0, 2022-11-20 15:35:22.338
18.0, -13600.410652209599, -28.274956735963436, -40719.826903322566, -40739.38467972096, -30465.36063735016, -33159.684617481784, -29285.792027210242, -12201.750242918759, -29802.452600294662, -7820.137777344916, -34133.259550721596, -38193.52098626149, -28848.301332986517, -16882.987842915994, -28405.602682304703, -39804.63472660002, 0.07200000000000001, 0.9500000000000001, -0.11, 192.0, 1.0, 32.0, 14.5, 88.0, 126.0, 72.0, 0.0, 0.0, 0.0, 1.6689765223389783E9, 0.0, 2022-11-20 15:35:22.338
20.0, -13562.144465702113, 54.739422171046996, -40731.092182528046, -40770.54301149166, -30491.6462888296, -33187.601946306466, -29307.204998398425, -12228.192356609388, -29720.779326054973, -7736.274032148604, -34046.423023512725, -38109.411371876166, -28770.070227392942, -16801.001644253927, -28325.94106506599, -39730.33752803058, 0.07200000000000001, 0.9500000000000001, -0.11, 192.0, 0.0, 0.0, 0.0, 0.0, 0.0, 0.0, 0.0, 0.0, 0.0, 1.6689765223389862E9, 0.0, 2022-11-20 15:35:22.338
22.0, -13601.662349899096, -33.684078894147746, -40715.267147453684, -40736.188380263855, -30489.455817872982, -33170.122882142416, -29301.14767565104, -12214.334275047098, -29811.169780632234, -7827.1338733594275, -34135.31591121148, -38196.449064785134, -28867.747350662634, -16893.470811065534, -28423.841705780236, -39822.180845997435, 0.07200000000000001, 0.9500000000000001, -0.11, 192.0, 0.0, 0.0, 0.0, 0.0, 0.0, 0.0, 0.0, 0.0, 0.0, 1.6689765223389935E9, 0.0, 2022-11-20 15:35:22.338
24.0, -13545.380657360633, 70.87738166777869, -40694.61413557698, -40736.456601197315, -30485.52191084885, -33166.9265826853, -29296.297347104235, -12208.723987188816, -29708.12823869327, -7728.786197756076, -34025.63590116929, -38088.981877444014, -28760.30251506597, -16785.243664412938, -28328.287998233798, -39717.887606368975, 0.07200000000000001, 0.9500000000000001, -0.11, 192.0, 0.0, 0.0, 0.0, 0.0, 0.0, 0.0, 0.0, 0.0, 0.0, 1.668976522339001E9, 0.0, 2022-11-20 15:35:22.339
26.0, -13611.877097115172, -39.629642919259425, -40719.893958555935, -40741.709261144315, -30504.74441108041, -33180.672905525316, -29323.94645499545, -12228.997019409779, -29800.61975724933, -7820.115425600461, -34125.503495395606, -38184.513233246, -28854.89509760083, -16875.00827014545, -28422.43354587955, -39804.41120915547, 0.07200000000000001, 0.9500000000000001, -0.11, 192.0, 0.0, 0.0, 0.0, 0.0, 0.0, 0.0, 0.0, 0.0, 0.0, 1.6689765223390086E9, 0.0, 2022-11-20 15:35:22.339
28.0, -13544.508939326875, 66.58584673235974, -40687.86390875148, -40731.20394125032, -30472.066160686754, -33158.83525119248, -29298.2643006163, -12209.75216743376, -29710.78809628345, -7736.72106703771, -34028.675738415215, -38093.273412379436, -28750.69126495019, -16776.392373608636, -28341.319065251242, -39716.9264813574, 0.074, 0.964, -0.11, 192.0, 1.0, 40.0, 15.0, 16.0, 126.0, 72.0, 0.0, 0.0, 0.0, 1.668976522339016E9, 0.0, 2022-11-20 15:35:22.339
30.0, -13615.74394890594, -38.89203535223429, -40720.63156612296, -40751.34286300455, -30491.55688185178, -33180.29292586958, -29320.750155538342, -12230.47223454383, -29804.598367762374, -7821.16595758986, -34137.61814089038, -38195.55499500692, -28849.37421672037, -16869.77796194291, -28423.10409821321, -39806.244052200804, 0.074, 0.964, -0.11, 192.0, 0.0, 0.0, 0.0, 0.0, 0.0, 0.0, 0.0, 0.0, 0.0, 1.6689765223390236E9, 0.0, 2022-11-20 15:35:22.339
32.0, -13521.643104749097, 82.36617831780653, -40660.50537353818, -40706.751132816215, -30435.74457594688, -33121.75370714113, -29261.585087965144, -12170.36839370351, -29704.864884002793, -7724.6734767763, -34025.34532849137, -38090.881775722715, -28737.570790954924, -16751.537233774332, -28309.80310556926, -39701.48142593878, 0.074, 0.964, -0.11, 192.0, 0.0, 0.0, 0.0, 0.0, 0.0, 0.0, 0.0, 0.0, 0.0, 1.6689765223390307E9, 0.0, 2022-11-20 15:35:22.339
34.0, -13613.419367482587, -31.29244223742989, -40730.82396159458, -40765.08918584457, -30503.17978896854, -33174.74969324466, -29320.973672982895, -12223.789062951691, -29787.40987627624, -7795.126175299428, -34120.02731800405, -38178.344151776335, -28829.816440321978, -16835.132758037184, -28391.61049027568, -39775.353941363566, 0.074, 0.964, -0.11, 192.0, 0.0, 0.0, 0.0, 0.0, 0.0, 0.0, 0.0, 0.0, 0.0, 1.6689765223390384E9, 0.0, 2022-11-20 15:35:22.339
36.0, -13532.796625232295, 66.40703277671729, -40668.12731839744, -40711.89203404093, -30444.439404539993, -33115.60697741592, -29262.210936809894, -12165.786286090171, -29727.2166284581, -7744.968860741718, -34047.07122410193, -38116.2957091684, -28753.93226789621, -16760.768504234376, -28332.98186456941, -39707.874024852994, 0.074, 0.964, -0.11, 192.0, 0.0, 0.0, 0.0, 0.0, 0.0, 0.0, 0.0, 0.0, 0.0, 1.6689765223390477E9, 0.0, 2022-11-20 15:35:22.339
38.0, -13636.665181716107, -53.84535239283471, -40764.910371888924, -40803.75770375225, -30531.90178059361, -33210.84776053998, -29353.160184998538, -12256.132037178522, -29797.065829880936, -7805.139756815405, -34133.885399566345, -38201.12057937629, -28837.28192297005, -16842.911165107627, -28409.08955443973, -39785.16635717945, 0.074, 0.9580000000000001, -0.106, 192.0, 1.0, 40.0, 14.5, 120.0, 126.0, 88.0, 0.0, 0.0, 0.0, 1.6689765223390548E9, 0.0, 2022-11-20 15:35:22.339
40.0, -13520.033779148314, 71.21265783460831, -40665.579219529536, -40706.37115316047, -30420.612444950635, -33113.70707913722, -29252.17500354946, -12157.78436157517, -29745.50035542254, -7768.01350927514, -34065.869041188846, -38146.55997116089, -28768.79617795899, -16783.053193456315, -28357.27821079233, -39737.26656881173, 0.074, 0.9580000000000001, -0.106, 192.0, 0.0, 0.0, 0.0, 0.0, 0.0, 0.0, 0.0, 0.0, 0.0, 1.6689765223390615E9, 0.0, 2022-11-20 15:35:22.339
42.0, -13629.132643834668, -34.891073094734324, -40780.06485462962, -40821.59439582758, -30532.415870716082, -33222.895350801395, -29357.272905978312, -12264.849217516092, -29781.28549829549, -7788.77827987412, -34119.24500694812, -38189.49767225953, -28822.21684720717, -16833.501080691945, -28395.790266488824, -39778.59494430959, 0.074, 0.9580000000000001, -0.106, 192.0, 0.0, 0.0, 0.0, 0.0, 0.0, 0.0, 0.0, 0.0, 0.0, 1.6689765223390684E9, 0.0, 2022-11-20 15:35:22.339
44.0, -13540.977363702938, 44.3011575104186, -40677.22447839075, -40719.67044111138, -30431.40833752255, -33124.61473043141, -29257.807643152195, -12165.048678523146, -29769.41672198972, -7789.82881186352, -34089.40542810028, -38172.77856740696, -28790.522073569548, -16807.394243168146, -28371.22569933244, -39758.41131906644, 0.074, 0.9580000000000001, -0.106, 192.0, 0.0, 0.0, 0.0, 0.0, 0.0, 0.0, 0.0, 0.0, 0.0, 1.668976522339075E9, 0.0, 2022-11-20 15:35:22.339
46.0, -13621.041312341848, -18.64135487572609, -40768.196078323854, -40805.14351190848, -30530.71713813748, -33221.33072868952, -29350.366216941624, -12257.71901103485, -29779.631469205797, -7788.2194862627375, -34116.51809412457, -38185.60846872431, -28821.859219295886, -16832.249383002447, -28385.910795439577, -39772.02353143973, 0.074, 0.9580000000000001, -0.106, 192.0, 0.0, 0.0, 0.0, 0.0, 0.0, 0.0, 0.0, 0.0, 0.0, 1.6689765223390825E9, 0.0, 2022-11-20 15:35:22.339
48.0, -13523.744168727895, 56.594616960837484, -40652.97283565674, -40677.313885368574, -30416.767944904324, -33111.13662852486, -29241.78144237774, -12150.49769288274, -29767.293306266467, -7784.73261412771, -34082.0964076634, -38158.45109921111, -28795.372402116347, -16803.035652999362, -28370.018705131853, -39753.29276958618, 0.078, 0.9520000000000001, -0.10400000000000001, 192.0, 1.0, 56.0, 14.5, 96.0, 126.0, 96.0, 0.0, 0.0, 0.0, 1.668976522339089E9, 0.0, 2022-11-20 15:35:22.339
50.0, -13573.342689674222, 26.017430545977422, -40731.226292994776, -40765.08918584457, -30502.41982965706, -33196.16266443284, -29325.689891062964, -12235.724894490826, -29734.12331749479, -7742.8454450184645, -34064.90791617727, -38136.12170650026, -28786.588166545414, -16786.294196402338, -28349.70096942198, -39728.862312896534, 0.078, 0.9520000000000001, -0.10400000000000001, 192.0, 0.0, 0.0, 0.0, 0.0, 0.0, 0.0, 0.0, 0.0, 0.0, 1.6689765223390958E9, 0.0, 2022-11-20 15:35:22.339
52.0, -13515.116395368148, 54.78412565995761, -40641.394632028896, -40671.68124576584, -30417.572607704715, -33103.000593543125, -29243.54723018971, -12148.195463203843, -29750.03775954697, -7766.895922052375, -34062.82920394292, -38146.85054383881, -28789.60565204688, -16791.390394138147, -28370.957478398977, -39745.93904566039, 0.078, 0.9520000000000001, -0.10400000000000001, 192.0, 0.0, 0.0, 0.0, 0.0, 0.0, 0.0, 0.0, 0.0, 0.0, 1.668976522339103E9, 0.0, 2022-11-20 15:35:22.339
54.0, -13583.468029912476, 19.066038020376926, -40741.23987451075, -40793.520604791716, -30525.50918167939, -33209.08197272801, -29346.94640003996, -12252.131074921022, -29733.139840738757, -7741.705506051244, -34056.32484630643, -38134.221808221555, -28786.387000845316, -16784.21548416799, -28351.198536300486, -39734.2267315658, 0.078, 0.9520000000000001, -0.10400000000000001, 192.0, 0.0, 0.0, 0.0, 0.0, 0.0, 0.0, 0.0, 0.0, 0.0, 1.6689765223391106E9, 0.0, 2022-11-20 15:35:22.339
56.0, -13534.62946827763, 25.592747401326587, -40661.55590552758, -40697.54221410063, -30442.830078939212, -33116.85867510542, -29264.960201377893, -12165.942748301357, -29790.002678633056, -7810.1688993178495, -34098.3461258824, -38186.659000713706, -28829.57057113297, -16832.04821730235, -28396.840798478224, -39781.03128445522, 0.078, 0.9520000000000001, -0.10400000000000001, 192.0, 0.0, 0.0, 0.0, 0.0, 0.0, 0.0, 0.0, 0.0, 0.0, 1.668976522339118E9, 0.0, 2022-11-20 15:35:22.339
58.0, -13550.789779518818, 44.68113716615882, -40728.275862726674, -40778.7237499623, -30516.434373430537, -33195.73798128819, -29331.3225306657, -12238.049475914178, -29715.88429401926, -7730.015543701118, -34037.86230538634, -38117.83797953582, -28772.148939627285, -16773.151370662614, -28335.440556459496, -39715.98770809027, 0.076, 0.9500000000000001, -0.112, 192.0, 1.0, 48.0, 14.5, 88.0, 126.0, 64.0, 0.0, 0.0, 0.0, 1.6689765223391504E9, 0.0, 2022-11-20 15:35:22.339
60.0, -13533.601288032687, 16.58499438583784, -40663.835783462026, -40696.22346117777, -30445.758157462857, -33117.48452395017, -29261.182756564947, -12164.914568056414, -29771.89776562426, -7794.835602621509, -34085.73974200961, -38173.5608784629, -28818.70762332769, -16821.09586251925, -28390.202330375, -39768.693121515884, 0.076, 0.9500000000000001, -0.112, 192.0, 0.0, 0.0, 0.0, 0.0, 0.0, 0.0, 0.0, 0.0, 0.0, 1.6689765223391578E9, 0.0, 2022-11-20 15:35:22.339
62.0, -13545.224195149445, 53.085393081354276, -40716.22827246526, -40769.40307252444, -30507.404268670594, -33178.81771073553, -29316.905655492028, -12224.280801329709, -29714.967872496592, -7731.781331513087, -34036.565904207935, -38119.0449737364, -28766.583355257913, -16762.064905412783, -28335.015873314846, -39708.54457718666, 0.076, 0.9500000000000001, -0.112, 192.0, 0.0, 0.0, 0.0, 0.0, 0.0, 0.0, 0.0, 0.0, 0.0, 1.6689765223391652E9, 0.0, 2022-11-20 15:35:22.339
64.0, -13541.290288125312, 1.050531989399432, -40662.56173402807, -40697.29634491162, -30446.69693072998, -33118.75857338412, -29264.17789032196, -12165.965100045813, -29783.408914018743, -7805.095053326494, -34096.08859969242, -38185.25084081302, -28826.93306528724, -16825.09682477675, -28392.392801331618, -39768.693121515884, 0.076, 0.9500000000000001, -0.112, 192.0, 0.0, 0.0, 0.0, 0.0, 0.0, 0.0, 0.0, 0.0, 0.0, 1.6689765223391733E9, 0.0, 2022-11-20 15:35:22.339
66.0, -13532.05901766527, 60.70733794061398, -40702.77252230317, -40755.50028747324, -30483.97964048143, -33164.95962917324, -29303.584015796667, -12210.690940700882, -29694.44897108662, -7717.09623540595, -34012.47072368512, -38101.61061306127, -28744.343369524882, -16742.238908080926, -28309.93721603599, -39686.12577749798, 0.076, 0.9500000000000001, -0.112, 192.0, 0.0, 0.0, 0.0, 0.0, 0.0, 0.0, 0.0, 0.0, 0.0, 1.6689765223391805E9, 0.0, 2022-11-20 15:35:22.339
68.0, -13570.772239061862, -26.911500324189703, -40696.02229547767, -40725.68306036986, -30459.727997747425, -33145.46890800821, -29288.60834701161, -12191.960178847336, -29799.680983982205, -7827.0221146371505, -34121.502533138104, -38209.65894575822, -28845.03797829604, -16849.303764021846, -28409.760106773392, -39791.26838341575, 0.075, 0.958, -0.111, 192.0, 1.0, 40.0, 15.0, 24.0, 126.0, 72.0, 0.0, 0.0, 0.0, 1.6689765223391888E9, 0.0, 2022-11-20 15:35:22.339
70.0, -13528.683904252519, 63.657768208714515, -40702.86192928099, -40753.60038919454, -30480.068085201754, -33169.407626319844, -29299.627757028076, -12208.36635927753, -29703.009689213002, -7729.903784978841, -34024.38420347979, -38109.97016548755, -28748.813718415942, -16754.46531229798, -28318.140306251087, -39707.18112077488, 0.075, 0.958, -0.111, 192.0, 0.0, 0.0, 0.0, 0.0, 0.0, 0.0, 0.0, 0.0, 0.0, 1.6689765223391955E9, 0.0, 2022-11-20 15:35:22.339
72.0, -13579.601178121708, -31.694773637625413, -40698.704504812304, -40724.520769658186, -30469.965096707954, -33159.10347212595, -29295.827960470673, -12201.973760363313, -29799.010431648545, -7819.020190122151, -34124.76588782858, -38203.53456777747, -28844.769757362577, -16850.935441367084, -28412.487019596938, -39801.93016552093, 0.075, 0.958, -0.111, 192.0, 0.0, 0.0, 0.0, 0.0, 0.0, 0.0, 0.0, 0.0, 0.0, 1.6689765223392024E9, 0.0, 2022-11-20 15:35:22.339
74.0, -13540.642087536107, 48.54798895692694, -40695.73172279975, -40734.82492385208, -30478.50346308988, -33165.496071040165, -29299.493646561343, -12210.199202322865, -29713.045622473437, -7732.831863502487, -34035.40361349626, -38113.30057541139, -28752.769977184533, -16751.671344241066, -28322.65535863106, -39709.66216440942, 0.075, 0.958, -0.111, 192.0, 0.0, 0.0, 0.0, 0.0, 0.0, 0.0, 0.0, 0.0, 0.0, 1.6689765223392093E9, 0.0, 2022-11-20 15:35:22.339
76.0, -13601.528239432364, -56.259340794007876, -40719.62573762247, -40743.98913907875, -30501.45870464548, -33177.92364095731, -29322.180667183482, -12225.733664719304, -29814.880170211814, -7828.609088493477, -34141.55204791451, -38219.04667842945, -28865.825100639475, -16856.970412370018, -28426.90389477061, -39809.84268305811, 0.075, 0.958, -0.111, 192.0, 0.0, 0.0, 0.0, 0.0, 0.0, 0.0, 0.0, 0.0, 0.0, 1.668976522339216E9, 0.0, 2022-11-20 15:35:22.339
78.0, -13534.450654321989, 49.196189546130846, -40690.09908319701, -40736.92598783088, -30478.12348343414, -33154.387254045876, -29298.532521549765, -12204.767728420225, -29721.49458187754, -7742.3760583849025, -34037.77289840852, -38124.45409589459, -28765.8904511798, -16759.337992589237, -28330.299655234776, -39715.160693545426, 0.0745, 0.96, -0.10650000000000001, 192.0, 1.0, 40.0, 15.0, 8.0, 126.0, 104.0, 0.0, 0.0, 0.0, 1.6689765223392227E9, 0.0, 2022-11-20 15:35:22.339
80.0, -13595.40386145161, -50.55964595790458, -40736.92598783088, -40770.56536323611, -30518.870713576165, -33187.28902188409, -29339.167992969513, -12238.943545692391, -29811.974443432624, -7829.681972227332, -34140.47916418066, -38222.77941975348, -28873.514100732104, -16865.15115084066, -28424.28874066934, -39809.57446212464, 0.0745, 0.96, -0.10650000000000001, 192.0, 0.0, 0.0, 0.0, 0.0, 0.0, 0.0, 0.0, 0.0, 0.0, 1.6689765223392296E9, 0.0, 2022-11-20 15:35:22.339
82.0, -13472.983357069894, 97.94534420315554, -40642.713384951756, -40696.84931002251, -30431.8330206672, -33106.6662796338, -29252.823204138662, -12159.013707520213, -29699.232244400057, -7730.373171612403, -34013.40949695224, -38108.40554337568, -28749.97600912762, -16751.13490237414, -28320.353128952163, -39703.09075153956, 0.0745, 0.96, -0.10650000000000001, 192.0, 0.0, 0.0, 0.0, 0.0, 0.0, 0.0, 0.0, 0.0, 0.0, 1.6689765223392372E9, 0.0, 2022-11-20 15:35:22.339
84.0, -13592.766355605883, -41.26132026449684, -40727.04651678164, -40770.364197536015, -30515.205027485496, -33192.74284753118, -29334.787051056275, -12241.111664904556, -29762.532384697486, -7776.529523912612, -34088.17608215524, -38175.483128486056, -28824.675539097258, -16824.71684512101, -28381.015763403866, -39769.900115716475, 0.0745, 0.96, -0.10650000000000001, 192.0, 0.0, 0.0, 0.0, 0.0, 0.0, 0.0, 0.0, 0.0, 0.0, 1.6689765223392444E9, 0.0, 2022-11-20 15:35:22.339
86.0, -13518.826784947729, 48.25741627900795, -40665.80273697409, -40709.94743227332, -30451.033169154307, -33131.00732934562, -29271.93394564795, -12181.276044997698, -29736.045567517947, -7753.663689334833, -34050.51339274805, -38135.09352625532, -28783.637736277313, -16777.04057419784, -28346.638780431604, -39736.48425775579, 0.0745, 0.96, -0.10650000000000001, 192.0, 0.0, 0.0, 0.0, 0.0, 0.0, 0.0, 0.0, 0.0, 0.0, 1.6689765223392515E9, 0.0, 2022-11-20 15:35:22.339
88.0, -13594.621550395674, -42.82594237636833, -40732.612101151004, -40765.960903878324, -30507.247806459407, -33189.837120751996, -29328.03682423077, -12234.27203110123, -29778.782102916495, -7784.419689705335, -34110.41606788827, -38180.60167796632, -28839.494745671123, -16825.365045710212, -28387.073086151253, -39776.65034254198, 0.07825, 0.962, -0.10425000000000001, 192.0, 1.0, 72.0, 15.0, 16.0, 126.0, 104.0, 0.0, 0.0, 0.0, 1.6689765223392587E9, 0.0, 2022-11-20 15:35:22.339
90.0, -13506.958008641961, 47.92214011217834, -40658.18079211483, -40684.62290580546, -30424.188724063486, -33110.80135235803, -29250.02923608175, -12155.482131896273, -29730.70350059313, -7753.373116656914, -34048.21116306915, -38128.47740989654, -28772.618326260847, -16766.244681625925, -28337.049882060277, -39715.69713541235, 0.07825, 0.962, -0.10425000000000001, 192.0, 0.0, 0.0, 0.0, 0.0, 0.0, 0.0, 0.0, 0.0, 0.0, 1.6689765223392656E9, 0.0, 2022-11-20 15:35:22.339
92.0, -13611.631227926164, -59.14271582874249, -40774.47691851579, -40796.20281412635, -30541.04364407583, -33224.839952569004, -29365.632458404598, -12270.884188519025, -29774.289402280978, -7785.671387394833, -34108.53852135402, -38180.24405005504, -28834.9573415467, -16821.297028219346, -28392.951594943, -39760.08769990059, 0.07825, 0.962, -0.10425000000000001, 192.0, 0.0, 0.0, 0.0, 0.0, 0.0, 0.0, 0.0, 0.0, 0.0, 1.6689765223392732E9, 0.0, 2022-11-20 15:35:22.339
94.0, -13524.213555361457, 17.389657186228895, -40678.52087956916, -40709.58980436204, -30448.21684935294, -33136.84113464846, -29278.527710262268, -12185.589931677572, -29767.405064988743, -7799.775338146132, -34081.85053847439, -38169.22464003857, -28816.09246922642, -16811.529315892378, -28386.871920451158, -39763.41810982444, 0.07825, 0.962, -0.10425000000000001, 192.0, 0.0, 0.0, 0.0, 0.0, 0.0, 0.0, 0.0, 0.0, 0.0, 1.6689765223392804E9, 0.0, 2022-11-20 15:35:22.339
96.0, -13588.07248927027, -27.604404402304223, -40749.57707519258, -40790.97250592381, -30529.33132998125, -33211.80888555156, -29352.28846696478, -12258.791894768703, -29762.040646319467, -7784.419689705335, -34090.63477404532, -38170.05165458342, -28829.123536243864, -16819.933571807574, -28387.47541755145, -39765.89915345897, 0.07825, 0.962, -0.10425000000000001, 192.0, 0.0, 0.0, 0.0, 0.0, 0.0, 0.0, 0.0, 0.0, 0.0, 1.6689765223392873E9, 0.0, 2022-11-20 15:35:22.339
98.0, -13500.498354494377, 37.41682021818402, -40631.58221621301, -40669.915457953866, -30416.343261759674, -33099.1113900079, -29242.049663311205, -12148.664849837405, -29752.429396203686, -7780.0610995365505, -34063.25388708757, -38146.02352929396, -28800.110971940874, -16791.815077282798, -28364.497824251393, -39742.45217352536, 0.081125, 0.96, -0.10412500000000001, 192.0, 1.0, 80.0, 14.5, 120.0, 126.0, 96.0, 0.0, 0.0, 0.0, 1.6689765223392944E9, 0.0, 2022-11-20 15:35:22.339
100.0, -13577.611872865185, -15.109779251787574, -40739.38467972096, -40780.53424126318, -30528.19139101403, -33204.70103081477, -29343.66069360503, -12253.360420866064, -29734.011558772512, -7748.9474712547635, -34064.08090163242, -38134.646491366206, -28798.434591106725, -16781.779144022363, -28349.589210699705, -39734.383193776994, 0.081125, 0.96, -0.10412500000000001, 192.0, 0.0, 0.0, 0.0, 0.0, 0.0, 0.0, 0.0, 0.0, 0.0, 1.6689765223393035E9, 0.0, 2022-11-20 15:35:22.339
102.0, -13515.809299446262, 12.606383872793183, -40653.64338799041, -40675.32458011205, -30430.424860766514, -33109.72846862418, -29252.42087273847, -12159.773666831692, -29772.925945869203, -7793.896829354386, -34090.76888451206, -38171.07983482836, -28823.26737919657, -16805.98608326746, -28386.514292539872, -39770.28009537221, 0.081125, 0.96, -0.10412500000000001, 192.0, 0.0, 0.0, 0.0, 0.0, 0.0, 0.0, 0.0, 0.0, 0.0, 1.6689765223393104E9, 0.0, 2022-11-20 15:35:22.339
104.0, -13553.53904408682, 6.794930314413347, -40732.29917672863, -40765.8714969005, -30514.8026960853, -33193.21223416475, -29332.99891149985, -12239.748208492781, -29722.232189444567, -7733.480064091691, -34054.603761983366, -38129.50559014149, -28790.969108458652, -16767.518731059878, -28347.689312421004, -39725.151923316946, 0.081125, 0.96, -0.10412500000000001, 192.0, 0.0, 0.0, 0.0, 0.0, 0.0, 0.0, 0.0, 0.0, 0.0, 1.668976522339317E9, 0.0, 2022-11-20 15:35:22.339
106.0, -13500.565409727742, 18.730761853547317, -40645.26148381967, -40664.528687540136, -30426.178029320006, -33098.373782440874, -29247.972875591862, -12150.296527182643, -29758.442015462166, -7774.696680867277, -34070.048817401985, -38154.27132299797, -28814.17021920326, -16796.218370940493, -28384.748504727904, -39755.52794403171, 0.081125, 0.96, -0.10412500000000001, 192.0, 0.0, 0.0, 0.0, 0.0, 0.0, 0.0, 0.0, 0.0, 0.0, 1.6689765223393235E9, 0.0, 2022-11-20 15:35:22.339
108.0, -13552.957898730981, 9.655953604692652, -40733.57322616258, -40771.30297080314, -30523.31871072277, -33195.67092605483, -29338.117460980116, -12244.576185295127, -29704.619014813783, -7718.884374962375, -34025.61354942484, -38105.52216834095, -28775.613460017856, -16756.141693132126, -28339.732091394915, -39709.93038534289, 0.08256250000000001, 0.9570000000000001, -0.1040625, 192.0, 1.0, 80.0, 14.5, 104.0, 126.0, 96.0, 0.0, 0.0, 0.0, 1.6689765223393304E9, 0.0, 2022-11-20 15:35:22.339
110.0, -13540.351514858188, -28.051439291410365, -40666.2497718632, -40684.734664527736, -30447.546297019282, -33117.193951272246, -29267.664762456985, -12170.83778033707, -29786.784027431495, -7812.426425507835, -34102.302384651, -38187.97775363657, -28845.7085306297, -16828.583696911777, -28412.889350997135, -39780.71836003284, 0.08256250000000001, 0.9570000000000001, -0.1040625, 192.0, 0.0, 0.0, 0.0, 0.0, 0.0, 0.0, 0.0, 0.0, 0.0, 1.668976522339345E9, 0.0, 2022-11-20 15:35:22.339
112.0, -13536.261145622868, 24.43045668965062, -40710.86385379599, -40746.671348413394, -30500.56463486727, -33171.48633855418, -29313.396431612546, -12221.41977803943, -29705.714250292094, -7728.294459378059, -34033.45901172865, -38112.20533993308, -28772.327753582926, -16754.84529195372, -28336.245219259887, -39698.77686485969, 0.08256250000000001, 0.9570000000000001, -0.1040625, 192.0, 0.0, 0.0, 0.0, 0.0, 0.0, 0.0, 0.0, 0.0, 0.0, 1.6689765223393517E9, 0.0, 2022-11-20 15:35:22.339
114.0, -13547.146445172602, -40.45665746410578, -40673.402330088895, -40689.58499307454, -30451.54725927678, -33124.34650949795, -29271.26339331429, -12176.157495517433, -29782.71600994063, -7806.1232335714385, -34103.97876548514, -38181.65220995572, -28842.691045128235, -16824.96271431002, -28394.89619671061, -39764.513345302745, 0.08256250000000001, 0.9570000000000001, -0.1040625, 192.0, 0.0, 0.0, 0.0, 0.0, 0.0, 0.0, 0.0, 0.0, 0.0, 1.6689765223393583E9, 0.0, 2022-11-20 15:35:22.339
116.0, -13532.930735699027, 17.479064164050122, -40707.868720038976, -40754.78503165067, -30499.42469590005, -33180.583498547494, -29315.07281244669, -12225.398388552474, -29699.2098926556, -7728.830901244986, -34024.13833429079, -38105.0974851963, -28764.348180812383, -16751.13490237414, -28313.26762595983, -39687.42217867639, 0.08256250000000001, 0.9570000000000001, -0.1040625, 192.0, 0.0, 0.0, 0.0, 0.0, 0.0, 0.0, 0.0, 0.0, 0.0, 1.6689765223393664E9, 0.0, 2022-11-20 15:35:22.339
118.0, -13568.06767798277, -64.14950658673126, -40688.42270236286, -40719.73749634475, -30474.278983387827, -33157.13651861388, -29296.833788971162, -12203.471327241818, -29802.497303783573, -7835.314611830069, -34120.56375987098, -38207.021439912496, -28867.05444658452, -16858.19975831506, -28412.732888785948, -39793.950592750385, 0.08528125, 0.9595, -0.10603125, 192.0, 1.0, 96.0, 15.0, 8.0, 126.0, 80.0, 0.0, 0.0, 0.0, 1.668976522339374E9, 0.0, 2022-11-20 15:35:22.339
120.0, -13516.569258757741, 39.92021559717841, -40681.89599298191, -40733.14854301793, -30476.40239911108, -33163.84204195047, -29297.347879093635, -12208.411062766441, -29701.713288034596, -7729.3449913674585, -34017.142238276276, -38101.81177876137, -28763.610573245358, -16756.767541976875, -28315.055765516256, -39698.55334741513, 0.08528125, 0.9595, -0.10603125, 192.0, 0.0, 0.0, 0.0, 0.0, 0.0, 0.0, 0.0, 0.0, 0.0, 1.668976522339381E9, 0.0, 2022-11-20 15:35:22.339
122.0, -13563.262052924878, -55.3876227602509, -40686.254583150694, -40710.97561251827, -30471.395608353094, -33146.02770161959, -29294.196283125435, -12198.822164395115, -29787.096951853866, -7808.224297550238, -34107.57739634244, -38185.02732336847, -28848.591905664434, -16838.10554004974, -28398.42777233455, -39783.06529320065, 0.08528125, 0.9595, -0.10603125, 192.0, 0.0, 0.0, 0.0, 0.0, 0.0, 0.0, 0.0, 0.0, 0.0, 1.668976522818236E9, 0.0, 2022-11-20 15:35:22.818
124.0, -13502.174735328525, 49.08443082385431, -40671.83770797702, -40707.26522293869, -30465.248878627885, -33137.55639047103, -29283.310983575702, -12190.574370691105, -29695.946537965126, -7711.687113247766, -34011.24137774007, -38084.466825064046, -28753.79815742948, -16734.818128921765, -28304.528093877805, -39688.29389671015, 0.08528125, 0.9595, -0.10603125, 192.0, 0.0, 0.0, 0.0, 0.0, 0.0, 0.0, 0.0, 0.0, 0.0, 1.668976522818274E9, 0.0, 2022-11-20 15:35:22.818
126.0, -13561.451561623999, -50.76081165800234, -40695.46350186628, -40708.427513650364, -30484.02434397034, -33156.331855813485, -29302.220559384892, -12207.494641243773, -29773.66355343623, -7785.626683905922, -34097.20618691518, -38161.714453901586, -28845.775585863066, -16819.821813085295, -28385.597871017206, -39767.35201684857, 0.08528125, 0.9595, -0.10603125, 192.0, 0.0, 0.0, 0.0, 0.0, 0.0, 0.0, 0.0, 0.0, 0.0, 1.6689765228183177E9, 0.0, 2022-11-20 15:35:22.818
128.0, -13506.779194686318, 38.48970395203876, -40678.40912084688, -40708.516920628186, -30471.32855311973, -33149.26870456561, -29289.323602834178, -12198.866867884026, -29705.20016016962, -7721.790101741565, -34014.99647080857, -38082.81279597435, -28771.098407637885, -16745.949297660507, -28321.94010280849, -39703.78365561768, 0.078640625, 0.96075, -0.106015625, 192.0, 1.0, 32.0, 15.0, 8.0, 126.0, 88.0, 0.0, 0.0, 0.0, 1.6689765228183403E9, 0.0, 2022-11-20 15:35:22.818
130.0, -13592.878114328161, -80.22041085009705, -40730.0640022831, -40756.90844737392, -30512.344004195216, -33194.66509755434, -29334.85410628964, -12243.65976377246, -29796.618794991828, -7805.787957404609, -34118.909730781284, -38183.797977423426, -28872.664734442802, -16849.5272814664, -28417.49381035493, -39801.37137190955, 0.078640625, 0.96075, -0.106015625, 192.0, 0.0, 0.0, 0.0, 0.0, 0.0, 0.0, 0.0, 0.0, 0.0, 1.6689765228183675E9, 0.0, 2022-11-20 15:35:22.818
132.0, -13511.96479939995, 26.285651479441107, -40673.44703357781, -40720.743324845236, -30459.258611113863, -33137.668149193305, -29280.539367263245, -12191.088460813578, -29723.774459811983, -7747.695773565266, -34038.242285042084, -38116.2957091684, -28780.68730600921, -16771.65380378411, -28342.190783284997, -39727.70002218486, 0.078640625, 0.96075, -0.106015625, 192.0, 0.0, 0.0, 0.0, 0.0, 0.0, 0.0, 0.0, 0.0, 0.0, 1.6689765228183992E9, 0.0, 2022-11-20 15:35:22.818
134.0, -13590.575884649264, -78.27580908248534, -40727.650013881925, -40770.40890102493, -30509.862960560677, -33190.84294925248, -29333.155373711037, -12241.37988583802, -29784.258280308044, -7809.833623151019, -34118.39564065882, -38195.64440198474, -28856.90675460181, -16851.181310556094, -28405.423868349062, -39789.83787177061, 0.078640625, 0.96075, -0.106015625, 192.0, 0.0, 0.0, 0.0, 0.0, 0.0, 0.0, 0.0, 0.0, 0.0, 1.6689765228184316E9, 0.0, 2022-11-20 15:35:22.818
136.0, -13491.66941543453, 35.405163217206386, -40643.89802740789, -40702.16902520288, -30436.392776536082, -33122.424259474785, -29261.65214319851, -12170.860132081525, -29703.255558402012, -7745.728820053198, -34021.50082844506, -38114.57462484534, -28763.40940754526, -16765.819998481275, -28322.92357956452, -39709.41629522041, 0.078640625, 0.96075, -0.106015625, 192.0, 0.0, 0.0, 0.0, 0.0, 0.0, 0.0, 0.0, 0.0, 0.0, 1.6689765228184586E9, 0.0, 2022-11-20 15:35:22.818
138.0, -13590.374718949166, -74.58777124735967, -40729.14758076043, -40784.26698258722, -30526.93969332453, -33211.51831287364, -29349.4274436745, -12261.116476192055, -29763.18058528669, -7795.975541588729, -34090.545367067505, -38177.60654420931, -28845.887344585342, -16843.984048841485, -28385.352001828196, -39779.93604897691, 0.078640625, 0.96075, -0.106015625, 192.0, 0.0, 0.0, 0.0, 0.0, 0.0, 0.0, 0.0, 0.0, 0.0, 1.6689765228184867E9, 0.0, 2022-11-20 15:35:22.818
140.0, -13494.99982535837, 25.905671823700885, -40632.09630633549, -40677.738568513225, -30427.29561654277, -33110.28726223556, -29251.951486104907, -12165.607472134529, -29724.959102268112, -7766.292424952081, -34032.095555316875, -38125.12464822825, -28790.007983447074, -16787.188266180547, -28338.56980068324, -39733.86910365452, 0.074, 0.964, -0.1, 192.0, 1.0, 40.0, 15.0, 16.0, 126.0, 112.0, 0.0, 0.0, 0.0, 1.6689765228184943E9, 0.0, 2022-11-20 15:35:22.818
142.0, -13593.481611428453, -71.79380319044628, -40733.90850232941, -40766.7208631898, -30529.979530570454, -33196.52029234413, -29345.38177792809, -12256.310851134163, -29755.13395728278, -7772.997948288674, -34083.25869837507, -38152.88551484174, -28833.415071179283, -16815.977313038984, -28366.241260318908, -39760.78060397871, 0.074, 0.964, -0.1, 192.0, 0.0, 0.0, 0.0, 0.0, 0.0, 0.0, 0.0, 0.0, 0.0, 1.6689765228185017E9, 0.0, 2022-11-20 15:35:22.818
144.0, -13521.598401260186, -7.621944859259709, -40652.10111762299, -40671.43537657683, -30438.7844131928, -33106.82274184498, -29259.03698909724, -12169.83195183658, -29743.46634667711, -7764.72780284021, -34058.78353819651, -38128.499761641, -28802.122628941852, -16782.092068444737, -28348.27045777684, -39735.14315308847, 0.074, 0.964, -0.1, 192.0, 0.0, 0.0, 0.0, 0.0, 0.0, 0.0, 0.0, 0.0, 0.0, 1.6689765228185093E9, 0.0, 2022-11-20 15:35:22.818
146.0, -13605.573905178775, -78.27580908248534, -40750.85112462653, -40771.50413650324, -30536.84151611823, -33208.076144227525, -29356.71411236693, -12268.29138616221, -29766.980381844092, -7778.518829169135, -34101.00598347258, -38156.59590442132, -28842.892210828333, -16815.46322291651, -28377.148911613098, -39759.66301675594, 0.074, 0.964, -0.1, 192.0, 0.0, 0.0, 0.0, 0.0, 0.0, 0.0, 0.0, 0.0, 0.0, 1.6689765228185172E9, 0.0, 2022-11-20 15:35:22.818
148.0, -13525.10762513967, -21.2118054880864, -40641.260521562166, -40671.457728321286, -30427.608540965146, -33106.487465678154, -29254.231364039348, -12163.729925600283, -29770.04257083447, -7796.333169500014, -34084.01865768655, -38156.84177361033, -28825.435498408737, -16807.863629801708, -28373.28205982233, -39752.555162019155, 0.074, 0.964, -0.1, 192.0, 0.0, 0.0, 0.0, 0.0, 0.0, 0.0, 0.0, 0.0, 0.0, 1.6689765228185253E9, 0.0, 2022-11-20 15:35:22.818
150.0, -13587.69250961453, -61.51200074100504, -40732.343880217544, -40785.675142487904, -30520.077707776753, -33209.28313842811, -29342.543106382265, -12257.339031379108, -29732.759861083017, -7756.502360880657, -34062.11394812035, -38133.17127623216, -28806.212998177172, -16794.251417428426, -28341.676693162524, -39731.63392920899, 0.08, 0.962, -0.106, 192.0, 1.0, 64.0, 15.0, 8.0, 126.0, 88.0, 0.0, 0.0, 0.0, 1.668976522818534E9, 0.0, 2022-11-20 15:35:22.818
152.0, -13534.24948862189, -39.85316036381249, -40653.53162926813, -40694.34591464352, -30436.571590491723, -33117.953910583725, -29261.048646098217, -12174.79403910566, -29774.401161003254, -7806.950248116285, -34089.18191065573, -38168.911715616196, -28833.929161301752, -16824.448624187546, -28378.579423258238, -39775.130423919014, 0.08, 0.962, -0.106, 192.0, 0.0, 0.0, 0.0, 0.0, 0.0, 0.0, 0.0, 0.0, 0.0, 1.66897652281854E9, 0.0, 2022-11-20 15:35:22.818
154.0, -13585.524390402365, -52.236026792052606, -40739.317624487594, -40795.86753795952, -30530.158344526095, -33212.14416171839, -29346.231144217392, -12264.893921005001, -29737.431375674176, -7758.849294048464, -34067.791291212, -38138.423936179155, -28808.93991100072, -16795.816039540296, -28348.628085688128, -39742.362766547536, 0.08, 0.962, -0.106, 192.0, 0.0, 0.0, 0.0, 0.0, 0.0, 0.0, 0.0, 0.0, 0.0, 1.668976522818546E9, 0.0, 2022-11-20 15:35:22.818
156.0, -13544.911270727072, -60.39441351823968, -40656.25854209167, -40701.43141763585, -30444.886439429098, -33128.727451411185, -29267.351838034614, -12184.40528922144, -29778.692695938673, -7809.788919662109, -34100.51424509457, -38182.16630007819, -28841.461699183194, -16837.010304571428, -28386.737809984425, -39786.753331035776, 0.08, 0.962, -0.106, 192.0, 0.0, 0.0, 0.0, 0.0, 0.0, 0.0, 0.0, 0.0, 0.0, 1.668976522818552E9, 0.0, 2022-11-20 15:35:22.818
158.0, -13563.64203258062, -38.377945229762226, -40715.289499198145, -40779.818985440616, -30512.455762917492, -33199.38131563441, -29330.830792287685, -12250.275880131232, -29719.773497554484, -7752.277881178604, -34050.066357858945, -38129.08090699684, -28795.70767828318, -16790.205751682013, -28331.573704668728, -39732.68446119839, 0.08, 0.962, -0.106, 192.0, 0.0, 0.0, 0.0, 0.0, 0.0, 0.0, 0.0, 0.0, 0.0, 1.6689765228185577E9, 0.0, 2022-11-20 15:35:22.818
160.0, -13547.973459717448, -67.16699208819772, -40654.269236835156, -40696.1564059444, -30441.466622527438, -33123.43008797528, -29265.071960100173, -12178.83970485207, -29775.69756218166, -7817.612030221467, -34097.742628782114, -38183.6638669567, -28844.032149795552, -16844.073455819303, -28383.85443494969, -39786.35099963558, 0.08, 0.9560000000000001, -0.106, 192.0, 1.0, 64.0, 14.5, 112.0, 126.0, 88.0, 0.0, 0.0, 0.0, 1.6689765228185637E9, 0.0, 2022-11-20 15:35:22.818
162.0, -13543.72662827094, -13.656915862192616, -40695.03881872163, -40747.1183833025, -30486.84066377171, -33172.93920194378, -29307.361460609613, -12223.409083295952, -29693.06316293039, -7726.260450632626, -34019.82444761091, -38095.24036589151, -28768.72912272562, -16764.992983936427, -28307.41146891254, -39698.6204026485, 0.08, 0.9560000000000001, -0.106, 192.0, 0.0, 0.0, 0.0, 0.0, 0.0, 0.0, 0.0, 0.0, 0.0, 1.6689765228185697E9, 0.0, 2022-11-20 15:35:22.818
164.0, -13554.656631309586, -80.60039050583727, -40655.498582780194, -40681.62777204845, -30443.59003825069, -33124.59237868695, -29263.842614155128, -12175.26342573922, -29773.305925524943, -7814.63924820891, -34096.28976539252, -38172.93502961815, -28842.266361983584, -16839.223127272504, -28385.106132639186, -39769.609543038554, 0.08, 0.9560000000000001, -0.106, 192.0, 0.0, 0.0, 0.0, 0.0, 0.0, 0.0, 0.0, 0.0, 0.0, 1.6689765228185775E9, 0.0, 2022-11-20 15:35:22.818
166.0, -13543.234889892923, -16.652049619203762, -40687.99801921821, -40730.2651679832, -30486.70655330498, -33166.85952745194, -29299.963033194905, -12216.167118092433, -29699.098133933323, -7734.128264680894, -34023.08780230139, -38094.54746181339, -28772.08188439392, -16762.82486472426, -28307.94791077947, -39696.76520785871, 0.08, 0.9560000000000001, -0.106, 192.0, 0.0, 0.0, 0.0, 0.0, 0.0, 0.0, 0.0, 0.0, 0.0, 1.6689765228185835E9, 0.0, 2022-11-20 15:35:22.818
168.0, -13589.413593937588, -112.85395775484535, -40691.48489135324, -40713.47900789726, -30481.40918986907, -33156.46596628022, -29299.426591327978, -12212.188507579387, -29800.03861189349, -7829.950193160796, -34121.144905226814, -38191.08464611586, -28874.274060043583, -16859.138531582183, -28407.01084220539, -39792.5424328497, 0.08, 0.9560000000000001, -0.106, 192.0, 0.0, 0.0, 0.0, 0.0, 0.0, 0.0, 0.0, 0.0, 0.0, 1.668976522818591E9, 0.0, 2022-11-20 15:35:22.818
170.0, -13530.449692064489, -6.571412869860277, -40683.52767032715, -40726.84535108154, -30479.777512523833, -33160.57868726, -29294.620966270086, -12212.099100601567, -29701.668584545685, -7739.000944972151, -34021.07614530041, -38095.82151124734, -28776.865157707354, -16765.954108948008, -28318.117954506633, -39705.169463773906, 0.082, 0.9540000000000001, -0.10200000000000001, 192.0, 1.0, 72.0, 14.5, 104.0, 126.0, 104.0, 0.0, 0.0, 0.0, 1.6689765228185973E9, 0.0, 2022-11-20 15:35:22.818
172.0, -13569.989928005925, -101.9016029717449, -40675.12341441195, -40705.03004849316, -30461.98552393741, -33148.06171036502, -29281.522844019277, -12196.542286460673, -29785.085294852892, -7822.663524468366, -34108.56087309848, -38181.78632042245, -28867.09915007343, -16856.322211780815, -28395.0526589218, -39784.83108101262, 0.082, 0.9540000000000001, -0.10200000000000001, 192.0, 0.0, 0.0, 0.0, 0.0, 0.0, 0.0, 0.0, 0.0, 0.0, 1.6689765228186033E9, 0.0, 2022-11-20 15:35:22.818
174.0, -13523.990037916905, -9.298325693407739, -40662.852306705994, -40714.73070558676, -30459.54918379178, -33150.676864466295, -29274.61615498259, -12194.977664348802, -29689.933918706647, -7728.026238444596, -34004.468799170114, -38080.331752339815, -28759.587259243403, -16753.75005647541, -28288.278375658796, -39681.20839371782, 0.082, 0.9540000000000001, -0.10200000000000001, 192.0, 0.0, 0.0, 0.0, 0.0, 0.0, 0.0, 0.0, 0.0, 0.0, 1.6689765228186092E9, 0.0, 2022-11-20 15:35:22.818
176.0, -13604.54572493383, -127.5390538619821, -40698.83861527903, -40735.29431048564, -30489.478169617436, -33177.07427466801, -29308.926082721482, -12224.951353663368, -29797.51286477004, -7826.329210559036, -34117.61332960288, -38189.5647274929, -28871.8153681535, -16863.20654907305, -28389.50942629688, -39780.47249084384, 0.082, 0.9540000000000001, -0.10200000000000001, 192.0, 0.0, 0.0, 0.0, 0.0, 0.0, 0.0, 0.0, 0.0, 0.0, 1.6689765228186152E9, 0.0, 2022-11-20 15:35:22.818
178.0, -13526.024046662336, -14.08159900684345, -40659.16426887087, -40717.457618410306, -30459.482128558415, -33145.80418417504, -29278.88533817355, -12197.41400449443, -29712.4644771176, -7748.746305554665, -34023.579540679406, -38103.48815959551, -28781.603727531878, -16773.5089985739, -28312.64177711508, -39699.11214102652, 0.082, 0.9540000000000001, -0.10200000000000001, 192.0, 0.0, 0.0, 0.0, 0.0, 0.0, 0.0, 0.0, 0.0, 0.0, 1.668976522818622E9, 0.0, 2022-11-20 15:35:22.818
180.0, -13604.858649356205, -125.25917592754078, -40710.68503984035, -40750.60525543753, -30503.22449245745, -33186.260841639145, -29325.55578059623, -12239.882318959513, -29786.918137898225, -7816.405036020879, -34109.58905334342, -38183.08272160086, -28873.20117630973, -16864.882929907195, -28398.316013612275, -39785.34517113509, 0.08, 0.9560000000000001, -0.108, 192.0, 1.0, 64.0, 14.5, 112.0, 126.0, 80.0, 0.0, 0.0, 0.0, 1.668976522818628E9, 0.0, 2022-11-20 15:35:22.818
182.0, -13523.274782094335, -21.122398510265175, -40654.02336764614, -40700.76086530219, -30451.055520898764, -33134.382442758375, -29272.001000881315, -12186.908684600436, -29714.766706796494, -7748.6568985768445, -34022.81958136792, -38098.436665348614, -28785.82820723393, -16778.89576898763, -28324.152925509567, -39707.29287949716, 0.08, 0.9560000000000001, -0.108, 192.0, 0.0, 0.0, 0.0, 0.0, 0.0, 0.0, 0.0, 0.0, 0.0, 1.668976522818634E9, 0.0, 2022-11-20 15:35:22.818
184.0, -13611.11713780369, -127.71786781762455, -40720.63156612296, -40751.432269982375, -30517.5519606533, -33195.335649888, -29335.077623734192, -12249.918252219946, -29788.84038792138, -7809.49834698419, -34110.32666091045, -38174.34318951883, -28872.351810020427, -16863.050086861862, -28402.51814156987, -39784.87578450153, 0.08, 0.9560000000000001, -0.108, 192.0, 0.0, 0.0, 0.0, 0.0, 0.0, 0.0, 0.0, 0.0, 0.0, 1.66897652281864E9, 0.0, 2022-11-20 15:35:22.818
186.0, -13518.759729714362, -23.379924700251188, -40635.449068003785, -40667.56852478606, -30429.68725319949, -33108.722640123684, -29246.855288369097, -12166.74741110175, -29720.84638128834, -7756.614119602933, -34027.87107561482, -38100.71654328305, -28786.521111312046, -16779.968652721484, -28327.259817988852, -39706.89054809696, 0.08, 0.9560000000000001, -0.108, 192.0, 0.0, 0.0, 0.0, 0.0, 0.0, 0.0, 0.0, 0.0, 0.0, 1.668976522818646E9, 0.0, 2022-11-20 15:35:22.818
188.0, -13595.761489362894, -108.5624228194264, -40698.704504812304, -40729.14758076043, -30490.260480673373, -33170.592268775974, -29304.969823952895, -12224.526670518717, -29761.392445730264, -7784.844372849986, -34082.87871871933, -38146.202343249606, -28839.159469504295, -16827.309647477825, -28361.23446956092, -39740.84284792458, 0.08, 0.9560000000000001, -0.108, 192.0, 0.0, 0.0, 0.0, 0.0, 0.0, 0.0, 0.0, 0.0, 0.0, 1.668976522818652E9, 0.0, 2022-11-20 15:35:22.818
190.0, -13508.232058075913, -19.6248316317596, -40614.684297404805, -40658.98545491522, -30408.050764566753, -33097.23384347366, -29229.465631182866, -12148.955422515324, -29709.134067193758, -7748.1875119432825, -34014.527084175, -38090.5912030448, -28772.17129137174, -16768.725725260465, -28306.98678576789, -39690.976106044785, 0.074, 0.9580000000000001, -0.11, 192.0, 1.0, 40.0, 14.5, 120.0, 126.0, 72.0, 0.0, 0.0, 0.0, 1.6689765228186579E9, 0.0, 2022-11-20 15:35:22.818
192.0, -13602.154088277113, -110.19410016466382, -40716.742362587735, -40768.68781670187, -30520.41298394358, -33211.04892624008, -29338.609199358132, -12256.355554623075, -29752.585858414874, -7782.028053048618, -34076.93315469422, -38146.71643337207, -28836.901943314308, -16833.657542903133, -28361.636800961114, -39749.04593813967, 0.074, 0.9580000000000001, -0.11, 192.0, 0.0, 0.0, 0.0, 0.0, 0.0, 0.0, 0.0, 0.0, 0.0, 1.6689765228186636E9, 0.0, 2022-11-20 15:35:22.818
194.0, -13538.33985785721, -57.17576231667547, -40647.51901000965, -40697.0057722337, -30454.005951166866, -33149.08989060997, -29280.114684118595, -12198.106908572545, -29746.88616357877, -7782.944474571285, -34053.285009060506, -38130.71258434207, -28811.488009868626, -16816.357292694724, -28359.155757326575, -39748.9788829063, 0.074, 0.9580000000000001, -0.11, 192.0, 0.0, 0.0, 0.0, 0.0, 0.0, 0.0, 0.0, 0.0, 0.0, 1.6689765228186696E9, 0.0, 2022-11-20 15:35:22.818
196.0, -13617.17446055108, -122.4652078706274, -40740.34580473254, -40786.43510179938, -30551.079577336262, -33242.184906266324, -29373.47792070841, -12295.158182997488, -29759.380788729286, -7784.620855405433, -34083.70573326418, -38146.02352929396, -28846.692007385733, -16839.71486565052, -28383.742676227415, -39775.57745880812, 0.074, 0.9580000000000001, -0.11, 192.0, 0.0, 0.0, 0.0, 0.0, 0.0, 0.0, 0.0, 0.0, 0.0, 1.6689765228186777E9, 0.0, 2022-11-20 15:35:22.818
198.0, -13543.570166059753, -76.2418003370524, -40638.15362908287, -40669.557830042584, -30442.718320216933, -33132.21432354621, -29267.26243105679, -12186.014614822223, -29771.383675501787, -7809.699512684288, -34080.01769542905, -38150.2033055071, -28840.120594515873, -16831.04238880186, -28383.787379716323, -39774.81749949664, 0.074, 0.9580000000000001, -0.11, 192.0, 0.0, 0.0, 0.0, 0.0, 0.0, 0.0, 0.0, 0.0, 0.0, 1.6689765228186836E9, 0.0, 2022-11-20 15:35:22.818
200.0, -13595.135640518147, -106.79663500745714, -40720.609214378506, -40759.27773228619, -30511.494637905915, -33208.05379248307, -29332.66363533302, -12256.66847904545, -29740.35945419782, -7771.656843621355, -34068.50654703457, -38133.50655239899, -28822.08273674044, -16806.544876878845, -28349.85743163317, -39739.74761244626, 0.078, 0.964, -0.11, 192.0, 1.0, 56.0, 15.0, 16.0, 126.0, 72.0, 0.0, 0.0, 0.0, 1.6689765228186893E9, 0.0, 2022-11-20 15:35:22.818
202.0, -13546.475892838944, -92.58092553388185, -40646.490829764705, -40680.64429529242, -30424.00991010784, -33127.967492099706, -29252.733797160843, -12173.40823094943, -29763.672323664705, -7807.084358583017, -34081.4929105631, -38158.562857933386, -28828.8553153104, -16819.24066772946, -28366.28596380782, -39762.144060390485, 0.078, 0.964, -0.11, 192.0, 0.0, 0.0, 0.0, 0.0, 0.0, 0.0, 0.0, 0.0, 0.0, 1.6689765228186953E9, 0.0, 2022-11-20 15:35:22.818
204.0, -13578.55064613231, -82.81321320691266, -40717.30115619912, -40777.60616273954, -30492.920338263553, -33211.47360938473, -29317.352690381136, -12246.364324851553, -29721.919265022192, -7759.765715571131, -34052.32388404893, -38123.537674371924, -28801.65324230829, -16798.319434919293, -28326.70102437747, -39733.91380714343, 0.078, 0.964, -0.11, 192.0, 0.0, 0.0, 0.0, 0.0, 0.0, 0.0, 0.0, 0.0, 0.0, 1.6689765228187015E9, 0.0, 2022-11-20 15:35:22.818
206.0, -13563.999660491903, -110.37291412030628, -40664.37222532895, -40706.751132816215, -30431.20717182245, -33144.55248648554, -29255.483061728846, -12178.45972519633, -29779.65382095025, -7826.3739140479465, -34099.95545148318, -38175.12550057477, -28848.457795197704, -16853.975278613005, -28377.931222669034, -39787.647400813985, 0.078, 0.964, -0.11, 192.0, 0.0, 0.0, 0.0, 0.0, 0.0, 0.0, 0.0, 0.0, 0.0, 1.6689765228187075E9, 0.0, 2022-11-20 15:35:22.818
208.0, -13580.294082199822, -87.86470745381206, -40730.376926705474, -40787.59739251106, -30509.393573927115, -33222.537722890105, -29327.142754452558, -12254.030973199722, -29724.757936568018, -7764.347823184469, -34057.08480561791, -38126.48810464002, -28808.51522785607, -16811.976350781482, -28332.780698869312, -39738.31710080113, 0.078, 0.964, -0.11, 192.0, 0.0, 0.0, 0.0, 0.0, 0.0, 0.0, 0.0, 0.0, 0.0, 1.6689765228187132E9, 0.0, 2022-11-20 15:35:22.818
210.0, -13557.96468948897, -120.74412354756875, -40664.28281835113, -40701.096141469025, -30445.065253384742, -33148.35228304294, -29267.21772756788, -12186.148725288955, -29779.60911746134, -7835.806350208087, -34108.69498356521, -38188.13421584776, -28861.980600593164, -16868.705078209052, -28399.81358049078, -39796.45398812938, 0.082, 0.964, -0.12, 192.0, 1.0, 72.0, 15.0, 16.0, 126.0, 32.0, 0.0, 0.0, 0.0, 1.6689765228187191E9, 0.0, 2022-11-20 15:35:22.818
212.0, -13548.465198095466, -55.56643671589336, -40695.88818501093, -40750.60525543753, -30502.88921629062, -33194.016896965135, -29311.518885078298, -12232.0368566557, -29683.67543025916, -7738.017468216118, -34021.746697634066, -38097.609650803766, -28779.45796006417, -16780.57214982178, -28320.733108607903, -39705.5717951741, 0.082, 0.964, -0.12, 192.0, 0.0, 0.0, 0.0, 0.0, 0.0, 0.0, 0.0, 0.0, 0.0, 1.668976522818725E9, 0.0, 2022-11-20 15:35:22.818
214.0, -13568.514712871876, -124.78978929397933, -40666.18271662983, -40693.2059756763, -30469.31689611875, -33152.777928445095, -29280.002925396315, -12194.374167248508, -29778.111550582835, -7822.171786090349, -34104.29168990751, -38174.74552091903, -28862.47233897118, -16858.19975831506, -28404.77566775986, -39783.177051922925, 0.082, 0.964, -0.12, 192.0, 0.0, 0.0, 0.0, 0.0, 0.0, 0.0, 0.0, 0.0, 0.0, 1.6689765228187313E9, 0.0, 2022-11-20 15:35:22.818
216.0, -13532.707218254474, -39.98727083054433, -40680.30901912558, -40720.69862135633, -30489.277003917337, -33176.403722334355, -29293.70454474742, -12214.267219813732, -29690.224491384568, -7726.595726799456, -34014.77295336401, -38076.286086593405, -28777.02161991854, -16765.88705371464, -28314.832248071703, -39690.484367666766, 0.082, 0.964, -0.12, 192.0, 0.0, 0.0, 0.0, 0.0, 0.0, 0.0, 0.0, 0.0, 0.0, 1.6689765228187373E9, 0.0, 2022-11-20 15:35:22.818
218.0, -13575.913140286582, -132.5681963644262, -40673.42468183335, -40686.45574885079, -30476.692971789, -33160.735149471184, -29284.048591142728, -12201.236152796288, -29781.397257017765, -7816.06975985405, -34103.86700676286, -38164.82134638087, -28868.797882652034, -16856.724543181008, -28399.14302815712, -39773.051711684675, 0.082, 0.964, -0.12, 192.0, 0.0, 0.0, 0.0, 0.0, 0.0, 0.0, 0.0, 0.0, 0.0, 1.6689765228187432E9, 0.0, 2022-11-20 15:35:22.818
220.0, -13523.587706516708, -28.38671545823997, -40665.10983289598, -40696.3575716445, -30475.441274099503, -33162.43388204979, -29280.092332374137, -12201.280856285199, -29690.090380917834, -7719.286706362571, -34006.569863148914, -38064.35025505427, -28778.854462963878, -16762.46723681298, -28308.819628813224, -39685.18700423086, 0.08, 0.9590000000000001, -0.11499999999999999, 192.0, 1.0, 56.0, 14.5, 104.0, 126.0, 72.0, 0.0, 0.0, 0.0, 1.6689765228187492E9, 0.0, 2022-11-20 15:35:22.818
222.0, -13590.084146271247, -142.82764706941214, -40684.95818197229, -40703.21955719228, -30483.532605592325, -33165.56312627353, -29292.810474969207, -12210.445071511875, -29780.32437328391, -7807.486689983212, -34100.13426543883, -38157.13234628825, -28874.09524608794, -16856.14339782517, -28393.979775187945, -39775.44334834139, 0.08, 0.9590000000000001, -0.11499999999999999, 192.0, 0.0, 0.0, 0.0, 0.0, 0.0, 0.0, 0.0, 0.0, 0.0, 1.6689765228187551E9, 0.0, 2022-11-20 15:35:22.818
224.0, -13532.81897697675, -43.27297726547447, -40667.14384164141, -40708.695734583824, -30471.417960097548, -33155.68365522428, -29277.767750950785, -12197.950446361358, -29700.819218256383, -7736.810474015531, -34016.359927220336, -38084.22095587504, -28782.430742076725, -16772.12319041767, -28313.424088171018, -39693.59126014606, 0.08, 0.9590000000000001, -0.11499999999999999, 192.0, 0.0, 0.0, 0.0, 0.0, 0.0, 0.0, 0.0, 0.0, 0.0, 1.668976522818761E9, 0.0, 2022-11-20 15:35:22.818
226.0, -13598.510753930897, -150.024908784021, -40687.21570816228, -40717.47997015476, -30483.26438465886, -33168.55826003054, -29294.33039359217, -12212.188507579387, -29777.93273662719, -7808.78309116162, -34106.7503817976, -38173.89615462973, -28865.892155872843, -16854.623479202208, -28385.463760550472, -39768.67076977143, 0.08, 0.9590000000000001, -0.11499999999999999, 192.0, 0.0, 0.0, 0.0, 0.0, 0.0, 0.0, 0.0, 0.0, 0.0, 1.668976522818767E9, 0.0, 2022-11-20 15:35:22.818
228.0, -13527.3427995852, -44.72584065506943, -40646.26731232015, -40693.34008614303, -30450.40732030956, -33142.429070762286, -29260.936887375938, -12185.545228188663, -29697.73467752155, -7738.755075783143, -34014.79530510847, -38089.853595477776, -28773.400637316783, -16766.535254303846, -28304.66220434454, -39690.37260894449, 0.08, 0.9590000000000001, -0.11499999999999999, 192.0, 0.0, 0.0, 0.0, 0.0, 0.0, 0.0, 0.0, 0.0, 0.0, 1.6689765228187745E9, 0.0, 2022-11-20 15:35:22.818
230.0, -13611.877097115172, -165.71583339164656, -40700.38088564645, -40736.747173875236, -30498.776495310845, -33194.32982138751, -29310.915387978006, -12235.143749134988, -29783.498320996565, -7816.092111598506, -34108.82909403194, -38175.52783197496, -28870.451911741726, -16862.804217672852, -28390.045868163812, -39778.997275709786, 0.078, 0.9595, -0.11149999999999999, 192.0, 1.0, 48.0, 15.0, 0.0, 126.0, 80.0, 0.0, 0.0, 0.0, 1.6689765228187804E9, 0.0, 2022-11-20 15:35:22.818
232.0, -13497.391462015088, -27.939680569133827, -40617.00887882816, -40666.629751518936, -30416.20915129294, -33120.814933874004, -29230.672625383453, -12161.539454643662, -29701.266253145488, -7740.096180450461, -34009.095610272365, -38082.11989189624, -28774.02648616153, -16775.543007319335, -28301.488256631885, -39695.513510169214, 0.078, 0.9595, -0.11149999999999999, 192.0, 0.0, 0.0, 0.0, 0.0, 0.0, 0.0, 0.0, 0.0, 0.0, 1.6689765228187864E9, 0.0, 2022-11-20 15:35:22.818
234.0, -13589.54770440432, -139.6089958678479, -40689.67440005236, -40730.08635402755, -30494.12733246414, -33200.70006855727, -29304.61219604161, -12233.355609578564, -29751.2224020031, -7779.323491969525, -34070.048817401985, -38133.21597972107, -28840.433518938247, -16845.05693257534, -28355.266553791353, -39751.929313174405, 0.078, 0.9595, -0.11149999999999999, 192.0, 0.0, 0.0, 0.0, 0.0, 0.0, 0.0, 0.0, 0.0, 0.0, 1.6689765228187923E9, 0.0, 2022-11-20 15:35:22.818
236.0, -13508.097947609182, -41.753058642513594, -40616.69595440578, -40661.71236773877, -30425.50747698635, -33133.13074506888, -29237.69107314242, -12167.105039013033, -29710.810448027903, -7755.004794002151, -34010.61552889532, -38082.63398201871, -28786.431704334227, -16793.312644161302, -28313.289977704288, -39710.28801325417, 0.078, 0.9595, -0.11149999999999999, 192.0, 0.0, 0.0, 0.0, 0.0, 0.0, 0.0, 0.0, 0.0, 0.0, 1.6689765228187983E9, 0.0, 2022-11-20 15:35:22.818
238.0, -13601.014149309893, -143.76642033653502, -40707.53344387215, -40743.050365811636, -30507.47132390396, -33208.67964132782, -29318.4702776039, -12243.883281217013, -29753.92696308219, -7782.16216351535, -34072.06047440296, -38132.52307564295, -28844.479184684657, -16839.781920883885, -28363.0449608618, -39750.454098040354, 0.078, 0.9595, -0.11149999999999999, 192.0, 0.0, 0.0, 0.0, 0.0, 0.0, 0.0, 0.0, 0.0, 0.0, 1.6689765228188043E9, 0.0, 2022-11-20 15:35:22.818
240.0, -13511.473061021932, -54.62766344877046, -40622.75327715317, -40658.650178748394, -30416.00798559284, -33117.14924778334, -29229.085651527126, -12155.102152240534, -29728.02129125849, -7767.767640086132, -34034.822468140424, -38103.2422904065, -28795.46180909417, -16790.3622138932, -28335.194687270487, -39713.79723713365, 0.077, 0.95975, -0.11074999999999999, 192.0, 1.0, 48.0, 15.0, 0.0, 126.0, 72.0, 0.0, 0.0, 0.0, 1.66897652281881E9, 0.0, 2022-11-20 15:35:22.818
242.0, -13594.107460273202, -130.33302191889547, -40712.38377241895, -40752.25928452722, -30507.22545471495, -33204.790437792595, -29318.80555377073, -12243.302135861175, -29746.439128689664, -7777.49064892419, -34074.36270408186, -38134.4006221772, -28833.638588623835, -16818.95009505154, -28361.480338749927, -39741.62515898051, 0.077, 0.95975, -0.11074999999999999, 192.0, 0.0, 0.0, 0.0, 0.0, 0.0, 0.0, 0.0, 0.0, 0.0, 1.6689765232999964E9, 0.0, 2022-11-20 15:35:23.299
244.0, -13503.851116162672, -48.32447151237387, -40613.85728285996, -40650.87177167794, -30411.358822746137, -33104.85578833292, -29225.039985780717, -12144.730942813272, -29716.93482600866, -7764.124305739917, -34028.8322006264, -38102.88466249522, -28787.616346790357, -16779.09693468773, -28338.234524516407, -39716.03241157918, 0.077, 0.95975, -0.11074999999999999, 192.0, 0.0, 0.0, 0.0, 0.0, 0.0, 0.0, 0.0, 0.0, 0.0, 1.6689765233000927E9, 0.0, 2022-11-20 15:35:23.300
246.0, -13587.200771236512, -119.89475725826708, -40722.33029870156, -40766.58675272307, -30524.52570492336, -33216.23453095371, -29334.764699311818, -12258.054287201678, -29732.53634363846, -7765.1524859848605, -34056.905991662265, -38123.940005772114, -28821.74746057361, -16808.154202479625, -28363.782568428825, -39737.75830718974, 0.077, 0.95975, -0.11074999999999999, 192.0, 0.0, 0.0, 0.0, 0.0, 0.0, 0.0, 0.0, 0.0, 0.0, 1.668976523300098E9, 0.0, 2022-11-20 15:35:23.300
248.0, -13505.393386530088, -65.33414904286255, -40621.881559119414, -40659.85717294898, -30420.8806658841, -33114.31057623751, -29235.232381252335, -12155.683297596372, -29740.22534373109, -7786.833678106508, -34047.00416886857, -38128.87974129674, -28810.45982962368, -16802.07452798778, -28369.839891176212, -39746.766060205235, 0.077, 0.95975, -0.11074999999999999, 192.0, 0.0, 0.0, 0.0, 0.0, 0.0, 0.0, 0.0, 0.0, 0.0, 1.6689765233001027E9, 0.0, 2022-11-20 15:35:23.300
250.0, -13567.039497737826, -96.82775698039019, -40709.05336249511, -40761.53525847617, -30507.627786115147, -33208.7914000501, -29320.23606541587, -12242.743342249792, -29717.06893647539, -7753.730744568199, -34041.796212410474, -38116.85450277979, -28801.385021374826, -16787.188266180547, -28346.504669964874, -39728.638795451974, 0.0775, 0.955875, -0.110375, 192.0, 1.0, 56.0, 14.5, 96.0, 126.0, 72.0, 0.0, 0.0, 0.0, 1.6689765233001077E9, 0.0, 2022-11-20 15:35:23.300
252.0, -13505.616903974642, -68.21752407759716, -40614.57253868253, -40660.84064970502, -30400.294709240763, -33107.895625578836, -29219.519104900257, -12140.484111366763, -29740.091233264357, -7781.357500714958, -34051.094538103884, -38134.847657066304, -28804.335451642928, -16795.592522095743, -28349.9915420999, -39742.072193869615, 0.0775, 0.955875, -0.110375, 192.0, 0.0, 0.0, 0.0, 0.0, 0.0, 0.0, 0.0, 0.0, 0.0, 1.6689765233001125E9, 0.0, 2022-11-20 15:35:23.300
254.0, -13555.170721432058, -75.68300672566971, -40697.11753095598, -40760.19415380885, -30484.337268392715, -33195.29094639909, -29297.325527349178, -12222.783234451204, -29697.801732754917, -7732.206014657738, -34025.390031980285, -38104.62809856273, -28769.958468670666, -16764.143617647125, -28305.89155028958, -39707.58345217508, 0.0775, 0.955875, -0.110375, 192.0, 0.0, 0.0, 0.0, 0.0, 0.0, 0.0, 0.0, 0.0, 0.0, 1.6689765233001173E9, 0.0, 2022-11-20 15:35:23.300
0.0, -13548.666363795563, -109.34473387536215, -40651.251751333686, -40698.503339112205, -30430.178991577508, -33137.08700383747, -29247.861116869586, -12166.434486679374, -29775.630506948295, -7815.510966242668, -34090.56771881196, -38177.04775059793, -28830.66580661128, -16827.823737600298, -28374.13142611163, -39771.75531050626, 0.0775, 0.955875, -0.110375, 192.0, 0.0, 0.0, 0.0, 0.0, 0.0, 0.0, 0.0, 0.0, 0.0, 1.668976523300122E9, 0.0, 2022-11-20 15:35:23.300
2.0, -13555.751866787896, -74.18543984716415, -40708.18164446135, -40773.60520048204, -30494.50731211988, -33195.78268477711, -29306.109762920114, -12224.07963562961, -29714.185561440656, -7751.875549778409, -34039.24811354257, -38127.13630522923, -28783.056590921475, -16774.425420096566, -28327.125707522122, -39712.009097577225, 0.0775, 0.955875, -0.110375, 192.0, 0.0, 0.0, 0.0, 0.0, 0.0, 0.0, 0.0, 0.0, 0.0, 1.6689765233001268E9, 0.0, 2022-11-20 15:35:23.300
4.0, -13560.915119757072, -124.9909549940771, -40663.52285903965, -40711.73557182975, -30450.45202379847, -33147.122937097905, -29266.860099656595, -12178.906760085436, -29786.962841387136, -7829.3690478049575, -34103.30821315148, -38198.192500852645, -28852.79403362203, -16841.23478427348, -28402.115810169675, -39775.15277566347, 0.07675, 0.9519375000000001, -0.1071875, 192.0, 1.0, 48.0, 14.5, 80.0, 126.0, 96.0, 0.0, 0.0, 0.0, 1.6689765233001392E9, 0.0, 2022-11-20 15:35:23.300
6.0, -13559.886939512127, -70.00566363402172, -40703.17485370336, -40770.855935914034, -30501.972794767953, -33201.68354531331, -29313.977576968384, -12231.031028155212, -29720.44404988814, -7754.580110857501, -34039.51633447604, -38130.82434306435, -28792.153750914786, -16777.487609086944, -28337.586323927204, -39709.840978365064, 0.07675, 0.9519375000000001, -0.1071875, 192.0, 0.0, 0.0, 0.0, 0.0, 0.0, 0.0, 0.0, 0.0, 0.0, 1.668976523300144E9, 0.0, 2022-11-20 15:35:23.300
8.0, -13562.077410468748, -125.59445209437038, -40657.1973153588, -40700.93967925783, -30451.50255578787, -33143.79252717406, -29264.446111255424, -12177.498600184752, -29799.032783393002, -7833.012382151173, -34114.104105723396, -38208.49665504655, -28866.339190761948, -16853.125912323703, -28415.593912076227, -39783.57938332312, 0.07675, 0.9519375000000001, -0.1071875, 192.0, 0.0, 0.0, 0.0, 0.0, 0.0, 0.0, 0.0, 0.0, 0.0, 1.6689765233001485E9, 0.0, 2022-11-20 15:35:23.300
10.0, -13525.599363517686, -45.776372644468864, -40676.129242912444, -40736.90363608643, -30475.709495032967, -33175.7331700007, -29281.03110564126, -12203.672492941916, -29690.537415806943, -7729.188529156271, -34008.71563061662, -38100.64948804969, -28760.16840459924, -16748.206823850494, -28307.389117168084, -39680.89546929544, 0.07675, 0.9519375000000001, -0.1071875, 192.0, 0.0, 0.0, 0.0, 0.0, 0.0, 0.0, 0.0, 0.0, 0.0, 1.6689765233001535E9, 0.0, 2022-11-20 15:35:23.300
12.0, -13569.453486138998, -143.9899377810881, -40672.10592891049, -40708.919252028376, -30461.40437858157, -33161.47275703821, -29268.98351537985, -12188.540361945674, -29781.352553528854, -7830.106655371983, -34102.72706779565, -38197.54430026344, -28858.024341824574, -16847.985011098983, -28397.71251651198, -39780.248973399284, 0.07675, 0.9519375000000001, -0.1071875, 192.0, 0.0, 0.0, 0.0, 0.0, 0.0, 0.0, 0.0, 0.0, 0.0, 1.668976523300158E9, 0.0, 2022-11-20 15:35:23.300
14.0, -13537.401084590088, -63.456602508616754, -40682.09715868201, -40737.2165605088, -30470.83681474171, -33177.20838513474, -29278.013620139795, -12201.88435338549, -29709.1117154493, -7751.249700933659, -34024.67477615771, -38117.3462411578, -28779.45796006417, -16762.109608901694, -28316.821553328224, -39700.09561778255, 0.078375, 0.94996875, -0.10559375000000001, 192.0, 1.0, 64.0, 14.5, 80.0, 126.0, 96.0, 0.0, 0.0, 0.0, 1.6689765233001633E9, 0.0, 2022-11-20 15:35:23.300
16.0, -13597.594332408231, -168.71096714865772, -40694.927059999354, -40736.38954596395, -30483.42084687005, -33182.57280380402, -29289.211844111902, -12209.014559866735, -29805.425382307218, -7841.059010155083, -34126.24110296263, -38217.54911155094, -28874.966964121697, -16858.065647848325, -28407.212007905488, -39794.95642125087, 0.078375, 0.94996875, -0.10559375000000001, 192.0, 0.0, 0.0, 0.0, 0.0, 0.0, 0.0, 0.0, 0.0, 0.0, 1.668976523300168E9, 0.0, 2022-11-20 15:35:23.300
18.0, -13526.515785040354, -54.18062855966432, -40666.74151024121, -40725.39248769194, -30464.533622805313, -33167.440672807774, -29274.6608584715, -12198.688053928383, -29714.386727140754, -7758.603424859456, -34028.85455237085, -38124.856427294784, -28779.323849597436, -16762.623699024167, -28320.64370163008, -39706.66703065241, 0.078375, 0.94996875, -0.10559375000000001, 192.0, 0.0, 0.0, 0.0, 0.0, 0.0, 0.0, 0.0, 0.0, 0.0, 1.6689765233001726E9, 0.0, 2022-11-20 15:35:23.300
20.0, -13586.194942736023, -155.97047280913267, -40691.77546403116, -40735.11549653, -30484.09139920371, -33184.651516038364, -29298.241948871848, -12219.676341971915, -29790.80734143345, -7827.1338733594275, -34115.914597024275, -38204.45098930013, -28867.210908795707, -16849.39317099967, -28400.707650268992, -39787.46858685835, 0.078375, 0.94996875, -0.10559375000000001, 192.0, 0.0, 0.0, 0.0, 0.0, 0.0, 0.0, 0.0, 0.0, 0.0, 1.6689765233001773E9, 0.0, 2022-11-20 15:35:23.300
22.0, -13496.899723637072, -35.338107983840466, -40636.29843429309, -40699.59857459051, -30434.805802679755, -33141.95968412873, -29249.895125615018, -12174.726983872293, -29701.646232801228, -7746.265261920126, -34014.41532545273, -38108.986688731515, -28764.974029657133, -16751.64899249661, -28308.59611136867, -39701.23555674977, 0.078375, 0.94996875, -0.10559375000000001, 192.0, 0.0, 0.0, 0.0, 0.0, 0.0, 0.0, 0.0, 0.0, 0.0, 1.668976523300182E9, 0.0, 2022-11-20 15:35:23.300
24.0, -13577.969500776471, -148.30382446096237, -40683.79589126061, -40736.76952561969, -30470.188614152506, -33181.924603214815, -29289.45771330091, -12213.41785352443, -29770.869585379314, -7804.648018437389, -34095.149826425295, -38183.82032916789, -28845.261495740593, -16830.86357484622, -28373.90790866708, -39770.86124072805, 0.0781875, 0.955984375, -0.10579687500000001, 192.0, 1.0, 56.0, 15.0, 8.0, 126.0, 88.0, 0.0, 0.0, 0.0, 1.6689765233001888E9, 0.0, 2022-11-20 15:35:23.300
26.0, -13483.756897897352, -26.844445090823783, -40614.01374507115, -40678.297362124606, -30409.88360761209, -33114.84701810444, -29223.02832877974, -12146.362620158508, -29690.895043718225, -7739.984421728185, -33999.663174112226, -38100.22480490504, -28748.679607949212, -16743.714123214977, -28289.574776837206, -39684.33763794156, 0.0781875, 0.955984375, -0.10579687500000001, 192.0, 0.0, 0.0, 0.0, 0.0, 0.0, 0.0, 0.0, 0.0, 0.0, 1.668976523300195E9, 0.0, 2022-11-20 15:35:23.300
28.0, -13585.569093891276, -150.42724018421654, -40703.19720544782, -40753.08629907206, -30494.999050497896, -33192.340516130986, -29304.589844297156, -12224.057283885157, -29766.242774277067, -7801.407015491369, -34088.868986233356, -38179.260573299005, -28842.355768961403, -16826.81790909981, -28372.05271387729, -39757.807821966155, 0.0781875, 0.955984375, -0.10579687500000001, 192.0, 0.0, 0.0, 0.0, 0.0, 0.0, 0.0, 0.0, 0.0, 0.0, 1.6689765233002017E9, 0.0, 2022-11-20 15:35:23.300
30.0, -13485.254464775857, -42.401259231717496, -40620.1381230519, -40670.742472498714, -30417.326738515705, -33107.5156459231, -29223.765936346765, -12138.87478576598, -29705.982471225558, -7749.416857888325, -34012.98481380759, -38107.4444183641, -28769.086750636907, -16750.017315151374, -28315.54750389427, -39692.496024667744, 0.0781875, 0.955984375, -0.10579687500000001, 192.0, 0.0, 0.0, 0.0, 0.0, 0.0, 0.0, 0.0, 0.0, 0.0, 1.668976523300208E9, 0.0, 2022-11-20 15:35:23.300
32.0, -13585.189114235534, -154.80818209745672, -40710.14859797342, -40758.04838634114, -30510.98054778344, -33198.353135389465, -29315.206922913425, -12228.952315920867, -29757.749111384048, -7792.689835153799, -34085.73974200961, -38171.37040750628, -28842.691045128235, -16816.51375490591, -28376.56776625726, -39748.95653116185, 0.0781875, 0.955984375, -0.10579687500000001, 192.0, 0.0, 0.0, 0.0, 0.0, 0.0, 0.0, 0.0, 0.0, 0.0, 1.6689765233002143E9, 0.0, 2022-11-20 15:35:23.300
34.0, -13504.655778963064, -72.88903866875633, -40626.86599813295, -40677.045664435114, -30428.34614853217, -33122.08898330796, -29239.143936532015, -12154.945690029346, -29725.696709835138, -7774.137887255894, -34037.34821526387, -38136.345223944816, -28796.55704457248, -16773.620757296176, -28339.709739650458, -39715.56302494562, 0.0781875, 0.955984375, -0.10579687500000001, 192.0, 0.0, 0.0, 0.0, 0.0, 0.0, 0.0, 0.0, 0.0, 0.0, 1.668976523300221E9, 0.0, 2022-11-20 15:35:23.300
36.0, -13583.624492123663, -148.61674888333667, -40713.814284064094, -40768.66546495741, -30514.579178640746, -33210.95951926226, -29325.600484085142, -12242.09514166059, -29747.020274045502, -7789.918218841341, -34077.26843086105, -38169.44815748312, -28834.487954913136, -16814.65856011612, -28365.52600449634, -39748.509496272745, 0.084, 0.962, -0.108, 192.0, 1.0, 80.0, 15.0, 8.0, 126.0, 80.0, 0.0, 0.0, 0.0, 1.6689765233002305E9, 0.0, 2022-11-20 15:35:23.300
38.0, -13515.921058168538, -94.21260287911927, -40631.26929179064, -40684.62290580546, -30426.669767698026, -33129.17448630029, -29243.726044145355, -12162.053544766135, -29736.783175084973, -7790.0970327969835, -34044.612532211846, -38148.88455258424, -28802.70377429769, -16791.636263327153, -28344.917696108547, -39733.73499318779, 0.084, 0.962, -0.108, 192.0, 0.0, 0.0, 0.0, 0.0, 0.0, 0.0, 0.0, 0.0, 0.0, 1.6689765233002353E9, 0.0, 2022-11-20 15:35:23.300
40.0, -13590.106498015703, -155.52343792002654, -40722.844388824036, -40782.99293315327, -30518.021347286864, -33225.823429325035, -29332.82009754421, -12252.399295854486, -29754.79868111595, -7797.473108467235, -34079.23538437312, -38172.84562264033, -28835.00204503561, -16824.582734654276, -28361.301524794286, -39758.00898766625, 0.084, 0.962, -0.108, 192.0, 0.0, 0.0, 0.0, 0.0, 0.0, 0.0, 0.0, 0.0, 0.0, 1.66897652330024E9, 0.0, 2022-11-20 15:35:23.300
42.0, -13516.658665735564, -105.3661233623175, -40626.284852777106, -40675.05635917859, -30416.790296648778, -33127.386346743864, -29238.719253387364, -12156.063277252111, -29751.71414038112, -7807.151413816383, -34065.06437838845, -38163.994331836024, -28817.7017948272, -16812.155164737127, -28356.361789269664, -39756.08673764309, 0.084, 0.962, -0.108, 192.0, 0.0, 0.0, 0.0, 0.0, 0.0, 0.0, 0.0, 0.0, 0.0, 1.6689765233002448E9, 0.0, 2022-11-20 15:35:23.300
44.0, -13565.229006436946, -115.67027755621405, -40704.67242058187, -40763.50221198824, -30500.721097078454, -33214.82637105303, -29321.130135194082, -12242.676287016428, -29721.382823155265, -7763.230235961704, -34047.674721202224, -38134.73589834403, -28806.436515621725, -16792.351519149724, -28332.35601572466, -39730.404583263946, 0.084, 0.962, -0.108, 192.0, 0.0, 0.0, 0.0, 0.0, 0.0, 0.0, 0.0, 0.0, 0.0, 1.6689765233002496E9, 0.0, 2022-11-20 15:35:23.300
46.0, -13498.799621915774, -84.91427718571153, -40603.575480410516, -40649.59772224399, -30396.226691749896, -33112.142457025344, -29220.703747356387, -12141.087608467056, -29752.474099692598, -7798.277771267626, -34059.36468355235, -38152.63964565273, -28823.200323963207, -16810.210562969514, -28354.37248401314, -39750.78937420718, 0.084, 0.96, -0.11, 192.0, 1.0, 80.0, 15.0, 0.0, 126.0, 72.0, 0.0, 0.0, 0.0, 1.6689765233002543E9, 0.0, 2022-11-20 15:35:23.300
48.0, -13525.174680373035, -73.49253576904962, -40672.217687632765, -40732.65680463991, -30473.36256186516, -33186.50671082815, -29292.609309269108, -12215.049530869668, -29687.49757856102, -7723.265316875615, -34007.44158118267, -38093.340467612805, -28769.31026808146, -16754.88999544263, -28297.64375658557, -39690.59612638904, 0.084, 0.96, -0.11, 192.0, 0.0, 0.0, 0.0, 0.0, 0.0, 0.0, 0.0, 0.0, 0.0, 1.668976523300259E9, 0.0, 2022-11-20 15:35:23.300
50.0, -13510.646046477086, -103.801501250446, -40614.259614260154, -40653.73279496823, -30410.531808201293, -33110.53313142456, -29231.7008056284, -12145.915585269402, -29746.774404856493, -7789.426480463324, -34055.69899746168, -38147.31993047237, -28818.79703030551, -16801.493382631943, -28354.99833285789, -39741.60280723606, 0.084, 0.96, -0.11, 192.0, 0.0, 0.0, 0.0, 0.0, 0.0, 0.0, 0.0, 0.0, 0.0, 1.668976523300264E9, 0.0, 2022-11-20 15:35:23.300
52.0, -13539.39038984661, -89.2281638655858, -40684.71231278328, -40742.268054755696, -30487.868844016655, -33184.316239871536, -29301.92998670697, -12218.670513471427, -29692.68318327465, -7726.439264588269, -34011.30843297344, -38098.235499648516, -28774.294707094996, -16750.240832595926, -28302.829361299202, -39681.94600128484, 0.084, 0.96, -0.11, 192.0, 0.0, 0.0, 0.0, 0.0, 0.0, 0.0, 0.0, 0.0, 0.0, 1.668976523300292E9, 0.0, 2022-11-20 15:35:23.300
54.0, -13527.3427995852, -126.51087361703797, -40627.51419872215, -40669.71429225377, -30418.44432573847, -33113.66237564831, -29239.300398743202, -12150.587099860562, -29770.266088279022, -7812.694646441299, -34081.448207074194, -38174.87963138576, -28839.785318349044, -16820.313551463314, -28374.51140576737, -39752.7339759748, 0.084, 0.96, -0.11, 192.0, 0.0, 0.0, 0.0, 0.0, 0.0, 0.0, 0.0, 0.0, 0.0, 1.6689765233002973E9, 0.0, 2022-11-20 15:35:23.300
56.0, -13511.71893021094, -63.90363739772289, -40665.13218464043, -40727.13592375945, -30469.674524030033, -33159.483451781685, -29279.958221907407, -12194.016539337223, -29681.417904069174, -7720.359590096426, -33999.663174112226, -38092.37934260123, -28760.92836391072, -16739.087312112726, -28292.972241994412, -39672.04417849114, 0.076, 0.9560000000000001, -0.116, 192.0, 1.0, 48.0, 14.5, 112.0, 126.0, 48.0, 0.0, 0.0, 0.0, 1.668976523300302E9, 0.0, 2022-11-20 15:35:23.300
58.0, -13536.507014811876, -139.83251331240098, -40642.37810878493, -40683.14769067141, -30433.844677668178, -33128.14630605534, -29247.816413380675, -12158.276099953187, -29766.287477765978, -7807.509041727668, -34083.70573326418, -38177.159509320205, -28843.13808001734, -16824.29216197636, -28377.461836035473, -39754.96915042033, 0.076, 0.9560000000000001, -0.116, 192.0, 0.0, 0.0, 0.0, 0.0, 0.0, 0.0, 0.0, 0.0, 0.0, 1.6689765233003068E9, 0.0, 2022-11-20 15:35:23.300
60.0, -13523.76652047235, -77.1805736041753, -40675.81631849007, -40739.63054890997, -30474.45779734347, -33177.92364095731, -29283.333335320156, -12202.197277807865, -29685.44121807113, -7719.599630784945, -34004.78172359249, -38094.100426924284, -28764.392884301295, -16743.26708832587, -28296.0791344737, -39679.017922761195, 0.076, 0.9560000000000001, -0.116, 192.0, 0.0, 0.0, 0.0, 0.0, 0.0, 0.0, 0.0, 0.0, 0.0, 1.6689765233003116E9, 0.0, 2022-11-20 15:35:23.300
62.0, -13563.843198280716, -170.40969972726106, -40663.545210784105, -40711.936737529846, -30454.83296571171, -33163.08208263899, -29270.011695624795, -12188.339196245575, -29791.097914111368, -7829.279640827137, -34111.46659987767, -38203.154588121724, -28868.104978573916, -16852.030676845396, -28394.180940888044, -39785.5910403241, 0.076, 0.9560000000000001, -0.116, 192.0, 0.0, 0.0, 0.0, 0.0, 0.0, 0.0, 0.0, 0.0, 0.0, 1.6689765233003163E9, 0.0, 2022-11-20 15:35:23.300
64.0, -13501.794755672785, -59.12036408428718, -40647.273140820645, -40715.088333498046, -30443.36652080614, -33154.878992423895, -29258.03116059675, -12178.929111829892, -29682.691953503127, -7727.310982622026, -33999.864339812324, -38097.453188592575, -28755.049855118974, -16742.015390636374, -28285.55146283525, -39680.04610300614, 0.076, 0.9560000000000001, -0.116, 192.0, 0.0, 0.0, 0.0, 0.0, 0.0, 0.0, 0.0, 0.0, 0.0, 1.6689765233003223E9, 0.0, 2022-11-20 15:35:23.300
66.0, -13571.666308840075, -175.05886257396492, -40672.30709461059, -40718.75401958871, -30461.940820448497, -33169.049998408555, -29278.281841073258, -12194.59768469306, -29778.625640705308, -7820.517757000656, -34103.44232361821, -38198.32661131938, -28853.397530722326, -16839.446644717056, -28382.93801342702, -39776.35976986406, 0.078, 0.962, -0.114, 192.0, 1.0, 56.0, 15.0, 8.0, 126.0, 56.0, 0.0, 0.0, 0.0, 1.6689765233003273E9, 0.0, 2022-11-20 15:35:23.300
68.0, -13515.29520932379, -78.90165792723393, -40659.365434570966, -40717.97170853278, -30455.07883490072, -33161.53981227158, -29267.821224668172, -12187.981568334291, -29692.236148385546, -7737.190453671272, -34008.13448526079, -38104.60574681828, -28761.330695310917, -16743.31179181478, -28298.493122874872, -39690.19379498885, 0.078, 0.962, -0.114, 192.0, 0.0, 0.0, 0.0, 0.0, 0.0, 0.0, 0.0, 0.0, 0.0, 1.6689765233003337E9, 0.0, 2022-11-20 15:35:23.300
70.0, -13597.437870197044, -203.26676407656242, -40707.33227817205, -40744.52558094569, -30497.882425532633, -33194.0839521985, -29307.85319898763, -12224.41491179644, -29805.537141029497, -7836.320440330558, -34129.23623671964, -38217.43735282867, -28885.427580526783, -16858.020944359418, -28413.42579286406, -39798.89032827501, 0.078, 0.962, -0.114, 192.0, 0.0, 0.0, 0.0, 0.0, 0.0, 0.0, 0.0, 0.0, 0.0, 1.6689765233003385E9, 0.0, 2022-11-20 15:35:23.300
72.0, -13478.392479228078, -54.672366937681076, -40623.066201575544, -40679.86198423648, -30422.802915907258, -33122.69248040825, -29230.337349216625, -12153.291660939654, -29696.751200765517, -7739.872663005908, -34007.08395327139, -38103.197586917595, -28768.483253536615, -16742.842405181218, -28303.946948521967, -39688.62917287698, 0.078, 0.962, -0.114, 192.0, 0.0, 0.0, 0.0, 0.0, 0.0, 0.0, 0.0, 0.0, 0.0, 1.6689765233003435E9, 0.0, 2022-11-20 15:35:23.300
74.0, -13580.539951388831, -181.96555161065479, -40697.519862356174, -40745.486705957264, -30490.014611484363, -33192.273460897624, -29302.198207640435, -12222.783234451204, -29763.828785875892, -7803.73159691472, -34090.187739156216, -38181.629858211265, -28855.94562959023, -16829.120138778704, -28377.685353480025, -39767.173202892925, 0.078, 0.962, -0.114, 192.0, 0.0, 0.0, 0.0, 0.0, 0.0, 0.0, 0.0, 0.0, 0.0, 1.6689765233003483E9, 0.0, 2022-11-20 15:35:23.300
76.0, -13493.032871846304, -75.70535847012502, -40625.97192835473, -40685.04758895011, -30429.284921799295, -33132.12491656839, -29238.898067343005, -12159.818370320603, -29696.72884902106, -7749.014526488129, -34010.280252728495, -38106.5950520748, -28773.780616972523, -16754.39825706461, -28308.84198055768, -39696.65344913643, 0.074, 0.9560000000000001, -0.116, 192.0, 1.0, 40.0, 14.5, 112.0, 126.0, 48.0, 0.0, 0.0, 0.0, 1.668976523300353E9, 0.0, 2022-11-20 15:35:23.300
78.0, -13611.11713780369, -212.60979325888079, -40725.079563269566, -40777.852031928545, -30523.07284153376, -33227.41040318136, -29333.98238825588, -12251.907557476468, -29773.88707088078, -7817.7461406881985, -34101.11774219486, -38187.910698403204, -28866.741522162145, -16845.23574653098, -28385.28494659483, -39776.471528586335, 0.074, 0.9560000000000001, -0.116, 192.0, 0.0, 0.0, 0.0, 0.0, 0.0, 0.0, 0.0, 0.0, 0.0, 1.668976523300358E9, 0.0, 2022-11-20 15:35:23.300
80.0, -13508.522630753832, -100.13581515977565, -40629.54820746758, -40696.42462687786, -30427.765003176333, -33139.61275096092, -29242.07201505566, -12162.701745355338, -29735.553829139928, -7790.20879151926, -34041.12566007682, -38141.910808314184, -28807.04001272202, -16794.407879639613, -28337.921600094036, -39732.59505422057, 0.074, 0.9560000000000001, -0.116, 192.0, 0.0, 0.0, 0.0, 0.0, 0.0, 0.0, 0.0, 0.0, 0.0, 1.6689765233003626E9, 0.0, 2022-11-20 15:35:23.300
82.0, -13591.939341061037, -192.51557499355974, -40712.33906893004, -40774.9239534049, -30510.041774516318, -33222.537722890105, -29322.113611950113, -12243.413894583451, -29767.203899288645, -7806.793785905098, -34085.18094839823, -38181.31693378889, -28853.777510378066, -16842.19590928506, -28371.80684468828, -39766.97203719283, 0.074, 0.9560000000000001, -0.116, 192.0, 0.0, 0.0, 0.0, 0.0, 0.0, 0.0, 0.0, 0.0, 0.0, 1.6689765233003674E9, 0.0, 2022-11-20 15:35:23.300
84.0, -13495.357453269657, -99.50996631502704, -40614.48313170471, -40672.7988329886, -30409.88360761209, -33128.14630605534, -29229.487982927323, -12154.1186754845, -29726.814297057903, -7782.005701304162, -34027.5805029369, -38133.01481402097, -28798.56870157346, -16788.395260381134, -28331.37253896863, -39724.63783319448, 0.074, 0.9560000000000001, -0.116, 192.0, 0.0, 0.0, 0.0, 0.0, 0.0, 0.0, 0.0, 0.0, 0.0, 1.6689765233003721E9, 0.0, 2022-11-20 15:35:23.300
86.0, -13575.06377399728, -167.95100783717726, -40698.16806294538, -40750.87347637099, -30503.13508547963, -33211.58536810701, -29314.402260113035, -12236.887185202502, -29740.627675131283, -7781.715128626243, -34060.906953919766, -38151.499706685514, -28832.02926302305, -16814.256228715923, -28350.930315367023, -39743.81562993713, 0.078, 0.9560000000000001, -0.112, 192.0, 1.0, 56.0, 14.5, 112.0, 126.0, 64.0, 0.0, 0.0, 0.0, 1.668976523300377E9, 0.0, 2022-11-20 15:35:23.300
88.0, -13490.551828211765, -95.84428022435668, -40592.7795878386, -40635.85139940398, -30396.025526049798, -33100.74306735314, -29210.153723973483, -12130.358771128509, -29732.245770960544, -7783.592675160489, -34034.397784995774, -38129.63970060822, -28805.78831503252, -16787.90352200312, -28329.89732383458, -39721.75445815974, 0.078, 0.9560000000000001, -0.112, 192.0, 0.0, 0.0, 0.0, 0.0, 0.0, 0.0, 0.0, 0.0, 0.0, 1.668976523300382E9, 0.0, 2022-11-20 15:35:23.300
90.0, -13569.475837883454, -151.99186229608802, -40692.96010648729, -40742.53627568916, -30499.42469590005, -33201.4376761243, -29307.629681543076, -12230.9863246663, -29715.59372134134, -7751.0038317446515, -34034.12956406231, -38117.90503476918, -28807.017660977563, -16778.60519630971, -28312.03828001479, -39705.19181551836, 0.078, 0.9560000000000001, -0.112, 192.0, 0.0, 0.0, 0.0, 0.0, 0.0, 0.0, 0.0, 0.0, 0.0, 1.6689765233003867E9, 0.0, 2022-11-20 15:35:23.300
92.0, -13499.67133994953, -113.90448974424478, -40603.32961122151, -40647.98839664321, -30408.25193026685, -33109.19202675724, -29221.061375267673, -12142.763989301204, -29741.16411699821, -7787.124250784427, -34042.13148857731, -38139.94385480211, -28818.70762332769, -16794.452583128525, -28335.46290820395, -39726.09069658407, 0.078, 0.9560000000000001, -0.112, 192.0, 0.0, 0.0, 0.0, 0.0, 0.0, 0.0, 0.0, 0.0, 0.0, 1.6689765233003912E9, 0.0, 2022-11-20 15:35:23.300
94.0, -13558.724648800451, -144.23580697009646, -40695.41879837737, -40754.427403739384, -30500.117599978163, -33206.042135482094, -29312.770582767796, -12238.027124169723, -29710.676337561174, -7752.210825945238, -34026.9323023477, -38119.51436036997, -28805.833018521433, -16780.728612032963, -28314.161695738043, -39706.845844608055, 0.078, 0.9560000000000001, -0.112, 192.0, 0.0, 0.0, 0.0, 0.0, 0.0, 0.0, 0.0, 0.0, 0.0, 1.668976523300396E9, 0.0, 2022-11-20 15:35:23.300
96.0, -13517.463328535954, -139.67605110121383, -40624.74258240969, -40670.22838237624, -30427.29561654277, -33132.66135843532, -29244.955390090396, -12166.948576801846, -29757.100910794845, -7804.424500992835, -34060.03523588601, -38152.17025901917, -28836.209039236193, -16815.150298494136, -28359.51338523786, -39755.39383356498, 0.076, 0.9560000000000001, -0.108, 192.0, 1.0, 48.0, 14.5, 112.0, 126.0, 80.0, 0.0, 0.0, 0.0, 1.6689765233004007E9, 0.0, 2022-11-20 15:35:23.300
98.0, -13554.96955573196, -131.24944344156307, -40697.63162107845, -40750.31468275961, -30499.782323811334, -33213.664080341354, -29319.81138227122, -12244.509130061762, -29713.336195151354, -7746.444075875769, -34031.536761705494, -38104.82926426283, -28808.6493383228, -16782.963786478496, -28327.08100403321, -39723.63200469399, 0.076, 0.9560000000000001, -0.108, 192.0, 0.0, 0.0, 0.0, 0.0, 0.0, 0.0, 0.0, 0.0, 0.0, 1.6689765233004055E9, 0.0, 2022-11-20 15:35:23.300
100.0, -13550.521558585353, -167.70513864816888, -40646.2449605757, -40676.688036523825, -30437.823288181222, -33146.18416383078, -29262.27799204326, -12183.310053743131, -29771.47308247961, -7814.661599953366, -34083.549271052994, -38160.730977145555, -28858.538431947047, -16830.796519612853, -28383.072123893755, -39780.29367688819, 0.076, 0.9560000000000001, -0.108, 192.0, 0.0, 0.0, 0.0, 0.0, 0.0, 0.0, 0.0, 0.0, 0.0, 1.6689765233004117E9, 0.0, 2022-11-20 15:35:23.300
102.0, -13553.941375487017, -125.75091430555753, -40692.44601636482, -40752.3710432495, -30487.578271338734, -33204.47751337022, -29305.774486753286, -12231.90274618897, -29712.799753284427, -7750.802666044554, -34034.37543325131, -38112.98765098902, -28806.056535965985, -16775.74417301943, -28321.962454552944, -39718.021716835705, 0.076, 0.9560000000000001, -0.108, 192.0, 0.0, 0.0, 0.0, 0.0, 0.0, 0.0, 0.0, 0.0, 0.0, 1.6689765233004167E9, 0.0, 2022-11-20 15:35:23.300
104.0, -13549.403971362588, -174.6341794293141, -40638.0418703606, -40688.48975759623, -30429.77666017731, -33144.48543125218, -29252.01854133827, -12173.765858860716, -29775.094065081368, -7826.865652425963, -34094.16634966926, -38187.59777398083, -28861.37710349287, -16843.447606974558, -28380.211100603476, -39780.941877477395, 0.076, 0.9560000000000001, -0.108, 192.0, 0.0, 0.0, 0.0, 0.0, 0.0, 0.0, 0.0, 0.0, 0.0, 1.6689765233004212E9, 0.0, 2022-11-20 15:35:23.300
106.0, -13531.701389753985, -105.63434429578118, -40666.87562070795, -40736.30013898613, -30473.5413758208, -33185.94791721677, -29288.697753989432, -12214.960123891846, -29686.938784949638, -7737.905709493842, -34008.44740968316, -38099.06251419336, -28781.961355443163, -16760.343821089726, -28296.570872851717, -39697.748684614744, 0.075, 0.9570000000000001, -0.112, 192.0, 1.0, 40.0, 14.5, 120.0, 126.0, 48.0, 0.0, 0.0, 0.0, 1.6689765237795205E9, 0.0, 2022-11-20 15:35:23.779
108.0, -13555.863625510172, -180.24446728759617, -40639.83000991702, -40688.087426196034, -30441.153698105063, -33148.48639350967, -29261.428625753957, -12181.499562442252, -29770.869585379314, -7816.1591668318715, -34086.902032721286, -38172.756215662506, -28859.99129533664, -16838.641981916666, -28375.38312380113, -39774.57163030763, 0.075, 0.9570000000000001, -0.112, 192.0, 0.0, 0.0, 0.0, 0.0, 0.0, 0.0, 0.0, 0.0, 0.0, 1.6689765237795584E9, 0.0, 2022-11-20 15:35:23.779
110.0, -13528.438035063511, -106.55076581844877, -40660.192449115806, -40725.6607086254, -30465.807672239265, -33174.34736184446, -29281.008753896804, -12204.611266209038, -29689.35277335081, -7731.110779179428, -34003.418267180714, -38088.24426987699, -28777.535710041015, -16751.73839947443, -28291.988765238377, -39689.38913218846, 0.075, 0.9570000000000001, -0.112, 192.0, 0.0, 0.0, 0.0, 0.0, 0.0, 0.0, 0.0, 0.0, 0.0, 1.6689765237795908E9, 0.0, 2022-11-20 15:35:23.779
112.0, -13572.515675129376, -196.76240644006808, -40658.09138513701, -40698.43628387884, -30446.562820263247, -33157.00240814715, -29265.474291500366, -12185.858152611036, -29784.54885298596, -7832.0065536506845, -34104.582262585434, -38190.63761122675, -28876.375124022383, -16852.72358092351, -28379.942879670012, -39778.61729605404, 0.075, 0.9570000000000001, -0.112, 192.0, 0.0, 0.0, 0.0, 0.0, 0.0, 0.0, 0.0, 0.0, 0.0, 1.668976523779596E9, 0.0, 2022-11-20 15:35:23.779
114.0, -13503.135860340102, -85.18249811917522, -40636.74546918219, -40697.11753095598, -30430.111936344143, -33149.000483632146, -29247.145861047014, -12177.163324017922, -29674.377104565756, -7727.690962277766, -33993.06940949791, -38080.66702850664, -28764.705808723666, -16741.702466214, -28266.060741670222, -39668.57965810056, 0.075, 0.9570000000000001, -0.112, 192.0, 0.0, 0.0, 0.0, 0.0, 0.0, 0.0, 0.0, 0.0, 0.0, 1.668976523779601E9, 0.0, 2022-11-20 15:35:23.779
116.0, -13580.383489177644, -208.5641275124702, -40672.30709461059, -40716.09416199853, -30455.905849445564, -33177.99069619068, -29278.30419281771, -12205.438280753886, -29778.268012794022, -7822.082379112528, -34098.39082937132, -38183.797977423426, -28873.58115596547, -16847.180348298592, -28362.933202139524, -39773.029359940214, 0.0785, 0.9575, -0.111, 192.0, 1.0, 72.0, 14.5, 120.0, 126.0, 72.0, 0.0, 0.0, 0.0, 1.6689765237796073E9, 0.0, 2022-11-20 15:35:23.779
118.0, -13493.345796268679, -77.76171896001327, -40630.688146434804, -40689.47323435226, -30420.97007286192, -33149.17929758779, -29237.35579697559, -12169.273158225198, -29687.430523327654, -7736.206976915238, -33998.053848511445, -38085.58441228681, -28773.55709952797, -16750.97844016295, -28279.203567409942, -39687.57864088758, 0.0785, 0.9575, -0.111, 192.0, 0.0, 0.0, 0.0, 0.0, 0.0, 0.0, 0.0, 0.0, 0.0, 1.6689765237796123E9, 0.0, 2022-11-20 15:35:23.779
120.0, -13580.964634533482, -198.46113901867142, -40691.641353564424, -40728.74524936024, -30476.961192722465, -33196.98967897769, -29295.246815114835, -12221.106853617055, -29766.89097486627, -7801.965809102751, -34086.633811787826, -38161.781509134955, -28867.590888451447, -16840.854804617742, -28369.079931864733, -39777.34324662009, 0.0785, 0.9575, -0.111, 192.0, 0.0, 0.0, 0.0, 0.0, 0.0, 0.0, 0.0, 0.0, 0.0, 1.6689765237796173E9, 0.0, 2022-11-20 15:35:23.779
122.0, -13485.679147920508, -75.37008230329542, -40625.36843125444, -40672.75412949969, -30424.903979886054, -33136.1705823148, -29241.289703999726, -12165.40630643443, -29690.537415806943, -7728.696790778255, -33998.50088340055, -38075.34731332628, -28781.73783799861, -16754.17473962006, -28303.2316926994, -39701.34731547205, 0.0785, 0.9575, -0.111, 192.0, 0.0, 0.0, 0.0, 0.0, 0.0, 0.0, 0.0, 0.0, 0.0, 1.6689765237796223E9, 0.0, 2022-11-20 15:35:23.779
124.0, -13567.754753560395, -189.69925519219103, -40681.0019232037, -40721.838560323544, -30479.531643334823, -33189.546548074075, -29297.772562238286, -12218.625809982517, -29755.022198560502, -7794.2097537767595, -34074.02742791503, -38151.20913400759, -28862.561745949002, -16830.014208556917, -28376.00897264588, -39769.09545291608, 0.0785, 0.9575, -0.111, 192.0, 0.0, 0.0, 0.0, 0.0, 0.0, 0.0, 0.0, 0.0, 0.0, 1.6689765237796276E9, 0.0, 2022-11-20 15:35:23.779
