%OpenBCI Raw EEG Data
%Number of channels = 16
%Sample Rate = 125 Hz
%Board = OpenBCI_GUI$BoardCytonSerialDaisy
Sample Index, EXG Channel 0, EXG Channel 1, EXG Channel 2, EXG Channel 3, EXG Channel 4, EXG Channel 5, EXG Channel 6, EXG Channel 7, EXG Channel 8, EXG Channel 9, EXG Channel 10, EXG Channel 11, EXG Channel 12, EXG Channel 13, EXG Channel 14, EXG Channel 15, Accel Channel 0, Accel Channel 1, Accel Channel 2, Other, Other, Other, Other, Other, Other, Other, Analog Channel 0, Analog Channel 1, Analog Channel 2, Timestamp, Other, Timestamp (Formatted)
60.0, -5316.809453583891, -19209.357405824354, -1989.9534571115325, -7364.206893945563, -35238.732127992174, -12096.16060211189, -6770.253988534688, -9398.729729500978, -2807.7814349867626, -27178.626022175078, -10934.294573580573, -32761.28712431039, -25168.60069854268, -10938.07201839352, -29536.04215813186, 639.3045949106926, 0.0, 0.0, 0.0, 192.0, 0.0, 0.0, 0.0, 0.0, 0.0, 0.0, 0.0, 0.0, 0.0, 1.6583351444805553E9, 0.0, 2022-07-20 12:39:04.480
62.0, -6024.33157257218, -19814.329721251695, -2675.749680489264, -7764.280767951103, -35578.635105924026, -12778.872284754789, -7670.626958683367, -10041.364734335511, -3867.008252979309, -28443.24301996744, -11785.337243716389, -33148.62050397641, -26185.538016025785, -11908.473003920675, -30809.130467072784, 317.28301254308377, 0.0, 0.0, 0.0, 192.0, 0.0, 0.0, 0.0, 0.0, 0.0, 0.0, 0.0, 0.0, 0.0, 1.6583351444805613E9, 0.0, 2022-07-20 12:39:04.480
64.0, -5235.583214233305, -19108.282817397456, -1921.1100841891866, -7229.157653946598, -35097.84908269037, -12024.14328147689, -6888.941751592369, -9383.821115949288, -2882.793889378773, -27224.67061575301, -11029.490653215726, -32893.67650671917, -25244.373112246172, -11017.174842020851, -29579.22572841951, 531.1445034914617, 0.0, 0.0, 0.0, 192.0, 0.0, 0.0, 0.0, 0.0, 0.0, 0.0, 0.0, 0.0, 0.0, 1.6583351444805665E9, 0.0, 2022-07-20 12:39:04.480
66.0, -6118.275954517836, -19922.93684756003, -2764.8213821436625, -7906.549621409134, -35738.11480261264, -12850.844901900877, -7589.065443165951, -10060.810752011628, -3806.2562115497844, -28394.76208624388, -11707.866097434295, -33034.33603457642, -26114.16889597999, -11843.34002057791, -30769.478472409068, 421.37508647144875, 0.0, 0.0, 0.0, 192.0, 0.0, 0.0, 0.0, 0.0, 0.0, 0.0, 0.0, 0.0, 0.0, 1.6583351444805715E9, 0.0, 2022-07-20 12:39:04.480
68.0, -5176.4852018934735, -19029.04588330339, -1862.7049759274694, -7109.754635066347, -34960.02822637895, -11978.098687898957, -6995.984255788834, -9406.888116227165, -2981.0968614932135, -27312.960006351474, -11141.271727236715, -33027.563456006465, -25342.92195354962, -11129.470006164314, -29665.883441672737, 414.40134220139294, -0.076, 0.46900000000000003, 0.052000000000000005, 192.0, 125.5, 32.0, 14.5, 40.0, 1.5, 32.0, 0.0, 0.0, 0.0, 1.6583351444805765E9, 0.0, 2022-07-20 12:39:04.480
70.0, -6165.035803918338, -19989.81326697031, -2797.7455017263296, -8005.858422024063, -35850.298208033826, -12894.833134988921, -7392.258333236973, -10058.910853732927, -3694.3857305509728, -28303.522265377316, -11588.574837276321, -32901.857245189814, -26007.28285399471, -11733.682362280175, -30665.855785114265, 534.8548930710427, -0.076, 0.46900000000000003, 0.052000000000000005, 192.0, 0.0, 0.0, 0.0, 0.0, 0.0, 0.0, 0.0, 0.0, 0.0, 1.6583351444805815E9, 0.0, 2022-07-20 12:39:04.480
72.0, -5123.980954167957, -18954.23459461148, -1815.2298707043972, -6987.62470336255, -34834.18790509557, -11940.681867680772, -7158.637900190103, -9386.86095319521, -3092.341493647277, -27414.3698709452, -11251.242309956826, -33141.06561435051, -25458.03343749445, -11232.46684461437, -29771.2272132906, 314.75726541963405, -0.076, 0.46900000000000003, 0.052000000000000005, 192.0, 0.0, 0.0, 0.0, 0.0, 0.0, 0.0, 0.0, 0.0, 0.0, 1.6583351444805868E9, 0.0, 2022-07-20 12:39:04.480
74.0, -6179.430327347556, -20024.458470876038, -2814.0175716897934, -8077.987501381338, -35938.72170909902, -12902.41037635927, -7256.695003115536, -10007.233620552257, -3554.79908642758, -28150.457519347376, -11447.378867552146, -32761.689455710588, -25868.813797094084, -11585.803220963862, -30531.857077104698, 652.4474206504132, -0.076, 0.46900000000000003, 0.052000000000000005, 192.0, 0.0, 0.0, 0.0, 0.0, 0.0, 0.0, 0.0, 0.0, 0.0, 1.6583351444805915E9, 0.0, 2022-07-20 12:39:04.480
76.0, -5117.186023853544, -18927.680722198573, -1821.8236353187128, -6926.783254955203, -34769.68077059755, -11951.813036419517, -7313.557841009837, -9432.7267328175, -3227.6589545797056, -27551.140195267224, -11378.379032418614, -33250.25388601469, -25591.428648403722, -11370.734735814898, -29918.25698831761, 216.119017138364, -0.076, 0.46900000000000003, 0.052000000000000005, 192.0, 0.0, 0.0, 0.0, 0.0, 0.0, 0.0, 0.0, 0.0, 0.0, 1.6583351444805968E9, 0.0, 2022-07-20 12:39:04.480
78.0, -6168.165048142082, -20032.192174457574, -2806.1050541526147, -8130.469397362399, -36020.32792810535, -12897.001254201086, -7094.086062203177, -9974.868294580972, -3405.802357888503, -27995.582282016552, -11309.33449379617, -32654.110509647195, -25730.031815771083, -11460.856969458697, -30388.403581190538, 733.2936803452588, -0.11399999999999999, 0.7055, 0.079, 192.0, 125.5, 32.0, 14.5, 56.0, 1.5, 40.0, 0.0, 0.0, 0.0, 1.658335144480602E9, 0.0, 2022-07-20 12:39:04.480
80.0, -5164.236445931965, -18953.60874576673, -1863.0849555832096, -6907.2701820457205, -34745.83145926374, -11989.140449659879, -7488.348482650338, -9498.038530115906, -3389.3961774583076, -27728.47893577563, -11524.13475801167, -33365.924163570904, -25753.970534082717, -11532.181386015582, -30100.066077717078, 113.41275136622804, -0.11399999999999999, 0.7055, 0.079, 192.0, 0.0, 0.0, 0.0, 0.0, 0.0, 0.0, 0.0, 0.0, 0.0, 1.6583351444806073E9, 0.0, 2022-07-20 12:39:04.480
82.0, -6115.414931227557, -19996.47408681799, -2744.7495156227965, -8119.092359434648, -36018.785657737935, -12816.713788117622, -6961.1602379274655, -9888.344691794478, -3251.3071002134207, -27826.089003811958, -11176.16280033145, -32563.094206225185, -25580.811569787453, -11303.992426871351, -30214.082326183598, 826.701620423987, -0.11399999999999999, 0.7055, 0.079, 192.0, 0.0, 0.0, 0.0, 0.0, 0.0, 0.0, 0.0, 0.0, 0.0, 1.6583351444806123E9, 0.0, 2022-07-20 12:39:04.480
84.0, -5233.660964210148, -19009.398699927176, -1933.4035436396057, -6932.594708513583, -34749.13951744312, -12048.618441655452, -7635.490016399624, -9599.202525520626, -3533.0731908170214, -27887.489245830686, -11647.158759493681, -33436.44391732739, -25892.238425283245, -11649.058657772383, -30264.55256516368, 66.00470137652175, -0.11399999999999999, 0.7055, 0.079, 192.0, 0.0, 0.0, 0.0, 0.0, 0.0, 0.0, 0.0, 0.0, 0.0, 1.6583351444806173E9, 0.0, 2022-07-20 12:39:04.480
86.0, -6041.251843124848, -19940.12533904616, -2676.353177589557, -8090.437423042945, -35997.17152084965, -12746.61871750578, -6829.597870063529, -9813.511051358111, -3124.3938951961873, -27674.834749082896, -11078.709194506311, -32520.268263848815, -25460.827405551365, -11179.269692810738, -30062.8951266879, 868.2088098774923, -0.11399999999999999, 0.7055, 0.079, 192.0, 0.0, 0.0, 0.0, 0.0, 0.0, 0.0, 0.0, 0.0, 0.0, 1.6583351444806223E9, 0.0, 2022-07-20 12:39:04.480
88.0, -5327.962974067089, -19091.407250333697, -2026.7220767405126, -6994.911372054979, -34803.72247740298, -12152.330535928075, -7730.820206501509, -9696.477317390123, -3673.866829141001, -28052.512175144217, -11756.570548602409, -33484.92485105096, -26022.48204022432, -11779.52579015801, -30427.005043864854, 27.447942191117072, -0.135, 0.82575, 0.0905, 192.0, 125.5, 16.0, 14.5, 72.0, 1.5, 24.0, 0.0, 0.0, 0.0, 1.6583351444806273E9, 0.0, 2022-07-20 12:39:04.480
90.0, -5933.561138339179, -19844.303410566263, -2572.4175658723793, -8021.1917187204035, -35926.852932793256, -12652.9872599825, -6723.471787389731, -9718.672599634243, -2992.7644720988837, -27519.959511752073, -10979.869780524943, -32494.541405980755, -25337.669293602623, -11074.171790381884, -29896.44168572923, 891.3652171331903, -0.135, 0.82575, 0.0905, 192.0, 0.0, 0.0, 0.0, 0.0, 0.0, 0.0, 0.0, 0.0, 0.0, 1.6583351444806333E9, 0.0, 2022-07-20 12:39:04.480
92.0, -5437.955908531655, -19194.806420183948, -2128.6907349456233, -7082.68667253097, -34889.57552785582, -12266.637357072515, -7821.724751201243, -9787.381862089856, -3777.0201298022425, -28197.440886192428, -11834.041694884503, -33495.6536883895, -26126.08237577467, -11891.508029879098, -30571.0173333904, 22.016468288477455, -0.135, 0.82575, 0.0905, 192.0, 0.0, 0.0, 0.0, 0.0, 0.0, 0.0, 0.0, 0.0, 0.0, 1.6583351444806435E9, 0.0, 2022-07-20 12:39:04.480
94.0, -5796.410834361414, -19709.52239150076, -2440.944604986263, -7899.330007950069, -35813.9542715495, -12536.869947537178, -6702.215278412733, -9685.480259118112, -2887.420700481022, -27375.768408270887, -10908.277143034595, -32490.33927802316, -25236.32648424226, -10986.374138161438, -29762.778253886492, 873.0144349353833, -0.135, 0.82575, 0.0905, 192.0, 0.0, 0.0, 0.0, 0.0, 0.0, 0.0, 0.0, 0.0, 0.0, 1.6583351444806504E9, 0.0, 2022-07-20 12:39:04.480
96.0, -5568.981834528665, -19325.072386869477, -2244.673936924212, -7202.156746644587, -35001.08838094334, -12382.888779984569, -7835.336963574525, -9838.902633059339, -3863.2084564219067, -28311.546541636773, -11879.438087873232, -33461.32140890615, -26202.77121100083, -11956.059867866024, -30686.866424902255, 44.83759937734597, -0.135, 0.82575, 0.0905, 192.0, 0.0, 0.0, 0.0, 0.0, 0.0, 0.0, 0.0, 0.0, 0.0, 1.6583351444806569E9, 0.0, 2022-07-20 12:39:04.480
98.0, -5647.861140711444, -19566.426523497885, -2298.02755093903, -7755.474180635712, -35659.83899353015, -12406.246352940363, -6630.756751389116, -9560.489304124034, -2807.5579175422095, -27256.20892717945, -10855.236453442152, -32515.932025424485, -25166.276117119327, -10918.15661408384, -29626.38790922021, 856.6082545051879, -0.14550000000000002, 0.885875, 0.09925, 192.0, 125.5, 16.0, 14.5, 72.0, 1.5, 48.0, 0.0, 0.0, 0.0, 1.6583351444806633E9, 0.0, 2022-07-20 12:39:04.480
100.0, -5695.872687801443, -19454.868966921447, -2365.9097988497974, -7340.871672734222, -35150.710958327174, -12502.649426776103, -7848.0327544251395, -9917.558421797565, -3903.6651138860125, -28395.23147287744, -11883.103773963901, -33397.30601278615, -26243.38433067612, -11988.604007792952, -30772.361847443804, 91.37393133329527, -0.14550000000000002, 0.885875, 0.09925, 192.0, 0.0, 0.0, 0.0, 0.0, 0.0, 0.0, 0.0, 0.0, 0.0, 1.6583351444806697E9, 0.0, 2022-07-20 12:39:04.480
102.0, -5534.806017256501, -19442.55315572657, -2191.208564187117, -7620.916679014765, -35522.86750350804, -12298.354482454597, -6673.537990276574, -9514.467062290558, -2778.031263116749, -27192.506455481824, -10860.153837222319, -32591.07859028323, -25150.607544256156, -10901.169288297808, -29573.90601323915, 785.3061896927584, -0.14550000000000002, 0.885875, 0.09925, 192.0, 0.0, 0.0, 0.0, 0.0, 0.0, 0.0, 0.0, 0.0, 0.0, 1.658335144480676E9, 0.0, 2022-07-20 12:39:04.480
104.0, -5840.3096604716375, -19605.78794548368, -2504.3788557504245, -7503.4135584132155, -35322.37235574393, -12639.196233653574, -7840.097885143506, -10014.900268900426, -3933.974079367409, -28462.53257543237, -11891.552733368007, -33330.139020697956, -26269.602926922194, -12007.602990579962, -30843.038063411484, 148.66145237224728, -0.14550000000000002, 0.885875, 0.09925, 192.0, 0.0, 0.0, 0.0, 0.0, 0.0, 0.0, 0.0, 0.0, 0.0, 1.6583351444806824E9, 0.0, 2022-07-20 12:39:04.480
106.0, -5408.004570961544, -19306.095755826922, -2075.8288593088223, -7459.71589800309, -35366.159423131874, -12187.735699145282, -6735.653488117873, -9452.150398749161, -2787.1060713656034, -27168.053647047716, -10903.829145887988, -32694.745981066942, -25161.962230439454, -10923.968067642221, -29551.75543448394, 697.2626682833038, -0.14550000000000002, 0.885875, 0.09925, 192.0, 0.0, 0.0, 0.0, 0.0, 0.0, 0.0, 0.0, 0.0, 0.0, 1.6583351444806893E9, 0.0, 2022-07-20 12:39:04.480
108.0, -5959.712679351888, -19737.10444415861, -2617.5680896720996, -7658.311147488493, -35497.56532878463, -12727.306810296395, -7748.165160198827, -10033.809844709616, -3904.1792040084847, -28457.34697071874, -11836.925069919238, -33219.184961221814, -26232.879010782126, -11962.452466780242, -30846.927266946706, 252.8652850228888, -0.14975, 0.9149375, 0.102625, 192.0, 125.5, 24.0, 14.5, 64.0, 1.5, 40.0, 0.0, 0.0, 0.0, 1.6583351444806955E9, 0.0, 2022-07-20 12:39:04.480
110.0, -5304.292476688919, -19188.257359058545, -1988.5005937219375, -7320.330419579795, -35219.12964810486, -12098.216962601777, -6826.803902006615, -9425.14949144715, -2838.023345234793, -27191.165350814506, -10980.048594480586, -32816.33947090381, -25216.344024699214, -10981.747327059189, -29580.924460998114, 584.6992832063775, -0.14975, 0.9149375, 0.102625, 192.0, 0.0, 0.0, 0.0, 0.0, 0.0, 0.0, 0.0, 0.0, 0.0, 1.6583351444807022E9, 0.0, 2022-07-20 12:39:04.480
112.0, -6073.706576073954, -19869.918509712043, -2723.738875834808, -7827.335039059525, -35661.98476099787, -12832.561174936436, -7651.583272407445, -10089.62215061452, -3851.2502731383174, -28430.502525627915, -11766.293557440467, -33108.3650122124, -26181.179425857, -11897.07361424847, -30823.748507946555, 344.79800996756677, -0.14975, 0.9149375, 0.102625, 192.0, 0.0, 0.0, 0.0, 0.0, 0.0, 0.0, 0.0, 0.0, 0.0, 1.6583351444807088E9, 0.0, 2022-07-20 12:39:04.480
114.0, -5215.980734346001, -19083.740601985526, -1901.5970112797036, -7182.151935357087, -35054.374939724796, -12016.141356961889, -6970.5479705986945, -9412.76662501891, -2926.7374189779066, -27264.367313905637, -11084.319482364594, -32960.888202296286, -25300.96772920701, -11075.647005515935, -29636.222676780544, 464.268084081183, -0.14975, 0.9149375, 0.102625, 192.0, 0.0, 0.0, 0.0, 0.0, 0.0, 0.0, 0.0, 0.0, 0.0, 1.6583351444807148E9, 0.0, 2022-07-20 12:39:04.480
116.0, -6163.985271928939, -19979.956147665518, -2799.6230482605756, -7970.855590207052, -35799.09036148672, -12902.164507170262, -7531.353238982349, -10118.008866072758, -3771.6110076440586, -28371.940955155012, -11673.779687139951, -32997.00862133606, -26088.21852066738, -11811.824060895928, -30742.075233706862, 454.72388919876687, -0.14975, 0.9149375, 0.102625, 192.0, 0.0, 0.0, 0.0, 0.0, 0.0, 0.0, 0.0, 0.0, 0.0, 1.6583351444807212E9, 0.0, 2022-07-20 12:39:04.480
118.0, -5165.264626176909, -19007.63291211521, -1851.1267722996204, -7062.793619965747, -34906.585205386305, -11975.572940775508, -7088.45342260044, -9441.779189321898, -3035.992745875448, -27361.329181352758, -11206.449414068391, -33095.42335217278, -25404.433954290624, -11189.551495260179, -29712.88916026225, 353.69400426077897, -0.15087499999999998, 0.9274687500000001, 0.1043125, 192.0, 125.5, 32.0, 14.5, 48.0, 1.5, 40.0, 0.0, 0.0, 0.0, 1.6583351444807277E9, 0.0, 2022-07-20 12:39:04.480
120.0, -6200.016283990894, -20032.527450624402, -2833.8882725105614, -8055.389887737023, -35911.318470396815, -12925.119748725861, -7360.272986921429, -10088.459859902843, -3654.8678463539895, -28251.2191833519, -11552.56617695882, -32860.975904581064, -25970.33542041009, -11695.103251350314, -30618.470086869012, 568.87424813202, -0.15087499999999998, 0.9274687500000001, 0.1043125, 192.0, 0.0, 0.0, 0.0, 0.0, 0.0, 0.0, 0.0, 0.0, 0.0, 1.658335144480734E9, 0.0, 2022-07-20 12:39:04.480
122.0, -5133.726314750471, -18954.79338822286, -1828.618565633126, -6962.411935616963, -34828.39880328164, -11955.523425999098, -7299.6103524697255, -9439.119331731717, -3170.8855236632257, -27486.72246774703, -11331.596831273655, -33205.550397104074, -25544.266467603025, -11318.163432856016, -29849.86065028437, 257.73796531414575, -0.15087499999999998, 0.9274687500000001, 0.1043125, 192.0, 0.0, 0.0, 0.0, 0.0, 0.0, 0.0, 0.0, 0.0, 0.0, 1.6583351444807405E9, 0.0, 2022-07-20 12:39:04.480
124.0, -6180.659673292598, -20038.271848949415, -2808.4966908093324, -8099.959266180906, -35980.76534041946, -12913.005103231086, -7198.982798931933, -10055.401629853444, -3496.3269229324965, -28093.818198897625, -11393.846439581686, -32713.923777809596, -25820.57873255953, -11536.76349362892, -30474.189576410008, 701.1071683296167, -0.15087499999999998, 0.9274687500000001, 0.1043125, 192.0, 0.0, 0.0, 0.0, 0.0, 0.0, 0.0, 0.0, 0.0, 0.0, 1.6583351444807487E9, 0.0, 2022-07-20 12:39:04.480
126.0, -5145.148056167132, -18949.540728275864, -1835.1005715251652, -6925.75507471026, -34760.829479793254, -11986.905275214349, -7384.994016288998, -9487.421451499637, -3304.7277694616046, -27638.2225916651, -11445.233100084437, -33309.53071231017, -25667.871614440875, -11455.581957767245, -29981.02068674811, 165.31350199145103, -0.15087499999999998, 0.9274687500000001, 0.1043125, 192.0, 0.0, 0.0, 0.0, 0.0, 0.0, 0.0, 0.0, 0.0, 0.0, 1.658335144480755E9, 0.0, 2022-07-20 12:39:04.480
128.0, -6163.8511614622075, -20039.121215238716, -2787.351940554612, -8143.0534294907375, -36024.5524078074, -12880.617425515346, -7047.683840713959, -9941.11716045346, -3359.4448398881964, -27943.569772669052, -11267.044993286729, -32630.574122735754, -25681.90850995881, -11414.767672391854, -30314.642824488026, 772.4986401198674, -0.1544375, 0.931734375, 0.10515625, 192.0, 125.5, 8.0, 14.5, 32.0, 1.5, 40.0, 0.0, 0.0, 0.0, 1.6583351444807613E9, 0.0, 2022-07-20 12:39:04.480
130.0, -5189.136289255177, -18974.775847765904, -1881.3463308031955, -6913.819243171125, -34743.99861621841, -12017.840089540494, -7556.0072131165525, -9565.56315011539, -3468.5213528300947, -27803.089058767448, -11587.569008775832, -33411.07468737062, -25824.043252950105, -11598.521363558933, -30160.885174379968, 82.43323355117245, -0.1544375, 0.931734375, 0.10515625, 192.0, 0.0, 0.0, 0.0, 0.0, 0.0, 0.0, 0.0, 0.0, 0.0, 1.6583351444807673E9, 0.0, 2022-07-20 12:39:04.480
132.0, -6069.6385585830885, -19962.655897457113, -2705.544555848188, -8094.103109133614, -36007.11804713226, -12787.678872070179, -6895.066129573122, -9878.5322759786, -3199.361646099287, -27754.272848877055, -11125.513747395724, -32531.131211654094, -25524.82044992691, -11256.09263850363, -30130.330339709562, 850.796800946808, -0.1544375, 0.931734375, 0.10515625, 192.0, 0.0, 0.0, 0.0, 0.0, 0.0, 0.0, 0.0, 0.0, 0.0, 1.6583351444807737E9, 0.0, 2022-07-20 12:39:04.480
134.0, -5244.613318993249, -19018.51821166494, -1952.648395615625, -6926.023295643723, -34764.56222111729, -12081.006119371192, -7691.972874638185, -9621.218993809103, -3594.5628398135714, -27948.420101215852, -11686.877809390762, -33447.28451338822, -25948.85539398854, -11707.799042200928, -30313.122905865064, 53.890055881745326, -0.1544375, 0.931734375, 0.10515625, 192.0, 0.0, 0.0, 0.0, 0.0, 0.0, 0.0, 0.0, 0.0, 0.0, 1.6583351444807804E9, 0.0, 2022-07-20 12:39:04.480
136.0, -5970.106240523606, -19880.088553439207, -2625.257089764725, -8046.270375999257, -35963.55449718887, -12711.213554288574, -6796.696102225316, -9783.515010299088, -3055.1928943625567, -27590.434562019655, -11012.436272196326, -32481.443283729946, -25402.534056011922, -11117.221250202805, -29971.923526754803, 892.3486938892239, -0.1544375, 0.931734375, 0.10515625, 192.0, 0.0, 0.0, 0.0, 0.0, 0.0, 0.0, 0.0, 0.0, 0.0, 1.6583351444807868E9, 0.0, 2022-07-20 12:39:04.480
138.0, -5350.292366777941, -19116.77648029047, -2055.421716621127, -7009.730578628848, -34830.455163771534, -12194.08359457059, -7761.240930705182, -9699.695968591686, -3711.5518702926483, -28109.307957805155, -11777.469429668121, -33477.995810269815, -26068.638392524528, -11821.122386589335, -30467.50640481787, 21.97176479956684, -0.15521875000000002, 0.9368671875000001, 0.102578125, 192.0, 125.5, 16.0, 14.5, 56.0, 1.5, 16.0, 0.0, 0.0, 0.0, 1.6583351444807932E9, 0.0, 2022-07-20 12:39:04.480
140.0, -5875.82658241112, -19793.363784952617, -2525.3447920495028, -7973.113116397038, -35882.95410668303, -12615.838660697778, -6723.449435645275, -9689.81649754244, -2957.135791437124, -27465.465958770033, -10947.705620253757, -32486.740647165854, -25303.53817981937, -11027.926031103854, -29821.228065637122, 885.7772810193636, -0.15521875000000002, 0.9368671875000001, 0.102578125, 192.0, 0.0, 0.0, 0.0, 0.0, 0.0, 0.0, 0.0, 0.0, 0.0, 1.6583351444808E9, 0.0, 2022-07-20 12:39:04.480
142.0, -5488.135574833819, -19245.321362652943, -2186.447642618137, -7126.138463752087, -34934.03314757742, -12309.597409915616, -7847.630423024943, -9776.384803817846, -3843.1589416454963, -28272.11806441761, -11872.866675003372, -33500.2581477473, -26174.31744030922, -11913.725663867674, -30624.01331949393, 7.577241370349094, -0.15521875000000002, 0.9368671875000001, 0.102578125, 192.0, 0.0, 0.0, 0.0, 0.0, 0.0, 0.0, 0.0, 0.0, 0.0, 1.6583351444808068E9, 0.0, 2022-07-20 12:39:04.480
144.0, -5737.513987721681, -19648.45742564886, -2399.683284721766, -7835.783998463631, -35744.2838840823, -12477.101382863688, -6632.924870601281, -9562.07627798036, -2865.4265839369996, -27324.940541379518, -10886.283026490573, -32496.15073158154, -25198.373222157148, -10937.557928271048, -29684.07776165936, 875.2719611253692, -0.15521875000000002, 0.9368671875000001, 0.102578125, 192.0, 0.0, 0.0, 0.0, 0.0, 0.0, 0.0, 0.0, 0.0, 0.0, 1.6583351444808133E9, 0.0, 2022-07-20 12:39:04.480
146.0, -5629.666820724824, -19381.376431152396, -2321.340420405915, -7260.092468272743, -35064.99201834107, -12434.610716654148, -7842.4001148224015, -9840.221385982202, -3905.743826120356, -28361.390931772108, -11905.92490505277, -33451.55369657918, -26228.76628980235, -11972.1754756183, -30726.630178288244, 52.25837853650791, -0.15521875000000002, 0.9368671875000001, 0.102578125, 192.0, 0.0, 0.0, 0.0, 0.0, 0.0, 0.0, 0.0, 0.0, 0.0, 1.6583351444808197E9, 0.0, 2022-07-20 12:39:04.480
148.0, -5608.902050125844, -19521.365406675985, -2276.8380971953984, -7705.607438755923, -35610.374583050565, -12366.504951298828, -6658.227045324689, -9524.614754273267, -2814.9786967013715, -27239.646284538067, -10872.939035050755, -32560.389645146093, -25161.984582183908, -10902.8233173875, -29606.226635721523, 817.1350737971156, -0.15521875000000002, 0.9368671875000001, 0.102578125, 192.0, 0.0, 0.0, 0.0, 0.0, 0.0, 0.0, 0.0, 0.0, 0.0, 1.658335144480826E9, 0.0, 2022-07-20 12:39:04.480
150.0, -5761.966796155786, -19517.029168251654, -2438.0612299515283, -7408.4409962226155, -35222.84003768445, -12556.919462313588, -7840.187292121326, -9902.96273266825, -3942.0877626046854, -28438.705615843013, -11904.740262596639, -33386.39836149196, -26263.56795591926, -11988.93928395978, -30813.466705497114, 100.89577447125608, -0.154, 0.9420000000000001, 0.108, 192.0, 125.5, 24.0, 14.5, 56.0, 1.5, 48.0, 0.0, 0.0, 0.0, 1.6583351444808328E9, 0.0, 2022-07-20 12:39:04.480
152.0, -5465.001519322577, -19363.606794310428, -2130.5906332243244, -7539.601032686357, -35432.34293846404, -12230.47223454383, -6650.940376632259, -9407.71513077201, -2781.8087079296956, -27172.389885472046, -10868.736907093156, -32629.07655585725, -25137.196497582972, -10881.455049688228, -29536.13156510968, 758.9087794910407, -0.154, 0.9420000000000001, 0.108, 192.0, 0.0, 0.0, 0.0, 0.0, 0.0, 0.0, 0.0, 0.0, 0.0, 1.6583351444808395E9, 0.0, 2022-07-20 12:39:04.480
154.0, -5888.075338372629, -19648.8374053046, -2550.5575597950888, -7567.741878955589, -35377.916440715366, -12668.70053633458, -7772.483858166202, -9958.97620427325, -3932.6553264445456, -28455.335313717762, -11861.713154520174, -33284.92144166487, -26241.730301586427, -11965.671117981807, -30828.218856837615, 194.52723199453737, -0.154, 0.9420000000000001, 0.108, 192.0, 0.0, 0.0, 0.0, 0.0, 0.0, 0.0, 0.0, 0.0, 0.0, 1.658335144480845E9, 0.0, 2022-07-20 12:39:04.480
156.0, -5363.032861117466, -19238.794653271994, -2028.286698852384, -7397.086310039319, -35275.52309936561, -12133.823291519082, -6742.381363198921, -9402.685988269566, -2804.7863012297516, -27169.819434859688, -10921.06234086303, -32738.890676366173, -25158.810634471254, -10909.595895957458, -29530.610684229217, 652.3803654170472, -0.154, 0.9420000000000001, 0.108, 192.0, 0.0, 0.0, 0.0, 0.0, 0.0, 0.0, 0.0, 0.0, 0.0, 1.658335144480852E9, 0.0, 2022-07-20 12:39:04.480
158.0, -6028.712514485421, -19794.280206475283, -2669.580599019599, -7741.124360695406, -35557.06567252465, -12780.973348733587, -7706.076825389484, -10017.537774746153, -3900.4464626844483, -28461.63850565416, -11813.858069641361, -33184.94208871628, -26211.242522149387, -11923.180451772268, -30840.735833732586, 273.3394829439501, -0.154, 0.9420000000000001, 0.108, 192.0, 0.0, 0.0, 0.0, 0.0, 0.0, 0.0, 0.0, 0.0, 0.0, 1.658335144480857E9, 0.0, 2022-07-20 12:39:04.480
160.0, -5281.873677000246, -19132.73562583156, -1936.935119263544, -7255.420953681583, -35119.93260621221, -12053.446418457797, -6853.201312208333, -9338.04474330482, -2873.406156707544, -27211.81836269121, -11008.837641339022, -32871.12359656377, -25229.41979520557, -10986.776469561633, -29577.32583014081, 538.1853029948835, -0.15, 0.9380000000000001, 0.11, 192.0, 125.5, 40.0, 14.5, 40.0, 1.5, 56.0, 0.0, 0.0, 0.0, 1.658335144480862E9, 0.0, 2022-07-20 12:39:04.480
162.0, -6151.825922945252, -19920.79108009232, -2765.4919344773216, -7894.479679403267, -35711.873854622114, -12872.190817855695, -7607.0138939635635, -10044.426923325887, -3833.815912463178, -28418.47728711096, -11732.587126801864, -33067.84129951493, -26139.918105592504, -11854.582948038931, -30790.980850575073, 388.2274494442284, -0.15, 0.9380000000000001, 0.11, 192.0, 0.0, 0.0, 0.0, 0.0, 0.0, 0.0, 0.0, 0.0, 0.0, 1.6583351444808671E9, 0.0, 2022-07-20 12:39:04.480
164.0, -5216.65128667966, -19033.315066494353, -1873.6796824550252, -7116.907193292045, -34963.38098804724, -11982.770202490115, -6971.240874676809, -9331.98742055743, -2978.5487626253084, -27303.125238791137, -11133.403913188447, -33016.63345296782, -25339.05510175885, -11099.116337194007, -29655.28871480092, 419.4528364482923, -0.15, 0.9380000000000001, 0.11, 192.0, 0.0, 0.0, 0.0, 0.0, 0.0, 0.0, 0.0, 0.0, 0.0, 1.6583351444808724E9, 0.0, 2022-07-20 12:39:04.480
166.0, -6186.851106506719, -19967.99796438193, -2799.0195511602824, -7983.596084546577, -35811.60733838169, -12883.970187183642, -7413.291324769417, -10005.624294951474, -3719.3526291075505, -28298.336660663685, -11608.132613674714, -32917.123486652796, -26018.235208777813, -11727.468577321599, -30673.857709629265, 521.4214946534031, -0.15, 0.9380000000000001, 0.11, 192.0, 0.0, 0.0, 0.0, 0.0, 0.0, 0.0, 0.0, 0.0, 0.0, 1.6583351444808774E9, 0.0, 2022-07-20 12:39:04.480
168.0, -5157.441515617552, -18955.151016134147, -1823.2541469638525, -7014.96088683139, -34835.93134116308, -11954.003507376136, -7129.60298414266, -9375.461563523002, -3064.8041444783385, -27378.98705947245, -11223.257925898783, -33113.01417505911, -25426.42807083465, -11191.987835405807, -29739.443032675154, 327.05072487005293, -0.15, 0.9380000000000001, 0.11, 192.0, 0.0, 0.0, 0.0, 0.0, 0.0, 0.0, 0.0, 0.0, 0.0, 1.6583351444808824E9, 0.0, 2022-07-20 12:39:04.480
170.0, -6222.032752279371, -20024.43611913158, -2825.953403228927, -8092.560838766199, -35933.692566596575, -12922.7504638136, -7300.415015270116, -9980.053899294604, -3577.173182627342, -28175.938508026426, -11470.758792252398, -32791.35022060278, -25889.824436882074, -11600.957703704562, -30564.75884494291, 605.5087572942683, -0.14400000000000002, 0.9400000000000001, 0.108, 192.0, 125.5, 64.0, 14.5, 48.0, 1.5, 48.0, 0.0, 0.0, 0.0, 1.6583351444808877E9, 0.0, 2022-07-20 12:39:04.480
172.0, -5164.929350010079, -18935.995571135947, -1828.2385859773858, -6960.646147804993, -34775.33576194474, -11960.016126634613, -7288.523887219893, -9398.86383996771, -3221.333410898854, -27533.705834592085, -11370.980605003906, -33250.61151392597, -25579.090485464396, -11345.790189002775, -29905.20356955571, 198.23762157411835, -0.14400000000000002, 0.9400000000000001, 0.108, 192.0, 0.0, 0.0, 0.0, 0.0, 0.0, 0.0, 0.0, 0.0, 0.0, 1.6583351444808931E9, 0.0, 2022-07-20 12:39:04.480
174.0, -6208.979333517473, -20028.05710173334, -2802.059388406204, -8133.643345075053, -35985.079227099326, -12902.119803681351, -7111.810995556235, -9932.265869649156, -3439.084105382455, -28031.83681152306, -11342.079799423194, -32685.201786184527, -25756.563336439533, -11468.635376529142, -30414.01868033632, 705.1975375649379, -0.14400000000000002, 0.9400000000000001, 0.108, 192.0, 0.0, 0.0, 0.0, 0.0, 0.0, 0.0, 0.0, 0.0, 0.0, 1.6583351444808996E9, 0.0, 2022-07-20 12:39:04.480
176.0, -5185.917638053613, -18939.773015948897, -1848.4669147094387, -6918.982496140301, -34728.08417416622, -11984.13365890189, -7452.026897910464, -9461.605186653756, -3354.482752619118, -27689.63160391231, -11492.171763440581, -33345.9193522834, -25707.14362944885, -11480.995891212928, -30049.37232129244, 127.06966722842066, -0.14400000000000002, 0.9400000000000001, 0.108, 192.0, 0.0, 0.0, 0.0, 0.0, 0.0, 0.0, 0.0, 0.0, 0.0, 1.6583351444809062E9, 0.0, 2022-07-20 12:39:04.480
178.0, -6165.460487062989, -20005.437136344568, -2747.901111590995, -8134.313897408712, -36005.93340467613, -12838.529090706003, -6976.38177590153, -9875.492438732677, -3286.689911686172, -27860.153062361846, -11200.950884932387, -32586.40707569207, -25602.31394795346, -11318.543412511757, -30238.624541595527, 805.2439457468922, -0.14400000000000002, 0.9400000000000001, 0.108, 192.0, 0.0, 0.0, 0.0, 0.0, 0.0, 0.0, 0.0, 0.0, 0.0, 1.6583351444809127E9, 0.0, 2022-07-20 12:39:04.480
180.0, -5251.9670429190455, -18988.52217060592, -1900.099444401198, -6927.699676477871, -34732.15219165709, -12040.392999695898, -7598.386120603815, -9505.88399241972, -3513.761283607636, -27855.88387917088, -11619.688465558109, -33423.14462937649, -25857.97320103326, -11623.309448159867, -30209.857846481544, 76.51002127051608, -0.15, 0.9400000000000001, 0.10400000000000001, 192.0, 125.5, 40.0, 14.5, 48.0, 1.5, 32.0, 0.0, 0.0, 0.0, 1.6583351444809196E9, 0.0, 2022-07-20 12:39:04.480
0.0, -2624.4971304532446, -9493.746995180487, -984.5943432562761, -3432.87032042388, -17313.035406236104, -6060.854323012152, -3993.1614986850623, -4823.282936010711, -1825.399914431562, -14147.715466942247, -5745.4488570033145, -16347.775321933666, -12978.003976107118, -5825.848081809054, -15338.549356287642, 354.8115914835443, -0.149, 0.9400000000000001, 0.10300000000000001, 192.0, 125.5, 48.0, 14.5, 48.0, 1.5, 24.0, 0.0, 0.0, 0.0, 1.6583351445690615E9, 0.0, 2022-07-20 12:39:04.569
2.0, -5396.2475533780525, -19310.81197390699, -2090.290437971406, -7529.878023848299, -35397.92125200287, -12201.660835940938, -6673.56034202103, -9385.117517127695, -2791.777585956763, -27106.02755618424, -10870.301529205028, -32599.862825854165, -25134.469584759427, -10842.76418003609, -29506.94018685105, 756.0701079452167, -0.149, 0.9400000000000001, 0.10300000000000001, 192.0, 0.0, 0.0, 0.0, 0.0, 0.0, 0.0, 0.0, 0.0, 0.0, 1.6583351450485916E9, 0.0, 2022-07-20 12:39:05.048
4.0, -5849.026840809208, -19629.994884728778, -2545.17078938136, -7601.537716572013, -35385.09135068552, -12674.601396870781, -7772.662672121844, -9964.87706480945, -3942.7583149383445, -28398.852455479202, -11859.433276585733, -33230.919627060845, -26244.65838011007, -11929.908326853316, -30806.51531297151, 210.32991532443947, -0.149, 0.9400000000000001, 0.10300000000000001, 192.0, 0.0, 0.0, 0.0, 0.0, 0.0, 0.0, 0.0, 0.0, 0.0, 1.6583351450486825E9, 0.0, 2022-07-20 12:39:05.048
6.0, -5264.148743647188, -19172.968765851114, -1976.0730238047868, -7377.752051085478, -35239.156811136825, -12108.342302840032, -6774.254950792188, -9362.676365694568, -2823.7182287833966, -27105.960500950874, -10923.92336415331, -32706.458295161523, -25171.595832299692, -10882.527933422081, -29514.808000899317, 648.580568859645, -0.149, 0.9400000000000001, 0.10300000000000001, 192.0, 0.0, 0.0, 0.0, 0.0, 0.0, 0.0, 0.0, 0.0, 0.0, 1.6583351450486963E9, 0.0, 2022-07-20 12:39:05.048
8.0, -5949.788504813731, -19762.80895028221, -2630.0180113337055, -7752.903730023352, -35565.67109413995, -12789.109383715318, -7673.130354062361, -9973.773059102663, -3891.3493026911383, -28382.356868071183, -11779.19051399118, -33110.22020700219, -26191.84120796218, -11866.027041200048, -30792.232548264572, 316.09837008695246, -0.15, 0.9480000000000001, 0.1, 192.0, 125.5, 40.0, 14.5, 80.0, 1.5, 16.0, 0.0, 0.0, 0.0, 1.6583351450487025E9, 0.0, 2022-07-20 12:39:05.048
10.0, -5163.655300576127, -19065.926261654648, -1870.103403342176, -7226.207223678497, -35095.74801871157, -12035.408560682365, -6868.735774604771, -9302.863097532165, -2889.8123371377396, -27153.457957918403, -11000.813365079566, -32834.15381123469, -25237.51112669839, -10958.16623665884, -29550.123757138703, 551.5963496680677, -0.15, 0.9480000000000001, 0.1, 192.0, 0.0, 0.0, 0.0, 0.0, 0.0, 0.0, 0.0, 0.0, 0.0, 1.658335145048709E9, 0.0, 2022-07-20 12:39:05.048
12.0, -6026.969078417907, -19862.587137530703, -2695.4862708432997, -7878.744051306731, -35701.86027310613, -12850.77784666751, -7548.318213023927, -9980.277416739156, -3811.3747610300497, -28321.09073651919, -11680.149934309715, -32977.00381004856, -26107.64218659904, -11783.012662293037, -30726.920750966165, 448.93478738484237, -0.15, 0.9480000000000001, 0.1, 192.0, 0.0, 0.0, 0.0, 0.0, 0.0, 0.0, 0.0, 0.0, 0.0, 1.6583351450487156E9, 0.0, 2022-07-20 12:39:05.048
14.0, -5085.446546727007, -18975.08877218828, -1814.6710770930144, -7101.439786128973, -34952.40628151969, -11985.675929269306, -7004.679084381948, -9320.431568674037, -2975.1960009570125, -27231.756118745343, -11104.90543900793, -32958.831841806394, -25327.566305108823, -11065.186389110851, -29618.67655738313, 442.69865068181167, -0.15, 0.9480000000000001, 0.1, 192.0, 0.0, 0.0, 0.0, 0.0, 0.0, 0.0, 0.0, 0.0, 0.0, 1.6583351450487223E9, 0.0, 2022-07-20 12:39:05.048
16.0, -6064.117677702628, -19926.200202250508, -2753.35493723809, -7999.86815451004, -35834.29435900383, -12894.877838477832, -7431.463293011581, -10004.439652495343, -3693.379902050484, -28217.24453177983, -11561.976261374506, -32842.6027706388, -25993.08949626559, -11679.568788953877, -30635.479764399504, 544.1085152755398, -0.15, 0.9480000000000001, 0.1, 192.0, 0.0, 0.0, 0.0, 0.0, 0.0, 0.0, 0.0, 0.0, 0.0, 1.6583351450487287E9, 0.0, 2022-07-20 12:39:05.048
18.0, -5034.193996690989, -18901.35036723022, -1783.0657104332104, -7002.645075636516, -34837.54066676387, -11946.023934605591, -7211.544479315816, -9343.386810229636, -3093.4590808700423, -27340.743224709422, -11227.50475734529, -33087.24261370213, -25444.443576865626, -11184.701166713377, -29746.059149033925, 308.65523918333525, -0.148, 0.9460000000000001, 0.10400000000000001, 192.0, 125.5, 48.0, 14.5, 72.0, 1.5, 32.0, 0.0, 0.0, 0.0, 1.658335145048735E9, 0.0, 2022-07-20 12:39:05.048
20.0, -6081.216762210937, -19960.95716487851, -2758.6970041629083, -8060.709602917386, -35916.571130343815, -12900.398719358293, -7199.206316376486, -9920.799424743584, -3560.208208585764, -28085.302184260156, -11427.038780097817, -32706.502998650434, -25865.572794148065, -11532.986048815972, -30502.41982965706, 659.1529439870053, -0.148, 0.9460000000000001, 0.10400000000000001, 192.0, 0.0, 0.0, 0.0, 0.0, 0.0, 0.0, 0.0, 0.0, 0.0, 1.658335145048742E9, 0.0, 2022-07-20 12:39:05.048
22.0, -5046.554511374773, -18897.997605561926, -1792.9228297380007, -6940.976612684323, -34767.24443045192, -11956.328088799488, -7296.212887312518, -9357.915444125587, -3236.778466317471, -27482.341525833792, -11357.502503097356, -33194.73215278771, -25585.125456467325, -11316.107072366129, -29874.022886040555, 238.2919476380286, -0.148, 0.9460000000000001, 0.10400000000000001, 192.0, 0.0, 0.0, 0.0, 0.0, 0.0, 0.0, 0.0, 0.0, 0.0, 1.6583351450487473E9, 0.0, 2022-07-20 12:39:05.048
24.0, -6081.574390122222, -19985.789952968356, -2772.532733980743, -8127.340153138656, -35993.1482068477, -12883.523152294536, -7102.624428585104, -9886.28833130459, -3438.8158844489917, -27953.024560573645, -11317.895211922552, -32621.722831931453, -25745.454519445244, -11413.158346791071, -30378.993496774852, 746.0788781736944, -0.148, 0.9460000000000001, 0.10400000000000001, 192.0, 0.0, 0.0, 0.0, 0.0, 0.0, 0.0, 0.0, 0.0, 0.0, 1.6583351450487523E9, 0.0, 2022-07-20 12:39:05.048
26.0, -5081.177363536044, -18908.905256856116, -1841.1578942725534, -6924.168100853933, -34739.72943302744, -11989.27456012661, -7479.005453468019, -9431.028000238895, -3392.0783867929445, -27643.095271956357, -11507.616818859198, -33312.05645943361, -25734.435109428778, -11454.330260077746, -30058.201260352285, 138.98314702309932, -0.148, 0.9460000000000001, 0.10400000000000001, 192.0, 0.0, 0.0, 0.0, 0.0, 0.0, 0.0, 0.0, 0.0, 0.0, 1.6583351450487573E9, 0.0, 2022-07-20 12:39:05.048
28.0, -6027.863148196119, -19948.507243216904, -2723.671820601442, -8128.591850828154, -36006.22397735405, -12816.400863695248, -6968.648072319994, -9820.685961328265, -3288.656865198239, -27779.597375344918, -11189.93147491592, -32533.29933086626, -25594.6920030942, -11257.389039682037, -30211.44482033787, 838.2574723073808, -0.146, 0.9400000000000001, 0.096, 192.0, 125.5, 56.0, 14.5, 48.0, 1.5, 0.0, 0.0, 0.0, 0.0, 1.6583351450487623E9, 0.0, 2022-07-20 12:39:05.048
30.0, -5126.35023908022, -18940.60003049374, -1889.1917931070082, -6930.806568957159, -34734.2979591248, -12039.945964806791, -7623.822405793954, -9521.530213538434, -3531.3968099828735, -27811.046279793536, -11622.102453959282, -33382.9785445903, -25876.212224508792, -11580.81878195033, -30225.682881555902, 98.97352444809967, -0.146, 0.9400000000000001, 0.096, 192.0, 0.0, 0.0, 0.0, 0.0, 0.0, 0.0, 0.0, 0.0, 0.0, 1.6583351450487676E9, 0.0, 2022-07-20 12:39:05.048
32.0, -5951.84486530362, -19885.7435447864, -2626.1288077984823, -8089.431594542456, -35988.141416089704, -12756.654650766213, -6824.278154883165, -9742.11957956786, -3128.7077818760613, -27606.818390705397, -11046.165054579384, -32455.269390972782, -25450.947934502117, -11126.720741596311, -30026.484134970207, 903.859842283707, -0.146, 0.9400000000000001, 0.096, 192.0, 0.0, 0.0, 0.0, 0.0, 0.0, 0.0, 0.0, 0.0, 0.0, 1.6583351450487723E9, 0.0, 2022-07-20 12:39:05.048
34.0, -5239.60652823526, -19038.366560741255, -1955.3529566947172, -6978.058156735678, -34787.13748301715, -12154.83393130707, -7722.348895352948, -9591.111194027806, -3680.2817797996736, -27982.618270232473, -11725.121644153793, -33425.558617777664, -26015.418888976445, -11738.644449549252, -30374.29963043924, 49.01737559048839, -0.146, 0.9400000000000001, 0.096, 192.0, 0.0, 0.0, 0.0, 0.0, 0.0, 0.0, 0.0, 0.0, 0.0, 1.6583351450487776E9, 0.0, 2022-07-20 12:39:05.048
36.0, -5848.021012308719, -19792.134439007576, -2506.479919729223, -8003.444433622889, -35905.21644416052, -12655.714172806047, -6720.856633288459, -9644.733028976087, -3008.947135084526, -27457.598144721767, -10948.711448754246, -32423.17228593496, -25331.857840044242, -11032.284621272638, -29846.99962699409, 921.7412378479527, -0.146, 0.9400000000000001, 0.096, 192.0, 0.0, 0.0, 0.0, 0.0, 0.0, 0.0, 0.0, 0.0, 0.0, 1.6583351450487826E9, 0.0, 2022-07-20 12:39:05.048
38.0, -5349.86768363329, -19142.749207347537, -2069.5703708613364, -7074.528285804783, -34864.25100138796, -12240.731685248815, -7829.16788210486, -9678.193590425682, -3791.6158189315584, -28130.452708059875, -11803.039825324991, -33435.30397836018, -26115.510000647308, -11842.736523477617, -30508.09717274871, 42.602424931815264, -0.148, 0.9420000000000001, 0.108, 192.0, 125.5, 48.0, 14.5, 56.0, 1.5, 48.0, 0.0, 0.0, 0.0, 1.6583351450487893E9, 0.0, 2022-07-20 12:39:05.048
40.0, -5716.078664789041, -19662.784893844713, -2405.561793513512, -7905.4990894197335, -35808.835722069234, -12536.042932992332, -6713.122929706923, -9605.013979079005, -2903.983343122404, -27310.613073183667, -10880.181000254273, -32424.826315024653, -25231.76672837338, -10915.362646026928, -29711.726869550574, 908.7101708305087, -0.148, 0.9420000000000001, 0.108, 192.0, 0.0, 0.0, 0.0, 0.0, 0.0, 0.0, 0.0, 0.0, 0.0, 1.6583351450487945E9, 0.0, 2022-07-20 12:39:05.048
42.0, -5472.17642929273, -19258.643002348304, -2204.597259115846, -7194.020711662854, -34986.425636580665, -12369.030698422277, -7805.273867282137, -9776.854190451408, -3882.8332880536664, -28246.88294492757, -11871.167942424769, -33420.99886190878, -26200.42427783302, -11912.026931289069, -30651.79653785188, 43.340032498840394, -0.148, 0.9420000000000001, 0.108, 192.0, 0.0, 0.0, 0.0, 0.0, 0.0, 0.0, 0.0, 0.0, 0.0, 1.6583351450487993E9, 0.0, 2022-07-20 12:39:05.048
44.0, -5578.123698010886, -19526.43925266734, -2282.6271990093232, -7761.375041171914, -35660.93422900847, -12392.343567889164, -6610.2602017236, -9464.82383785532, -2827.182749173969, -27188.6172519466, -10846.273403915573, -32459.38211195256, -25163.392742084594, -10862.076087245476, -29593.016754748438, 888.7724147763747, -0.148, 0.9420000000000001, 0.108, 192.0, 0.0, 0.0, 0.0, 0.0, 0.0, 0.0, 0.0, 0.0, 0.0, 1.6583351450488043E9, 0.0, 2022-07-20 12:39:05.048
46.0, -5625.397637533861, -19417.832126359, -2345.5473596510124, -7341.8327977458, -35143.938379757215, -12483.315167822262, -7857.17461790736, -9822.89878402934, -3930.2860415322834, -28332.37836746912, -11888.647006588819, -33357.966942544816, -26241.707949841973, -11937.954954857225, -30739.57183832787, 121.12410320330898, -0.148, 0.9420000000000001, 0.108, 192.0, 0.0, 0.0, 0.0, 0.0, 0.0, 0.0, 0.0, 0.0, 0.0, 1.6583351450488093E9, 0.0, 2022-07-20 12:39:05.048
48.0, -5463.436897210705, -19412.37830071191, -2162.955959195609, -7626.996353506608, -35522.57693083012, -12277.321490922153, -6664.619644238907, -9408.408034850125, -2813.4364263339553, -27140.113966478584, -10863.439543657249, -32547.15741242855, -25152.21686985694, -10855.90700577581, -29545.98868441447, 823.8853006226183, -0.152, 0.9420000000000001, 0.107, 192.0, 125.5, 16.0, 14.5, 56.0, 1.5, 40.0, 0.0, 0.0, 0.0, 1.6583351450488143E9, 0.0, 2022-07-20 12:39:05.048
50.0, -5761.519761266681, -19566.650040942437, -2463.7657360751314, -7502.810061312922, -35299.12654151041, -12600.63947446817, -7832.721809473254, -9903.655636746364, -3965.6017977716683, -28400.595891546716, -11887.01532924358, -33293.996249913725, -26269.066485055268, -11949.331992784977, -30792.344306986848, 189.2522203030849, -0.152, 0.9420000000000001, 0.107, 192.0, 0.0, 0.0, 0.0, 0.0, 0.0, 0.0, 0.0, 0.0, 0.0, 1.6583351450488193E9, 0.0, 2022-07-20 12:39:05.048
52.0, -5339.6082329283045, -19279.497179925107, -2057.12044919973, -7487.432061127671, -35353.41892879235, -12172.93884431587, -6709.904278505359, -9368.577226230767, -2821.4607025934106, -27113.26952138776, -10902.711558665223, -32655.27280035887, -25159.97292518293, -10861.316127933995, -29495.272576245377, 732.4666658004124, -0.152, 0.9420000000000001, 0.107, 192.0, 0.0, 0.0, 0.0, 0.0, 0.0, 0.0, 0.0, 0.0, 0.0, 1.658335145048826E9, 0.0, 2022-07-20 12:39:05.048
54.0, -5872.809096909654, -19693.8985221265, -2586.543868368133, -7675.097307574429, -35455.27582827519, -12712.197031044607, -7726.305154121537, -9959.043259506614, -3942.2442248158727, -28410.989452718433, -11846.670430501752, -33205.28217617061, -26241.3950254196, -11911.043454533035, -30794.154798287727, 264.8234683064781, -0.152, 0.9420000000000001, 0.107, 192.0, 0.0, 0.0, 0.0, 0.0, 0.0, 0.0, 0.0, 0.0, 0.0, 1.658335145048833E9, 0.0, 2022-07-20 12:39:05.048
56.0, -5205.944801085568, -19131.573335119883, -1942.746572821924, -7332.065085418831, -35179.58941216343, -12072.758325667182, -6795.511459769185, -9352.729839411955, -2846.5840633611756, -27129.74275705132, -10957.048649436076, -32770.518394770435, -25195.243977933405, -10921.710541452234, -29505.308509505812, 611.0296381747291, -0.152, 0.9420000000000001, 0.107, 192.0, 0.0, 0.0, 0.0, 0.0, 0.0, 0.0, 0.0, 0.0, 0.0, 1.658335145048839E9, 0.0, 2022-07-20 12:39:05.048
58.0, -5967.982824800351, -19802.036261801277, -2670.899351942462, -7814.862765653464, -35621.28223434475, -12803.123927488796, -7646.911757816287, -9979.964492316782, -3872.864410026599, -28370.66690572106, -11755.050629979449, -33068.333037892946, -26175.502082765353, -11858.695669018707, -30772.42890267717, 353.93987344978734, -0.156, 0.9420000000000001, 0.10450000000000001, 192.0, 125.5, 0.0, 14.5, 56.0, 1.5, 24.0, 0.0, 0.0, 0.0, 1.6583351450488455E9, 0.0, 2022-07-20 12:39:05.048
60.0, -5103.953791136002, -19010.38217668321, -1835.5699581587266, -7163.555283970271, -35019.707384074616, -11986.301778114055, -6914.221574571321, -9293.788289283311, -2914.7121804609515, -27167.316039480695, -11039.079551587052, -32877.73971292254, -25268.75886544691, -10998.757004589677, -29567.84869049176, 506.781102035177, -0.156, 0.9420000000000001, 0.10450000000000001, 192.0, 0.0, 0.0, 0.0, 0.0, 0.0, 0.0, 0.0, 0.0, 0.0, 1.658335145048852E9, 0.0, 2022-07-20 12:39:05.048
62.0, -6041.631822780589, -19890.63857682211, -2725.549367135688, -7934.109322322527, -35764.512212814356, -12868.21220734265, -7499.233782200073, -9991.45328896681, -3764.79372558519, -28271.0228289393, -11626.550451105888, -32907.75810572602, -26070.515939058776, -11741.192548417157, -30691.001497626487, 492.2971716281381, -0.156, 0.9420000000000001, 0.10450000000000001, 192.0, 0.0, 0.0, 0.0, 0.0, 0.0, 0.0, 0.0, 0.0, 0.0, 1.658335145048859E9, 0.0, 2022-07-20 12:39:05.048
64.0, -5053.036517266813, -18936.979047891982, -1790.4194343590063, -7051.237768082353, -34902.85246406227, -11950.784856174572, -7075.757631749825, -9347.544234698324, -3027.879062638171, -27258.801729536266, -11148.334878484593, -32998.685002170205, -25380.763456912453, -11109.688712321367, -29667.336305062334, 387.7580628106669, -0.156, 0.9420000000000001, 0.10450000000000001, 192.0, 0.0, 0.0, 0.0, 0.0, 0.0, 0.0, 0.0, 0.0, 0.0, 1.6583351450488653E9, 0.0, 2022-07-20 12:39:05.048
66.0, -6067.738660304387, -19942.762844891888, -2749.1751610249476, -8013.6815325834195, -35866.927905908575, -12879.857466203865, -7340.894024478677, -9965.033527020638, -3648.564654417593, -28157.47596710634, -11507.460356648011, -32780.0402379084, -25946.75433000974, -11617.587401579309, -30576.828786948776, 601.8877746925086, -0.156, 0.9420000000000001, 0.10450000000000001, 192.0, 0.0, 0.0, 0.0, 0.0, 0.0, 0.0, 0.0, 0.0, 0.0, 1.658335145048872E9, 0.0, 2022-07-20 12:39:05.048
68.0, -5014.949144714969, -18878.328070441257, -1759.752840966325, -6943.770580741237, -34783.963535304494, -11913.12216676738, -7200.435662321528, -9327.673533877556, -3139.302508747877, -27369.59932680122, -11264.049859529718, -33113.192989014744, -25486.464856441602, -11206.762338490766, -29763.046474819956, 318.6464689548575, -0.157, 0.9410000000000001, 0.10725000000000001, 192.0, 125.5, 8.0, 14.5, 48.0, 1.5, 56.0, 0.0, 0.0, 0.0, 1.658335145048878E9, 0.0, 2022-07-20 12:39:05.048
70.0, -6072.991320251384, -19966.969784136985, -2762.0050623422935, -8081.317911305179, -35947.86357258124, -12878.896341192287, -7170.171400329042, -9918.184270642314, -3499.7243880897036, -28010.69206126834, -11369.81831429223, -32653.97639918046, -25803.256130606667, -11474.022146942872, -30427.45207875396, 729.449180298946, -0.157, 0.9410000000000001, 0.10725000000000001, 192.0, 0.0, 0.0, 0.0, 0.0, 0.0, 0.0, 0.0, 0.0, 0.0, 1.658335145048885E9, 0.0, 2022-07-20 12:39:05.048
72.0, -5041.234796194411, -18885.368869944676, -1802.6458385760593, -6910.354722780553, -34745.33972088572, -11946.739190428161, -7396.192240261107, -9410.263229639915, -3289.8862111432804, -27530.330721179336, -11415.639390425611, -33235.38997595191, -25640.17780306075, -11367.404325891057, -29944.520288052594, 209.63701124632493, -0.157, 0.9410000000000001, 0.10725000000000001, 192.0, 0.0, 0.0, 0.0, 0.0, 0.0, 0.0, 0.0, 0.0, 0.0, 1.6583351450488904E9, 0.0, 2022-07-20 12:39:05.048
74.0, -6078.221628453926, -19989.90267394813, -2770.1410973240254, -8140.505330622832, -36023.03248918444, -12863.16071309575, -7046.543901746739, -9896.793651198584, -3376.9909592856125, -27874.569937535518, -11267.000289797817, -32576.818177320743, -25688.211701895205, -11347.62303204811, -30316.073336133166, 788.2342682164036, -0.157, 0.9410000000000001, 0.10725000000000001, 192.0, 0.0, 0.0, 0.0, 0.0, 0.0, 0.0, 0.0, 0.0, 0.0, 1.6583351450488954E9, 0.0, 2022-07-20 12:39:05.048
76.0, -5096.555363721295, -18921.176364562078, -1855.5971211906817, -6915.339161794086, -34728.24063637741, -11987.218199636722, -7544.92074786672, -9487.44380324409, -3464.1404109168543, -27714.73261293562, -11568.122991099715, -33347.618084862006, -25803.256130606667, -11523.911240567119, -30132.29729322163, 114.39622812226155, -0.157, 0.9410000000000001, 0.10725000000000001, 192.0, 0.0, 0.0, 0.0, 0.0, 0.0, 0.0, 0.0, 0.0, 0.0, 1.6583351450489006E9, 0.0, 2022-07-20 12:39:05.048
78.0, -6015.122653856594, -19948.61900193918, -2703.354084891568, -8135.073856720192, -36022.0043089395, -12789.24349418205, -6941.535406295706, -9827.793816065052, -3225.3567249008092, -27710.597540211387, -11140.44471269187, -32505.6725747195, -25541.24898210156, -11210.472728070346, -30143.853145105022, 860.9221411850622, -0.1555, 0.9415, 0.10562500000000001, 192.0, 125.5, 24.0, 14.5, 56.0, 1.5, 32.0, 0.0, 0.0, 0.0, 1.6583351450489056E9, 0.0, 2022-07-20 12:39:05.048
80.0, -5185.939989798068, -19000.927388778615, -1932.3753633946615, -6970.100935709588, -34771.40185492061, -12086.147020595912, -7704.065168388506, -9583.869228824286, -3601.961267228278, -27894.686507545295, -11691.88460014875, -33425.2903968442, -25945.100300920047, -11665.800114369407, -30308.183170340442, 56.95224487212239, -0.1555, 0.9415, 0.10562500000000001, 192.0, 0.0, 0.0, 0.0, 0.0, 0.0, 0.0, 0.0, 0.0, 0.0, 1.6583351450489109E9, 0.0, 2022-07-20 12:39:05.048
82.0, -5905.062664158662, -19854.607564760157, -2590.5001271367228, -8071.080812344649, -35958.25713375296, -12711.839403133323, -6778.881761894437, -9728.172091027749, -3080.0927376857685, -27558.046884303916, -11026.942554347821, -32461.036141042252, -25410.26775959346, -11095.227133658784, -29965.553279585038, 898.5177753588886, -0.1555, 0.9415, 0.10562500000000001, 192.0, 0.0, 0.0, 0.0, 0.0, 0.0, 0.0, 0.0, 0.0, 0.0, 1.6583351450489159E9, 0.0, 2022-07-20 12:39:05.048
84.0, -5269.379051849729, -19076.96802341557, -2012.5063672669373, -7023.856881124602, -34816.4182682536, -12191.446088724862, -7771.053346521062, -9680.361709637846, -3706.9697626793104, -28043.012683750712, -11760.392696904266, -33437.60620803907, -26049.281781826234, -11763.521941128009, -30434.716395701933, 45.575206944371104, -0.1555, 0.9415, 0.10562500000000001, 192.0, 0.0, 0.0, 0.0, 0.0, 0.0, 0.0, 0.0, 0.0, 0.0, 1.6583351450489209E9, 0.0, 2022-07-20 12:39:05.048
86.0, -5797.170793672895, -19756.550461834726, -2491.839527110997, -7993.833183507108, -35888.96672594151, -12616.486861286981, -6723.158862967356, -9643.704848731142, -2956.755811781384, -27405.160952229617, -10927.879622921899, -32439.064376242684, -25302.040612940862, -10998.89111505641, -29814.589597533897, 899.9035835151177, -0.1555, 0.9415, 0.10562500000000001, 192.0, 0.0, 0.0, 0.0, 0.0, 0.0, 0.0, 0.0, 0.0, 0.0, 1.658335145048926E9, 0.0, 2022-07-20 12:39:05.048
88.0, -5409.703303540147, -19210.631455258306, -2144.247549086517, -7147.953766340467, -34932.64733942119, -12311.787880872236, -7841.5507485331, -9742.16428305677, -3831.401924062005, -28196.39035420303, -11845.86576770136, -33451.710158790374, -26164.1250448376, -11879.281625662044, -30595.783066246877, 31.381849215251115, -0.15475, 0.94275, 0.1058125, 192.0, 125.5, 24.0, 14.5, 64.0, 1.5, 40.0, 0.0, 0.0, 0.0, 1.658335145048931E9, 0.0, 2022-07-20 12:39:05.048
90.0, -5671.576341578525, -19635.158137697952, -2368.413194228792, -7879.504010618211, -35762.09822441319, -12494.647502261103, -6685.004435182147, -9574.056813008407, -2875.753089875351, -27284.640346126598, -10883.712575878213, -32467.249926000826, -25211.761917085878, -10924.951544398255, -29691.0068024405, 874.7578710028972, -0.15475, 0.94275, 0.1058125, 192.0, 0.0, 0.0, 0.0, 0.0, 0.0, 0.0, 0.0, 0.0, 0.0, 1.658335145048936E9, 0.0, 2022-07-20 12:39:05.048
92.0, -5545.400744128317, -19351.201576137733, -2274.6476262387787, -7283.9194278621, -35066.064902074926, -12443.596117925183, -7863.053126699106, -9836.063961513515, -3903.799224352744, -28306.383288667595, -11889.608131600397, -33418.1378386185, -26226.62052233464, -11947.476797995187, -30708.659375746178, 47.92214011217834, -0.15475, 0.94275, 0.1058125, 192.0, 0.0, 0.0, 0.0, 0.0, 0.0, 0.0, 0.0, 0.0, 0.0, 1.658335145048941E9, 0.0, 2022-07-20 12:39:05.048
94.0, -5526.424113085761, -19488.1507144154, -2232.827512362899, -7723.131206408883, -35616.163684864485, -12365.655585009526, -6658.9199494028035, -9490.483640490012, -2814.732827512363, -27182.470522221392, -10856.935186020755, -32509.4723712769, -25160.062332160753, -10885.411308456816, -29588.94873725757, 828.5344634693222, -0.15475, 0.94275, 0.1058125, 192.0, 0.0, 0.0, 0.0, 0.0, 0.0, 0.0, 0.0, 0.0, 0.0, 1.658335145048946E9, 0.0, 2022-07-20 12:39:05.048
96.0, -5660.5122280731475, -19464.793141459602, -2379.9690461121854, -7400.930810085632, -35195.5038542156, -12537.38403765965, -7837.572138020056, -9905.421424558333, -3929.0566955872414, -28357.65819044807, -11879.549846595508, -33327.345052641045, -26244.881897554627, -11946.538024728063, -30761.476547894068, 133.5963766093703, -0.15475, 0.94275, 0.1058125, 192.0, 0.0, 0.0, 0.0, 0.0, 0.0, 0.0, 0.0, 0.0, 0.0, 1.6583351450489511E9, 0.0, 2022-07-20 12:39:05.048
98.0, -5382.21065786012, -19329.92271541628, -2099.745225876001, -7548.765247913033, -35447.743290393744, -12225.934830419403, -6686.837278227482, -9421.461453612024, -2790.5929435006315, -27114.722384777357, -10855.8623022869, -32571.54316562929, -25135.92244814902, -10852.19661619623, -29508.527160707377, 788.703654849965, -0.15137499999999998, 0.940375, 0.10690625000000001, 192.0, 125.5, 48.0, 14.5, 40.0, 1.5, 48.0, 0.0, 0.0, 0.0, 1.658335145048956E9, 0.0, 2022-07-20 12:39:05.048
100.0, -5796.321427383594, -19607.889009462477, -2516.202928567282, -7569.239445834094, -35387.17006291987, -12661.771495553434, -7815.466262753757, -9969.861503822984, -3935.2704805458166, -28388.391839074116, -11852.884215460326, -33231.00903403867, -26248.18995573401, -11937.418512990298, -30799.161589045718, 230.87116847886665, -0.15137499999999998, 0.940375, 0.10690625000000001, 192.0, 0.0, 0.0, 0.0, 0.0, 0.0, 0.0, 0.0, 0.0, 0.0, 1.6583351450489612E9, 0.0, 2022-07-20 12:39:05.048
102.0, -5254.984528420512, -19192.59359748287, -1988.7911663998566, -7402.875411853244, -35287.660096604835, -12119.741692512238, -6750.696212136294, -9387.106822384218, -2820.767798515296, -27111.548437064703, -10915.966143127222, -32690.32033566479, -25177.83196900272, -10893.748509138646, -29511.902274120126, 681.5717436756782, -0.15137499999999998, 0.940375, 0.10690625000000001, 192.0, 0.0, 0.0, 0.0, 0.0, 0.0, 0.0, 0.0, 0.0, 0.0, 1.6583351450489676E9, 0.0, 2022-07-20 12:39:05.048
104.0, -5899.608838511567, -19731.248287111317, -2608.694447123343, -7723.801758742543, -35539.1395734715, -12738.19210984613, -7709.139014379861, -10014.676751455874, -3887.683616600468, -28376.254841834885, -11784.398470449267, -33121.2172652742, -26201.31834761123, -11882.544980352519, -30790.220891263594, 328.8388644264775, -0.15137499999999998, 0.940375, 0.10690625000000001, 192.0, 0.0, 0.0, 0.0, 0.0, 0.0, 0.0, 0.0, 0.0, 0.0, 1.6583351450489724E9, 0.0, 2022-07-20 12:39:05.048
106.0, -5164.415259887607, -19089.507352054996, -1895.1820606210306, -7260.271282228385, -35129.610911561365, -12015.493156372686, -6864.108963502523, -9358.027202847863, -2868.6228833941086, -27142.393844413025, -10987.670539339846, -32814.77484879194, -25226.871696337665, -10939.591937016481, -29542.635922746173, 592.8129664436539, -0.15137499999999998, 0.940375, 0.10690625000000001, 192.0, 0.0, 0.0, 0.0, 0.0, 0.0, 0.0, 0.0, 0.0, 0.0, 1.6583351450489776E9, 0.0, 2022-07-20 12:39:05.048
108.0, -6007.299543297237, -19857.334477583707, -2698.570811578132, -7875.592455338533, -35690.50558692284, -12814.188040994173, -7602.811766005965, -10022.812786437606, -3823.556461758192, -28336.89341984909, -11702.07699562037, -33002.93183361671, -26125.70239611893, -11801.251685768568, -30742.522268595967, 447.2807582951496, -0.15068749999999997, 0.9401875, 0.10645312500000001, 192.0, 125.5, 40.0, 14.5, 48.0, 1.5, 40.0, 0.0, 0.0, 0.0, 1.6583351450489824E9, 0.0, 2022-07-20 12:39:05.048
110.0, -5105.026674869857, -19012.170316239633, -1833.7371151133914, -7149.339574496696, -34990.78422674945, -11991.867362483426, -7003.762662859281, -9353.288633023338, -2981.879172549149, -27236.494688569866, -11107.811165787121, -32962.698693597165, -25329.890886532176, -11051.909452904398, -29617.24604573799, 460.4235840348702, -0.15068749999999997, 0.9401875, 0.10645312500000001, 192.0, 0.0, 0.0, 0.0, 0.0, 0.0, 0.0, 0.0, 0.0, 0.0, 1.6583351450489874E9, 0.0, 2022-07-20 12:39:05.048
112.0, -6069.862076027641, -19941.332333246748, -2748.437553457922, -8003.10915745606, -35825.84539959972, -12907.484222350624, -7461.90636895971, -10036.693219744351, -3737.8375217720895, -28265.144320147556, -11602.701139772074, -32887.57448048288, -26039.71523519936, -11733.391789602256, -30652.265924485437, 532.0609250141293, -0.15068749999999997, 0.9401875, 0.10645312500000001, 192.0, 0.0, 0.0, 0.0, 0.0, 0.0, 0.0, 0.0, 0.0, 0.0, 1.6583351450489924E9, 0.0, 2022-07-20 12:39:05.048
114.0, -5040.117208971645, -18929.871193155195, -1772.2027626279312, -7023.901584613513, -34853.43275707159, -11959.077353367491, -7127.837196330691, -9371.6617669656, -3082.2832086423887, -27334.03770137283, -11211.79148099321, -33075.306782163, -25433.580629060347, -11190.087937127106, -29698.65109904422, 353.1575623938516, -0.15068749999999997, 0.9401875, 0.10645312500000001, 192.0, 0.0, 0.0, 0.0, 0.0, 0.0, 0.0, 0.0, 0.0, 0.0, 1.6583351450489972E9, 0.0, 2022-07-20 12:39:05.048
116.0, -6100.215744997949, -19996.29527286235, -2782.032225374249, -8090.415071298489, -35925.668290337126, -12930.283001695037, -7302.270210059907, -10026.053789383626, -3591.858278734479, -28128.08342314761, -11463.047440415316, -32746.445565992068, -25897.93812011935, -11593.224000123026, -30517.70842286449, 638.969318743863, -0.15068749999999997, 0.9401875, 0.10645312500000001, 192.0, 0.0, 0.0, 0.0, 0.0, 0.0, 0.0, 0.0, 0.0, 0.0, 1.6583351450490024E9, 0.0, 2022-07-20 12:39:05.049
118.0, -5033.456389123963, -18903.02674806437, -1786.6419895460594, -6956.488723336306, -34777.12390150117, -11945.867472394404, -7315.5247945219035, -9411.760796518422, -3224.485006867052, -27477.08886588679, -11357.63661356409, -33199.694240056786, -25576.028296474018, -11318.074025878195, -29866.311534203476, 224.14329339781924, -0.15134375, 0.9410937500000001, 0.10722656250000001, 192.0, 125.5, 32.0, 14.5, 56.0, 1.5, 48.0, 0.0, 0.0, 0.0, 1.6583351450490088E9, 0.0, 2022-07-20 12:39:05.049
120.0, -6084.4354134125015, -19998.664557774613, -2775.393757271023, -8129.79884502874, -35998.154997605685, -12885.490105806603, -7146.344440739685, -9963.73712584223, -3451.0199369215893, -27968.76018867018, -11330.546299284257, -32626.148477333605, -25756.585688183986, -11434.817187168264, -30390.169369002506, 726.6552122420326, -0.15134375, 0.9410937500000001, 0.10722656250000001, 192.0, 0.0, 0.0, 0.0, 0.0, 0.0, 0.0, 0.0, 0.0, 0.0, 1.6583351450490153E9, 0.0, 2022-07-20 12:39:05.049
122.0, -5062.9606918049685, -18909.12877430067, -1819.1637777285312, -6915.182699582899, -34745.2503139079, -11969.023879650102, -7460.632319525757, -9454.877311572709, -3376.2086482296763, -27623.2692746245, -11490.853010517718, -33293.839787702535, -25725.628522113388, -11435.30892554628, -30038.956408376267, 138.71492608963564, -0.15134375, 0.9410937500000001, 0.10722656250000001, 192.0, 0.0, 0.0, 0.0, 0.0, 0.0, 0.0, 0.0, 0.0, 0.0, 1.6583351455311253E9, 0.0, 2022-07-20 12:39:05.531
124.0, -6036.803845978242, -19968.66851671559, -2730.6232131270426, -8125.999048471338, -36012.81774196836, -12820.848860841854, -6997.325360456152, -9873.301967776057, -3304.6607142282387, -27804.251349479124, -11203.811908222666, -32528.292540108272, -25626.856163365384, -11282.244179516338, -30233.75186130427, 818.185605786515, -0.15134375, 0.9410937500000001, 0.10722656250000001, 192.0, 0.0, 0.0, 0.0, 0.0, 0.0, 0.0, 0.0, 0.0, 0.0, 1.6583351455311468E9, 0.0, 2022-07-20 12:39:05.531
126.0, -5137.615518285695, -18967.667993029117, -1897.3054763442847, -6940.976612684323, -34759.913058270584, -12025.394979166387, -7616.021646979052, -9530.269745620459, -3514.834167341491, -27787.241671948635, -11615.218116667047, -33370.41686420642, -25866.22099473727, -11568.771191688918, -30191.93174742839, 89.09405339885396, -0.15134375, 0.9410937500000001, 0.10722656250000001, 192.0, 0.0, 0.0, 0.0, 0.0, 0.0, 0.0, 0.0, 0.0, 0.0, 1.658335145531152E9, 0.0, 2022-07-20 12:39:05.531
128.0, -5964.428897431958, -19909.525800886848, -2653.330880800591, -8093.253742844313, -35987.4932155005, -12736.51572901198, -6848.2168731947995, -9773.88140843885, -3175.7358522100276, -27650.448995882154, -11099.541020338658, -32482.069132574696, -25494.310318745414, -11154.436904720891, -30058.022446396644, 880.345807116724, -0.15134375, 0.9410937500000001, 0.10722656250000001, 192.0, 0.0, 0.0, 0.0, 0.0, 0.0, 0.0, 0.0, 0.0, 0.0, 1.6583351455311575E9, 0.0, 2022-07-20 12:39:05.531
130.0, -5219.8028826478585, -19029.783490870417, -1972.586151669759, -6969.273921164742, -34781.16956724758, -12093.0537096326, -7707.082653889973, -9585.746775358532, -3658.600587678026, -27950.364702983465, -11727.133301154769, -33424.06105089916, -25994.72117361083, -11698.299550807424, -30333.641807275035, 83.8637451963121, -0.15, 0.9460000000000001, 0.106, 192.0, 125.5, 40.0, 14.5, 72.0, 1.5, 40.0, 0.0, 0.0, 0.0, 1.6583351455311627E9, 0.0, 2022-07-20 12:39:05.531
132.0, -5870.171591063928, -19823.20336380045, -2567.097850692016, -8030.959431047372, -35933.133772985195, -12644.203024411563, -6763.079078564535, -9675.310215390948, -3041.759495944917, -27484.241424112493, -10993.616103364957, -32439.913742531986, -25365.653677660666, -11023.99212407972, -29880.214319254676, 950.083249817282, -0.15, 0.9460000000000001, 0.106, 192.0, 0.0, 0.0, 0.0, 0.0, 0.0, 0.0, 0.0, 0.0, 0.0, 1.658335145531169E9, 0.0, 2022-07-20 12:39:05.531
134.0, -5328.298250233919, -19126.387730406255, -2082.132051245219, -7067.263968856808, -34855.42206232811, -12217.776443693214, -7820.9200884008515, -9664.491971074578, -3791.101728809086, -28117.086364875602, -11824.363389535356, -33457.96864723786, -26119.466259415898, -11810.035921339504, -30508.99124252692, 59.79091641794639, -0.15, 0.9460000000000001, 0.106, 192.0, 0.0, 0.0, 0.0, 0.0, 0.0, 0.0, 0.0, 0.0, 0.0, 1.6583351455311835E9, 0.0, 2022-07-20 12:39:05.531
136.0, -5717.620935156458, -19676.933548084922, -2424.0019826891403, -7927.0461710746495, -35797.7492568194, -12536.780540559357, -6634.109513057413, -9589.390109704747, -2911.9405641484936, -27328.49446874791, -10900.364625497417, -32431.330672661148, -25246.295362269328, -10918.089558850475, -29731.17288722669, 919.8636913137069, -0.15, 0.9460000000000001, 0.106, 192.0, 0.0, 0.0, 0.0, 0.0, 0.0, 0.0, 0.0, 0.0, 0.0, 1.6583351455311887E9, 0.0, 2022-07-20 12:39:05.531
138.0, -5451.769286605035, -19252.00453424508, -2197.467052634603, -7196.077072152743, -34967.09137762682, -12339.258174807808, -7861.846132498519, -9718.694951378699, -3842.555444545203, -28226.92283712898, -11851.990145682115, -33424.6868997439, -26166.784902427782, -11874.58775932643, -30625.39912765016, 48.57034070138225, -0.15, 0.9460000000000001, 0.106, 192.0, 0.0, 0.0, 0.0, 0.0, 0.0, 0.0, 0.0, 0.0, 0.0, 1.658335145531194E9, 0.0, 2022-07-20 12:39:05.531
140.0, -5608.119739069908, -19570.360430522018, -2324.2237954406496, -7833.235899595726, -35700.09448529416, -12435.773007365824, -6651.566225477008, -9502.732396451522, -2839.5209121132984, -27251.15743293255, -10867.708726848214, -32484.170196553496, -25179.821274259244, -10888.741718380657, -29659.692008458616, 845.3429752997131, -0.146, 0.934, 0.108, 192.0, 125.5, 56.0, 14.5, 24.0, 1.5, 48.0, 0.0, 0.0, 0.0, 1.6583351455311992E9, 0.0, 2022-07-20 12:39:05.531
142.0, -5595.692169152757, -19401.98473954019, -2330.281118188038, -7354.796809529878, -35112.958861942156, -12497.37441508465, -7849.530321303645, -9851.240795998669, -3907.2860964877723, -28358.440501504007, -11890.748070567617, -33396.50134998576, -26234.130708471625, -11944.995754360647, -30749.116033210285, 51.81134364740177, -0.146, 0.934, 0.108, 192.0, 0.0, 0.0, 0.0, 0.0, 0.0, 0.0, 0.0, 0.0, 0.0, 1.6583351455312045E9, 0.0, 2022-07-20 12:39:05.531
144.0, -5460.262949498052, -19420.871963604925, -2175.5623430684022, -7671.319862761482, -35526.30967215415, -12315.230049518354, -6657.914120902315, -9422.19906117905, -2777.3383590386343, -27183.05166757723, -10847.8603777719, -32546.06217695024, -25133.97784638141, -10860.95850002271, -29556.13637639718, 782.9369047804958, -0.146, 0.934, 0.108, 192.0, 0.0, 0.0, 0.0, 0.0, 0.0, 0.0, 0.0, 0.0, 0.0, 1.6583351455312097E9, 0.0, 2022-07-20 12:39:05.531
146.0, -5728.260365517183, -19539.805595851612, -2444.207959676738, -7500.5972386118465, -35264.7719102826, -12605.668616970614, -7831.939498417319, -9889.797555184074, -3910.2141750114174, -28419.997205733922, -11865.44589584421, -33306.848502975525, -26234.711853827463, -11955.076391109991, -30789.304469740924, 140.2124929681412, -0.146, 0.934, 0.108, 192.0, 0.0, 0.0, 0.0, 0.0, 0.0, 0.0, 0.0, 0.0, 0.0, 1.6583351455312147E9, 0.0, 2022-07-20 12:39:05.531
148.0, -5344.682078919659, -19294.450496965706, -2057.8804085112106, -7524.245384245562, -35377.514109315176, -12205.728853431805, -6720.230784443711, -9383.709357227011, -2768.6211787010648, -27151.446300917425, -10870.48034316067, -32640.431242040548, -25130.40156726856, -10880.985663054666, -29512.930454365072, 724.0847616296722, -0.146, 0.934, 0.108, 192.0, 0.0, 0.0, 0.0, 0.0, 0.0, 0.0, 0.0, 0.0, 0.0, 1.65833514553122E9, 0.0, 2022-07-20 12:39:05.531
150.0, -5856.559378690646, -19678.98990857481, -2554.3126528635803, -7658.244092255127, -35440.1660490234, -12723.104682338797, -7748.433381132291, -9948.381477401434, -3901.854622585133, -28448.003941536423, -11830.621877982841, -33221.688356600804, -26225.011196733856, -11948.12499858439, -30819.501676500047, 238.51546508258167, -0.146, 0.934, 0.11, 192.0, 125.5, 56.0, 14.5, 24.0, 1.5, 56.0, 0.0, 0.0, 0.0, 1.6583351455312252E9, 0.0, 2022-07-20 12:39:05.531
152.0, -5219.735827414493, -19151.89107082976, -1935.7951802963235, -7349.5665013273365, -35206.90324388781, -12098.641645746427, -6771.43863099082, -9317.592897128212, -2790.4588330338997, -27145.053702003206, -10914.267410548617, -32737.348405998757, -25157.246012359385, -10912.881602392388, -29508.281291518368, 651.6651095944774, -0.146, 0.934, 0.11, 192.0, 0.0, 0.0, 0.0, 0.0, 0.0, 0.0, 0.0, 0.0, 0.0, 1.6583351455312304E9, 0.0, 2022-07-20 12:39:05.531
154.0, -5971.961435313397, -19807.668901404013, -2667.8818664409955, -7816.941477887807, -35619.35998432159, -12829.54368943497, -7687.681339702766, -10014.453234011322, -3851.8537702386107, -28414.0069382199, -11758.962185259126, -33096.74210509564, -26172.574004241706, -11883.081422219448, -30803.587234447867, 343.59101576698015, -0.146, 0.934, 0.11, 192.0, 0.0, 0.0, 0.0, 0.0, 0.0, 0.0, 0.0, 0.0, 0.0, 1.6583351455312357E9, 0.0, 2022-07-20 12:39:05.531
156.0, -5148.858445746714, -19059.980697629537, -1875.199601077986, -7231.236366180941, -35074.871489390316, -12039.00719153967, -6919.161310095944, -9328.7017141225, -2881.5868951781863, -27216.86985693811, -11030.116502060475, -32887.44037001614, -25255.727798429467, -11008.591772150014, -29582.310269154343, 507.7869305356659, -0.146, 0.934, 0.11, 192.0, 0.0, 0.0, 0.0, 0.0, 0.0, 0.0, 0.0, 0.0, 0.0, 1.6583351455312407E9, 0.0, 2022-07-20 12:39:05.531
158.0, -6041.229491380393, -19893.209027434474, -2724.700000846386, -7945.821636417108, -35743.434517793, -12868.54748350948, -7543.423180988215, -9990.872143610972, -3763.452620917871, -28354.99833285789, -11660.5027509335, -32972.891089068784, -26087.39150612253, -11782.677386126208, -30725.244370132015, 450.9687961302753, -0.146, 0.934, 0.11, 192.0, 0.0, 0.0, 0.0, 0.0, 0.0, 0.0, 0.0, 0.0, 0.0, 1.658335145531246E9, 0.0, 2022-07-20 12:39:05.531
160.0, -5073.264845998865, -18966.483350572988, -1807.3397049116738, -7109.754635066347, -34922.67846139413, -11971.974309918203, -7047.840302925147, -9313.837804059722, -2968.4904776204203, -27297.157323021573, -11129.514709653224, -33012.02899361002, -25343.614857627734, -11100.189220927861, -29651.77949092144, 394.3965309138931, -0.148, 0.9440000000000001, 0.108, 192.0, 125.5, 48.0, 14.5, 64.0, 1.5, 48.0, 0.0, 0.0, 0.0, 1.658335145531251E9, 0.0, 2022-07-20 12:39:05.531
162.0, -6100.953352564973, -19970.76958069439, -2787.4636992768883, -8067.996271609816, -35868.537231509355, -12911.395777630303, -7388.6597023796685, -9990.380405232956, -3645.4801136827605, -28246.234744338366, -11545.391266988669, -32848.01189279698, -25968.01083898674, -11666.962405081083, -30625.332072416793, 541.2474919852605, -0.148, 0.9440000000000001, 0.108, 192.0, 0.0, 0.0, 0.0, 0.0, 0.0, 0.0, 0.0, 0.0, 0.0, 1.6583351455312562E9, 0.0, 2022-07-20 12:39:05.531
164.0, -5058.646805125094, -18926.205507064522, -1802.8470042761571, -7030.562404461194, -34827.258864314426, -11945.688658438761, -7223.279145154852, -9343.90090035211, -3109.2841159443997, -27417.968501802505, -11272.56587416719, -33146.832364419985, -25479.22289123808, -11234.36674289307, -29784.70531519715, 274.3006079555283, -0.148, 0.9440000000000001, 0.108, 192.0, 0.0, 0.0, 0.0, 0.0, 0.0, 0.0, 0.0, 0.0, 0.0, 1.6583351455312614E9, 0.0, 2022-07-20 12:39:05.531
166.0, -6119.393541740602, -20010.19805791355, -2795.9797139143607, -8151.770609828307, -35960.894639598686, -12918.570687600457, -7246.7261250884685, -9946.123951211448, -3529.31809774853, -28111.766649695237, -11423.529556218333, -32729.346481483757, -25841.87994502544, -11539.780979130386, -30497.16716971006, 653.1403247285277, -0.148, 0.9440000000000001, 0.108, 192.0, 0.0, 0.0, 0.0, 0.0, 0.0, 0.0, 0.0, 0.0, 0.0, 1.658335145531268E9, 0.0, 2022-07-20 12:39:05.531
168.0, -5057.439810924508, -18910.22400977898, -1796.8567367621347, -6970.995005487801, -34750.68178781054, -11969.113286627924, -7377.528533640926, -9394.080566654273, -3260.7842398624707, -27573.223718789068, -11408.039797310807, -33262.99438035421, -25623.615160419366, -11381.173000475526, -29932.249180346633, 176.8693538748448, -0.148, 0.9440000000000001, 0.108, 192.0, 0.0, 0.0, 0.0, 0.0, 0.0, 0.0, 0.0, 0.0, 0.0, 1.6583351455312731E9, 0.0, 2022-07-20 12:39:05.531
170.0, -6085.955332035463, -20003.134906665673, -2757.3111960066794, -8167.036851291282, -35998.46792202806, -12893.26851287705, -7081.345567863652, -9894.133793608404, -3372.7217760946487, -27956.846708875502, -11278.667900403489, -32611.128105059637, -25696.928882232773, -11399.412023951058, -30328.500906050314, 750.0127851978285, -0.146, 0.9440000000000001, 0.10400000000000001, 192.0, 125.5, 56.0, 14.5, 64.0, 1.5, 32.0, 0.0, 0.0, 0.0, 1.6583351455312784E9, 0.0, 2022-07-20 12:39:05.531
172.0, -5093.917857875569, -18929.31239954381, -1830.1831877449977, -6938.3838103275075, -34719.9481391845, -12019.918801774837, -7510.655523616734, -9470.702346647065, -3408.7304364121483, -27733.664540489262, -11537.009362817927, -33346.634608105975, -25761.950106853263, -11513.271810206392, -30089.62781305645, 97.76653024751309, -0.146, 0.9440000000000001, 0.10400000000000001, 192.0, 0.0, 0.0, 0.0, 0.0, 0.0, 0.0, 0.0, 0.0, 0.0, 1.6583351455312836E9, 0.0, 2022-07-20 12:39:05.531
174.0, -6016.66492422401, -19955.972725864976, -2682.1646311479367, -8139.4100951445225, -35991.82945392483, -12839.333753506393, -6931.1641968684435, -9837.4721214142, -3212.8844514947477, -27772.601279330407, -11135.080294022597, -32506.968975897908, -25533.67174073121, -11256.539673392734, -30150.15633704142, 823.4829692224228, -0.146, 0.9440000000000001, 0.10400000000000001, 192.0, 0.0, 0.0, 0.0, 0.0, 0.0, 0.0, 0.0, 0.0, 0.0, 1.6583351455312889E9, 0.0, 2022-07-20 12:39:05.531
176.0, -5163.4541348760295, -18991.696118318574, -1900.9935141794103, -6964.0436129622, -34746.90434299759, -12101.748538225716, -7663.384993479847, -9566.390164660235, -3545.0984293339766, -27893.792437767082, -11643.604832125287, -33403.251576811264, -25892.149018305427, -11654.64659388621, -30256.28241971522, 36.61215741779297, -0.146, 0.9440000000000001, 0.10400000000000001, 192.0, 0.0, 0.0, 0.0, 0.0, 0.0, 0.0, 0.0, 0.0, 0.0, 1.658335145531294E9, 0.0, 2022-07-20 12:39:05.531
178.0, -5924.687495790422, -19887.956367487477, -2607.398045944935, -8100.898039448028, -35960.44760470958, -12752.877205953266, -6824.009933949702, -9759.039850120527, -3082.7302435314946, -27608.539475028454, -11029.021266582164, -32461.706693375912, -25413.21818986156, -11129.268840464216, -29991.771875831113, 859.0445946508163, -0.146, 0.9440000000000001, 0.10400000000000001, 192.0, 0.0, 0.0, 0.0, 0.0, 0.0, 0.0, 0.0, 0.0, 0.0, 1.658335145531299E9, 0.0, 2022-07-20 12:39:05.531
180.0, -5263.791115735903, -19089.64146252173, -2007.1866520865742, -7038.810198165203, -34807.96930884949, -12190.999053835756, -7757.307023681048, -9642.520206275012, -3680.4158902664058, -28057.384855435474, -11754.178911945692, -33450.90549598998, -26028.226438549333, -11776.374194189812, -30415.40448849255, 16.89791880821214, -0.14400000000000002, 0.9460000000000001, 0.108, 192.0, 125.5, 64.0, 14.5, 72.0, 1.5, 48.0, 0.0, 0.0, 0.0, 1.6583351455313044E9, 0.0, 2022-07-20 12:39:05.531
182.0, -5812.682904324878, -19789.58634013967, -2505.0941115729943, -8023.292782699202, -35887.17858638508, -12641.319649376828, -6739.654450375373, -9687.91659926374, -2968.1999049425012, -27472.43970304009, -10954.16527440134, -32456.47638517337, -25305.460429842526, -11016.638400153925, -29834.10267044338, 898.0036852364166, -0.14400000000000002, 0.9460000000000001, 0.108, 192.0, 0.0, 0.0, 0.0, 0.0, 0.0, 0.0, 0.0, 0.0, 0.0, 1.6583351455313096E9, 0.0, 2022-07-20 12:39:05.531
184.0, -5379.148468869743, -19207.144583123278, -2121.828749397844, -7147.149103540076, -34908.59686238728, -12297.885095821035, -7835.9404606748185, -9735.279945764536, -3787.0337113182204, -28202.090049039132, -11830.57717449393, -33460.56144959467, -26125.344768207644, -11866.116448177869, -30562.52367049738, 33.035878304943836, -0.14400000000000002, 0.9460000000000001, 0.108, 192.0, 0.0, 0.0, 0.0, 0.0, 0.0, 0.0, 0.0, 0.0, 0.0, 1.6583351455313148E9, 0.0, 2022-07-20 12:39:05.531
186.0, -5690.150641220885, -19680.442771964405, -2399.1021393659285, -7930.421284487401, -35793.32361141725, -12534.120682969176, -6719.292011176588, -9616.279258284481, -2868.868752583117, -27345.5041462784, -10889.881657347878, -32480.348048251635, -25214.75705084289, -10943.861120207444, -29710.765744538992, 882.1339466731486, -0.14400000000000002, 0.9460000000000001, 0.108, 192.0, 0.0, 0.0, 0.0, 0.0, 0.0, 0.0, 0.0, 0.0, 0.0, 1.65833514553132E9, 0.0, 2022-07-20 12:39:05.531
188.0, -5511.381389067339, -19343.087892900454, -2257.436783008192, -7284.902904618133, -35043.35552970833, -12436.734132377404, -7879.481658873757, -9791.159306902804, -3877.5135728733035, -28333.630065158617, -11889.295207178022, -33447.373920366044, -26210.594321560184, -11949.063771851514, -30704.233730344025, 41.93187259815605, -0.14400000000000002, 0.9460000000000001, 0.108, 192.0, 0.0, 0.0, 0.0, 0.0, 0.0, 0.0, 0.0, 0.0, 0.0, 1.658335145531325E9, 0.0, 2022-07-20 12:39:05.531
190.0, -5533.28609863354, -19529.836717824546, -2264.499934256069, -7786.364291472947, -35643.18694391095, -12418.495108901872, -6659.612853480918, -9487.376748010725, -2799.5559930272098, -27247.5811538197, -10860.064430244498, -32521.81053421623, -25158.564765282248, -10901.39280574236, -29608.730031100516, 840.3585362861796, -0.14400000000000002, 0.9440000000000001, 0.108, 192.0, 125.5, 64.0, 14.5, 64.0, 1.5, 48.0, 0.0, 0.0, 0.0, 1.65833514553133E9, 0.0, 2022-07-20 12:39:05.531
192.0, -5628.437474779782, -19468.794103717104, -2378.6055897004117, -7431.418589522671, -35180.706999386195, -12567.737706629958, -7862.561388321089, -9881.013319613137, -3920.361866994127, -28415.61626382068, -11891.485678134643, -33377.85999511003, -26251.945048802503, -11986.771164747617, -30775.647553878734, 94.39141683476173, -0.14400000000000002, 0.9440000000000001, 0.108, 192.0, 0.0, 0.0, 0.0, 0.0, 0.0, 0.0, 0.0, 0.0, 0.0, 1.6583351455313354E9, 0.0, 2022-07-20 12:39:05.531
194.0, -5399.868535979812, -19394.36279468093, -2143.286424074939, -7646.330612460449, -35491.28448859268, -12300.321435966664, -6686.457298571742, -9424.814215280321, -2775.8184404156736, -27181.33058325417, -10860.980851767166, -32598.275851997838, -25139.990465639887, -10894.262599261117, -29542.166536112614, 759.6687388025211, -0.14400000000000002, 0.9440000000000001, 0.108, 192.0, 0.0, 0.0, 0.0, 0.0, 0.0, 0.0, 0.0, 0.0, 0.0, 1.6583351455313404E9, 0.0, 2022-07-20 12:39:05.531
196.0, -5757.3623367979935, -19613.34283510957, -2498.299181258581, -7588.327835598927, -35350.08851886851, -12671.405097413672, -7812.582887719022, -9950.460189635776, -3930.487207232381, -28457.324618974286, -11872.39728836981, -33295.516168536684, -26259.2987727283, -11985.65357752485, -30816.52889448749, 161.7595746230572, -0.14400000000000002, 0.9440000000000001, 0.108, 192.0, 0.0, 0.0, 0.0, 0.0, 0.0, 0.0, 0.0, 0.0, 0.0, 1.6583351455313456E9, 0.0, 2022-07-20 12:39:05.531
198.0, -5259.812505222858, -19251.602202844882, -2009.4665300210156, -7461.839313726344, -35311.37529747192, -12162.1205999995, -6734.71471485075, -9359.480066237458, -2787.2401818323356, -27158.420045187482, -10896.944808595754, -32687.973402496984, -25151.568669267737, -10896.58718068447, -29510.829390386272, 678.710720385399, -0.14400000000000002, 0.9440000000000001, 0.108, 192.0, 0.0, 0.0, 0.0, 0.0, 0.0, 0.0, 0.0, 0.0, 0.0, 1.658335145531352E9, 0.0, 2022-07-20 12:39:05.531
200.0, -5867.511733473746, -19742.37945585006, -2603.486490665256, -7728.137997166872, -35515.24555864878, -12771.04917419543, -7738.442151360769, -9981.21619000628, -3895.4620236709147, -28444.87469731268, -11806.839621882395, -33167.306562341044, -26212.091888438692, -11919.827690103972, -30809.398688006248, 275.373491689383, -0.14800000000000002, 0.9420000000000001, 0.112, 192.0, 125.5, 32.0, 14.5, 48.0, 1.5, 80.0, 0.0, 0.0, 0.0, 1.6583351455313573E9, 0.0, 2022-07-20 12:39:05.531
202.0, -5155.742783038948, -19130.50045138603, -1913.5104910743823, -7313.267268331918, -35151.22504844965, -12079.419145514865, -6855.235320953766, -9331.138054268129, -2835.8328742781728, -27181.37528674308, -10971.487876354204, -32808.2928428999, -25210.33140544074, -10961.36253611595, -29541.495983778954, 571.6458644444781, -0.14800000000000002, 0.9420000000000001, 0.112, 192.0, 0.0, 0.0, 0.0, 0.0, 0.0, 0.0, 0.0, 0.0, 0.0, 1.6583351455313625E9, 0.0, 2022-07-20 12:39:05.531
204.0, -5970.6203306460775, -19863.034172419808, -2692.669951041931, -7888.109432233505, -35655.63686557256, -12850.755494923056, -7598.520231070546, -10009.848774653528, -3827.7585897157896, -28402.24992063641, -11723.333504597367, -33050.697511517705, -26143.11440504961, -11852.77245673805, -30762.057693249906, 381.45487087427034, -0.14800000000000002, 0.9420000000000001, 0.112, 192.0, 0.0, 0.0, 0.0, 0.0, 0.0, 0.0, 0.0, 0.0, 0.0, 1.6583351455313678E9, 0.0, 2022-07-20 12:39:05.531
206.0, -5074.427136710541, -19035.1926130286, -1841.0461355502769, -7192.746662228902, -34994.20404365111, -12018.220069196233, -6968.536313597717, -9338.782350871845, -2928.145578878591, -27266.356619162158, -11079.491505562248, -32954.85323129335, -25294.19515063705, -11065.14168562194, -29597.308289683857, 450.7676304301775, -0.14800000000000002, 0.9420000000000001, 0.112, 192.0, 0.0, 0.0, 0.0, 0.0, 0.0, 0.0, 0.0, 0.0, 0.0, 1.658335145531373E9, 0.0, 2022-07-20 12:39:05.531
208.0, -6028.310183085226, -19945.7579786489, -2750.940948836917, -8018.285991941213, -35794.21768119546, -12904.913771738264, -7475.116249932797, -9992.906152356405, -3720.8725477305115, -28326.075175532722, -11613.742901532996, -32926.064184434916, -26034.95431363038, -11752.971917745104, -30677.63515444221, 490.35256986052633, -0.14800000000000002, 0.9420000000000001, 0.112, 192.0, 0.0, 0.0, 0.0, 0.0, 0.0, 0.0, 0.0, 0.0, 0.0, 1.658335145531378E9, 0.0, 2022-07-20 12:39:05.531
210.0, -5032.003525734369, -18969.36672560772, -1817.397989916562, -7103.652608830048, -34883.62996383071, -11984.893618213371, -7133.402780700062, -9341.889243351132, -3036.328022042277, -27366.93946921104, -11198.335730831115, -33088.47195964718, -25407.540846769913, -11176.49807649828, -29706.653023559218, 328.7047539597457, -0.15000000000000002, 0.9390000000000001, 0.114, 192.0, 125.5, 32.0, 14.5, 32.0, 1.5, 80.0, 0.0, 0.0, 0.0, 1.6583351455313833E9, 0.0, 2022-07-20 12:39:05.531
212.0, -6086.6035326246665, -20021.932723752587, -2809.413112332, -8134.850339275639, -35922.24847343546, -12943.559937901491, -7351.198178672574, -9957.478637394743, -3619.3285726700515, -28212.14833404402, -11515.842260818752, -32821.63683433972, -25939.914696206415, -11641.25789895748, -30584.20486261903, 580.1171755930395, -0.15000000000000002, 0.9390000000000001, 0.114, 192.0, 0.0, 0.0, 0.0, 0.0, 0.0, 0.0, 0.0, 0.0, 0.0, 1.6583351455313883E9, 0.0, 2022-07-20 12:39:05.531
214.0, -5019.173624417022, -18932.307533300824, -1807.1161874671207, -7019.610049678094, -34793.59713716473, -11973.158952374335, -7283.58415169527, -9355.99319410243, -3192.0526256624016, -27508.78363952442, -11353.322726884215, -33225.063470013556, -25560.62794454431, -11323.840775947665, -29861.416502167765, 214.1967671152076, -0.15000000000000002, 0.9390000000000001, 0.114, 192.0, 0.0, 0.0, 0.0, 0.0, 0.0, 0.0, 0.0, 0.0, 0.0, 1.6583351455313935E9, 0.0, 2022-07-20 12:39:05.531
216.0, -6060.854323012152, -20013.863744004222, -2784.5579724976988, -8170.210799003935, -35981.793520664396, -12918.861260278376, -7160.336632768707, -9931.192985915302, -3467.5602278185165, -28055.015570523214, -11367.784305546798, -32684.330068150768, -25787.118171109938, -11494.473993119478, -30429.15081133256, 686.6008861781223, -0.15000000000000002, 0.9390000000000001, 0.114, 192.0, 0.0, 0.0, 0.0, 0.0, 0.0, 0.0, 0.0, 0.0, 0.0, 1.6583351455313988E9, 0.0, 2022-07-20 12:39:05.531
218.0, -5023.33104888571, -18916.616608693195, -1810.2230799464085, -6964.0436129622, -34739.19299116051, -12003.75849053365, -7446.550720518914, -9433.978430506997, -3316.5294905340065, -27642.357664389332, -11455.894882189617, -33298.06426740459, -25682.33319310346, -11446.50714951839, -29997.672736367316, 134.4233911542167, -0.15000000000000002, 0.9390000000000001, 0.114, 192.0, 0.0, 0.0, 0.0, 0.0, 0.0, 0.0, 0.0, 0.0, 0.0, 1.658335145531404E9, 0.0, 2022-07-20 12:39:05.531
220.0, -6021.1576248595275, -19992.56253153831, -2730.1761782379363, -8177.408060718544, -36012.214244868075, -12884.21605637265, -7031.255308539308, -9873.346671264968, -3308.818138696926, -27884.158835906845, -11216.731216517832, -32571.319648184737, -25638.3002565265, -11347.466569836924, -30259.724588361336, 769.5258581073116, -0.15200000000000002, 0.9415, 0.10900000000000001, 192.0, 125.5, 24.0, 14.5, 64.0, 1.5, 32.0, 0.0, 0.0, 0.0, 1.6583351455314093E9, 0.0, 2022-07-20 12:39:05.531
222.0, -5094.990741609424, -18967.31036511783, -1863.9566736169666, -6965.630586818527, -34742.16577317307, -12060.040183072113, -7613.115920199862, -9506.822765686842, -3475.159820933321, -27813.482619939165, -11593.805145478862, -33392.768608661725, -25837.655465323387, -11592.553447789365, -30168.283601794676, 54.69471868213638, -0.15200000000000002, 0.9415, 0.10900000000000001, 192.0, 0.0, 0.0, 0.0, 0.0, 0.0, 0.0, 0.0, 0.0, 0.0, 1.6583351455314145E9, 0.0, 2022-07-20 12:39:05.531
224.0, -5944.111161722084, -19929.687074385532, -2649.5310842431886, -8131.542281096254, -35981.70411368658, -12794.004415751031, -6846.652251082927, -9782.866809709885, -3162.660081703673, -27709.81522915545, -11099.965703483309, -32499.749362438844, -25497.66308041371, -11200.839126210109, -30070.114740146964, 842.861931665174, -0.15200000000000002, 0.9415, 0.10900000000000001, 192.0, 0.0, 0.0, 0.0, 0.0, 0.0, 0.0, 0.0, 0.0, 0.0, 1.6583351455314195E9, 0.0, 2022-07-20 12:39:05.531
226.0, -5146.287995134353, -19004.682481847107, -1929.8049127823012, -6978.192267202409, -34752.31346515578, -12111.806823230603, -7688.888333903353, -9565.317280926381, -3602.251839906197, -27962.21112754478, -11692.801021671417, -33425.42450731093, -25958.75721678224, -11698.83599267435, -30306.86441741758, 36.50039869551643, -0.15200000000000002, 0.9415, 0.10900000000000001, 192.0, 0.0, 0.0, 0.0, 0.0, 0.0, 0.0, 0.0, 0.0, 0.0, 1.6583351455314248E9, 0.0, 2022-07-20 12:39:05.531
228.0, -5841.5390064166795, -19839.184861085996, -2567.9919204702283, -8075.819382169174, -35942.00741553395, -12692.460440690571, -6762.855561119982, -9689.436517886701, -3005.661428649596, -27518.26077917347, -10968.336280386005, -32424.111059202085, -25355.550689166867, -11057.407982040404, -29898.721563663672, 902.7869585498522, -0.15200000000000002, 0.9415, 0.10900000000000001, 192.0, 0.0, 0.0, 0.0, 0.0, 0.0, 0.0, 0.0, 0.0, 0.0, 1.65833514553143E9, 0.0, 2022-07-20 12:39:05.531
230.0, -5280.241999655009, -19125.02427399448, -2053.1418386866853, -7088.878105745091, -34847.77776572439, -12240.619926526539, -7810.571230718045, -9657.294709359969, -3738.329260150106, -28122.540190522694, -11796.848392110873, -33457.00752222628, -26097.11451496059, -11834.86870942935, -30490.774570795846, 3.308058179385445, -0.15500000000000003, 0.9397500000000001, 0.10450000000000001, 192.0, 125.5, 8.0, 14.5, 40.0, 1.5, 16.0, 0.0, 0.0, 0.0, 1.6583351455314367E9, 0.0, 2022-07-20 12:39:05.531
232.0, -5730.204967284795, -19734.19871737942, -2460.3235674290145, -8004.20439293437, -35854.18741156905, -12614.20698335254, -6720.163729210345, -9621.397807764746, -2919.473102029932, -27409.117210998204, -10912.032236103087, -32449.927324047963, -25275.218519594495, -11002.333283702528, -29786.336992542387, 875.2049058920034, -0.15500000000000003, 0.9397500000000001, 0.10450000000000001, 192.0, 0.0, 0.0, 0.0, 0.0, 0.0, 0.0, 0.0, 0.0, 0.0, 1.6583351455314429E9, 0.0, 2022-07-20 12:39:05.531
234.0, -5387.731538740581, -19234.74898752558, -2160.832543472355, -7213.623191550159, -34951.467508252565, -12365.879102454079, -7827.111521614972, -9765.834780434941, -3821.1201216125637, -28256.427139809985, -11842.334192077422, -33446.122222676546, -26181.715867723928, -11925.192108773244, -30615.83258102329, 6.8172820588686545, -0.15500000000000003, 0.9397500000000001, 0.10450000000000001, 192.0, 0.0, 0.0, 0.0, 0.0, 0.0, 0.0, 0.0, 0.0, 0.0, 1.6583351455314481E9, 0.0, 2022-07-20 12:39:05.531
236.0, -5586.706767881724, -19602.03285241519, -2328.112998975873, -7887.908266533407, -35727.40831701855, -12492.792307471313, -6666.8995221733485, -9566.591330360334, -2813.1011501671255, -27288.26132872836, -10849.62616558387, -32474.871870860086, -25186.169169684552, -10929.712465967235, -29648.829060653337, 837.8551409071853, -0.15500000000000003, 0.9397500000000001, 0.10450000000000001, 192.0, 0.0, 0.0, 0.0, 0.0, 0.0, 0.0, 0.0, 0.0, 0.0, 1.6583351455314534E9, 0.0, 2022-07-20 12:39:05.531
238.0, -5537.018839957576, -19388.70780333374, -2299.145138161795, -7354.863864763244, -35099.748980969074, -12486.444412046005, -7885.628388598966, -9842.322449961, -3885.917828788499, -28365.771873685346, -11880.555675095997, -33410.02415538122, -26234.644798594094, -11972.398993062854, -30724.842038731822, 43.004756332010786, -0.15500000000000003, 0.9397500000000001, 0.10450000000000001, 192.0, 0.0, 0.0, 0.0, 0.0, 0.0, 0.0, 0.0, 0.0, 0.0, 1.6583351455314586E9, 0.0, 2022-07-20 12:39:05.531
240.0, -5463.03456581051, -19470.51518804016, -2204.0608172489187, -7727.020409944107, -35591.57676596365, -12375.333890358674, -6703.958714480247, -9467.148419278672, -2788.469527777377, -27212.779487702788, -10857.538683121049, -32545.01164496084, -25160.732884494413, -10891.513334693114, -29583.405504632654, 784.3897681700907, -0.15350000000000003, 0.939875, 0.10425000000000001, 192.0, 125.5, 32.0, 14.5, 48.0, 1.5, 32.0, 0.0, 0.0, 0.0, 1.6583351455314636E9, 0.0, 2022-07-20 12:39:05.531
242.0, -5643.21197786474, -19497.337281386528, -2392.7095404517104, -7454.038554911442, -35239.82736347048, -12590.8717621412, -7837.035696153128, -9885.081337104004, -3916.2714977588057, -28417.516162099382, -11876.621768071864, -33321.77946827167, -26259.187014006024, -11975.70705124224, -30800.14506580175, 121.32526890340674, -0.15350000000000003, 0.939875, 0.10425000000000001, 192.0, 0.0, 0.0, 0.0, 0.0, 0.0, 0.0, 0.0, 0.0, 0.0, 1.6583351460099795E9, 0.0, 2022-07-20 12:39:06.009
244.0, -5310.930944792145, -19311.370767518376, -2054.4382398650932, -7535.912994851232, -35411.265243442685, -12228.32646707612, -6688.156031150345, -9378.993139146942, -2748.5046086912885, -27134.928361764953, -10844.552319592514, -32587.7928838483, -25125.797107910766, -10866.233511714163, -29503.050983315825, 751.8903317320743, -0.15350000000000003, 0.939875, 0.10425000000000001, 192.0, 0.0, 0.0, 0.0, 0.0, 0.0, 0.0, 0.0, 0.0, 0.0, 1.6583351460100636E9, 0.0, 2022-07-20 12:39:06.010
246.0, -5791.605209303523, -19660.683829865913, -2525.0542193715837, -7634.0148012655745, -35420.630624369456, -12703.077519306842, -7790.342901985991, -9956.49516063871, -3894.8361748261664, -28438.415043165096, -11826.889136658805, -33210.46778088424, -26235.963551516958, -11948.482626495676, -30810.069240339904, 221.10345615189746, -0.15350000000000003, 0.939875, 0.10425000000000001, 192.0, 0.0, 0.0, 0.0, 0.0, 0.0, 0.0, 0.0, 0.0, 0.0, 1.658335146010069E9, 0.0, 2022-07-20 12:39:06.010
248.0, -5209.275211009409, -19192.057155615945, -1962.5949218982366, -7401.020217063453, -35252.94783746575, -12129.867032750491, -6799.624180748961, -9365.582092473756, -2795.510327280799, -27152.049798017717, -10918.760111184134, -32724.80907735933, -25177.384934113616, -10923.610439730935, -29515.70207067753, 636.130647198039, -0.15350000000000003, 0.939875, 0.10425000000000001, 192.0, 0.0, 0.0, 0.0, 0.0, 0.0, 0.0, 0.0, 0.0, 0.0, 1.658335146010074E9, 0.0, 2022-07-20 12:39:06.010
250.0, -5915.165652652461, -19794.414316942017, -2642.602043462043, -7801.608181191466, -35582.256088525784, -12809.784747336478, -7702.031159643074, -10021.806957937117, -3866.561218090203, -28429.563752360795, -11778.430554679699, -33117.08219254997, -26201.430106333508, -11896.224247959168, -30789.975022074585, 316.6348119538799, -0.14975, 0.9399375000000001, 0.10312500000000001, 192.0, 125.5, 56.0, 14.5, 48.0, 1.5, 24.0, 0.0, 0.0, 0.0, 1.6583351460100791E9, 0.0, 2022-07-20 12:39:06.010
252.0, -5119.465901787985, -19079.471418794565, -1874.7302144444245, -7252.805799580312, -35097.82673094591, -12047.165578265856, -6907.113719834533, -9326.84651933271, -2878.7482236323626, -27209.76200220132, -11022.136929289929, -32864.686294160645, -25259.52759498687, -10995.583056877025, -29553.722387996007, 530.9656895358193, -0.14975, 0.9399375000000001, 0.10312500000000001, 192.0, 0.0, 0.0, 0.0, 0.0, 0.0, 0.0, 0.0, 0.0, 0.0, 1.658335146010084E9, 0.0, 2022-07-20 12:39:06.010
254.0, -5969.838019590142, -19867.571576544236, -2694.614552809543, -7916.809072114119, -35730.85048566467, -12859.383268282803, -7569.060631878452, -10004.12672807297, -3774.404975700972, -28351.46675723395, -11671.052774316404, -32974.96980130313, -26107.575131365673, -11791.171049019224, -30731.547562068412, 450.90174089690936, -0.14975, 0.9399375000000001, 0.10312500000000001, 192.0, 0.0, 0.0, 0.0, 0.0, 0.0, 0.0, 0.0, 0.0, 0.0, 1.6583351460100892E9, 0.0, 2022-07-20 12:39:06.010
0.0, -5029.991868733391, -18976.251062899955, -1805.3503996551515, -7131.45817893245, -34959.42472927865, -11987.106440914446, -7042.4535325114175, -9357.960147614498, -2947.3457273657, -27268.614145352145, -11102.849078518044, -32973.27106872453, -25332.371930166715, -11080.296168362638, -29640.693025671608, 431.4110197318816, -0.14975, 0.9399375000000001, 0.10312500000000001, 192.0, 0.0, 0.0, 0.0, 0.0, 0.0, 0.0, 0.0, 0.0, 0.0, 1.6583351460100942E9, 0.0, 2022-07-20 12:39:06.010
2.0, -6049.879616484597, -19971.149560350128, -2769.917579879472, -8066.319890775668, -35875.6674379906, -12932.920507540764, -7434.905461657699, -10026.74669346174, -3668.1224308159867, -28264.96550619191, -11560.925729385106, -32857.91371559069, -25999.504446924264, -11704.200411343625, -30657.697398388078, 534.4525616708472, -0.14975, 0.9399375000000001, 0.10312500000000001, 192.0, 0.0, 0.0, 0.0, 0.0, 0.0, 0.0, 0.0, 0.0, 0.0, 1.6583351460100992E9, 0.0, 2022-07-20 12:39:06.010
4.0, -5011.886955724592, -18934.85563216873, -1782.2833993772745, -7043.1017331006215, -34852.56103903783, -11976.109382642435, -7216.171290418064, -9369.717165197988, -3086.306522644344, -27407.70905109752, -11248.873025044564, -33124.03358507557, -25468.672867855177, -11234.143225448517, -29775.94343137067, 292.6513901533354, -0.14887499999999998, 0.9389687500000001, 0.1055625, 192.0, 125.5, 48.0, 14.5, 40.0, 1.5, 48.0, 0.0, 0.0, 0.0, 1.658335146010105E9, 0.0, 2022-07-20 12:39:06.010
6.0, -6074.913570274541, -20011.986197469974, -2765.156658310492, -8129.977658984382, -35960.00056982048, -12932.249955207106, -7292.256628543929, -9966.329928199046, -3535.464827473739, -28130.3409493376, -11428.536346976322, -32728.161839027627, -25864.432855180843, -11574.962624903039, -30508.700669849, 652.7156415838768, -0.14887499999999998, 0.9389687500000001, 0.1055625, 192.0, 0.0, 0.0, 0.0, 0.0, 0.0, 0.0, 0.0, 0.0, 0.0, 1.658335146010116E9, 0.0, 2022-07-20 12:39:06.010
8.0, -5026.6838105540055, -18930.98878037796, -1772.4039283280288, -6982.439098648918, -34779.71670385799, -11994.460164840242, -7367.4702486360375, -9443.947308534063, -3243.618100120795, -27564.417131473678, -11380.144820230582, -33239.65915914287, -25617.043747549505, -11378.982529518906, -29903.080153832456, 194.77310118354575, -0.14887499999999998, 0.9389687500000001, 0.1055625, 192.0, 0.0, 0.0, 0.0, 0.0, 0.0, 0.0, 0.0, 0.0, 0.0, 1.6583351460101223E9, 0.0, 2022-07-20 12:39:06.010
10.0, -6038.189654134471, -20006.57707531179, -2720.5872798666096, -8157.336194197678, -35997.998535394494, -12912.334550897427, -7080.540905063261, -9930.857709748472, -3387.362168712875, -27996.833979706047, -11275.583359668655, -32615.50904697288, -25727.70723434773, -11441.276841315848, -30330.870190962578, 736.512331546823, -0.14887499999999998, 0.9389687500000001, 0.1055625, 192.0, 0.0, 0.0, 0.0, 0.0, 0.0, 0.0, 0.0, 0.0, 0.0, 1.6583351460101273E9, 0.0, 2022-07-20 12:39:06.010
12.0, -5065.911122073069, -18955.62040276771, -1807.78673980078, -6960.087354193611, -34756.716758813476, -12032.368723436442, -7528.671029647712, -9476.06676531634, -3377.7509185970926, -27725.14852585179, -11497.133850709659, -33330.65311082043, -25753.38938872688, -11521.787824843863, -30044.924324145835, 121.97346949261065, -0.14887499999999998, 0.9389687500000001, 0.1055625, 192.0, 0.0, 0.0, 0.0, 0.0, 0.0, 0.0, 0.0, 0.0, 0.0, 1.6583351460101323E9, 0.0, 2022-07-20 12:39:06.010
14.0, -6016.240241079359, -19994.328319350283, -2693.698131286875, -8169.450839692455, -36026.63112004175, -12869.329794565416, -6979.913351525468, -9875.358328265946, -3259.554893917429, -27840.88585864137, -11176.945111387386, -32552.477127608912, -25593.12738098233, -11302.718377437399, -30185.717962469815, 811.3236202387358, -0.14887499999999998, 0.9389687500000001, 0.1055625, 192.0, 0.0, 0.0, 0.0, 0.0, 0.0, 0.0, 0.0, 0.0, 0.0, 1.658335146010137E9, 0.0, 2022-07-20 12:39:06.010
16.0, -5140.945928209535, -19001.821458556828, -1887.4930605284048, -6975.4206508899515, -34762.41645364958, -12084.671805461861, -7666.670699914778, -9558.902330267707, -3538.437609486295, -27892.540740077588, -11647.315221704868, -33417.75785896276, -25898.78748640865, -11647.896367060706, -30230.756727547257, 58.47216349508328, -0.152, 0.9420000000000001, 0.108, 192.0, 125.5, 32.0, 14.5, 56.0, 1.5, 48.0, 0.0, 0.0, 0.0, 1.658335146010142E9, 0.0, 2022-07-20 12:39:06.010
18.0, -5944.312327422182, -19931.430510453047, -2637.751714915242, -8134.000972986338, -35995.60689873778, -12756.677002510669, -6842.1148469585005, -9792.209838892202, -3125.8020550968713, -27662.96597277713, -11073.344775837038, -32491.702734434934, -25455.664152582187, -11160.20365479036, -30013.631881908404, 871.1145366566822, -0.152, 0.9420000000000001, 0.108, 192.0, 0.0, 0.0, 0.0, 0.0, 0.0, 0.0, 0.0, 0.0, 0.0, 1.658335146010147E9, 0.0, 2022-07-20 12:39:06.010
20.0, -5243.674545726126, -19091.787229989437, -1999.5423554828592, -7042.386477278052, -34812.909044374115, -12163.506408155728, -7758.290500437081, -9648.24225285557, -3685.176811835386, -28054.233259467277, -11766.628833607298, -33463.24365892931, -26038.083557854126, -11769.71337434213, -30390.39288644706, 21.792950843924388, -0.152, 0.9420000000000001, 0.108, 192.0, 0.0, 0.0, 0.0, 0.0, 0.0, 0.0, 0.0, 0.0, 0.0, 1.658335146010152E9, 0.0, 2022-07-20 12:39:06.010
22.0, -5815.901555526442, -19813.77092764031, -2514.5936029665, -8044.526939931744, -35909.61973781821, -12645.87940524571, -6747.008174301169, -9673.231503156603, -3000.4534721915093, -27506.615520312254, -10976.829943279023, -32461.214954997893, -25346.945267551575, -11048.824912169566, -29848.564249105963, 897.2213741804808, -0.152, 0.9420000000000001, 0.108, 192.0, 0.0, 0.0, 0.0, 0.0, 0.0, 0.0, 0.0, 0.0, 0.0, 1.6583351460101576E9, 0.0, 2022-07-20 12:39:06.010
24.0, -5358.003718615022, -19200.886094675792, -2098.135900275219, -7141.427056959517, -34910.51911241044, -12290.151392239499, -7863.924844732863, -9727.121559038349, -3779.6352839035135, -28190.556548900197, -11821.502366245077, -33456.38167338153, -26133.369044467097, -11871.927901736248, -30520.502390921403, 38.57911092985999, -0.152, 0.9420000000000001, 0.108, 192.0, 0.0, 0.0, 0.0, 0.0, 0.0, 0.0, 0.0, 0.0, 0.0, 1.6583351460101628E9, 0.0, 2022-07-20 12:39:06.010
26.0, -5697.817289569055, -19701.27459779675, -2393.9612381412076, -7937.775008413198, -35815.72005936147, -12555.57835764627, -6690.122984662412, -9612.367703004802, -2890.639351682586, -27369.84519599023, -10895.849573117444, -32461.527879420268, -25251.05628383831, -10980.830905536523, -29710.899855005726, 893.2874671563468, -0.152, 0.9400000000000001, 0.106, 192.0, 125.5, 32.0, 14.5, 48.0, 1.5, 40.0, 0.0, 0.0, 0.0, 1.6583351460101676E9, 0.0, 2022-07-20 12:39:06.010
28.0, -5495.221077826152, -19337.522308531083, -2228.0665907939187, -7259.2878054723515, -35031.710270847114, -12422.69723685947, -7896.468984659789, -9834.298173701545, -3876.9547792619205, -28319.771983596325, -11880.846247773916, -33436.66743477195, -26223.446574621987, -11954.115266098413, -30662.659485657157, 48.99502384603308, -0.152, 0.9400000000000001, 0.106, 192.0, 0.0, 0.0, 0.0, 0.0, 0.0, 0.0, 0.0, 0.0, 0.0, 1.6583351460101728E9, 0.0, 2022-07-20 12:39:06.010
30.0, -5588.025520804586, -19599.887084947477, -2287.4775275561246, -7818.55080348859, -35690.57264215621, -12447.12769354912, -6683.618627025918, -9548.84404526282, -2838.4927318683544, -27279.298279201783, -10877.655253130824, -32508.757115454333, -25195.109867466675, -10926.44911127676, -29621.694042884596, 836.9163676400624, -0.152, 0.9400000000000001, 0.106, 192.0, 0.0, 0.0, 0.0, 0.0, 0.0, 0.0, 0.0, 0.0, 0.0, 1.6583351460101779E9, 0.0, 2022-07-20 12:39:06.010
32.0, -5661.361594362449, -19522.594752621026, -2370.1789820407607, -7427.998772621009, -35195.77207514907, -12555.44424717954, -7906.616676642499, -9919.145395653892, -3951.319033064727, -28446.841650824746, -11920.989980815648, -33403.20687332236, -26277.314278759277, -12009.726406303216, -30772.495957910534, 69.44687002263905, -0.152, 0.9400000000000001, 0.106, 192.0, 0.0, 0.0, 0.0, 0.0, 0.0, 0.0, 0.0, 0.0, 0.0, 1.6583351460101829E9, 0.0, 2022-07-20 12:39:06.010
34.0, -5460.084135542409, -19479.835865478024, -2155.8481044588216, -7673.510333718102, -35533.41752689094, -12313.53131693975, -6724.768188568139, -9466.187294267094, -2806.350923341623, -27238.998083948863, -10883.801982856034, -32602.299165999793, -25167.237242130905, -10914.043893104064, -29560.629077032696, 753.9243404775073, -0.152, 0.9400000000000001, 0.106, 192.0, 0.0, 0.0, 0.0, 0.0, 0.0, 0.0, 0.0, 0.0, 0.0, 1.6583351460101876E9, 0.0, 2022-07-20 12:39:06.010
36.0, -5793.080424437574, -19672.664364893957, -2476.483878670201, -7577.956626171664, -35338.01857686265, -12661.615033342247, -7863.70132728831, -9977.885780082439, -3937.5727102247133, -28491.835712413278, -11883.193180941724, -33316.52680832468, -26265.512557686874, -11992.783784006095, -30810.85155139584, 141.7771150800127, -0.15, 0.9400000000000001, 0.108, 192.0, 125.5, 40.0, 14.5, 48.0, 1.5, 48.0, 0.0, 0.0, 0.0, 1.6583351460101929E9, 0.0, 2022-07-20 12:39:06.010
38.0, -5343.966823097089, -19357.616526796406, -2029.225472119507, -7522.323134222404, -35358.09044338351, -12208.858097655548, -6767.147096055401, -9450.317555703827, -2803.0205134177822, -27224.04476690826, -10908.523012223604, -32702.546739881844, -25161.78341648381, -10928.483120022192, -29517.98194861197, 667.0431097797286, -0.15, 0.9400000000000001, 0.108, 192.0, 0.0, 0.0, 0.0, 0.0, 0.0, 0.0, 0.0, 0.0, 0.0, 1.6583351460102003E9, 0.0, 2022-07-20 12:39:06.010
40.0, -5917.445530586902, -19808.182991526486, -2584.0181212446837, -7744.275956663604, -35503.15326489845, -12785.510752858014, -7778.608236146955, -10052.98764145227, -3911.354113978638, -28517.897846448166, -11835.069875129448, -33220.77193507814, -26231.157926459065, -11968.375679060899, -30826.09544111436, 223.65155501980246, -0.15, 0.9400000000000001, 0.108, 192.0, 0.0, 0.0, 0.0, 0.0, 0.0, 0.0, 0.0, 0.0, 0.0, 1.6583351460102053E9, 0.0, 2022-07-20 12:39:06.010
42.0, -5209.811652876336, -19206.474030789617, -1900.457072312483, -7346.526664081414, -35177.48834818463, -12096.428823045353, -6834.8952334994365, -9345.689039908533, -2837.442199878955, -27232.91840945702, -10966.928120485321, -32809.25396791148, -25200.384879158126, -10971.465524609748, -29522.02761435838, 587.8508791745758, -0.15, 0.9400000000000001, 0.108, 192.0, 0.0, 0.0, 0.0, 0.0, 0.0, 0.0, 0.0, 0.0, 0.0, 1.6583351460102103E9, 0.0, 2022-07-20 12:39:06.010
44.0, -5996.9730373588845, -19902.93203627253, -2672.9557124323505, -7880.3757286519685, -35664.8681360326, -12858.958585138153, -7674.627920940867, -10002.517402472187, -3845.908206213499, -28464.54423243335, -11743.964164729616, -33084.828625300965, -26153.46326273242, -11890.949236267716, -30770.12667299827, 367.529734078614, -0.15, 0.9400000000000001, 0.108, 192.0, 0.0, 0.0, 0.0, 0.0, 0.0, 0.0, 0.0, 0.0, 0.0, 1.6583351460102153E9, 0.0, 2022-07-20 12:39:06.010
46.0, -5126.618460013683, -19101.9572737166, -1858.9275311145225, -7232.398656892617, -35051.31275073442, -12051.47946494573, -6980.785069559225, -9333.619097902669, -2924.4798927879206, -27294.16218926456, -11069.455572301815, -32941.39748113126, -25287.42257206709, -11062.034793142653, -29595.72131582753, 471.46534579579185, -0.14400000000000002, 0.9420000000000001, 0.106, 192.0, 125.5, 64.0, 14.5, 56.0, 1.5, 40.0, 0.0, 0.0, 0.0, 1.65833514601022E9, 0.0, 2022-07-20 12:39:06.010
48.0, -6046.146875160561, -19970.121380105185, -2741.7096783768748, -8008.942962758895, -35797.9504225195, -12923.957458014185, -7527.799311613955, -10009.580553720065, -3754.333109180106, -28382.021591904355, -11643.716590847564, -32959.01065576204, -26069.91244195848, -11798.591828178387, -30706.46890478956, 452.95810138679764, -0.14400000000000002, 0.9420000000000001, 0.106, 192.0, 0.0, 0.0, 0.0, 0.0, 0.0, 0.0, 0.0, 0.0, 0.0, 1.6583351460102253E9, 0.0, 2022-07-20 12:39:06.010
50.0, -5050.421363165541, -19002.00027251247, -1807.2502979338526, -7110.469890888917, -34916.97876655802, -12007.491231857686, -7128.574803897715, -9357.177836558561, -3019.07247532278, -27372.482701835957, -11171.267768295738, -33059.168822666266, -25389.88296865022, -11169.077297339118, -29693.040811185936, 339.6347569983908, -0.14400000000000002, 0.9420000000000001, 0.106, 192.0, 0.0, 0.0, 0.0, 0.0, 0.0, 0.0, 0.0, 0.0, 0.0, 1.6583351460102303E9, 0.0, 2022-07-20 12:39:06.010
52.0, -6086.7823465803085, -20026.53718311038, -2792.761062712796, -8110.084606419159, -35917.04051697737, -12956.903929341308, -7399.343836229305, -9999.119937314981, -3633.477226910261, -28258.39409332205, -11519.954981798528, -32825.01194775247, -25948.788338755174, -11659.854550344295, -30607.62949080819, 548.8023816111543, -0.14400000000000002, 0.9420000000000001, 0.106, 192.0, 0.0, 0.0, 0.0, 0.0, 0.0, 0.0, 0.0, 0.0, 0.0, 1.6583351460102353E9, 0.0, 2022-07-20 12:39:06.010
54.0, -5031.690601311994, -18955.195719623058, -1798.5331175962829, -7022.605183435105, -34819.88278864417, -11991.196810149768, -7298.090433846764, -9385.117517127695, -3163.688261948617, -27495.35024110678, -11314.833022932175, -33185.05384743856, -25523.56875223741, -11287.541542952245, -29836.9413419892, 222.35515384139467, -0.14400000000000002, 0.9420000000000001, 0.106, 192.0, 0.0, 0.0, 0.0, 0.0, 0.0, 0.0, 0.0, 0.0, 0.0, 1.6583351460102403E9, 0.0, 2022-07-20 12:39:06.010
56.0, -6094.404291439569, -20045.7820350864, -2793.4986702798215, -8175.195238017469, -35996.00923013798, -12956.367487474381, -7219.054665452799, -9947.375648900945, -3503.926516047301, -28107.788039182193, -11392.103003514172, -32702.52438813739, -25819.5952558035, -11523.419502189101, -30462.611372782158, 658.0800602531506, -0.14, 0.936, 0.11, 192.0, 125.5, 80.0, 14.5, 32.0, 1.5, 56.0, 0.0, 0.0, 0.0, 1.658335146010245E9, 0.0, 2022-07-20 12:39:06.010
58.0, -5049.437886409508, -18946.724408474496, -1805.6409723330705, -6986.820040562158, -34769.61371536418, -12016.09665347298, -7439.018182637476, -9418.935706488575, -3319.256403357554, -27659.23323145309, -11455.559606022789, -33303.45103781832, -25684.814236737995, -11439.756922692886, -29987.256823451142, 130.02009749652117, -0.14, 0.936, 0.11, 192.0, 0.0, 0.0, 0.0, 0.0, 0.0, 0.0, 0.0, 0.0, 0.0, 1.65833514601025E9, 0.0, 2022-07-20 12:39:06.010
60.0, -6044.336383859681, -20010.6227410582, -2727.9186520479507, -8184.538267199787, -36017.35514609279, -12902.209210659172, -7065.654643256026, -9881.683871946798, -3343.7986187694814, -27943.458013946776, -11250.057667500696, -32598.432314209025, -25669.480940041656, -11376.277968439814, -30293.743943422312, 753.6561195440436, -0.14, 0.936, 0.11, 192.0, 0.0, 0.0, 0.0, 0.0, 0.0, 0.0, 0.0, 0.0, 0.0, 1.658335146010255E9, 0.0, 2022-07-20 12:39:06.010
62.0, -5087.279389772343, -18958.03439116888, -1836.2181587479306, -6971.151467698988, -34739.72943302744, -12052.57470042404, -7563.718564953633, -9475.530323449413, -3438.748829215626, -27797.97050928718, -11558.66820319512, -33368.82989035009, -25800.752735227674, -11560.478694496, -30136.85704909051, 81.24859109504118, -0.14, 0.936, 0.11, 192.0, 0.0, 0.0, 0.0, 0.0, 0.0, 0.0, 0.0, 0.0, 0.0, 1.65833514601026E9, 0.0, 2022-07-20 12:39:06.010
64.0, -5979.203400516916, -19955.704504931513, -2659.9246454149065, -8170.858999593139, -36000.01019239547, -12832.047084813963, -6886.974798080301, -9779.916379441784, -3177.3898812997204, -27753.222316887655, -11107.028854731185, -32505.29259506376, -25508.347214263347, -11220.821585753154, -30106.078696975554, 833.1389228271155, -0.14, 0.936, 0.11, 192.0, 0.0, 0.0, 0.0, 0.0, 0.0, 0.0, 0.0, 0.0, 0.0, 1.658335146010265E9, 0.0, 2022-07-20 12:39:06.010
66.0, -5181.1790682290875, -19033.67269440564, -1915.52214807536, -7019.274773511264, -34759.19780244801, -12152.218777205799, -7688.731871692165, -9579.980025289062, -3583.118746652454, -27966.14503456891, -11680.708727921097, -33431.86180971406, -25929.81170771262, -11698.187792085148, -30289.877091631544, 12.069942005865814, -0.146, 0.932, 0.112, 192.0, 125.5, 56.0, 14.5, 16.0, 1.5, 64.0, 0.0, 0.0, 0.0, 1.658335146010271E9, 0.0, 2022-07-20 12:39:06.010
68.0, -5896.792518710198, -19877.093419682198, -2564.035661701639, -8110.397530841534, -35947.10361326976, -12759.269804867483, -6815.963305945791, -9731.323686995947, -3055.595225762752, -27612.115754141305, -11015.319647231061, -32474.916574348998, -25383.02098310244, -11122.473910149803, -29943.223886874188, 837.0057746178836, -0.146, 0.932, 0.112, 192.0, 0.0, 0.0, 0.0, 0.0, 0.0, 0.0, 0.0, 0.0, 0.0, 1.658335146010276E9, 0.0, 2022-07-20 12:39:06.010
70.0, -5295.195316695609, -19126.946524017636, -2019.5248150259038, -7081.457326585928, -34836.825410941296, -12249.359458608564, -7797.741329400698, -9657.182950637693, -3717.0056959397434, -28123.99305391229, -11773.982557533092, -33454.25825765828, -26054.422683050954, -11818.417825510243, -30448.8874016866, -13.299287950907702, -0.146, 0.932, 0.112, 192.0, 0.0, 0.0, 0.0, 0.0, 0.0, 0.0, 0.0, 0.0, 0.0, 1.6583351460102823E9, 0.0, 2022-07-20 12:39:06.010
72.0, -5789.392386602448, -19772.82253179819, -2477.266189726137, -8023.382189677023, -35882.171795627095, -12651.824969270823, -6726.913956035848, -9653.114933146828, -2952.017241956859, -27471.702095473065, -10936.59680325947, -32462.086673031652, -25289.233063367974, -11021.13110078944, -29813.226141122122, 844.4042020325902, -0.146, 0.932, 0.112, 192.0, 0.0, 0.0, 0.0, 0.0, 0.0, 0.0, 0.0, 0.0, 0.0, 1.6583351460102873E9, 0.0, 2022-07-20 12:39:06.010
74.0, -5405.54587907146, -19231.776205513026, -2143.9122729196874, -7187.762223215369, -34948.248857051, -12347.371858045086, -7888.601170611521, -9744.935899369228, -3816.47095876586, -28266.84305272616, -11840.76956996555, -33452.894801246504, -26166.650791961052, -11910.93169581076, -30618.179514191095, -10.862947805279232, -0.146, 0.932, 0.112, 192.0, 0.0, 0.0, 0.0, 0.0, 0.0, 0.0, 0.0, 0.0, 0.0, 1.6583351460102923E9, 0.0, 2022-07-20 12:39:06.010
76.0, -5660.109896672952, -19648.70329483787, -2354.599816155412, -7907.510746420711, -35775.86689899766, -12524.554136342304, -6703.399920868865, -9560.46695237958, -2835.676412066986, -27327.51099199188, -10854.722363319679, -32469.105120790617, -25205.03404200483, -10929.108968866942, -29696.2594623875, 855.0659841377717, -0.152, 0.934, 0.108, 192.0, 125.5, 32.0, 14.5, 24.0, 1.5, 48.0, 0.0, 0.0, 0.0, 1.6583351460102973E9, 0.0, 2022-07-20 12:39:06.010
78.0, -5562.097497236431, -19392.865227802424, -2281.2860943420046, -7334.836701731289, -35094.585727999896, -12494.446336561006, -7878.60994084, -9845.89872907385, -3900.1111865176185, -28393.24216762092, -11888.088212977436, -33433.42643182593, -26246.91590630006, -11978.70218499925, -30732.106355679796, 29.14667476972041, -0.152, 0.934, 0.108, 192.0, 0.0, 0.0, 0.0, 0.0, 0.0, 0.0, 0.0, 0.0, 0.0, 1.6583351460103023E9, 0.0, 2022-07-20 12:39:06.010
80.0, -5516.634049014336, -19501.271188410665, -2209.4252359181924, -7743.806570030042, -35608.832312683146, -12390.197800421454, -6671.816905953516, -9458.58770115229, -2807.0438274197377, -27257.14770044657, -10857.67279358778, -32541.569476314722, -25169.539471809803, -10913.485099492682, -29585.215995933533, 808.864928348652, -0.152, 0.934, 0.108, 192.0, 0.0, 0.0, 0.0, 0.0, 0.0, 0.0, 0.0, 0.0, 0.0, 1.6583351460103073E9, 0.0, 2022-07-20 12:39:06.010
82.0, -5682.796917295089, -19512.827040294058, -2383.411214758303, -7462.845142226833, -35226.19279935274, -12592.145811575152, -7858.426315596857, -9891.652749973864, -3920.8759571165992, -28442.43835716705, -11877.202913427702, -33345.69583483885, -26250.402778435087, -11986.99468219217, -30758.146137970227, 130.48948413008264, -0.152, 0.934, 0.108, 192.0, 0.0, 0.0, 0.0, 0.0, 0.0, 0.0, 0.0, 0.0, 0.0, 1.6583351460103123E9, 0.0, 2022-07-20 12:39:06.010
84.0, -5359.970672127089, -19334.482471285162, -2064.3400626587945, -7572.480448780114, -35414.260377199695, -12243.592708539094, -6678.433022312287, -9378.501400768924, -2762.094469320115, -27175.42972271797, -10851.995450496132, -32601.718020643955, -25128.144041078573, -10877.118811263897, -29492.67977388856, 764.4520121159569, -0.152, 0.934, 0.108, 192.0, 0.0, 0.0, 0.0, 0.0, 0.0, 0.0, 0.0, 0.0, 0.0, 1.658335146010317E9, 0.0, 2022-07-20 12:39:06.010
86.0, -5818.650820094445, -19665.17653050143, -2524.07074261555, -7648.521083417068, -35404.000926494715, -12713.471080478559, -7815.108634842472, -9960.87610255195, -3904.4697766864037, -28459.112758530708, -11838.15441586428, -33243.70482488928, -26235.024778249834, -11947.65561195083, -30785.6164319058, 217.05779040548688, -0.148, 0.9420000000000001, 0.1, 192.0, 125.5, 48.0, 14.5, 56.0, 1.5, 16.0, 0.0, 0.0, 0.0, 1.6583351460103223E9, 0.0, 2022-07-20 12:39:06.010
88.0, -5260.103077900777, -19230.90448747927, -1974.3966429706388, -7452.138656632741, -35277.400645899856, -12161.382992432475, -6776.3113112820765, -9352.75219115641, -2799.3548273271117, -27192.215882803906, -10922.44814901926, -32737.43781297658, -25178.27900389183, -10933.936945669288, -29511.432887486564, 638.2093594323826, -0.148, 0.9420000000000001, 0.1, 192.0, 0.0, 0.0, 0.0, 0.0, 0.0, 0.0, 0.0, 0.0, 0.0, 1.658335146010327E9, 0.0, 2022-07-20 12:39:06.010
90.0, -5930.297783648704, -19793.855523330632, -2617.389275716457, -7806.905544627374, -35554.33875970111, -12811.706997359634, -7705.76390096711, -9986.40179471991, -3869.601055336125, -28465.72887488948, -11790.254627496557, -33155.7283587132, -26199.530208054806, -11922.621658160884, -30792.43371396467, 295.9147448438102, -0.148, 0.9420000000000001, 0.1, 192.0, 0.0, 0.0, 0.0, 0.0, 0.0, 0.0, 0.0, 0.0, 0.0, 1.6583351460103323E9, 0.0, 2022-07-20 12:39:06.010
92.0, -5168.818553545303, -19120.73273905906, -1883.335636059718, -7310.093320619264, -35112.131847397315, -12081.229636815744, -6900.0505685866565, -9343.520920696368, -2853.7142698424186, -27229.05155766625, -11000.925123801842, -32860.774738880966, -25218.489792166925, -10995.359539432471, -29533.60581798623, 540.6216431405119, -0.148, 0.9420000000000001, 0.1, 192.0, 0.0, 0.0, 0.0, 0.0, 0.0, 0.0, 0.0, 0.0, 0.0, 1.658335146010337E9, 0.0, 2022-07-20 12:39:06.010
94.0, -6022.878709182586, -19902.574408361248, -2701.811814524152, -7943.497054993756, -35714.332546512196, -12878.829285958922, -7594.78748974651, -9978.131649271447, -3805.205679560385, -28420.62305457867, -11710.45889979111, -33035.96771192166, -26122.953131550927, -11851.051372414991, -30742.18699242914, 403.27017346265, -0.148, 0.9420000000000001, 0.1, 192.0, 0.0, 0.0, 0.0, 0.0, 0.0, 0.0, 0.0, 0.0, 0.0, 1.6583351460103421E9, 0.0, 2022-07-20 12:39:06.010
96.0, -5093.470822986463, -19023.61440940075, -1821.3766004296067, -7175.669929465048, -34976.18853762013, -12013.2356301827, -7023.901584613513, -9329.238155989427, -2954.788858269317, -27310.702480161486, -11115.410758901926, -32996.49453121359, -25325.68875857458, -11107.364130898015, -29616.374327704234, 427.0524295630967, -0.148, 0.9410000000000001, 0.101, 192.0, 125.5, 48.0, 14.5, 48.0, 1.5, 24.0, 0.0, 0.0, 0.0, 1.6583351460103471E9, 0.0, 2022-07-20 12:39:06.010
98.0, -6075.382956908102, -19976.670441230588, -2760.8874751195285, -8060.486085472833, -35839.50231546191, -12936.6532488648, -7429.451636010604, -9992.190896533835, -3686.3614542915175, -28309.154904980052, -11584.685633741097, -32891.35192529582, -26010.456801707365, -11729.279068622478, -30639.480726657002, 525.1095324885288, -0.148, 0.9410000000000001, 0.101, 192.0, 0.0, 0.0, 0.0, 0.0, 0.0, 0.0, 0.0, 0.0, 0.0, 1.658335146010352E9, 0.0, 2022-07-20 12:39:06.010
100.0, -5070.202657008488, -18983.403621125653, -1812.0559229917435, -7097.885858760579, -34884.45697837555, -12021.684589586806, -7187.985740659922, -9363.95041512852, -3080.651531297151, -27431.021920564406, -11243.821530797664, -33130.56029445652, -25465.05188525342, -11234.32203940416, -29745.88033507828, 292.8972593423438, -0.148, 0.9410000000000001, 0.101, 192.0, 0.0, 0.0, 0.0, 0.0, 0.0, 0.0, 0.0, 0.0, 0.0, 1.6583351460103571E9, 0.0, 2022-07-20 12:39:06.010
102.0, -6114.073826560239, -20036.126081481707, -2788.2683620772796, -8147.590833615164, -35949.76347085994, -12971.767839404089, -7295.229410556485, -9977.528152171153, -3576.569685527049, -28210.96369158789, -11477.061984188795, -32786.70105775607, -25912.2655883152, -11628.62916334023, -30543.837612132742, 605.0170189162516, -0.148, 0.9410000000000001, 0.101, 192.0, 0.0, 0.0, 0.0, 0.0, 0.0, 0.0, 0.0, 0.0, 0.0, 1.658335146010363E9, 0.0, 2022-07-20 12:39:06.010
104.0, -5042.486493883907, -18933.17925133458, -1768.559428281716, -6990.575133630649, -34768.2055554635, -11993.029653195103, -7324.957230682044, -9382.52471477088, -3210.582221815851, -27557.488090692532, -11367.091401468684, -33235.30056897409, -25586.10893322336, -11356.451971107957, -29871.653601128295, 208.34061006791714, -0.148, 0.9410000000000001, 0.101, 192.0, 0.0, 0.0, 0.0, 0.0, 0.0, 0.0, 0.0, 0.0, 0.0, 1.6583351460103683E9, 0.0, 2022-07-20 12:39:06.010
106.0, -6083.720157589932, -20024.994912742965, -2741.799085354696, -8176.603397918153, -35986.37562827774, -12925.767949315066, -7135.034458045299, -9905.667293747341, -3408.3281050119526, -28023.25374165222, -11320.264496834814, -32648.433166555547, -25739.643065886863, -11451.826864698753, -30356.99938023083, 731.9078721890297, -0.14600000000000002, 0.9405000000000001, 0.10550000000000001, 192.0, 125.5, 64.0, 14.5, 48.0, 1.5, 56.0, 0.0, 0.0, 0.0, 1.6583351464899874E9, 0.0, 2022-07-20 12:39:06.489
108.0, -5072.460183198475, -18940.80119619384, -1797.527289095794, -6967.7316507973255, -34731.52634281234, -12016.52133661763, -7504.48644214707, -9427.697590315056, -3339.9094152342577, -27696.113609804346, -11490.405975628611, -33326.27216890719, -25710.965777750705, -11482.51580983589, -30018.683376155303, 134.89277778777813, -0.14600000000000002, 0.9405000000000001, 0.10550000000000001, 192.0, 0.0, 0.0, 0.0, 0.0, 0.0, 0.0, 0.0, 0.0, 0.0, 1.658335146490075E9, 0.0, 2022-07-20 12:39:06.490
110.0, -6054.417020609024, -20015.80834577183, -2716.0498757421824, -8205.81712792124, -36022.339585106325, -12890.541600053502, -6984.450755649896, -9855.778200123095, -3271.2448562675545, -27874.2793648576, -11201.464975054858, -32571.49846214038, -25606.091392766404, -11320.577421257189, -30204.49342781227, 793.8669078191409, -0.14600000000000002, 0.9405000000000001, 0.10550000000000001, 192.0, 0.0, 0.0, 0.0, 0.0, 0.0, 0.0, 0.0, 0.0, 0.0, 1.6583351464901326E9, 0.0, 2022-07-20 12:39:06.490
112.0, -5157.441515617552, -19018.96524655405, -1883.782670948824, -7012.6363054080375, -34755.88974426863, -12108.476413306764, -7638.328687945448, -9542.384391115236, -3517.2928592315748, -27908.611644340952, -11641.436712913122, -33438.43322258392, -25887.097524058525, -11647.270518215957, -30218.59737856357, 33.46056144959467, -0.14600000000000002, 0.9405000000000001, 0.10550000000000001, 192.0, 0.0, 0.0, 0.0, 0.0, 0.0, 0.0, 0.0, 0.0, 0.0, 1.6583351464901493E9, 0.0, 2022-07-20 12:39:06.490
114.0, -5976.632949904555, -19960.420723011583, -2640.657441694432, -8170.814296104229, -35998.445570283606, -12813.785709593978, -6859.482152400274, -9773.4567252942, -3126.852587086271, -27718.86768565985, -11083.581874797568, -32516.312005080224, -25476.27246096998, -11192.25605633927, -30046.913629402356, 832.3342600267245, -0.14600000000000002, 0.9405000000000001, 0.10550000000000001, 192.0, 0.0, 0.0, 0.0, 0.0, 0.0, 0.0, 0.0, 0.0, 0.0, 1.658335146490154E9, 0.0, 2022-07-20 12:39:06.490
116.0, -5238.757161945959, -19087.048660164914, -1966.3053114778177, -7050.6119192376045, -34795.45233195452, -12181.074879297601, -7781.268093737137, -9598.688435398155, -3641.8367793365455, -28052.0204367662, -11738.912670482716, -33469.05511248769, -26006.925226083426, -11760.303289926445, -30369.136377470062, 11.444093161117216, -0.14700000000000002, 0.9412500000000001, 0.10675000000000001, 192.0, 125.5, 48.0, 14.5, 56.0, 1.5, 48.0, 0.0, 0.0, 0.0, 1.658335146490159E9, 0.0, 2022-07-20 12:39:06.490
118.0, -5856.87230311302, -19849.578422257713, -2540.365164323469, -8095.1536411230145, -35935.32424394182, -12714.633371190235, -6764.8672181209595, -9710.11188150786, -3002.465129192487, -27551.92250632316, -10985.7929928056, -32480.28099301827, -25353.919011821632, -11069.612034513002, -29891.30078450451, 870.1757633895593, -0.14700000000000002, 0.9412500000000001, 0.10675000000000001, 192.0, 0.0, 0.0, 0.0, 0.0, 0.0, 0.0, 0.0, 0.0, 0.0, 1.6583351464901638E9, 0.0, 2022-07-20 12:39:06.490
120.0, -5338.133017794254, -19183.60819621184, -2077.214667465051, -7143.617527916137, -34887.206242943554, -12303.405976701497, -7808.425463250335, -9680.67463406022, -3757.015318514743, -28197.038554792234, -11823.335209290412, -33485.327182451154, -26114.861800058105, -11872.643157558818, -30522.42464094456, -8.180738470642385, -0.14700000000000002, 0.9412500000000001, 0.10675000000000001, 192.0, 0.0, 0.0, 0.0, 0.0, 0.0, 0.0, 0.0, 0.0, 0.0, 1.6583351464901688E9, 0.0, 2022-07-20 12:39:06.490
