%OpenBCI Raw EEG Data
%Number of channels = 16
%Sample Rate = 125 Hz
%Board = OpenBCI_GUI$BoardCytonSerialDaisy
Sample Index, EXG Channel 0, EXG Channel 1, EXG Channel 2, EXG Channel 3, EXG Channel 4, EXG Channel 5, EXG Channel 6, EXG Channel 7, EXG Channel 8, EXG Channel 9, EXG Channel 10, EXG Channel 11, EXG Channel 12, EXG Channel 13, EXG Channel 14, EXG Channel 15, Accel Channel 0, Accel Channel 1, Accel Channel 2, Other, Other, Other, Other, Other, Other, Other, Analog Channel 0, Analog Channel 1, Analog Channel 2, Timestamp, Other, Timestamp (Formatted)
196.0, -22199.082040677316, -22365.446074658164, -6448.210054422624, -7052.78003844977, -31580.06448508078, 1604.4976239797622, -1334.2203300261892, -9750.45678024969, -42.35655574280688, -24228.665140708108, -8116.208984399914, -32971.013542534536, -14630.42374019906, -12252.220481898843, -28698.835217813878, 5794.376825615982, 0.0, 0.0, 0.0, 192.0, 0.0, 0.0, 0.0, 0.0, 0.0, 0.0, 0.0, 0.0, 0.0, 1.658334797539466E9, 0.0, 2022-07-20 12:33:17.539
198.0, -21948.608392311144, -22143.694417917064, -6037.630860523089, -6844.841759782048, -31470.071550616212, 2026.3420970847724, -983.7449769669745, -9468.78009662391, 460.7141567127892, -23609.275950107094, -7928.968421097806, -32910.73088773857, -14188.976787206744, -11835.561613507463, -28076.830873111594, 5681.053481227575, 0.0, 0.0, 0.0, 192.0, 0.0, 0.0, 0.0, 0.0, 0.0, 0.0, 0.0, 0.0, 0.0, 1.6583347975394735E9, 0.0, 2022-07-20 12:33:17.539
200.0, -22272.55222470191, -22441.710226739673, -6483.034072283992, -7121.779873583302, -31667.012771011923, 1585.2304202592875, -1347.2066935547225, -9810.627676323376, -50.514942468993965, -24250.301629340844, -8096.941780679439, -32936.88242875128, -14616.073920258752, -12249.560624308662, -28718.862380845832, 5823.657610852434, 0.0, 0.0, 0.0, 192.0, 0.0, 0.0, 0.0, 0.0, 0.0, 0.0, 0.0, 0.0, 0.0, 1.6583347975394793E9, 0.0, 2022-07-20 12:33:17.539
202.0, -21871.7630948738, -22056.6567250081, -6006.2490113078375, -6769.248160034199, -31391.54987234472, 2053.164190431141, -995.9043259506615, -9435.34188691877, 434.45085697780337, -23629.504278839147, -7986.658273536954, -32975.93092631471, -14221.38681666694, -11885.54011410953, -28107.385707781996, 5622.402503776849, -0.062, 0.46900000000000003, -0.01, 192.0, 126.0, 16.0, 14.5, 40.0, 127.5, 48.0, 0.0, 0.0, 0.0, 1.6583347975394847E9, 0.0, 2022-07-20 12:33:17.539
204.0, -22318.88739095776, -22488.894759284827, -6497.562706179942, -7172.652443963581, -31746.2944085949, 1597.859155876536, -1349.2407023001556, -9837.51682490311, -0.9611250115782037, -24198.02089905988, -8019.15770997497, -32846.93900906313, -14579.953501218975, -12178.54913217415, -28691.772066566, 5902.246344357293, -0.062, 0.46900000000000003, -0.01, 192.0, 0.0, 0.0, 0.0, 0.0, 0.0, 0.0, 0.0, 0.0, 0.0, 1.6583347975394905E9, 0.0, 2022-07-20 12:33:17.539
206.0, -21843.219917204373, -22027.89002989412, -6008.394778775547, -6726.913956035848, -31321.18658079941, 2042.2118356480405, -997.3348375958011, -9423.651924568645, 364.8698764884325, -23665.423532178826, -8064.710565174886, -33056.084281931435, -14285.961006398322, -11928.164890785802, -28158.012408973267, 5566.277273449573, -0.062, 0.46900000000000003, -0.01, 192.0, 0.0, 0.0, 0.0, 0.0, 0.0, 0.0, 0.0, 0.0, 0.0, 1.658334797539496E9, 0.0, 2022-07-20 12:33:17.539
208.0, -22353.24202218557, -22534.514669718108, -6491.281865988, -7202.7602437448795, -31803.96190928959, 1608.498586237262, -1291.3049806719996, -9841.450731927245, 52.66070993670344, -24149.20468916949, -7964.552398270655, -32786.097560655784, -14510.886610852076, -12130.06819845059, -28635.110394371797, 5956.426972916958, -0.062, 0.46900000000000003, -0.01, 192.0, 0.0, 0.0, 0.0, 0.0, 0.0, 0.0, 0.0, 0.0, 0.0, 1.6583347975395014E9, 0.0, 2022-07-20 12:33:17.539
210.0, -21833.496908366313, -22005.27006450535, -6028.444293551957, -6709.725464549717, -31286.47432166032, 1990.5122507229153, -1035.2657479364573, -9454.25146272796, 296.40648322182693, -23740.681855759845, -8131.2517084183355, -33111.96364306971, -14356.570167132637, -11993.61079855094, -28225.089994083643, 5523.585441539936, -0.062, 0.46900000000000003, -0.01, 192.0, 0.0, 0.0, 0.0, 0.0, 0.0, 0.0, 0.0, 0.0, 0.0, 1.6583347975395072E9, 0.0, 2022-07-20 12:33:17.539
212.0, -22374.587938140387, -22562.52140552061, -6465.6220633533085, -7228.084770212743, -31849.87239240079, 1630.8726824370244, -1283.9512567462036, -9865.992947339171, 109.70236178664706, -24090.933691374506, -7912.741054623253, -32734.979121086493, -14447.184139154451, -12070.165523310367, -28577.711114610567, 5980.343339484137, -0.093, 0.7075, -0.016, 192.0, 126.0, 16.0, 14.5, 72.0, 127.5, 40.0, 0.0, 0.0, 0.0, 1.6583347975395124E9, 0.0, 2022-07-20 12:33:17.539
214.0, -21813.402690100993, -21987.03104102982, -6043.2858518702815, -6692.3134556190325, -31229.387966321465, 1965.6571108886137, -1069.0615855528815, -9480.201838040572, 232.2346248906404, -23813.459135706322, -8186.169944545025, -33162.500937283156, -14417.076339373154, -12080.559084482085, -28293.9780704949, 5496.22690632664, -0.093, 0.7075, -0.016, 192.0, 0.0, 0.0, 0.0, 0.0, 0.0, 0.0, 0.0, 0.0, 0.0, 1.658334797539518E9, 0.0, 2022-07-20 12:33:17.539
216.0, -22360.23811820008, -22545.869355901403, -6421.387961076255, -7234.298555171318, -31858.813090182914, 1689.1883837209207, -1213.2750407785227, -9845.496397673654, 198.7740634410457, -24013.820173003696, -7853.151303905404, -32690.3650391537, -14359.498245656283, -11992.202638650257, -28484.30317453184, 6008.864165409108, -0.093, 0.7075, -0.016, 192.0, 0.0, 0.0, 0.0, 0.0, 0.0, 0.0, 0.0, 0.0, 0.0, 1.6583347975395236E9, 0.0, 2022-07-20 12:33:17.539
218.0, -21802.070355662152, -21978.045639758784, -6070.15264870556, -6691.486441074186, -31206.164503832402, 1926.5639098362817, -1118.4365890546549, -9500.430166772625, 179.8197841429453, -23883.084819684605, -8218.177642605024, -33191.06646669703, -14458.71763929339, -12127.92243098288, -28366.91181265257, 5487.286208544518, -0.093, 0.7075, -0.016, 192.0, 0.0, 0.0, 0.0, 0.0, 0.0, 0.0, 0.0, 0.0, 0.0, 1.658334797539529E9, 0.0, 2022-07-20 12:33:17.539
220.0, -22338.601629567343, -22537.2192307972, -6378.763184399985, -7222.519185843371, -31874.749883979548, 1726.4263899834623, -1201.361560983844, -9837.159196991826, 277.8321835794668, -23912.410308409966, -7804.8938876263965, -32659.11730040518, -14291.995977401255, -11929.88597510886, -28405.53562707134, 6016.351999801636, -0.093, 0.7075, -0.016, 192.0, 0.0, 0.0, 0.0, 0.0, 0.0, 0.0, 0.0, 0.0, 0.0, 1.6583347975395346E9, 0.0, 2022-07-20 12:33:17.539
222.0, -21842.214088703884, -22015.7977361438, -6127.663687189065, -6714.016999485136, -31223.397698807443, 1869.0528713527765, -1136.0274119409814, -9554.074353465361, 90.90454469973382, -23972.670611461475, -8263.484628615932, -33210.4901326287, -14543.520157756826, -12174.615225150017, -28454.173023006086, 5496.070444115454, -0.1075, 0.8287500000000001, -0.018000000000000002, 192.0, 126.0, 24.0, 14.5, 88.0, 127.5, 48.0, 0.0, 0.0, 0.0, 1.65833479753954E9, 0.0, 2022-07-20 12:33:17.539
224.0, -22291.64061446674, -22487.285433684046, -6300.889706717695, -7161.342461269196, -31828.92880784617, 1811.9665160139223, -1105.4055220372109, -9756.894082652818, 341.1323238768964, -23826.84783063505, -7777.423593690824, -32644.27574208686, -14245.861976845501, -11867.479904589642, -28303.991652010878, 6019.101264369639, -0.1075, 0.8287500000000001, -0.018000000000000002, 192.0, 0.0, 0.0, 0.0, 0.0, 0.0, 0.0, 0.0, 0.0, 0.0, 1.6583347975395455E9, 0.0, 2022-07-20 12:33:17.539
226.0, -21901.04388011025, -22049.41475980458, -6187.655769307109, -6752.841979604003, -31245.79414675166, 1809.7089898239362, -1192.7114358796402, -9590.239475994049, 32.74530562702485, -24047.683065853485, -8270.704242074997, -33197.83904526699, -14597.946655505499, -12232.081560144612, -28514.232160357496, 5542.651479560313, -0.1075, 0.8287500000000001, -0.018000000000000002, 192.0, 0.0, 0.0, 0.0, 0.0, 0.0, 0.0, 0.0, 0.0, 0.0, 1.658334797539551E9, 0.0, 2022-07-20 12:33:17.539
228.0, -22251.630991891743, -22447.856956464882, -6258.5331509748885, -7126.876071319112, -31813.640214638737, 1841.7390396283913, -1091.8156614083841, -9746.858149392385, 398.66571410485676, -23757.73623677924, -7771.813305832542, -32656.07746315926, -14210.233296183742, -11818.082549343413, -28230.946151130935, 5988.389967488047, -0.1075, 0.8287500000000001, -0.018000000000000002, 192.0, 0.0, 0.0, 0.0, 0.0, 0.0, 0.0, 0.0, 0.0, 0.0, 1.6583347975395596E9, 0.0, 2022-07-20 12:33:17.539
230.0, -21964.098151218674, -22116.4699931705, -6271.474811014511, -6816.5220995571735, -31322.751202911284, 1740.6644512014927, -1270.517858328564, -9664.827247241408, -39.38377373025104, -24137.000636696892, -8287.266884716379, -33192.3852196199, -14653.915423621587, -12276.203903699388, -28616.983129618544, 5561.806924558512, -0.1075, 0.8287500000000001, -0.018000000000000002, 192.0, 0.0, 0.0, 0.0, 0.0, 0.0, 0.0, 0.0, 0.0, 0.0, 1.658334797539565E9, 0.0, 2022-07-20 12:33:17.539
232.0, -22193.516456307945, -22398.213732029646, -6213.270868452892, -7082.954893464434, -31769.204946661586, 1887.358950061673, -1062.4231174496554, -9703.987503527105, 433.1768075438509, -23683.103762042974, -7789.739404885699, -32698.3669636687, -14183.969996448755, -11810.639418439796, -28186.04149652022, 5928.129664436539, -0.1075, 0.8287500000000001, -0.018000000000000002, 192.0, 0.0, 0.0, 0.0, 0.0, 0.0, 0.0, 0.0, 0.0, 0.0, 1.6583347975395706E9, 0.0, 2022-07-20 12:33:17.539
234.0, -22015.618922188154, -22178.3843253117, -6325.990715741005, -6877.4529549423405, -31371.701523268406, 1682.7957848067028, -1280.553791588997, -9726.473358449144, -77.35938755981775, -24195.40574495861, -8272.738250820428, -33158.11999536991, -14694.14856364114, -12310.24561050482, -28683.23370018407, 5604.722273912701, -0.124, 0.9440000000000001, -0.028, 192.0, 126.0, 16.0, 14.5, 64.0, 127.5, 16.0, 0.0, 0.0, 0.0, 1.6583347975395763E9, 0.0, 2022-07-20 12:33:17.539
236.0, -22122.013225795417, -22319.89321945825, -6156.452734047501, -7023.946288102423, -31699.154579538656, 1946.7251833349687, -1034.7740095584404, -9635.635868982778, 474.0134446636969, -23642.20006968976, -7803.508079470168, -32736.76726064292, -14156.9914408912, -11793.853258353862, -28136.197106384887, 5863.39901249397, -0.124, 0.9440000000000001, -0.028, 192.0, 0.0, 0.0, 0.0, 0.0, 0.0, 0.0, 0.0, 0.0, 0.0, 1.6583347975395818E9, 0.0, 2022-07-20 12:33:17.539
238.0, -22096.465181883003, -22247.20534648959, -6392.174231073169, -6953.538293068206, -31456.682855687483, 1649.245816379287, -1332.320431747488, -9753.40721051779, -95.44194882416116, -24244.870155438206, -8250.341802876212, -33115.53992218255, -14693.299197351838, -12304.992950557822, -28743.44929974667, 5657.5170943161365, -0.124, 0.9440000000000001, -0.028, 192.0, 0.0, 0.0, 0.0, 0.0, 0.0, 0.0, 0.0, 0.0, 0.0, 1.6583347975395875E9, 0.0, 2022-07-20 12:33:17.539
240.0, -22043.75976845739, -22240.119843497258, -6091.722082104931, -6946.51984530924, -31609.859360439703, 1995.742558925457, -986.3601310682453, -9572.313376940892, 486.8656977254984, -23600.53641802507, -7848.390382336424, -32792.91484271465, -14149.190682076298, -11788.645301895775, -28103.027117613212, 5806.580878088579, -0.124, 0.9440000000000001, -0.028, 192.0, 0.0, 0.0, 0.0, 0.0, 0.0, 0.0, 0.0, 0.0, 0.0, 1.6583347975395927E9, 0.0, 2022-07-20 12:33:17.539
242.0, -22165.15209259416, -22323.760071249017, -6428.249946624034, -7022.538128201739, -31534.80220255878, 1609.7055804378488, -1324.1396932768457, -9783.693824254731, -84.75781497452438, -24250.189870618568, -8195.356511516156, -33043.299084103004, -14669.09225810674, -12299.62853188855, -28746.466785248136, 5730.026153329152, -0.124, 0.9440000000000001, -0.028, 192.0, 0.0, 0.0, 0.0, 0.0, 0.0, 0.0, 0.0, 0.0, 0.0, 1.6583347975395987E9, 0.0, 2022-07-20 12:33:17.539
244.0, -21978.40326767007, -22163.38630478219, -6046.973889705407, -6867.752297848738, -31530.376557156633, 2023.0787423942975, -985.0860816342929, -9543.88195799374, 474.0804998970628, -23594.076763877485, -7904.806185341619, -32863.03226507095, -14183.411202837373, -11816.696741187185, -28095.382821009498, 5739.4585894892925, -0.126, 0.9440000000000001, -0.018000000000000002, 192.0, 126.0, 8.0, 14.5, 64.0, 127.5, 56.0, 0.0, 0.0, 0.0, 1.658334797539604E9, 0.0, 2022-07-20 12:33:17.539
246.0, -22251.340419213822, -22416.184534571712, -6475.94856929166, -7090.621541812604, -31638.693110787048, 1583.0175975582122, -1351.6546907013287, -9858.99685132466, -79.52750677198253, -24244.199603104546, -8144.4615893914215, -32969.35951344485, -14655.94943236702, -12258.635432557516, -28752.54645973998, 5810.380674645981, -0.126, 0.9440000000000001, -0.018000000000000002, 192.0, 0.0, 0.0, 0.0, 0.0, 0.0, 0.0, 0.0, 0.0, 0.0, 1.6583347975396097E9, 0.0, 2022-07-20 12:33:17.539
248.0, -21912.420918038002, -22095.50405687142, -6012.060464866217, -6797.992503403724, -31433.615855409607, 2033.2040826325517, -967.696424448064, -9497.904419649174, 436.1048860674961, -23608.560694284522, -7970.1850378733925, -32936.77067002901, -14221.38681666694, -11847.788017724517, -28112.437202028897, 5669.005890966165, -0.126, 0.9440000000000001, -0.018000000000000002, 192.0, 0.0, 0.0, 0.0, 0.0, 0.0, 0.0, 0.0, 0.0, 0.0, 1.6583347975396152E9, 0.0, 2022-07-20 12:33:17.539
250.0, -22266.338439743333, -22428.321531810943, -6464.057441241436, -7114.69437059097, -31679.820320584815, 1596.987437842779, -1317.2777077290664, -9841.85306332744, -21.815302588379694, -24206.73807939745, -8054.920501103462, -32869.80484364091, -14591.487001357915, -12211.719120945827, -28708.200598740652, 5893.618570997545, -0.126, 0.9440000000000001, -0.018000000000000002, 192.0, 0.0, 0.0, 0.0, 0.0, 0.0, 0.0, 0.0, 0.0, 0.0, 1.6583347975396209E9, 0.0, 2022-07-20 12:33:17.539
252.0, -21848.561984129192, -22031.667474707065, -5995.319008269193, -6745.801180100582, -31354.87065969356, 2044.35760311575, -983.7226252225191, -9484.359262509259, 424.4149237173705, -23622.239961891173, -8004.226744678825, -32980.89301358378, -14237.547127908127, -11883.64021583083, -28125.535324279706, 5629.443303280271, -0.126, 0.9440000000000001, -0.018000000000000002, 192.0, 0.0, 0.0, 0.0, 0.0, 0.0, 0.0, 0.0, 0.0, 0.0, 1.6583347975396264E9, 0.0, 2022-07-20 12:33:17.539
254.0, -22325.682321272176, -22503.535151903052, -6489.761947365039, -7188.164554615564, -31770.054312950888, 1582.1682312689104, -1307.264126213089, -9898.090052376992, 33.14763702722038, -24175.937375538037, -7987.977026459816, -32811.15386619018, -14540.994410633375, -12165.808637834625, -28672.258993656516, 5944.737010566832, -0.128, 0.9440000000000001, -0.018000000000000002, 192.0, 126.0, 0.0, 14.5, 64.0, 127.5, 56.0, 0.0, 0.0, 0.0, 1.6583347975396318E9, 0.0, 2022-07-20 12:33:17.539
0.0, -21813.246227889806, -21988.707421863965, -5997.71064492591, -6703.154051679856, -31290.095304262082, 2013.6910097230686, -998.5418317963877, -9475.396212982681, 346.563797779536, -23709.568227478056, -8091.644417243531, -33077.09492171943, -14321.008541704243, -11965.402897048343, -28201.643014150028, 5561.6057588584135, -0.128, 0.9440000000000001, -0.018000000000000002, 192.0, 0.0, 0.0, 0.0, 0.0, 0.0, 0.0, 0.0, 0.0, 0.0, 1.658334797539637E9, 0.0, 2022-07-20 12:33:17.539
2.0, -22314.014710666503, -22493.230997709157, -6445.930176488183, -7180.520258011849, -31795.736467330036, 1634.6054237610608, -1250.7589162300726, -9876.632377699898, 119.85005376935646, -24096.00753736586, -7902.593362640544, -32719.735231367977, -14456.840092759145, -12064.845808130003, -28590.60807116128, 6018.117787613605, -0.128, 0.9440000000000001, -0.018000000000000002, 192.0, 0.0, 0.0, 0.0, 0.0, 0.0, 0.0, 0.0, 0.0, 0.0, 1.6583347975396428E9, 0.0, 2022-07-20 12:33:17.539
4.0, -21788.368736311048, -21959.44898837197, -6016.441406779458, -6679.997644424158, -31245.145946162458, 1990.0428640893538, -1040.116076483259, -9498.574971982835, 306.9565066047319, -23723.493364273712, -8123.853281003629, -33101.70419236472, -14363.812132336156, -12000.428080609809, -28241.764395447302, 5544.037287716543, -0.128, 0.9440000000000001, -0.018000000000000002, 192.0, 0.0, 0.0, 0.0, 0.0, 0.0, 0.0, 0.0, 0.0, 0.0, 1.65833479753965E9, 0.0, 2022-07-20 12:33:17.539
6.0, -22355.4771966311, -22537.710969175216, -6450.80285677944, -7225.268450411374, -31854.722720947593, 1651.503342569273, -1245.618015005352, -9882.756755680652, 154.94229256418856, -24036.820118048206, -7878.520533862178, -32706.95003353954, -14432.275525602761, -12044.796293353593, -28547.17863168462, 6015.703799212432, -0.128, 0.9440000000000001, -0.018000000000000002, 192.0, 0.0, 0.0, 0.0, 0.0, 0.0, 0.0, 0.0, 0.0, 0.0, 1.6583347975396554E9, 0.0, 2022-07-20 12:33:17.539
8.0, -21800.908064950476, -21969.52962512131, -6062.933035246496, -6689.430080584298, -31230.75142273324, 1933.5376541063374, -1082.0255973369597, -9512.567164011856, 208.60883100138082, -23839.230697063293, -8203.894877898083, -33176.73899850118, -14457.644755559535, -12088.739822952726, -28339.218001272442, 5502.7312639631355, -0.128, 0.9500000000000001, -0.016, 192.0, 126.0, 0.0, 14.5, 88.0, 127.5, 64.0, 0.0, 0.0, 0.0, 1.6583347975396607E9, 0.0, 2022-07-20 12:33:17.539
10.0, -22354.449016386156, -22540.54964072104, -6419.689228497652, -7235.974936005466, -31886.30573586294, 1676.6267033370382, -1210.2799070215115, -9874.128982320903, 234.536854569537, -23960.332448522146, -7832.252422839692, -32672.774216267375, -14366.784914348713, -11966.98987090467, -28467.941697590555, 6025.471511539401, -0.128, 0.9500000000000001, -0.016, 192.0, 0.0, 0.0, 0.0, 0.0, 0.0, 0.0, 0.0, 0.0, 0.0, 1.6583347975396664E9, 0.0, 2022-07-20 12:33:17.539
12.0, -21834.7039025669, -21993.78126785532, -6122.433378986523, -6719.984915254702, -31244.274228128703, 1870.9974731203883, -1128.3160601039006, -9571.978100774062, 115.46911185611629, -23941.400520968502, -8274.63814909913, -33221.353080433975, -14531.561974473236, -12175.50929492823, -28444.20414497902, 5481.698272430691, -0.128, 0.9500000000000001, -0.016, 192.0, 0.0, 0.0, 0.0, 0.0, 0.0, 0.0, 0.0, 0.0, 0.0, 1.658334797539672E9, 0.0, 2022-07-20 12:33:17.539
14.0, -22317.635693268265, -22506.4632304267, -6369.844838362317, -7210.717464770969, -31886.68571551868, 1745.0006896258224, -1184.2401247310788, -9823.368170662901, 311.33744851797206, -23876.044020181183, -7807.732559172221, -32655.42926257006, -14280.753049940235, -11893.989073513636, -28390.224682119453, 6023.303392327237, -0.128, 0.9500000000000001, -0.016, 192.0, 0.0, 0.0, 0.0, 0.0, 0.0, 0.0, 0.0, 0.0, 0.0, 1.6583347975396776E9, 0.0, 2022-07-20 12:33:17.539
16.0, -21869.930251828464, -22027.800622916297, -6184.593580316732, -6755.3006714940875, -31264.681370816397, 1809.3066584237408, -1182.362578196833, -9594.03927255145, 59.634454206759244, -24021.799745774242, -8300.208544756002, -33235.92641781884, -14593.789231036812, -12213.149632590967, -28536.02511120142, 5490.840135912912, -0.128, 0.9500000000000001, -0.016, 192.0, 0.0, 0.0, 0.0, 0.0, 0.0, 0.0, 0.0, 0.0, 0.0, 1.658334797539683E9, 0.0, 2022-07-20 12:33:17.539
18.0, -22259.521157684467, -22455.45654957969, -6296.419357826634, -7152.647632676081, -31845.82672665438, 1805.037475232777, -1105.2937633149343, -9769.142838614325, 369.9660742242425, -23797.745859354243, -7800.0212073351395, -32670.02495169937, -14242.688029132847, -11865.244730144112, -28311.345375936675, 5986.7582901428095, -0.128, 0.96, -0.018000000000000002, 192.0, 126.0, 0.0, 15.0, 0.0, 127.5, 56.0, 0.0, 0.0, 0.0, 1.6583347975396893E9, 0.0, 2022-07-20 12:33:17.539
20.0, -21891.969071861397, -22048.051303392807, -6218.344714444246, -6769.002290845191, -31279.612336112543, 1765.8772189470792, -1204.9378400966932, -9615.072264083894, 24.51986366747185, -24068.112560285637, -8285.568152137776, -33196.22971966621, -14620.23134472744, -12245.626717284527, -28565.8423383048, 5544.037287716543, -0.128, 0.96, -0.018000000000000002, 192.0, 0.0, 0.0, 0.0, 0.0, 0.0, 0.0, 0.0, 0.0, 0.0, 1.6583347975396948E9, 0.0, 2022-07-20 12:33:17.539
22.0, -22200.132572666716, -22396.24677851758, -6228.447702938045, -7100.053977972744, -31790.66262133868, 1857.944054358489, -1056.6787191246415, -9706.021512272539, 423.5655574280688, -23716.02788162564, -7786.520753684134, -32672.193070911537, -14188.932083717835, -11805.00677883706, -28203.989947317834, 5958.885664807041, -0.128, 0.96, -0.018000000000000002, 192.0, 0.0, 0.0, 0.0, 0.0, 0.0, 0.0, 0.0, 0.0, 0.0, 1.6583347975397005E9, 0.0, 2022-07-20 12:33:17.539
24.0, -21959.82896802771, -22112.245513468446, -6277.867409928729, -6832.883576498459, -31334.77644142824, 1713.372971221563, -1260.2137041346675, -9662.592072795876, -38.13207604075385, -24137.15709890808, -8284.584675381742, -33174.101492655456, -14649.556833452802, -12274.058136231677, -28613.8538853948, 5589.210163260718, -0.128, 0.96, -0.018000000000000002, 192.0, 0.0, 0.0, 0.0, 0.0, 0.0, 0.0, 0.0, 0.0, 0.0, 1.6583347975397055E9, 0.0, 2022-07-20 12:33:17.539
26.0, -22136.966542836017, -22336.90289698874, -6170.333167354246, -7041.291241799741, -31729.2400275755, 1922.42883711205, -1020.4465413625886, -9642.274337086003, 462.9940346472305, -23659.54502338708, -7798.098957311983, -32712.537969653367, -14160.277147326131, -11777.961168046138, -28126.47409754683, 5916.685571275422, -0.128, 0.96, -0.018000000000000002, 192.0, 0.0, 0.0, 0.0, 0.0, 0.0, 0.0, 0.0, 0.0, 0.0, 1.6583347975397112E9, 0.0, 2022-07-20 12:33:17.539
28.0, -22017.541172211313, -22172.63992698669, -6330.215195443058, -6882.057414300134, -31393.78504679025, 1679.8900580275129, -1281.3137509004773, -9714.023436787538, -72.91139041321163, -24189.147256511125, -8262.769372793362, -33137.55639047103, -14668.935795895553, -12278.126153722544, -28656.72453126008, 5644.843655209977, -0.13, 0.9440000000000001, -0.016, 192.0, 125.5, 120.0, 14.5, 64.0, 127.5, 64.0, 0.0, 0.0, 0.0, 1.6583347975397165E9, 0.0, 2022-07-20 12:33:17.539
30.0, -22046.93371617004, -22247.428863934143, -6095.007788539861, -6954.030031446223, -31629.484192071464, 1991.1380995676639, -971.2503518164577, -9573.095687996827, 513.0842939715736, -23576.03890610205, -7800.512945713156, -32732.833353618786, -14117.562963672039, -11729.726103511584, -28044.107919229024, 5879.715785946344, -0.13, 0.9440000000000001, -0.016, 192.0, 0.0, 0.0, 0.0, 0.0, 0.0, 0.0, 0.0, 0.0, 0.0, 1.658334797539722E9, 0.0, 2022-07-20 12:33:17.539
32.0, -22107.28342619937, -22269.959422345095, -6402.7019027116185, -6975.8900375235135, -31486.388324068586, 1626.0447056346782, -1312.0473995265245, -9780.005786419606, -79.95218991663336, -24224.99945461744, -8220.256354839368, -33071.328171649955, -14670.947452896531, -12283.37881366954, -28683.43486588417, 5707.830871085032, -0.13, 0.9440000000000001, -0.016, 192.0, 0.0, 0.0, 0.0, 0.0, 0.0, 0.0, 0.0, 0.0, 0.0, 1.6583347975397277E9, 0.0, 2022-07-20 12:33:17.539
34.0, -21987.500427663377, -22186.81093297135, -6059.133238689094, -6905.03500760019, -31572.330781499244, 2001.7551781839345, -959.0686510883154, -9561.517484368978, 488.9220582153867, -23581.04569686004, -7868.685766301843, -32816.495933115, -14163.339336316507, -11751.764923544517, -28044.242029695753, 5777.210685874305, -0.13, 0.9440000000000001, -0.016, 192.0, 0.0, 0.0, 0.0, 0.0, 0.0, 0.0, 0.0, 0.0, 0.0, 1.658334797539733E9, 0.0, 2022-07-20 12:33:17.539
36.0, -22168.214281584536, -22340.099196445848, -6440.141074674258, -7047.236805824853, -31582.701990926504, 1581.1400510239664, -1336.8131323830048, -9835.03578126857, -81.60621900632609, -24239.639847235663, -8170.2331507483905, -33006.798685407484, -14663.52667373737, -12258.769543024247, -28700.06456375892, 5767.085345636052, -0.13, 0.9440000000000001, -0.016, 192.0, 0.0, 0.0, 0.0, 0.0, 0.0, 0.0, 0.0, 0.0, 0.0, 1.6583347975397403E9, 0.0, 2022-07-20 12:33:17.539
38.0, -21936.516098560824, -22134.19492652356, -6038.212005878926, -6860.979719278779, -31505.1861411555, 2005.6890852080687, -963.6731104461087, -9546.452408606101, 460.87061892397634, -23589.494656264145, -7933.215252544314, -32898.97387015508, -14197.895133244412, -11820.071854599937, -28059.530622903185, 5699.068987258553, -0.13, 0.9440000000000001, -0.014, 192.0, 125.5, 120.0, 14.5, 64.0, 127.5, 72.0, 0.0, 0.0, 0.0, 1.6583347975397458E9, 0.0, 2022-07-20 12:33:17.539
40.0, -22226.26176193497, -22401.43238323121, -6456.27903417099, -7098.399948883051, -31642.51525908891, 1585.2304202592875, -1292.3331609169438, -9872.184380553292, -49.55381745741576, -24233.828393677282, -8109.145833152036, -32931.04862344845, -14626.959219808487, -12217.865850671036, -28672.929545990177, 5844.2435674957715, -0.13, 0.9440000000000001, -0.014, 192.0, 0.0, 0.0, 0.0, 0.0, 0.0, 0.0, 0.0, 0.0, 0.0, 1.6583347975397513E9, 0.0, 2022-07-20 12:33:17.539
42.0, -21859.84961507912, -22052.36519007268, -5991.09452856714, -6771.706851924283, -31393.98621249035, 2041.8542077367554, -954.4641917305222, -9491.847096901787, 438.0047843461972, -23596.24488308965, -7983.43962233539, -32950.78521380248, -14229.47814815976, -11823.312857545956, -28047.013646008214, 5660.467524584237, -0.13, 0.9440000000000001, -0.014, 192.0, 0.0, 0.0, 0.0, 0.0, 0.0, 0.0, 0.0, 0.0, 0.0, 1.6583347975397568E9, 0.0, 2022-07-20 12:33:17.539
44.0, -22281.649384695218, -22463.59258456142, -6479.837772826883, -7160.157818813064, -31728.457716519562, 1577.183792255377, -1295.9988470076141, -9900.548744267076, -8.717180337569754, -24193.818771102284, -8045.577471921143, -32854.35978822229, -14598.751318305889, -12174.36935596101, -28643.313484586895, 5920.731237021832, -0.13, 0.9440000000000001, -0.014, 192.0, 0.0, 0.0, 0.0, 0.0, 0.0, 0.0, 0.0, 0.0, 0.0, 1.6583347975397625E9, 0.0, 2022-07-20 12:33:17.539
46.0, -21820.287027393228, -22011.394442486104, -6000.169336815994, -6743.230729488222, -31348.098081123604, 2012.260498077929, -983.0744246333152, -9527.699295008098, 372.96120798125366, -23646.87158428092, -8061.916597117973, -33033.48666828712, -14291.370128556506, -11889.406965900298, -28115.164114852443, 5584.158669013818, -0.13, 0.9440000000000001, -0.014, 192.0, 0.0, 0.0, 0.0, 0.0, 0.0, 0.0, 0.0, 0.0, 0.0, 1.6583347975397682E9, 0.0, 2022-07-20 12:33:17.539
48.0, -22283.12459982927, -22469.605203819898, -6448.366516633811, -7171.981891629922, -31768.75791177248, 1607.8727373925135, -1260.3478146013993, -9922.878136977928, 59.79091641794639, -24133.2455436284, -7962.3172238251245, -32770.67485698162, -14525.68346568149, -12089.410375286387, -28594.340812485316, 5963.17719974246, -0.129, 0.9450000000000001, -0.015, 192.0, 126.0, 0.0, 14.5, 72.0, 127.5, 64.0, 0.0, 0.0, 0.0, 1.6583347975397737E9, 0.0, 2022-07-20 12:33:17.539
50.0, -21765.078218588616, -21947.691970788477, -5978.08581329415, -6680.8693624579155, -31261.84269927057, 2015.0768178792976, -974.0666716178265, -9498.127937093728, 347.949605935765, -23673.11253227145, -8089.74451896483, -33062.655694801295, -14337.571184345627, -11924.946239584237, -28146.210687900864, 5564.802058315523, -0.129, 0.9450000000000001, -0.015, 192.0, 0.0, 0.0, 0.0, 0.0, 0.0, 0.0, 0.0, 0.0, 0.0, 1.65833479753978E9, 0.0, 2022-07-20 12:33:17.539
52.0, -22329.549173062944, -22513.682843885763, -6455.340260903867, -7221.803930020801, -31840.082328329365, 1623.8318829336029, -1252.39059357531, -9938.211433674269, 132.0317544974988, -24054.120368256616, -7900.872278317485, -32708.313489951313, -14447.653525788013, -12025.886717544403, -28525.519791307426, 6015.882613168074, -0.129, 0.9450000000000001, -0.015, 192.0, 0.0, 0.0, 0.0, 0.0, 0.0, 0.0, 0.0, 0.0, 0.0, 1.6583347975397851E9, 0.0, 2022-07-20 12:33:17.539
54.0, -21760.652573186468, -21942.95340096395, -6009.422959020491, -6675.259074599633, -31220.491972028256, 1974.5084016929154, -1028.9402042556053, -9555.460161621591, 247.59027333143632, -23773.18129219786, -8179.486772952888, -33140.35035852795, -14416.182269594941, -12024.210336710255, -28232.220200564887, 5511.247278600607, -0.129, 0.9450000000000001, -0.015, 192.0, 0.0, 0.0, 0.0, 0.0, 0.0, 0.0, 0.0, 0.0, 0.0, 1.6583347975397909E9, 0.0, 2022-07-20 12:33:17.539
56.0, -22328.78921375146, -22523.07057655699, -6413.766016216996, -7221.781578276346, -31844.0162353535, 1677.2302004373314, -1181.6696741187184, -9929.807177759074, 197.27649656254013, -23982.103047621615, -7850.357335848491, -32672.148367422626, -14377.044365053698, -11948.817902662506, -28431.955389017512, 6040.156607646538, -0.129, 0.9450000000000001, -0.015, 192.0, 0.0, 0.0, 0.0, 0.0, 0.0, 0.0, 0.0, 0.0, 0.0, 1.6583347975397968E9, 0.0, 2022-07-20 12:33:17.539
58.0, -21783.9430909089, -21960.11954070563, -6061.77074453482, -6693.676912030806, -31206.879759654974, 1917.2208806539634, -1069.463916953077, -9604.678702912177, 172.734281150613, -23861.805958963152, -8234.449712568488, -33188.16073991785, -14480.57764537068, -12082.548389738608, -28309.7807538248, 5502.66420872977, -0.1275, 0.9475, -0.0155, 192.0, 126.0, 8.0, 14.5, 88.0, 127.5, 64.0, 0.0, 0.0, 0.0, 1.6583347975398023E9, 0.0, 2022-07-20 12:33:17.539
60.0, -22304.470515784087, -22513.615788652398, -6370.06835580687, -7220.306363142296, -31864.803357696936, 1710.981334564845, -1145.2810341454785, -9942.01123023167, 276.66989286779085, -23903.15668620547, -7811.800576663087, -32646.51091653239, -14309.16211714293, -11909.2106114877, -28368.14115859761, 6041.274194869304, -0.1275, 0.9475, -0.0155, 192.0, 0.0, 0.0, 0.0, 0.0, 0.0, 0.0, 0.0, 0.0, 0.0, 1.658334797539808E9, 0.0, 2022-07-20 12:33:17.539
62.0, -21793.464934046857, -21965.238090185892, -6098.740529863898, -6710.910107005848, -31217.295672571145, 1861.4756299824276, -1112.3569145628112, -9661.474485573111, 116.05025721195427, -23936.907820332985, -8260.914178003572, -33203.114056958446, -14548.079913625708, -12144.596832346539, -28412.129391685652, 5500.250220328596, -0.1275, 0.9475, -0.0155, 192.0, 0.0, 0.0, 0.0, 0.0, 0.0, 0.0, 0.0, 0.0, 0.0, 1.6583347975398135E9, 0.0, 2022-07-20 12:33:17.539
0.0, -11212.082053671129, -11309.490956007357, -3186.1517651262006, -3650.9115875854004, -15995.31066361793, 829.9649751144618, -569.7236144213217, -5266.18275239262, 299.8039483790336, -11751.206129933134, -3850.132685915552, -16311.051405793598, -7024.907413114001, -5827.904442298943, -13996.86354361338, 2975.821849801761, -0.12775, 0.95075, -0.01675, 192.0, 126.0, 0.0, 14.5, 104.0, 127.5, 56.0, 0.0, 0.0, 0.0, 1.6583347981064913E9, 0.0, 2022-07-20 12:33:18.106
2.0, -22017.02708208884, -22168.080171117803, -6275.72164246102, -6877.140030519967, -31379.16700591648, 1643.3226040986306, -1245.394497560799, -10368.840142350215, -69.87155316728987, -24183.134637252646, -8301.147318023124, -33153.24731507865, -14730.648962336656, -12246.967821951846, -28644.408720065203, 5660.825152495522, -0.12775, 0.95075, -0.01675, 192.0, 0.0, 0.0, 0.0, 0.0, 0.0, 0.0, 0.0, 0.0, 0.0, 1.6583347981065657E9, 0.0, 2022-07-20 12:33:18.106
4.0, -22082.42828636507, -22276.77670440396, -6064.6541195695545, -6981.299159681697, -31658.94379126356, 1924.8204737687677, -943.7577061364301, -10271.453591758442, 487.200973892328, -23615.176810643294, -7829.12317861595, -32728.407708216633, -14203.460717613783, -11724.473443564588, -28079.267213257222, 5924.866309746064, -0.12775, 0.95075, -0.01675, 192.0, 0.0, 0.0, 0.0, 0.0, 0.0, 0.0, 0.0, 0.0, 0.0, 1.6583347981066031E9, 0.0, 2022-07-20 12:33:18.106
6.0, -22086.004565477917, -22234.844831805807, -6315.753616780475, -6935.768656226237, -31436.342768233153, 1603.1565193124438, -1235.5597300004638, -10425.367704077686, -64.52948624247149, -24208.347404998232, -8240.596442293698, -33072.69162806173, -14714.131023184184, -12245.112627162056, -28665.307601130917, 5746.119409336974, -0.12775, 0.95075, -0.01675, 192.0, 0.0, 0.0, 0.0, 0.0, 0.0, 0.0, 0.0, 0.0, 0.0, 1.6583347981066086E9, 0.0, 2022-07-20 12:33:18.106
8.0, -22049.168890615572, -22239.78456733043, -6041.453008824946, -6941.557758040161, -31598.10234285621, 1922.6970580455136, -942.1036770467374, -10258.668393930006, 477.00857842070803, -23604.85030470494, -7889.741109578742, -32803.42016260864, -14211.61910433997, -11758.04576373646, -28064.716227616816, 5830.586651633579, -0.13, 0.9520000000000001, -0.014, 192.0, 125.5, 120.0, 14.5, 96.0, 127.5, 72.0, 0.0, 0.0, 0.0, 1.658334798106614E9, 0.0, 2022-07-20 12:33:18.106
10.0, -22169.66714497413, -22321.41313808121, -6377.958521599594, -7024.795654391725, -31531.225923445934, 1543.186788938855, -1276.3963671203098, -10488.287864719376, -83.95315217413332, -24248.98287641798, -8218.892898427594, -33029.61981649635, -14720.076587209296, -12252.153426665476, -28705.20546498364, 5775.780174229166, -0.13, 0.9520000000000001, -0.014, 192.0, 0.0, 0.0, 0.0, 0.0, 0.0, 0.0, 0.0, 0.0, 0.0, 1.6583347981066191E9, 0.0, 2022-07-20 12:33:18.106
12.0, -21959.471340116423, -22143.582659194788, -5984.7019296529215, -6870.389803694464, -31503.867388232637, 1961.2985207198287, -964.2319040574914, -10225.945440047437, 479.1766976328728, -23586.588929484955, -7935.450426989845, -32869.20134654061, -14236.407188940906, -11782.878551826305, -28059.97765779229, 5760.469229277281, -0.13, 0.9520000000000001, -0.014, 192.0, 0.0, 0.0, 0.0, 0.0, 0.0, 0.0, 0.0, 0.0, 0.0, 1.6583347981066244E9, 0.0, 2022-07-20 12:33:18.106
14.0, -22251.675695380654, -22406.05919433346, -6428.138187901758, -7118.002428770355, -31633.0157676954, 1498.05861688359, -1294.8589080403935, -10551.90092943918, -64.50713449801619, -24236.801175689838, -8169.227322247902, -32975.75211235906, -14694.305025852327, -12214.803661680658, -28717.186000011683, 5838.521520915213, -0.13, 0.9520000000000001, -0.014, 192.0, 0.0, 0.0, 0.0, 0.0, 0.0, 0.0, 0.0, 0.0, 0.0, 1.65833479810663E9, 0.0, 2022-07-20 12:33:18.106
16.0, -21919.75229021934, -22089.93847250205, -5972.3190632246815, -6827.452102595819, -31429.592541407652, 1948.8485990582228, -939.2873572453686, -10219.910469044504, 435.65785117838993, -23615.310921110027, -8018.308343685669, -32960.888202296286, -14271.901759135933, -11818.797805165983, -28083.290527259178, 5683.936856262309, -0.13, 0.9520000000000001, -0.014, 192.0, 0.0, 0.0, 0.0, 0.0, 0.0, 0.0, 0.0, 0.0, 0.0, 1.658334798106635E9, 0.0, 2022-07-20 12:33:18.106
18.0, -22298.904931414716, -22461.11154092688, -6436.989478706059, -7160.3813362576175, -31698.66284116064, 1509.5921170225283, -1299.7315883316503, -10589.071880468355, -33.90759633870081, -24222.876038894185, -8115.739597766352, -32898.169207354695, -14661.246795802928, -12198.218667294821, -28689.96157526512, 5907.11902464855, -0.126, 0.9480000000000001, -0.014, 192.0, 126.0, 8.0, 14.5, 80.0, 127.5, 72.0, 0.0, 0.0, 0.0, 1.6583347981066408E9, 0.0, 2022-07-20 12:33:18.106
20.0, -21873.595937919134, -22045.257335335893, -5964.473600920868, -6767.3929652444085, -31364.14663364251, 1955.0400322723428, -964.4330697575891, -10199.190401934435, 390.820251801044, -23645.284610424595, -8084.089527617637, -33025.21652283866, -14331.670323809425, -11885.584817598441, -28124.95417892387, 5632.416085292827, -0.126, 0.9480000000000001, -0.014, 192.0, 0.0, 0.0, 0.0, 0.0, 0.0, 0.0, 0.0, 0.0, 0.0, 1.658334798106646E9, 0.0, 2022-07-20 12:33:18.106
22.0, -22329.683283529674, -22489.98999476314, -6428.808740235418, -7186.488173781416, -31764.511080325974, 1532.6814690448607, -1271.0095967065809, -10594.14572645971, 23.111703766787503, -24171.93641328054, -8039.788370107219, -32813.81372378036, -14601.433527640525, -12112.879706964459, -28645.749824732524, 5971.782621357754, -0.126, 0.9480000000000001, -0.014, 192.0, 0.0, 0.0, 0.0, 0.0, 0.0, 0.0, 0.0, 0.0, 0.0, 1.6583347981066513E9, 0.0, 2022-07-20 12:33:18.106
24.0, -21821.60578031609, -21976.90570079156, -5947.575682112656, -6714.732255307706, -31291.324650207123, 1949.00506126941, -971.8985524056617, -10186.44990759491, 351.659995515346, -23679.415724207847, -8120.947554224438, -33066.2543256586, -14369.109495772063, -11922.442844205243, -28160.649914818994, 5594.731044141179, -0.126, 0.9480000000000001, -0.014, 192.0, 0.0, 0.0, 0.0, 0.0, 0.0, 0.0, 0.0, 0.0, 0.0, 1.6583347981066566E9, 0.0, 2022-07-20 12:33:18.106
26.0, -22366.60836536984, -22524.858716113416, -6424.092522155348, -7230.5211103583715, -31827.699461901128, 1534.5143120901957, -1234.1515700997795, -10614.999904036511, 75.14656485874235, -24112.793697451794, -7973.582503030599, -32750.871211394217, -14543.698971712467, -12078.703889692295, -28590.94334732811, 6005.466700251902, -0.126, 0.9480000000000001, -0.014, 192.0, 0.0, 0.0, 0.0, 0.0, 0.0, 0.0, 0.0, 0.0, 0.0, 1.658334798106662E9, 0.0, 2022-07-20 12:33:18.106
28.0, -21820.778765771243, -21972.658869345054, -5981.639740662545, -6707.579697082007, -31255.338341634077, 1895.226764109941, -1024.0451722198932, -10212.623800352074, 255.48043912415972, -23757.088036190038, -8200.229191807413, -33135.65649219233, -14457.018906714788, -12011.156917948356, -28247.665255983506, 5538.404648113805, -0.128, 0.9440000000000001, -0.016, 192.0, 126.0, 0.0, 14.5, 64.0, 127.5, 64.0, 0.0, 0.0, 0.0, 1.6583347981066673E9, 0.0, 2022-07-20 12:33:18.106
30.0, -22370.654031116253, -22532.525364461588, -6386.429832748156, -7229.694095813525, -31854.38744478076, 1577.2955509776534, -1198.7911103714837, -10612.071825512867, 158.07153678793154, -24036.686007581477, -7913.210441256815, -32689.649783331133, -14471.078153977174, -12014.196755194278, -28507.727802721, 6041.810636736231, -0.128, 0.9440000000000001, -0.016, 192.0, 0.0, 0.0, 0.0, 0.0, 0.0, 0.0, 0.0, 0.0, 0.0, 1.6583347981066723E9, 0.0, 2022-07-20 12:33:18.106
32.0, -21838.61545784658, -21982.02425027183, -6009.780586931776, -6691.128813162901, -31233.41128032342, 1866.8176969072458, -1070.5815041758424, -10248.78892288076, 190.59332497040333, -23849.758368701743, -8254.990965722915, -33174.81674847803, -14523.15771855804, -12090.080927620045, -28325.538733665795, 5531.296793377018, -0.128, 0.9440000000000001, -0.016, 192.0, 0.0, 0.0, 0.0, 0.0, 0.0, 0.0, 0.0, 0.0, 0.0, 1.6583347981066778E9, 0.0, 2022-07-20 12:33:18.106
34.0, -22359.254641444048, -22532.190088294756, -6322.794416283896, -7198.245191364907, -31859.327180305387, 1658.0971071835886, -1118.9283274326715, -10548.771685215437, 236.3696976148722, -23939.45591920089, -7859.812123753086, -32646.645026999122, -14395.305740273685, -11909.031797532058, -28406.42969684955, 6091.118585004639, -0.128, 0.9440000000000001, -0.016, 192.0, 0.0, 0.0, 0.0, 0.0, 0.0, 0.0, 0.0, 0.0, 0.0, 1.6583347981066833E9, 0.0, 2022-07-20 12:33:18.106
36.0, -21829.898277509008, -21971.76479956684, -6020.777645203787, -6678.142449634368, -31204.666936953898, 1849.6068536766595, -1063.6077599057867, -10226.526585403275, 130.55653936344856, -23913.036157254715, -8275.01812875487, -33182.215175892736, -14577.584216306714, -12111.002160430213, -28372.43269353303, 5570.43469791826, -0.128, 0.9440000000000001, -0.016, 192.0, 0.0, 0.0, 0.0, 0.0, 0.0, 0.0, 0.0, 0.0, 0.0, 1.65833479810669E9, 0.0, 2022-07-20 12:33:18.106
38.0, -22322.50837355952, -22504.384518192353, -6276.4368982835895, -7191.51731628386, -31859.59540123885, 1704.0969972726105, -1100.3093243014007, -10525.414112259641, 306.308306015528, -23852.261764080737, -7824.07168436905, -32632.6528349701, -14333.59257383258, -11858.829779485439, -28315.79337308328, 6088.436375670001, -0.128, 0.9440000000000001, -0.02, 192.0, 126.0, 0.0, 14.5, 64.0, 127.5, 48.0, 0.0, 0.0, 0.0, 1.6583347981066952E9, 0.0, 2022-07-20 12:33:18.106
40.0, -21876.6134234206, -22027.93473338303, -6090.336273948703, -6739.162711997356, -31239.80387923764, 1764.7372799798586, -1130.975917694082, -10300.399100828065, 53.890055881745326, -23998.375117585078, -8307.271696003878, -33203.76225754765, -14633.821205356266, -12185.008786321734, -28462.040837054356, 5563.572712370481, -0.128, 0.9440000000000001, -0.02, 192.0, 0.0, 0.0, 0.0, 0.0, 0.0, 0.0, 0.0, 0.0, 0.0, 1.6583347981067004E9, 0.0, 2022-07-20 12:33:18.106
42.0, -22297.5638267474, -22486.279605183558, -6221.049275523338, -7176.049909120788, -31838.003616095022, 1724.235919026842, -1070.8273733648507, -10507.040978317378, 370.0331294576084, -23798.818743088097, -7809.341884773003, -32650.601285767712, -14286.16217209842, -11850.738447992617, -28246.838241438658, 6027.058485395728, -0.128, 0.9440000000000001, -0.02, 192.0, 0.0, 0.0, 0.0, 0.0, 0.0, 0.0, 0.0, 0.0, 0.0, 1.658334798106706E9, 0.0, 2022-07-20 12:33:18.106
44.0, -21943.042807941772, -22090.072582968784, -6150.5295217668445, -6785.743747442216, -31273.778530809705, 1685.9697325193565, -1190.3421509673776, -10368.616624905662, -0.44703488910614125, -24115.654720742074, -8321.286239777355, -33201.84000752449, -14684.134982125162, -12248.778313252726, -28549.950247997076, 5564.109154237408, -0.128, 0.9440000000000001, -0.02, 192.0, 0.0, 0.0, 0.0, 0.0, 0.0, 0.0, 0.0, 0.0, 0.0, 1.6583347981067111E9, 0.0, 2022-07-20 12:33:18.106
46.0, -22235.515384139468, -22431.674293479242, -6155.5810160137435, -7107.228887942897, -31774.43525486413, 1793.1016436936432, -1020.3794861292228, -10449.954622978525, 445.04558384961894, -23742.51469880518, -7802.479899225224, -32661.687751017544, -14225.81246206909, -11795.596694421374, -28165.030856732235, 6005.019665362795, -0.128, 0.9440000000000001, -0.02, 192.0, 0.0, 0.0, 0.0, 0.0, 0.0, 0.0, 0.0, 0.0, 0.0, 1.6583347981067164E9, 0.0, 2022-07-20 12:33:18.106
48.0, -22001.58202667022, -22156.881947145695, -6221.541013901355, -6847.792190050148, -31329.657891947973, 1640.4839325528067, -1208.5141192095423, -10421.702017987016, -36.7015643956142, -24193.707012380008, -8319.3639897542, -33176.76135024564, -14708.721901026, -12291.112517251076, -28614.055051094896, 5627.58810849048, -0.126, 0.9420000000000001, -0.02, 192.0, 126.0, 8.0, 14.5, 56.0, 127.5, 48.0, 0.0, 0.0, 0.0, 1.6583347981067219E9, 0.0, 2022-07-20 12:33:18.106
50.0, -22155.227918056004, -22359.388751910778, -6099.589896153199, -7047.39326803604, -31721.528675738416, 1854.6136444346482, -988.9082299361504, -10404.714692200982, 480.6966162558337, -23682.16498877585, -7832.922975173352, -32711.599196386243, -14209.406281638896, -11781.962130303638, -28120.863809688548, 5951.46488564788, -0.126, 0.9420000000000001, -0.02, 192.0, 0.0, 0.0, 0.0, 0.0, 0.0, 0.0, 0.0, 0.0, 0.0, 1.6583347981067271E9, 0.0, 2022-07-20 12:33:18.106
52.0, -22055.673248252064, -22217.656340319674, -6284.1258983762145, -6912.969876881823, -31410.146523731535, 1602.7094844233377, -1265.8686954818602, -10459.297652160842, -52.705413425614054, -24217.042233591346, -8281.254265457901, -33117.14924778334, -14725.48570936748, -12280.0484037457, -28666.42518835368, 5699.024283769641, -0.126, 0.9420000000000001, -0.02, 192.0, 0.0, 0.0, 0.0, 0.0, 0.0, 0.0, 0.0, 0.0, 0.0, 1.6583347981067324E9, 0.0, 2022-07-20 12:33:18.106
54.0, -22080.014297963895, -22270.093532811825, -6037.317936100714, -6974.101897967089, -31645.219820168, 1907.1178921601645, -967.3164447923238, -10348.81297931826, 496.07461644108497, -23625.01157820363, -7853.21835913877, -32756.77207193042, -14210.434461883839, -11771.367403431823, -28083.31287900363, 5892.411576796959, -0.126, 0.9420000000000001, -0.02, 192.0, 0.0, 0.0, 0.0, 0.0, 0.0, 0.0, 0.0, 0.0, 0.0, 1.6583347981067376E9, 0.0, 2022-07-20 12:33:18.106
56.0, -22147.248345285458, -22294.50163775702, -6332.316259421857, -6990.016340019267, -31505.096734177678, 1542.3597743940086, -1311.0192192815805, -10543.049638634879, -69.04453862244351, -24240.109233869225, -8232.885090456617, -33051.479822573645, -14741.511910141935, -12266.436191372419, -28698.29877594695, 5759.865732176988, -0.126, 0.9420000000000001, -0.02, 192.0, 0.0, 0.0, 0.0, 0.0, 0.0, 0.0, 0.0, 0.0, 0.0, 1.658334798106743E9, 0.0, 2022-07-20 12:33:18.106
58.0, -22031.667474707065, -22219.891514765208, -5991.18393554496, -6916.859080417047, -31571.459063465485, 1916.3715143646616, -984.8625641897398, -10322.013237716346, 479.42256682188116, -23628.6772642943, -7918.865432604008, -32834.466735657064, -14242.822139599579, -11813.09811032988, -28076.74146613377, 5804.457462365325, -0.127, 0.9430000000000001, -0.024, 192.0, 126.0, 0.0, 14.5, 64.0, 127.5, 16.0, 0.0, 0.0, 0.0, 1.6583347981067483E9, 0.0, 2022-07-20 12:33:18.106
60.0, -22223.557200855877, -22382.634566144297, -6366.559131927387, -7055.216378595398, -31567.949839586003, 1508.988619922235, -1303.9784197781587, -10561.0427929214, -67.45756476611672, -24282.309327400846, -8198.262238295345, -32997.94739460318, -14722.445872121558, -12282.305929935686, -28702.702069604646, 5826.205709720339, -0.127, 0.9430000000000001, -0.024, 192.0, 0.0, 0.0, 0.0, 0.0, 0.0, 0.0, 0.0, 0.0, 0.0, 1.6583347981067536E9, 0.0, 2022-07-20 12:33:18.106
62.0, -21966.713305319943, -22155.742008178477, -5952.6048246151, -6844.707649315316, -31468.305762804244, 1939.4161628980833, -932.4700751865, -10260.83651314217, 466.03387189315225, -23631.091252695474, -7969.358023328546, -32907.4675330481, -14255.607337428015, -11834.376971051333, -28048.64532335345, 5754.590720485535, -0.127, 0.9430000000000001, -0.024, 192.0, 0.0, 0.0, 0.0, 0.0, 0.0, 0.0, 0.0, 0.0, 0.0, 1.6583347981067593E9, 0.0, 2022-07-20 12:33:18.106
64.0, -22281.224701550567, -22448.01341867607, -6406.166423102191, -7127.6807341195035, -31660.35195116424, 1498.7291692172491, -1305.386579678843, -10606.819165565868, -51.632529691759316, -24271.24521389547, -8136.973754998894, -32936.48009735109, -14692.00279617343, -12252.108723176567, -28687.547586863948, 5896.300780332182, -0.127, 0.9430000000000001, -0.024, 192.0, 0.0, 0.0, 0.0, 0.0, 0.0, 0.0, 0.0, 0.0, 0.0, 1.6583347981067643E9, 0.0, 2022-07-20 12:33:18.106
66.0, -21888.169275303993, -22066.960879201997, -5925.425103357447, -6785.542581742118, -31383.235023407346, 1963.8466195877338, -936.4263339550894, -10232.874480828581, 430.494598209214, -23644.12231971292, -8026.623192623043, -32978.277859482514, -14297.092175137064, -11867.904587734294, -28078.149626034454, 5696.4314814128265, -0.127, 0.9430000000000001, -0.024, 192.0, 0.0, 0.0, 0.0, 0.0, 0.0, 0.0, 0.0, 0.0, 0.0, 1.6583347981067708E9, 0.0, 2022-07-20 12:33:18.106
68.0, -22308.292664085944, -22475.72958180065, -6398.142146842736, -7165.812810160257, -31714.934911124103, 1522.2879078731428, -1288.6227713373628, -10616.050436025911, 18.12726475325403, -24204.23468401846, -8052.461809213378, -32849.241238742026, -14627.830937842244, -12175.665757139417, -28652.76827249149, 5972.564932413689, -0.1265, 0.9435, -0.024, 192.0, 126.0, 8.0, 14.5, 64.0, 127.5, 32.0, 0.0, 0.0, 0.0, 1.6583347981067774E9, 0.0, 2022-07-20 12:33:18.106
70.0, -21839.643638091522, -22018.88227687863, -5900.122928634039, -6729.439703159297, -31301.070010789637, 1965.2100759995076, -948.7421451499636, -10211.170936962479, 410.93682181082033, -23663.166005988838, -8061.849541884607, -33027.272883328544, -14327.244678407274, -11911.35637895541, -28110.89493166148, 5643.793123220578, -0.1265, 0.9435, -0.024, 192.0, 0.0, 0.0, 0.0, 0.0, 0.0, 0.0, 0.0, 0.0, 0.0, 1.6583347981067827E9, 0.0, 2022-07-20 12:33:18.106
72.0, -22356.170100709212, -22525.17164053579, -6386.720405426074, -7207.722331013958, -31778.57032758836, 1533.5308353341622, -1256.8832942108268, -10621.839537839835, 77.94053291565572, -24165.610869599685, -7975.124773398015, -32771.39011280419, -14555.768913718333, -12122.267439635687, -28590.250443249995, 6010.115863098606, -0.1265, 0.9435, -0.024, 192.0, 0.0, 0.0, 0.0, 0.0, 0.0, 0.0, 0.0, 0.0, 0.0, 1.658334798106788E9, 0.0, 2022-07-20 12:33:18.106
74.0, -21840.135376469538, -22014.233114031926, -5935.148112195506, -6723.494139134185, -31271.878632531007, 1914.1810434080414, -993.2221166160247, -10214.791919564239, 313.5949747079581, -23758.451492601813, -8152.418810417511, -33105.07930577747, -14418.506851018294, -12002.395034121875, -28190.176569244453, 5565.159686226808, -0.1265, 0.9435, -0.024, 192.0, 0.0, 0.0, 0.0, 0.0, 0.0, 0.0, 0.0, 0.0, 0.0, 1.6583347981067932E9, 0.0, 2022-07-20 12:33:18.106
76.0, -22378.968880053628, -22563.482530532187, -6386.608646703798, -7238.075999984265, -31834.784964893457, 1555.7708210671929, -1236.744372456595, -10622.443034940128, 120.78882703647936, -24116.325273075734, -7938.9596508693285, -32732.408670474135, -14519.424977234004, -12064.823456385548, -28554.621762588235, 6019.347133558647, -0.1265, 0.9435, -0.024, 192.0, 0.0, 0.0, 0.0, 0.0, 0.0, 0.0, 0.0, 0.0, 0.0, 1.6583347981067984E9, 0.0, 2022-07-20 12:33:18.106
78.0, -21823.304512894694, -21985.891102062596, -5969.70390912341, -6696.582638809996, -31232.740727989763, 1884.9896651494105, -1046.1957509751023, -10220.871594056081, 248.3949361318274, -23816.253103763236, -8208.3875785336, -33154.05197787905, -14484.176276227985, -12053.602880668985, -28268.608840538127, 5535.14129342333, -0.12525, 0.9437500000000001, -0.02, 192.0, 126.0, 16.0, 14.5, 64.0, 127.5, 64.0, 0.0, 0.0, 0.0, 1.658334798106804E9, 0.0, 2022-07-20 12:33:18.106
80.0, -22402.728784409617, -22581.4309813298, -6383.389995502233, -7257.834942082756, -31890.731381265094, 1564.4880014047626, -1224.1156368393465, -10622.174814006665, 184.60305745638104, -24030.89690576755, -7895.709025348309, -32690.879129276174, -14459.611709071603, -12025.596144866484, -28485.867796643714, 6043.799941992753, -0.12525, 0.9437500000000001, -0.02, 192.0, 0.0, 0.0, 0.0, 0.0, 0.0, 0.0, 0.0, 0.0, 0.0, 1.6583347981068091E9, 0.0, 2022-07-20 12:33:18.106
82.0, -21852.786463831242, -22008.488715706913, -6025.292697583759, -6717.190947197789, -31235.489992557767, 1810.4689491354168, -1113.3180395743896, -10255.203873539433, 148.63910062779198, -23925.50843066078, -8280.740175335428, -33207.025612238125, -14582.546303575791, -12154.20808246232, -28369.459911520473, 5511.76136872308, -0.12525, 0.9437500000000001, -0.02, 192.0, 0.0, 0.0, 0.0, 0.0, 0.0, 0.0, 0.0, 0.0, 0.0, 1.6583347981068144E9, 0.0, 2022-07-20 12:33:18.106
84.0, -22351.18566169568, -22540.571992465495, -6303.258991629958, -7217.221822407463, -31855.63914247026, 1649.9163687129462, -1131.9370427056604, -10542.624955490226, 269.76320383110095, -23945.02150357026, -7842.109542144483, -32652.165907879582, -14391.930626860933, -11947.767370673106, -28381.552205270793, 6072.365471406636, -0.12525, 0.9437500000000001, -0.02, 192.0, 0.0, 0.0, 0.0, 0.0, 0.0, 0.0, 0.0, 0.0, 0.0, 1.6583347981068199E9, 0.0, 2022-07-20 12:33:18.106
86.0, -21846.282106194747, -22001.380860970123, -6039.977793690896, -6712.742950051183, -31199.45898049581, 1800.3883123860733, -1094.363760276289, -10236.629573897073, 113.74802753305764, -23969.809588171196, -8274.794611310317, -33191.55820507505, -14599.757146806378, -12177.275082740198, -28398.606586290192, 5573.072203763986, -0.12525, 0.9437500000000001, -0.02, 192.0, 0.0, 0.0, 0.0, 0.0, 0.0, 0.0, 0.0, 0.0, 0.0, 1.658334798106825E9, 0.0, 2022-07-20 12:33:18.106
88.0, -22312.092460643347, -22498.908340800805, -6243.669240912109, -7191.919647684056, -31841.49048823005, 1711.4954246873172, -1103.9303069031605, -10492.713510121526, 343.725126233712, -23851.09947336906, -7804.804480648575, -32637.97255015046, -14311.93373345539, -11873.805448270494, -28283.69626804546, 6074.712404574443, -0.125625, 0.9448750000000001, -0.02, 192.0, 126.0, 8.0, 14.5, 72.0, 127.5, 48.0, 0.0, 0.0, 0.0, 1.6583347981068304E9, 0.0, 2022-07-20 12:33:18.106
90.0, -21892.371403261594, -22048.766559215375, -6110.989285825406, -6759.681613407328, -31246.732920018785, 1729.5109307182945, -1173.6453978592633, -10321.007409215857, 43.94352959913368, -24062.323458471714, -8297.54868716582, -33197.034382466605, -14668.779333684366, -12210.243905811776, -28499.88234041719, 5579.263636978107, -0.125625, 0.9448750000000001, -0.02, 192.0, 0.0, 0.0, 0.0, 0.0, 0.0, 0.0, 0.0, 0.0, 0.0, 1.6583347981068358E9, 0.0, 2022-07-20 12:33:18.106
92.0, -22269.199463033612, -22460.01630544857, -6200.910353769106, -7155.441600732995, -31826.53717118945, 1746.8558844156128, -1084.7748619049623, -10465.869065030702, 406.57823164203546, -23775.148245709926, -7792.73453864271, -32643.851058942208, -14273.868712648, -11853.577119538442, -28228.39805226303, 6030.7241714863985, -0.125625, 0.9448750000000001, -0.02, 192.0, 0.0, 0.0, 0.0, 0.0, 0.0, 0.0, 0.0, 0.0, 0.0, 1.658334798106841E9, 0.0, 2022-07-20 12:33:18.106
94.0, -21967.763837309343, -22124.04723454085, -6195.680045566564, -6830.715457286294, -31309.563673682653, 1644.2613773657536, -1226.8872531518048, -10375.791534875814, -25.525692167960667, -24157.228965428945, -8315.765358896895, -33190.306507385554, -14720.702436054044, -12298.220371987865, -28598.788809631922, 5594.731044141179, -0.125625, 0.9448750000000001, -0.02, 192.0, 0.0, 0.0, 0.0, 0.0, 0.0, 0.0, 0.0, 0.0, 0.0, 1.6583347981068463E9, 0.0, 2022-07-20 12:33:18.106
96.0, -22195.751630753475, -22395.598577928376, -6128.73657092292, -7091.157983679532, -31758.14083315621, 1802.4446728759615, -1033.3658496577561, -10412.358988804697, 453.8968746539205, -23716.02788162564, -7808.73838767271, -32683.4136466281, -14249.035924558155, -11825.257459313567, -28166.66253407747, 5968.474563178368, -0.125625, 0.9448750000000001, -0.02, 192.0, 0.0, 0.0, 0.0, 0.0, 0.0, 0.0, 0.0, 0.0, 0.0, 1.6583347981068516E9, 0.0, 2022-07-20 12:33:18.106
98.0, -22018.725814667443, -22170.225938585514, -6234.437970452067, -6882.370338722509, -31362.514956297277, 1610.823167660614, -1265.3099018704775, -10407.508660257896, -35.56162542839353, -24203.83235261826, -8283.757660836895, -33140.59622771695, -14729.710189069534, -12303.853011590601, -28640.631275252257, 5649.73868724569, -0.1258125, 0.9494375000000002, -0.024, 192.0, 126.0, 8.0, 14.5, 104.0, 127.5, 16.0, 0.0, 0.0, 0.0, 1.658334798106858E9, 0.0, 2022-07-20 12:33:18.106
100.0, -22109.429193667078, -22297.720288958586, -6055.6687182985215, -7016.525508943261, -31680.64733512966, 1873.523220243838, -991.8810119487063, -10312.536098067296, 490.911363471909, -23661.869604810432, -7825.613954736466, -32720.785763357377, -14222.10207248951, -11780.352804702856, -28103.340042035587, 5916.752626508788, -0.1258125, 0.9494375000000002, -0.024, 192.0, 0.0, 0.0, 0.0, 0.0, 0.0, 0.0, 0.0, 0.0, 0.0, 1.6583347981068647E9, 0.0, 2022-07-20 12:33:18.106
102.0, -22074.873396739174, -22224.138346211716, -6292.664264758142, -6941.535406295706, -31432.967654820404, 1579.7095393788265, -1278.6985967992064, -10422.238459853943, -48.99502384603308, -24226.519373240397, -8241.736381260918, -33069.47297686017, -14730.559555358835, -12284.742270081315, -28659.652609783723, 5729.713228906779, -0.1258125, 0.9494375000000002, -0.024, 192.0, 0.0, 0.0, 0.0, 0.0, 0.0, 0.0, 0.0, 0.0, 0.0, 1.65833479810687E9, 0.0, 2022-07-20 12:33:18.106
104.0, -22032.516840996366, -22214.840020518306, -6011.18874683246, -6939.747266739281, -31592.804979420303, 1918.4055231100945, -956.7217179205082, -10241.83753035516, 510.5138433592133, -23607.063127406018, -7857.442838840823, -32762.53882199989, -14214.703645074804, -11772.99908077706, -28046.74542507475, 5864.985986350297, -0.1258125, 0.9494375000000002, -0.024, 192.0, 0.0, 0.0, 0.0, 0.0, 0.0, 0.0, 0.0, 0.0, 0.0, 1.6583347981068752E9, 0.0, 2022-07-20 12:33:18.106
106.0, -22158.178348324105, -22313.567675777398, -6365.754469126996, -7019.520642700272, -31534.444574647496, 1526.0653526860897, -1319.3117164744995, -10459.722335305492, -68.61985547779268, -24256.023675921402, -8212.3885407911, -33018.80157217998, -14735.320476927815, -12288.698528849904, -28683.323107161894, 5784.162078399906, -0.1258125, 0.9494375000000002, -0.024, 192.0, 0.0, 0.0, 0.0, 0.0, 0.0, 0.0, 0.0, 0.0, 0.0, 1.6583347981068807E9, 0.0, 2022-07-20 12:33:18.106
108.0, -21971.228357699914, -22158.088941346283, -5984.23254301936, -6880.023405554701, -31530.10833622317, 1935.392848896128, -993.0209509159268, -10205.001855492814, 492.1407094169509, -23602.10104013694, -7907.510746420711, -32833.639721112224, -14235.267249973685, -11805.878496870817, -28034.519020857697, 5777.545962041136, -0.12790625, 0.94871875, -0.025, 192.0, 125.5, 120.0, 14.5, 80.0, 127.5, 24.0, 0.0, 0.0, 0.0, 1.658334798106886E9, 0.0, 2022-07-20 12:33:18.106
110.0, -22230.82151780385, -22382.85808358885, -6402.008998633504, -7093.080233702688, -31619.627072766674, 1504.6523814979055, -1321.479835686664, -10508.359731240242, -56.46050649410564, -24262.393923091167, -8151.144760983559, -32949.5782196019, -14724.524584355902, -12248.398333596986, -28684.395990895748, 5829.066733010618, -0.12790625, 0.94871875, -0.025, 192.0, 0.0, 0.0, 0.0, 0.0, 0.0, 0.0, 0.0, 0.0, 0.0, 1.6583347981068912E9, 0.0, 2022-07-20 12:33:18.106
112.0, -21906.028319123783, -22084.104667199215, -5946.79337105672, -6820.388951347942, -31453.151280063546, 1957.230503228963, -967.6740727036087, -10182.158372659489, 459.37305204547073, -23636.50037485366, -7968.151029127959, -32911.82612321689, -14285.804544187135, -11845.15051187879, -28048.533564631172, 5694.620990111946, -0.12790625, 0.94871875, -0.025, 192.0, 0.0, 0.0, 0.0, 0.0, 0.0, 0.0, 0.0, 0.0, 0.0, 1.6583347981068964E9, 0.0, 2022-07-20 12:33:18.106
114.0, -22259.83408210684, -22417.346825283388, -6390.654312450209, -7129.960612053945, -31678.546271150863, 1519.315125860587, -1303.7772540780609, -10520.764949412936, 2.145767467709478, -24228.866306408207, -8061.782486651241, -32852.12461377676, -14662.677307448068, -12199.537420217684, -28638.977246162565, 5915.165652652461, -0.12790625, 0.94871875, -0.025, 192.0, 0.0, 0.0, 0.0, 0.0, 0.0, 0.0, 0.0, 0.0, 0.0, 1.658334798106902E9, 0.0, 2022-07-20 12:33:18.106
116.0, -21850.551289385712, -22023.576143214243, -5912.617553784556, -6756.798238372593, -31363.565488286677, 1975.0448435598428, -948.920959105606, -10141.455846006376, 441.93869137033124, -23631.33712188448, -8008.093596469593, -32956.954295272146, -14306.59166653057, -11857.265157373567, -28034.608427835516, 5666.50249558717, -0.12790625, 0.94871875, -0.025, 192.0, 0.0, 0.0, 0.0, 0.0, 0.0, 0.0, 0.0, 0.0, 0.0, 1.6583347981069071E9, 0.0, 2022-07-20 12:33:18.106
118.0, -22320.22849562508, -22489.095924984926, -6412.044931893937, -7190.578543016737, -31768.154414672186, 1520.924451461369, -1293.4060446507985, -10564.820237734348, 37.68504115164771, -24179.200730228513, -8006.551326102177, -32780.979011175514, -14612.721158590455, -12148.016649248202, -28586.85297809279, 5982.064423807195, -0.128953125, 0.9463593750000001, -0.0245, 192.0, 125.5, 120.0, 14.5, 64.0, 127.5, 32.0, 0.0, 0.0, 0.0, 1.6583347981069124E9, 0.0, 2022-07-20 12:33:18.106
120.0, -21834.10040546661, -22006.141782539104, -5937.383286641037, -6731.004325271168, -31314.72692665183, 1941.7854478103457, -1009.3824278572116, -10144.093351852101, 349.7600972366449, -23709.903503644884, -8108.676446518475, -33047.99295043862, -14400.379586265039, -11922.35343722742, -28124.41773705694, 5589.746605127645, -0.128953125, 0.9463593750000001, -0.0245, 192.0, 0.0, 0.0, 0.0, 0.0, 0.0, 0.0, 0.0, 0.0, 0.0, 1.6583347985859137E9, 0.0, 2022-07-20 12:33:18.585
122.0, -22358.293516432466, -22522.44472771224, -6412.424911549677, -7225.022581222365, -31812.612034393795, 1538.9176057478912, -1271.4789833401423, -10556.550092285883, 97.90064071424493, -24127.255276114378, -7949.2861568076805, -32718.461181934024, -14553.824311950722, -12091.578494498552, -28536.89682923518, 6022.81165394922, -0.128953125, 0.9463593750000001, -0.0245, 192.0, 0.0, 0.0, 0.0, 0.0, 0.0, 0.0, 0.0, 0.0, 0.0, 1.6583347985860407E9, 0.0, 2022-07-20 12:33:18.586
124.0, -21819.79528901521, -21977.844474058686, -5967.804010844709, -6719.739046065694, -31253.974885222306, 1905.9332497040332, -1008.53306156791, -10174.58113128914, 299.468672212204, -23781.160864968406, -8162.633557633586, -33099.69253536374, -14448.972278710877, -12006.798327779572, -28179.313621439174, 5551.413363386794, -0.128953125, 0.9463593750000001, -0.0245, 192.0, 0.0, 0.0, 0.0, 0.0, 0.0, 0.0, 0.0, 0.0, 0.0, 1.658334798586062E9, 0.0, 2022-07-20 12:33:18.586
126.0, -22375.14673175177, -22553.625411227396, -6395.303475296912, -7260.919482817589, -31862.523479762494, 1562.9010275484356, -1251.6082825193744, -10586.881409511734, 162.3183682344399, -24080.42837148051, -7904.426205685879, -32686.431132129568, -14496.268569978307, -12035.922650804836, -28481.44215124156, 6029.4948255413565, -0.128953125, 0.9463593750000001, -0.0245, 192.0, 0.0, 0.0, 0.0, 0.0, 0.0, 0.0, 0.0, 0.0, 0.0, 1.658334798586069E9, 0.0, 2022-07-20 12:33:18.586
128.0, -21826.791385029723, -21984.393535184092, -5998.627066448577, -6723.717656578739, -31241.390853093966, 1860.9391881155002, -1082.8749636262612, -10200.509154857296, 209.34643856840594, -23869.76317998924, -8233.309773601268, -33161.83038494949, -14534.7806256748, -12087.890456663425, -28272.58745105117, 5512.700141990202, -0.128953125, 0.9463593750000001, -0.0245, 192.0, 0.0, 0.0, 0.0, 0.0, 0.0, 0.0, 0.0, 0.0, 0.0, 1.658334798586076E9, 0.0, 2022-07-20 12:33:18.586
130.0, -22347.609382582832, -22529.55258244903, -6330.215195443058, -7235.371438905173, -31868.893726932256, 1625.2400428342871, -1195.7065696366512, -10559.388763831706, 234.02276444706496, -23990.373193070078, -7851.050239926606, -32638.30782631729, -14436.120025649076, -11978.411612321332, -28398.58423454574, 6054.774648520309, -0.13, 0.9420000000000001, -0.026000000000000002, 192.0, 125.5, 120.0, 14.5, 56.0, 127.5, 24.0, 0.0, 0.0, 0.0, 1.6583347985860817E9, 0.0, 2022-07-20 12:33:18.586
132.0, -21831.909934509986, -21983.454761916968, -6029.964212174918, -6716.0286564861135, -31228.628007009986, 1823.432960919495, -1128.8972054597384, -10232.807425595216, 160.32906297791757, -23927.140108006017, -8246.653765041085, -33159.5281552706, -14591.196428679996, -12098.753404468705, -28328.176239511522, 5543.389087127339, -0.13, 0.9420000000000001, -0.026000000000000002, 192.0, 0.0, 0.0, 0.0, 0.0, 0.0, 0.0, 0.0, 0.0, 0.0, 1.6583347985860949E9, 0.0, 2022-07-20 12:33:18.586
134.0, -22325.70467301663, -22509.592474650442, -6276.682767472597, -7211.969162460467, -31859.30482856093, 1676.917276014957, -1135.4686183295987, -10524.073007592322, 303.6037449364358, -23906.062412984662, -7818.64021046641, -32624.136820332627, -14381.335899989117, -11898.59353287143, -28309.17725672451, 6056.160456676538, -0.13, 0.9420000000000001, -0.026000000000000002, 192.0, 0.0, 0.0, 0.0, 0.0, 0.0, 0.0, 0.0, 0.0, 0.0, 1.6583347985861013E9, 0.0, 2022-07-20 12:33:18.586
136.0, -21852.540594642236, -22003.81720111575, -6065.5928928366775, -6732.278374705122, -31222.503629029234, 1780.6964255209477, -1131.9593944501155, -10271.274777802799, 98.414730836717, -23997.36928908459, -8272.604140353696, -33166.65836175184, -14643.61126942769, -12185.165248532921, -28394.404458332596, 5553.134447709853, -0.13, 0.9420000000000001, -0.026000000000000002, 192.0, 0.0, 0.0, 0.0, 0.0, 0.0, 0.0, 0.0, 0.0, 0.0, 1.6583347985861063E9, 0.0, 2022-07-20 12:33:18.586
138.0, -22280.97883236156, -22468.755837530596, -6216.310705698813, -7177.4580690214725, -31830.82870612487, 1728.9074336180013, -1085.6465799387192, -10480.040071015366, 388.8756500334323, -23813.749708384243, -7786.319587984037, -32608.490599213914, -14304.490602551772, -11839.62963099833, -28203.699374639917, 6050.103133929149, -0.13, 0.9420000000000001, -0.026000000000000002, 192.0, 0.0, 0.0, 0.0, 0.0, 0.0, 0.0, 0.0, 0.0, 0.0, 1.658334798586112E9, 0.0, 2022-07-20 12:33:18.586
140.0, -21904.307234800726, -22054.108626140194, -6120.153501052082, -6776.177200815345, -31251.76206252123, 1720.9949160808226, -1177.713415350129, -10326.260069162854, 34.75696262800248, -24093.01240360885, -8292.228971985456, -33163.395007061365, -14676.513037265902, -12228.70644673186, -28468.20991852402, 5590.8194888615, -0.134, 0.9440000000000001, -0.022, 192.0, 125.5, 104.0, 14.5, 64.0, 127.5, 40.0, 0.0, 0.0, 0.0, 1.6583347985861173E9, 0.0, 2022-07-20 12:33:18.586
142.0, -22229.50276488099, -22419.179668328725, -6151.602405500699, -7124.842062573679, -31776.804539776393, 1805.8644897776235, -1027.4202856326444, -10434.330753604265, 450.1194298409736, -23734.89275394592, -7782.050404793073, -32620.73935517542, -14246.353715223519, -11799.061214811947, -28116.61697824204, 6029.651287752544, -0.134, 0.9440000000000001, -0.022, 192.0, 0.0, 0.0, 0.0, 0.0, 0.0, 0.0, 0.0, 0.0, 0.0, 1.6583347985861225E9, 0.0, 2022-07-20 12:33:18.586
144.0, -21996.776401612333, -22143.00151383895, -6219.641115622654, -6870.859190328025, -31328.070918091646, 1633.7784092162144, -1234.8221224334386, -10419.355084819208, -31.024221303966204, -24171.757599324894, -8311.987914083948, -33158.365864558924, -14731.163052459127, -12268.023165228746, -28550.441986375095, 5619.407370019838, -0.134, 0.9440000000000001, -0.022, 192.0, 0.0, 0.0, 0.0, 0.0, 0.0, 0.0, 0.0, 0.0, 0.0, 1.658334798586128E9, 0.0, 2022-07-20 12:33:18.586
146.0, -22176.327964821812, -22358.38292341029, -6106.92126833454, -7078.171620150998, -31726.826039174324, 1840.912025083545, -1028.7613902999628, -10399.238514809433, 461.719985213278, -23698.21354129476, -7824.183443091327, -32686.341725151746, -14244.118540777987, -11804.492688714587, -28077.52377718971, 5950.168484469472, -0.134, 0.9440000000000001, -0.022, 192.0, 0.0, 0.0, 0.0, 0.0, 0.0, 0.0, 0.0, 0.0, 0.0, 1.6583347985861332E9, 0.0, 2022-07-20 12:33:18.586
148.0, -22063.339896600235, -22203.19476165709, -6267.093869101271, -6916.70261820586, -31382.564471073685, 1589.2984377501534, -1257.0174046775585, -10487.147925752155, -59.768564673491085, -24232.017902376403, -8288.876210317161, -33110.756648869115, -14751.860767824743, -12294.040595774723, -28606.053126579896, 5673.565646835047, -0.134, 0.9440000000000001, -0.022, 192.0, 0.0, 0.0, 0.0, 0.0, 0.0, 0.0, 0.0, 0.0, 0.0, 1.6583347985861385E9, 0.0, 2022-07-20 12:33:18.586
150.0, -22078.136751429647, -22258.94001232863, -6019.2800783252815, -6978.862819536069, -31628.478363570975, 1909.71069451698, -966.8470581587623, -10358.245415478399, 504.3671136340039, -23635.44984286426, -7832.721809473254, -32708.179379484583, -14223.219659712275, -11771.255644709545, -28020.12449742848, 5905.5767542811345, -0.126, 0.9460000000000001, -0.014, 192.0, 126.0, 8.0, 14.5, 72.0, 127.5, 72.0, 0.0, 0.0, 0.0, 1.6583347985861437E9, 0.0, 2022-07-20 12:33:18.586
152.0, -22099.393260406647, -22253.128558770248, -6290.116165890237, -6965.831752518625, -31453.307742274734, 1573.473402675796, -1283.7724427905612, -10512.986542342489, -53.42066924818388, -24233.291951810355, -8223.519709529843, -33027.094069372906, -14748.48565441199, -12282.820020058158, -28629.23188558005, 5759.239883332239, -0.126, 0.9460000000000001, -0.014, 192.0, 0.0, 0.0, 0.0, 0.0, 0.0, 0.0, 0.0, 0.0, 0.0, 1.6583347985861492E9, 0.0, 2022-07-20 12:33:18.586
154.0, -22001.11264003666, -22189.91782545064, -5963.601882887111, -6914.668609460427, -31552.72830161194, 1940.2878809318402, -972.4126425281338, -10315.307714379755, 521.0862184865736, -23605.029118660586, -7857.241673140726, -32767.992647646985, -14223.86786030148, -11767.2770341965, -27999.762058229695, 5848.915082086931, -0.126, 0.9460000000000001, -0.014, 192.0, 0.0, 0.0, 0.0, 0.0, 0.0, 0.0, 0.0, 0.0, 0.0, 1.6583347985861545E9, 0.0, 2022-07-20 12:33:18.586
156.0, -22164.77211293842, -22317.99332117955, -6332.942108266605, -7034.786884163247, -31539.272551449845, 1545.2655011731986, -1320.8316350974603, -10571.972795960046, -33.48291319404998, -24256.18013813259, -8159.414906432022, -32959.45769065114, -14710.24181964896, -12244.33031610612, -28647.47090905558, 5838.901500570953, -0.126, 0.9460000000000001, -0.014, 192.0, 0.0, 0.0, 0.0, 0.0, 0.0, 0.0, 0.0, 0.0, 0.0, 1.6583347985861597E9, 0.0, 2022-07-20 12:33:18.586
158.0, -21952.00585746835, -22131.155089277636, -5946.458094889891, -6867.864056571014, -31484.354315323155, 1943.2159594554855, -926.859787328218, -10312.781967256304, 499.6955990428447, -23601.475191292193, -7918.552508181633, -32850.11295677578, -14239.402322697917, -11800.938761346193, -28011.317910113088, 5781.2563516207165, -0.126, 0.9460000000000001, -0.014, 192.0, 0.0, 0.0, 0.0, 0.0, 0.0, 0.0, 0.0, 0.0, 0.0, 1.6583347985861647E9, 0.0, 2022-07-20 12:33:18.586
160.0, -22262.426884463657, -22417.123307838836, -6398.723292198574, -7138.968365069433, -31649.06432021431, 1486.6368754669281, -1325.6372601553512, -10669.225236085085, -47.83273313435711, -24265.344353359265, -8135.766760798307, -32925.43833559017, -14705.81617424681, -12259.127170935533, -28668.25803139902, 5878.061756856651, -0.13, 0.9480000000000001, -0.022, 192.0, 125.5, 120.0, 14.5, 80.0, 127.5, 40.0, 0.0, 0.0, 0.0, 1.65833479858617E9, 0.0, 2022-07-20 12:33:18.586
162.0, -21893.980728862374, -22080.662498553098, -5927.950850480896, -6818.600811791517, -31406.011451007304, 1941.2043024545078, -962.1978953120584, -10310.546792810774, 440.4858279807363, -23639.8307847775, -8003.712654556353, -32946.60543758934, -14303.037739162177, -11870.899721491305, -28048.60061986454, 5690.597676109991, -0.13, 0.9480000000000001, -0.022, 192.0, 0.0, 0.0, 0.0, 0.0, 0.0, 0.0, 0.0, 0.0, 0.0, 1.6583347985861752E9, 0.0, 2022-07-20 12:33:18.586
164.0, -22291.282986555456, -22462.720866527663, -6389.872001394272, -7177.3463102991955, -31705.2342540305, 1496.9186779163692, -1291.9308295167482, -10666.811247683912, -2.3916366567178557, -24240.288047824866, -8066.476352986855, -32845.50849741799, -14656.485874233947, -12209.238077311287, -28629.52245825797, 5945.407562900492, -0.13, 0.9480000000000001, -0.022, 192.0, 0.0, 0.0, 0.0, 0.0, 0.0, 0.0, 0.0, 0.0, 0.0, 1.658334798586182E9, 0.0, 2022-07-20 12:33:18.586
166.0, -21862.576527902667, -22029.11937583916, -5927.436760358425, -6780.96047412878, -31338.598589730096, 1926.4297993695498, -986.7401107239856, -10297.091042648679, 395.46941464774784, -23694.167875548348, -8073.047765856715, -33021.14850534779, -14356.637222366004, -11922.308733738511, -28090.71130641834, 5635.366515560927, -0.13, 0.9480000000000001, -0.022, 192.0, 0.0, 0.0, 0.0, 0.0, 0.0, 0.0, 0.0, 0.0, 0.0, 1.6583347985861871E9, 0.0, 2022-07-20 12:33:18.586
168.0, -22336.18764116617, -22494.706212843208, -6393.73885318504, -7211.656238038092, -31754.72101625455, 1518.8904427159362, -1264.8628669813713, -10675.416669299206, 56.795782660935245, -24188.700221622017, -8004.740834801297, -32777.44743555158, -14605.143917220106, -12148.128407970478, -28581.533262912428, 5998.314142026204, -0.13, 0.9480000000000001, -0.022, 192.0, 0.0, 0.0, 0.0, 0.0, 0.0, 0.0, 0.0, 0.0, 0.0, 1.6583347985861924E9, 0.0, 2022-07-20 12:33:18.586
170.0, -21828.601876330602, -21999.615073158155, -5940.736048309333, -6738.134531752412, -31272.459777886845, 1912.4823108294381, -1006.499052822477, -10277.041527872268, 332.8174749395222, -23743.095844161016, -8140.170054456003, -33081.09588397692, -14421.56904000867, -11976.332900086987, -28142.90262972148, 5594.775747630089, -0.132, 0.9520000000000001, -0.022, 192.0, 125.5, 112.0, 14.5, 96.0, 127.5, 40.0, 0.0, 0.0, 0.0, 1.6583347985861976E9, 0.0, 2022-07-20 12:33:18.586
172.0, -22368.262394459536, -22532.681826672775, -6399.103271854315, -7250.525921645871, -31834.226171282076, 1545.6231290844835, -1278.2515619101002, -10687.911294449723, 117.30195490145147, -24123.38842432361, -7948.705011451842, -32719.534065667878, -14543.96719264593, -12071.730145422238, -28526.100936663264, 6043.375258848102, -0.132, 0.9520000000000001, -0.022, 192.0, 0.0, 0.0, 0.0, 0.0, 0.0, 0.0, 0.0, 0.0, 0.0, 1.6583347985862029E9, 0.0, 2022-07-20 12:33:18.586
174.0, -21835.37445490056, -21990.182636998015, -5989.798127388732, -6740.816741087048, -31260.591001581077, 1869.2093335639638, -1042.1947887176025, -10318.99575221488, 240.99650871712075, -23824.09856606705, -8220.256354839368, -33152.50970751163, -14514.909924854031, -12056.508607448175, -28242.21143033641, 5547.926491251766, -0.132, 0.9520000000000001, -0.022, 192.0, 0.0, 0.0, 0.0, 0.0, 0.0, 0.0, 0.0, 0.0, 0.0, 1.658334798586208E9, 0.0, 2022-07-20 12:33:18.586
176.0, -22374.923214307215, -22549.289172803066, -6375.835105876339, -7264.29459623034, -31874.21344211262, 1574.143955009455, -1236.811427689961, -10685.340843837363, 174.16479279575265, -24050.23116472139, -7908.650685387932, -32692.17553045458, -14492.558180398724, -12003.356159133455, -28473.57433719329, 6052.8523984971525, -0.132, 0.9520000000000001, -0.022, 192.0, 0.0, 0.0, 0.0, 0.0, 0.0, 0.0, 0.0, 0.0, 0.0, 1.6583347985862134E9, 0.0, 2022-07-20 12:33:18.586
178.0, -21836.492042123326, -21986.91928230754, -6013.021589877795, -6730.154958981867, -31241.167335649414, 1823.4106091750396, -1098.5658882338869, -10338.844101291192, 174.47771721812694, -23893.657194811964, -8264.266939671867, -33191.155873674856, -14572.420963337538, -12110.711587752294, -28323.527076664817, 5532.57084281097, -0.132, 0.9520000000000001, -0.022, 192.0, 0.0, 0.0, 0.0, 0.0, 0.0, 0.0, 0.0, 0.0, 0.0, 1.6583347985862188E9, 0.0, 2022-07-20 12:33:18.586
180.0, -22343.764882536518, -22521.193030022747, -6293.759500236452, -7228.509453357394, -31857.092005859853, 1631.7220487263262, -1161.262531431023, -10645.375924751273, 256.374508902372, -23951.83878562913, -7855.36412660648, -32654.021102669372, -14409.65556021399, -11948.996716618147, -28374.489054022917, 6071.806677795253, -0.128, 0.9460000000000001, -0.024, 192.0, 126.0, 0.0, 14.5, 72.0, 127.5, 32.0, 0.0, 0.0, 0.0, 1.658334798586224E9, 0.0, 2022-07-20 12:33:18.586
182.0, -21834.860364778087, -21992.373107954634, -6017.469587024401, -6718.979086754213, -31203.63875670895, 1792.788719271269, -1110.3899610507442, -10372.170552274056, 133.574024864915, -23966.03214335825, -8265.58569259473, -33175.7331700007, -14594.45978337047, -12145.021515491191, -28356.451196247483, 5569.562979884503, -0.128, 0.9460000000000001, -0.024, 192.0, 0.0, 0.0, 0.0, 0.0, 0.0, 0.0, 0.0, 0.0, 0.0, 1.658334798586229E9, 0.0, 2022-07-20 12:33:18.586
184.0, -22311.019576909493, -22495.846151810427, -6238.327173987291, -7201.262676866374, -31845.73731967656, 1691.3341511886301, -1113.854481441317, -10616.855098826301, 341.57935876600254, -23874.188825391393, -7808.73838767271, -32626.729622689443, -14336.49830061177, -11883.371994897367, -28265.7701689923, 6076.612302853144, -0.128, 0.9460000000000001, -0.024, 192.0, 0.0, 0.0, 0.0, 0.0, 0.0, 0.0, 0.0, 0.0, 0.0, 1.6583347985862353E9, 0.0, 2022-07-20 12:33:18.586
186.0, -21888.28103402627, -22027.331236282735, -6098.472308930434, -6771.550389713096, -31248.833983997585, 1719.1844247799427, -1180.462679918132, -10416.337599317741, 43.18357028765325, -24064.960964317437, -8308.143414037635, -33200.744772046186, -14679.731688467466, -12211.964990134835, -28464.7677498779, 5563.416250159294, -0.128, 0.9460000000000001, -0.024, 192.0, 0.0, 0.0, 0.0, 0.0, 0.0, 0.0, 0.0, 0.0, 0.0, 1.6583347985862405E9, 0.0, 2022-07-20 12:33:18.586
188.0, -22251.49688142501, -22441.754930228584, -6177.217504646481, -7159.934301368511, -31803.716040100582, 1741.692631446437, -1062.244303494013, -10570.385822103719, 406.60058338649077, -23787.79933307163, -7789.918218841341, -32633.010462881382, -14287.726794210292, -11823.424616268232, -28194.66926987997, 6036.177997133494, -0.128, 0.9460000000000001, -0.024, 192.0, 0.0, 0.0, 0.0, 0.0, 0.0, 0.0, 0.0, 0.0, 0.0, 1.6583347985862458E9, 0.0, 2022-07-20 12:33:18.586
190.0, -21956.00681972585, -22101.784897063364, -6168.276806864358, -6830.06725669709, -31286.384914682498, 1649.8716652240355, -1220.7181716821399, -10469.892379032657, -1.4752151340502662, -24130.138651149115, -8300.789690111838, -33180.27057412512, -14705.994988202452, -12270.012470485268, -28534.348730367274, 5601.391863988861, -0.132, 0.9460000000000001, -0.02, 192.0, 125.5, 112.0, 14.5, 72.0, 127.5, 48.0, 0.0, 0.0, 0.0, 1.6583347985862513E9, 0.0, 2022-07-20 12:33:18.586
192.0, -22206.25695064747, -22387.551949924466, -6125.942602866006, -7109.128786221599, -31755.659789521673, 1782.9986551998443, -1057.5504371583984, -10540.725057211526, 438.87650237995416, -23716.74313744821, -7810.884155140419, -32666.851003986718, -14273.332270781073, -11803.419804980733, -28137.00176918528, 5988.099394810128, -0.132, 0.9460000000000001, -0.02, 192.0, 0.0, 0.0, 0.0, 0.0, 0.0, 0.0, 0.0, 0.0, 0.0, 1.6583347985862565E9, 0.0, 2022-07-20 12:33:18.586
194.0, -22001.090288292206, -22139.29112425937, -6216.444816165545, -6877.698824131349, -31334.15059258349, 1607.1574815699437, -1248.3449278288995, -10525.45881574855, -39.00379407451082, -24187.448523932522, -8292.050158029813, -33130.09090782296, -14739.612011863233, -12286.932741037936, -28597.47005670906, 5648.598748278469, -0.132, 0.9460000000000001, -0.02, 192.0, 0.0, 0.0, 0.0, 0.0, 0.0, 0.0, 0.0, 0.0, 0.0, 1.6583347985862615E9, 0.0, 2022-07-20 12:33:18.586
196.0, -22137.011246324928, -22319.200315380134, -6060.809619523242, -7046.8568261691125, -31686.391733454675, 1846.1646850305422, -998.9665149410386, -10474.452134901541, 486.32925585857106, -23656.415779163337, -7819.958963389274, -32693.89661477764, -14230.931011549355, -11790.120517029825, -28066.280849728686, 5947.240405945827, -0.132, 0.9460000000000001, -0.02, 192.0, 0.0, 0.0, 0.0, 0.0, 0.0, 0.0, 0.0, 0.0, 0.0, 1.658334798586268E9, 0.0, 2022-07-20 12:33:18.586
198.0, -22095.012318493405, -22234.35309342779, -6280.348453563268, -6955.818171002647, -31425.770393105795, 1557.8718850459916, -1289.9191725157707, -10595.33036891584, -82.03090215097691, -24248.491138039964, -8275.599274110707, -33096.02684927307, -14766.903491843164, -12285.636339859528, -28645.14632763223, 5711.876536831443, -0.132, 0.9460000000000001, -0.02, 192.0, 0.0, 0.0, 0.0, 0.0, 0.0, 0.0, 0.0, 0.0, 0.0, 1.6583347985862734E9, 0.0, 2022-07-20 12:33:18.586
200.0, -22067.922004213575, -22248.03236103444, -6006.2490113078375, -6971.442040376907, -31625.662043769604, 1888.074205884243, -966.176505825103, -10451.87687300168, 482.2835901121605, -23633.415834118827, -7862.784905765642, -32763.58935398929, -14246.286659990152, -11777.13415350129, -28049.15941347592, 5877.659425456456, -0.13, 0.9480000000000001, -0.023, 192.0, 126.0, 0.0, 14.5, 88.0, 127.5, 24.0, 0.0, 0.0, 0.0, 1.658334798586279E9, 0.0, 2022-07-20 12:33:18.586
202.0, -22162.738104192988, -22305.006957651014, -6337.971250769049, -7026.963773603889, -31530.197743200988, 1499.958515162291, -1318.6858676297509, -10668.800552940434, -98.21356513661924, -24267.51247257143, -8233.376828834633, -33032.86081944237, -14776.402983236669, -12309.038616304233, -28689.894520031754, 5777.814182974599, -0.13, 0.9480000000000001, -0.023, 192.0, 0.0, 0.0, 0.0, 0.0, 0.0, 0.0, 0.0, 0.0, 0.0, 1.658334798586284E9, 0.0, 2022-07-20 12:33:18.586
204.0, -21995.301186478282, -22171.56704325283, -5960.874970063564, -6909.237135557787, -31539.943103783502, 1895.5396885323155, -971.7197384500192, -10420.025637152869, 479.64608426643423, -23612.49460130866, -7910.394121455446, -32820.854523283786, -14270.381840512973, -11816.853203398372, -28046.83483205257, 5804.904497254432, -0.13, 0.9480000000000001, -0.023, 192.0, 0.0, 0.0, 0.0, 0.0, 0.0, 0.0, 0.0, 0.0, 0.0, 1.6583347985862892E9, 0.0, 2022-07-20 12:33:18.586
206.0, -22236.610619617775, -22376.644298630275, -6372.236475019035, -7099.294018661263, -31596.001278877415, 1474.8575061389813, -1333.2815567590662, -10711.984123228089, -70.94443690114461, -24279.202434921557, -8176.983377573893, -32962.31871394142, -14746.54105264438, -12287.424479415951, -28692.73319157758, 5836.353401703049, -0.13, 0.9480000000000001, -0.023, 192.0, 0.0, 0.0, 0.0, 0.0, 0.0, 0.0, 0.0, 0.0, 0.0, 1.6583347985862947E9, 0.0, 2022-07-20 12:33:18.586
208.0, -21942.036979441284, -22113.363100691215, -5928.442588858913, -6845.512312115707, -31446.98219859388, 1919.3442963772175, -980.7721949544186, -10392.555343217295, 453.36043278699316, -23624.475136336703, -7978.499886810767, -32906.95344292563, -14295.438146047372, -11855.208796883679, -28049.852317554036, 5729.84733937351, -0.13, 0.9480000000000001, -0.023, 192.0, 0.0, 0.0, 0.0, 0.0, 0.0, 0.0, 0.0, 0.0, 0.0, 1.6583347985863E9, 0.0, 2022-07-20 12:33:18.586
210.0, -22302.771783205484, -22453.891927467816, -6396.756338686507, -7158.392031001095, -31672.623058870206, 1458.9877675757132, -1330.6216991688848, -10739.566175885937, -40.76958188648008, -24259.84582422326, -8123.138025181059, -32900.247919589034, -14702.642226534157, -12226.359513564053, -28673.8683192573, 5910.561193294668, -0.131, 0.9500000000000001, -0.0235, 192.0, 125.5, 112.0, 14.5, 96.0, 127.5, 32.0, 0.0, 0.0, 0.0, 1.6583347985863051E9, 0.0, 2022-07-20 12:33:18.586
212.0, -21899.18868532046, -22062.311716355292, -5926.676801046944, -6799.311256326588, -31371.500357568308, 1914.941002719522, -987.4777182910108, -10375.635072664629, 401.3255716950383, -23670.989116548197, -8060.374326750556, -32996.740400402596, -14339.471082624326, -11890.30103567851, -28094.064068086635, 5658.411164094349, -0.131, 0.9500000000000001, -0.0235, 192.0, 0.0, 0.0, 0.0, 0.0, 0.0, 0.0, 0.0, 0.0, 0.0, 1.6583347985863104E9, 0.0, 2022-07-20 12:33:18.586
214.0, -22347.721141305108, -22494.68386109875, -6409.519184770487, -7207.1635374025755, -31741.80170795938, 1474.7457474167047, -1297.004675508103, -10760.710926140659, 11.757017583491516, -24217.80219290283, -8054.540521447721, -32816.60769183728, -14647.634583429646, -12181.83483860908, -28634.305731571407, 5971.246179490827, -0.131, 0.9500000000000001, -0.0235, 192.0, 0.0, 0.0, 0.0, 0.0, 0.0, 0.0, 0.0, 0.0, 0.0, 1.6583347985863159E9, 0.0, 2022-07-20 12:33:18.586
216.0, -21836.536745612233, -21997.02227080134, -5905.152071136484, -6733.395961927887, -31292.19636824088, 1923.881700501645, -1005.5602795553541, -10348.1424269846, 353.69400426077897, -23702.616834952456, -8114.867879732595, -33049.04348242802, -14405.162859578475, -11955.903405654837, -28137.47115581884, 5609.863175137422, -0.131, 0.9500000000000001, -0.0235, 192.0, 0.0, 0.0, 0.0, 0.0, 0.0, 0.0, 0.0, 0.0, 0.0, 1.658334798586321E9, 0.0, 2022-07-20 12:33:18.586
218.0, -22355.968935009114, -22521.193030022747, -6375.142201798225, -7215.925421229055, -31782.124254956754, 1520.7903409946373, -1252.457648808676, -10747.165769000741, 99.10763491483152, -24130.272761615845, -7960.6184912465205, -32723.04328954736, -14569.179960391517, -12096.853506190004, -28551.425463131127, 6049.7455060178645, -0.131, 0.9500000000000001, -0.0235, 192.0, 0.0, 0.0, 0.0, 0.0, 0.0, 0.0, 0.0, 0.0, 0.0, 1.6583347985863264E9, 0.0, 2022-07-20 12:33:18.586
220.0, -21821.56107682718, -21978.850302559174, -5924.285164390227, -6709.233726171699, -31253.639609055474, 1896.7019792439914, -1018.7925122728959, -10357.418400933553, 307.3364862604721, -23753.198832654816, -8160.085458765681, -33096.22801497317, -14457.890624748545, -11988.983987448692, -28183.76161858578, 5590.640674905858, -0.1325, 0.9500000000000001, -0.02375, 192.0, 125.5, 104.0, 14.5, 88.0, 127.5, 32.0, 0.0, 0.0, 0.0, 1.6583347985863316E9, 0.0, 2022-07-20 12:33:18.586
222.0, -22376.733705608094, -22537.84507964195, -6366.514428438477, -7242.032258752854, -31850.49824124554, 1546.5171988626957, -1252.5917592754079, -10762.9908040751, 146.06865001543164, -24078.4837697129, -7921.61469717201, -32691.214405443003, -14528.902116883055, -12042.650525885883, -28510.298253333363, 6070.242055683381, -0.1325, 0.9500000000000001, -0.02375, 192.0, 0.0, 0.0, 0.0, 0.0, 0.0, 0.0, 0.0, 0.0, 0.0, 1.6583347985863369E9, 0.0, 2022-07-20 12:33:18.586
224.0, -21817.090727936116, -21960.521872105823, -5956.2928624502265, -6700.404787111854, -31228.51624828771, 1855.46301072395, -1077.5105449569876, -10388.822601893258, 224.61268003138068, -23840.43769126388, -8223.273840340835, -33149.693387710264, -14534.914736141533, -12067.81859014256, -28276.767227264314, 5559.951729768722, -0.1325, 0.9500000000000001, -0.02375, 192.0, 0.0, 0.0, 0.0, 0.0, 0.0, 0.0, 0.0, 0.0, 0.0, 1.658334798586342E9, 0.0, 2022-07-20 12:33:18.586
226.0, -22378.34303120888, -22545.668190201308, -6328.136483208715, -7243.57452912027, -31878.63908751477, 1576.8038125996368, -1222.394552516288, -10740.8849288088, 227.51840681057058, -24002.107858909116, -7864.953024977806, -32648.07553864426, -14458.67293580448, -11987.017033936625, -28435.509316385906, 6081.999073266873, -0.1325, 0.9500000000000001, -0.02375, 192.0, 0.0, 0.0, 0.0, 0.0, 0.0, 0.0, 0.0, 0.0, 0.0, 1.6583347985863473E9, 0.0, 2022-07-20 12:33:18.586
228.0, -21861.8612720801, -22006.07472730574, -6009.422959020491, -6729.462054903753, -31236.227600124792, 1782.4398615884618, -1131.7358770055625, -10428.58635527925, 150.53899890649308, -23931.051663285692, -8270.838352541728, -33182.72926601521, -14607.624960854646, -12152.17407371689, -28363.782568428825, 5546.093648206431, -0.1325, 0.9500000000000001, -0.02375, 192.0, 0.0, 0.0, 0.0, 0.0, 0.0, 0.0, 0.0, 0.0, 0.0, 1.6583347985863543E9, 0.0, 2022-07-20 12:33:18.586
230.0, -22361.66862984522, -22530.98309409417, -6275.274607571913, -7231.996325492421, -31869.743093221558, 1623.7201242113263, -1179.0768717619028, -10722.511794866537, 277.96629404619864, -23940.439395956924, -7846.60224278, -32645.393329309623, -14410.929609647943, -11934.065751322003, -28355.17714681353, 6067.984529493396, -0.13325, 0.9480000000000001, -0.021875, 192.0, 125.5, 104.0, 14.5, 72.0, 127.5, 48.0, 0.0, 0.0, 0.0, 1.6583347985863595E9, 0.0, 2022-07-20 12:33:18.586
232.0, -21900.015699865307, -22039.26706782187, -6069.124468460616, -6765.0460320766015, -31241.815536238617, 1720.2796602582528, -1182.8319648303946, -10457.800085282337, 70.74327120104685, -24025.577190587188, -8312.032617572859, -33204.365754647944, -14664.733667937955, -12204.857135398048, -28441.074900755277, 5556.330747166961, -0.13325, 0.9480000000000001, -0.021875, 192.0, 0.0, 0.0, 0.0, 0.0, 0.0, 0.0, 0.0, 0.0, 0.0, 1.6583347985863647E9, 0.0, 2022-07-20 12:33:18.586
234.0, -22319.42383282469, -22502.909303058303, -6224.156168002626, -7203.85547922319, -31834.852020126826, 1685.2991801856972, -1105.070245870381, -10663.346727293341, 342.96516692223156, -23852.932316414397, -7836.2310333527375, -32645.79566070982, -14353.999716520277, -11888.714061822184, -28275.515529574815, 6056.987471221384, -0.13325, 0.9480000000000001, -0.021875, 192.0, 0.0, 0.0, 0.0, 0.0, 0.0, 0.0, 0.0, 0.0, 0.0, 1.6583347985863702E9, 0.0, 2022-07-20 12:33:18.586
236.0, -21938.77362475081, -22077.019164206882, -6128.982440111929, -6802.954590672803, -31255.830080012096, 1680.8288312946358, -1220.4052472597657, -10502.168298026121, 18.373133942262406, -24096.3875170216, -8327.187100313557, -33197.168492933335, -14715.71799704051, -12260.401220369486, -28521.340015094283, 5586.997340559643, -0.13325, 0.9480000000000001, -0.021875, 192.0, 0.0, 0.0, 0.0, 0.0, 0.0, 0.0, 0.0, 0.0, 0.0, 1.6583347985863755E9, 0.0, 2022-07-20 12:33:18.586
238.0, -22278.69895442712, -22457.803482747495, -6174.512943567389, -7166.103382838176, -31799.648022609716, 1726.694610916926, -1084.819565393873, -10624.275877985463, 398.1963274712953, -23778.098675978028, -7829.145530360405, -32660.301942861315, -14305.36232058553, -11865.2000266552, -28208.750868886815, 6020.151796359039, -0.13325, 0.9480000000000001, -0.021875, 192.0, 0.0, 0.0, 0.0, 0.0, 0.0, 0.0, 0.0, 0.0, 0.0, 1.6583347985863814E9, 0.0, 2022-07-20 12:33:18.586
240.0, -21993.15541901057, -22124.538972918865, -6182.671330293576, -6858.677489599882, -31313.095249306592, 1604.8552518910471, -1252.1894278752122, -10557.242996363997, -38.02031731847731, -24181.2570907184, -8332.752684682928, -33178.929469457806, -14754.051238781363, -12302.266037734276, -28599.258196265484, 5613.797082161556, -0.130625, 0.9470000000000001, -0.0229375, 192.0, 126.0, 0.0, 14.5, 72.0, 127.5, 32.0, 0.0, 0.0, 0.0, 1.6583347990675335E9, 0.0, 2022-07-20 12:33:19.067
242.0, -22199.417316844145, -22378.56654865343, -6095.901858318074, -7092.767309280313, -31740.393548058695, 1784.652684289537, -1038.4173439046556, -10572.75510701598, 458.0319473781523, -23701.543951218602, -7821.9706203902515, -32678.965649481495, -14262.379915997974, -11819.401302266277, -28123.56837076764, 5980.991540073341, -0.130625, 0.9470000000000001, -0.0229375, 192.0, 0.0, 0.0, 0.0, 0.0, 0.0, 0.0, 0.0, 0.0, 0.0, 1.6583347990676007E9, 0.0, 2022-07-20 12:33:19.067
244.0, -22068.950184458517, -22198.031508687916, -6247.916072358617, -6916.054417616656, -31389.985250232847, 1556.5978356120393, -1308.8511000694157, -10611.557735390394, -72.7996316909351, -24236.08591986727, -8309.104539049213, -33132.72841366869, -14781.901512372675, -12322.740235655338, -28648.744958489533, 5673.342129390494, -0.130625, 0.9470000000000001, -0.0229375, 192.0, 0.0, 0.0, 0.0, 0.0, 0.0, 0.0, 0.0, 0.0, 0.0, 1.6583347990676064E9, 0.0, 2022-07-20 12:33:19.067
246.0, -22136.363045735725, -22305.141068117748, -6040.961270446929, -7026.896718370524, -31678.054532772847, 1839.1909407604865, -1024.7827797869181, -10526.911679138146, 479.04258716614095, -23658.561546631045, -7852.301937616103, -32726.418402960113, -14259.831817130069, -11805.230296281612, -28082.21764352532, 5922.944059722908, -0.130625, 0.9470000000000001, -0.0229375, 192.0, 0.0, 0.0, 0.0, 0.0, 0.0, 0.0, 0.0, 0.0, 0.0, 1.658334799067612E9, 0.0, 2022-07-20 12:33:19.067
248.0, -22146.91306911863, -22281.917605628685, -6307.259953887457, -7001.706302369393, -31483.75081822286, 1501.858413440992, -1357.2426268151555, -10711.827661016901, -97.96769594761085, -24273.256870896446, -8280.159029979592, -33085.63328810135, -14813.015140654463, -12341.49334925334, -28705.29487196146, 5719.721999135256, -0.130625, 0.9470000000000001, -0.0229375, 192.0, 0.0, 0.0, 0.0, 0.0, 0.0, 0.0, 0.0, 0.0, 0.0, 1.6583347990676172E9, 0.0, 2022-07-20 12:33:19.067
250.0, -22048.721855726464, -22209.095622193294, -5972.855505091608, -6942.89886270748, -31588.669906696072, 1876.8312784232235, -1011.8411197472955, -10492.69115837707, 481.4118720784035, -23630.91243873983, -7890.27755144567, -32787.639831023196, -14273.801657414635, -11807.063139326947, -28065.02915203919, 5834.073523768607, -0.1283125, 0.9465000000000001, -0.02146875, 192.0, 126.0, 8.0, 14.5, 72.0, 127.5, 48.0, 0.0, 0.0, 0.0, 1.6583347990676227E9, 0.0, 2022-07-20 12:33:19.067
252.0, -22191.258930117958, -22316.540457789954, -6320.246317415991, -7031.165901561488, -31531.248275190388, 1499.1538523619, -1331.3146032469992, -10705.390358613773, -75.12421311428703, -24251.195699119056, -8200.00567436286, -32981.854138595365, -14761.561424918345, -12279.958996767878, -28679.38920013776, 5821.489491640269, -0.1283125, 0.9465000000000001, -0.02146875, 192.0, 0.0, 0.0, 0.0, 0.0, 0.0, 0.0, 0.0, 0.0, 0.0, 1.658334799067628E9, 0.0, 2022-07-20 12:33:19.067
254.0, -22008.846343618196, -22167.543729250876, -5946.346336167614, -6886.617170169016, -31505.94610046698, 1891.6951884860027, -992.3503985822676, -10442.533843819361, 465.96681665978633, -23625.838592748474, -7945.106380594538, -32856.438500456636, -14287.927959910388, -11850.358468336877, -28042.07391048359, 5783.916209210898, -0.1283125, 0.9465000000000001, -0.02146875, 192.0, 0.0, 0.0, 0.0, 0.0, 0.0, 0.0, 0.0, 0.0, 0.0, 1.6583347990676332E9, 0.0, 2022-07-20 12:33:19.067
0.0, -22281.761143417498, -22418.39735727279, -6363.586349914832, -7111.855699045146, -31629.573599049283, 1452.1481337723892, -1344.390373753354, -10760.375649973828, -68.55280024442676, -24278.66599305463, -8161.359508199634, -32933.552018827446, -14746.429293922103, -12296.633398131538, -28681.91494726121, 5876.184210322405, -0.1283125, 0.9465000000000001, -0.02146875, 192.0, 0.0, 0.0, 0.0, 0.0, 0.0, 0.0, 0.0, 0.0, 0.0, 1.6583347990676384E9, 0.0, 2022-07-20 12:33:19.067
2.0, -21954.91158424754, -22114.637150125167, -5924.5980888126005, -6832.302431142621, -31432.36415772011, 1884.7884994493127, -998.6312387742089, -10424.071302899278, 428.66175516387887, -23650.91725002733, -8012.005151749272, -32933.44026010517, -14327.177623173908, -11895.263122947588, -28066.191442750867, 5701.885307059921, -0.1283125, 0.9465000000000001, -0.02146875, 192.0, 0.0, 0.0, 0.0, 0.0, 0.0, 0.0, 0.0, 0.0, 0.0, 1.6583347990676436E9, 0.0, 2022-07-20 12:33:19.067
4.0, -22328.56569630691, -22472.220357921167, -6375.119850053769, -7166.908045638567, -31687.598727655262, 1457.3113867415652, -1327.6265654118736, -10781.632158950826, -30.577186414860062, -24259.33173410079, -8104.071987160682, -32862.4064162262, -14697.680139265078, -12259.462447102362, -28666.604002309323, 5930.7001150488995, -0.12815625, 0.94825, -0.019734375000000002, 192.0, 126.0, 0.0, 14.5, 88.0, 127.5, 56.0, 0.0, 0.0, 0.0, 1.65833479906766E9, 0.0, 2022-07-20 12:33:19.067
6.0, -21898.47342949789, -22051.001733660905, -5903.676856002433, -6776.981863615735, -31339.15738334148, 1898.0877874002203, -1011.2376226470021, -10387.05681408129, 390.820251801044, -23682.92494808733, -8068.420954754467, -33001.25545278257, -14364.482684669816, -11934.579841444474, -28087.537358705686, 5658.522922816625, -0.12815625, 0.94825, -0.019734375000000002, 192.0, 0.0, 0.0, 0.0, 0.0, 0.0, 0.0, 0.0, 0.0, 0.0, 1.658334799067665E9, 0.0, 2022-07-20 12:33:19.067
8.0, -22379.684135876196, -22521.304788745023, -6395.906972397205, -7220.820453264768, -31768.310876883374, 1461.3570524879758, -1310.2369082256448, -10785.65547295278, 15.690924607625558, -24212.59423644474, -8040.615384652065, -32799.35214511778, -14646.494644462426, -12180.829010108591, -28615.150286573207, 5994.46964197989, -0.12815625, 0.94825, -0.019734375000000002, 192.0, 0.0, 0.0, 0.0, 0.0, 0.0, 0.0, 0.0, 0.0, 0.0, 1.6583347990676703E9, 0.0, 2022-07-20 12:33:19.067
10.0, -21851.847690564122, -21998.855113846676, -5905.532050792223, -6728.724447336727, -31279.14294947898, 1892.7680722198575, -1012.7351895255077, -10362.604005647185, 323.1391695903742, -23735.78682372413, -8140.214757944913, -33072.11048270589, -14449.776941511267, -11995.957731718747, -28144.020216944245, 5613.417102505816, -0.12815625, 0.94825, -0.019734375000000002, 192.0, 0.0, 0.0, 0.0, 0.0, 0.0, 0.0, 0.0, 0.0, 0.0, 1.6583347990676758E9, 0.0, 2022-07-20 12:33:19.067
12.0, -22376.04080152998, -22533.12886156188, -6359.205408001591, -7227.816549279279, -31812.656737882706, 1511.9166984458802, -1271.1437071733126, -10764.42131572024, 98.21356513661924, -24122.069671400746, -7953.421229531912, -32720.115211023716, -14570.856341225666, -12110.510422052195, -28537.70149203557, 6055.959290976441, -0.12815625, 0.94825, -0.019734375000000002, 192.0, 0.0, 0.0, 0.0, 0.0, 0.0, 0.0, 0.0, 0.0, 0.0, 1.658334799067681E9, 0.0, 2022-07-20 12:33:19.067
14.0, -21832.312265910183, -21978.179750225514, -5920.93240272193, -6701.276505145611, -31243.223696139303, 1866.4153655070504, -1055.561131901876, -10378.071412810257, 278.92741905777683, -23776.981088755263, -8172.825953105206, -33102.508855165106, -14478.565988369703, -12051.188892267812, -28202.49238043933, 5591.400634217338, -0.12815625, 0.94825, -0.019734375000000002, 192.0, 0.0, 0.0, 0.0, 0.0, 0.0, 0.0, 0.0, 0.0, 0.0, 1.658334799067686E9, 0.0, 2022-07-20 12:33:19.067
16.0, -22394.928025594716, -22555.234736828177, -6328.181186697625, -7233.00215399291, -31852.97928488008, 1550.83108554257, -1255.1398581433127, -10751.144379513786, 172.24254277259624, -24059.3283247147, -7895.999598026228, -32664.772291752375, -14497.274398478796, -12054.608709169474, -28469.461616213517, 6086.335311691202, -0.124, 0.9460000000000001, -0.026000000000000002, 192.0, 126.0, 16.0, 14.5, 72.0, 127.5, 24.0, 0.0, 0.0, 0.0, 1.6583347990676916E9, 0.0, 2022-07-20 12:33:19.067
18.0, -21847.51145213979, -21995.03296554482, -5948.648565846511, -6690.301798618055, -31211.32775680158, 1828.8420830776793, -1103.1479958472248, -10390.968369360968, 190.88389764832232, -23881.006107450263, -8238.942413204004, -33153.828460434495, -14550.471550282426, -12104.67661674936, -28280.075285443698, 5578.883657322366, -0.124, 0.9460000000000001, -0.026000000000000002, 192.0, 0.0, 0.0, 0.0, 0.0, 0.0, 0.0, 0.0, 0.0, 0.0, 1.6583347990676968E9, 0.0, 2022-07-20 12:33:19.067
20.0, -22377.605423641853, -22544.192975067257, -6282.002482652961, -7224.195566677519, -31851.280552301476, 1597.7697488987149, -1199.3722557273218, -10732.346562426874, 244.81865701897826, -23981.499550521323, -7854.067725428073, -32635.379747793646, -14428.453377300904, -11976.08703089798, -28367.157681841574, 6107.815338112752, -0.124, 0.9460000000000001, -0.026000000000000002, 192.0, 0.0, 0.0, 0.0, 0.0, 0.0, 0.0, 0.0, 0.0, 0.0, 1.6583347990677023E9, 0.0, 2022-07-20 12:33:19.067
22.0, -21865.795179104232, -22004.957140082974, -6000.9069443830185, -6723.181214711812, -31211.66303296841, 1768.9841114263668, -1151.3160051484115, -10411.464919026484, 121.57113809241511, -23969.675477704466, -8281.343672435722, -33184.159777660345, -14621.550097650303, -12196.229362038299, -28360.966248627457, 5570.4123461738045, -0.124, 0.9460000000000001, -0.026000000000000002, 192.0, 0.0, 0.0, 0.0, 0.0, 0.0, 0.0, 0.0, 0.0, 0.0, 1.6583347990677075E9, 0.0, 2022-07-20 12:33:19.067
24.0, -22342.93786799167, -22510.799468851026, -6225.072589525294, -7214.472557839461, -31850.632351712273, 1639.3886970744966, -1186.9893892990815, -10684.469125803605, 326.2684138141172, -23877.407476592958, -7811.331190029525, -32617.565407462767, -14367.142542259997, -11920.610001159906, -28290.178273937498, 6091.409157682558, -0.124, 0.9460000000000001, -0.026000000000000002, 192.0, 0.0, 0.0, 0.0, 0.0, 0.0, 0.0, 0.0, 0.0, 0.0, 1.6583347990677128E9, 0.0, 2022-07-20 12:33:19.067
26.0, -21914.924313416996, -22039.69175096652, -6061.837799768186, -6771.550389713096, -31235.46764081331, 1690.305970943686, -1193.0243603020144, -10465.69025107506, 45.86577962229009, -24047.638362364574, -8301.192021512035, -33187.40078060637, -14688.560627527313, -12268.939586751412, -28454.10596777272, 5572.446354919238, -0.126, 0.9500000000000001, -0.018000000000000002, 192.0, 126.0, 8.0, 14.5, 88.0, 127.5, 56.0, 0.0, 0.0, 0.0, 1.658334799067718E9, 0.0, 2022-07-20 12:33:19.067
28.0, -22317.255713612525, -22486.816047050484, -6183.051309949316, -7181.6825487235255, -31824.950197333124, 1686.014436008267, -1140.8330369988726, -10648.415761997196, 367.28386488960564, -23810.978092071786, -7801.83169863602, -32617.65481444059, -14324.204841161352, -11893.139707224334, -28209.62258692057, 6059.893198000575, -0.126, 0.9500000000000001, -0.018000000000000002, 192.0, 0.0, 0.0, 0.0, 0.0, 0.0, 0.0, 0.0, 0.0, 0.0, 1.6583347990677233E9, 0.0, 2022-07-20 12:33:19.067
30.0, -21982.001898527375, -22105.919969787596, -6135.017411114862, -6812.431730321852, -31280.66286810194, 1636.4159150619407, -1248.680203995729, -10526.554051226862, -37.01448881798849, -24138.2970378753, -8333.13266433867, -33181.70108577026, -14751.167863746628, -12300.790822600226, -28538.237933902496, 5590.283046994573, -0.126, 0.9500000000000001, -0.018000000000000002, 192.0, 0.0, 0.0, 0.0, 0.0, 0.0, 0.0, 0.0, 0.0, 0.0, 1.6583347990677283E9, 0.0, 2022-07-20 12:33:19.067
32.0, -22246.758311600486, -22415.558685726963, -6121.963992352962, -7115.186108968986, -31770.657810051183, 1753.270835074286, -1085.333655516345, -10568.597682547294, 419.83281610403253, -23743.878155216953, -7807.956076616773, -32640.83357344074, -14281.200084829341, -11848.704439247185, -28139.639275031004, 6011.300505554736, -0.126, 0.9500000000000001, -0.018000000000000002, 192.0, 0.0, 0.0, 0.0, 0.0, 0.0, 0.0, 0.0, 0.0, 0.0, 1.6583347990677335E9, 0.0, 2022-07-20 12:33:19.067
34.0, -22028.001788616395, -22149.260002286435, -6198.049330478827, -6866.858228070525, -31329.63554020352, 1588.4043679719412, -1291.4390911387316, -10541.060333378355, -52.59365470333752, -24193.483494935455, -8304.187155269046, -33134.85182939194, -14766.29999474287, -12318.135776297544, -28585.55657691438, 5647.995251178176, -0.126, 0.9500000000000001, -0.018000000000000002, 192.0, 0.0, 0.0, 0.0, 0.0, 0.0, 0.0, 0.0, 0.0, 0.0, 1.6583347990677388E9, 0.0, 2022-07-20 12:33:19.067
36.0, -22193.76232549695, -22357.66766758772, -6081.999073266873, -7081.434974841473, -31718.354728025763, 1792.7440157823582, -1070.4026902202, -10520.56378371284, 458.9260171563646, -23689.563416190555, -7831.537167017123, -32689.94035600905, -14269.688936434859, -11817.747273176585, -28076.51794868922, 5952.113086237084, -0.122, 0.9480000000000001, -0.02, 192.0, 126.0, 24.0, 14.5, 80.0, 127.5, 48.0, 0.0, 0.0, 0.0, 1.6583347990677454E9, 0.0, 2022-07-20 12:33:19.067
38.0, -22103.237760452957, -22223.288979922414, -6256.163866062626, -6952.599519801083, -31412.404049921523, 1532.63676555595, -1332.387486980854, -10595.084499726832, -92.7150360006137, -24253.22970786449, -8296.162879009591, -33110.35431746892, -14790.529285732424, -12345.315497555197, -28626.9073041567, 5693.7939755671, -0.122, 0.9480000000000001, -0.02, 192.0, 0.0, 0.0, 0.0, 0.0, 0.0, 0.0, 0.0, 0.0, 0.0, 1.6583347990677507E9, 0.0, 2022-07-20 12:33:19.067
40.0, -22113.452507669033, -22281.31410852839, -6000.459909493913, -6995.827793577647, -31631.764070005906, 1849.003356576366, -1028.4261141331333, -10428.429893068063, 465.43037479285897, -23645.77634880261, -7865.690632544832, -32747.09376658127, -14256.412000228405, -11813.81336615245, -28010.1109159125, 5895.741986720799, -0.122, 0.9480000000000001, -0.02, 192.0, 0.0, 0.0, 0.0, 0.0, 0.0, 0.0, 0.0, 0.0, 0.0, 1.6583347990677557E9, 0.0, 2022-07-20 12:33:19.067
42.0, -22195.461058075554, -22325.3693968498, -6317.608811570265, -7023.543956702228, -31509.05299294627, 1486.6815789558386, -1356.639129714862, -10618.643238382727, -104.74027451756889, -24287.89726351467, -8252.77814302184, -33040.46041255718, -14784.136686818205, -12320.549764698717, -28635.602132749813, 5774.729642239767, -0.122, 0.9480000000000001, -0.02, 192.0, 0.0, 0.0, 0.0, 0.0, 0.0, 0.0, 0.0, 0.0, 0.0, 1.6583347990677612E9, 0.0, 2022-07-20 12:33:19.067
44.0, -22056.008524418896, -22216.58345658582, -5964.495952665324, -6925.017467143234, -31559.567935415263, 1882.4192145370503, -1025.118055953748, -10388.174401304055, 449.56063622959095, -23643.585877845988, -7926.8673571190075, -32818.038203482414, -14282.183561585374, -11843.384724066822, -27996.49870353922, 5820.126035228495, -0.122, 0.9480000000000001, -0.02, 192.0, 0.0, 0.0, 0.0, 0.0, 0.0, 0.0, 0.0, 0.0, 0.0, 1.6583347990677664E9, 0.0, 2022-07-20 12:33:19.067
46.0, -22249.798148846407, -22383.2827667335, -6352.164608498169, -7079.579780051682, -31583.551357215805, 1473.1811253048331, -1390.4349673312865, -10662.407954026217, -96.5371843024712, -24284.74566754647, -8202.553773230764, -32969.42656867821, -14769.853922111264, -12302.087223778633, -28637.211458350597, 5836.10753251404, -0.128, 0.9480000000000001, -0.026000000000000002, 192.0, 126.0, 0.0, 14.5, 80.0, 127.5, 24.0, 0.0, 0.0, 0.0, 1.6583347990677717E9, 0.0, 2022-07-20 12:33:19.067
48.0, -21968.12146522063, -22122.124984517694, -5918.630173043033, -6849.289756928654, -31455.542916720264, 1913.9128224745778, -1013.9868872150049, -10353.104514253679, 454.7909444321328, -23623.312845625027, -7959.925587168406, -32870.475395974565, -14301.54017228367, -11852.101904404391, -27978.706714952794, 5754.210740829795, -0.128, 0.9480000000000001, -0.026000000000000002, 192.0, 0.0, 0.0, 0.0, 0.0, 0.0, 0.0, 0.0, 0.0, 0.0, 1.658334799067777E9, 0.0, 2022-07-20 12:33:19.067
50.0, -22301.22951283807, -22435.787014459016, -6377.8691146217725, -7145.22685351692, -31657.289762173867, 1453.7574593731713, -1365.0433856300576, -10698.081338176888, -47.58686394534874, -24260.963411446028, -8111.023379686282, -32875.34807626582, -14714.332188884282, -12254.500359833284, -28602.47684746705, 5903.989780424808, -0.128, 0.9480000000000001, -0.026000000000000002, 192.0, 0.0, 0.0, 0.0, 0.0, 0.0, 0.0, 0.0, 0.0, 0.0, 1.6583347990677822E9, 0.0, 2022-07-20 12:33:19.067
52.0, -21924.557915277233, -22076.527425828866, -5908.616591527056, -6808.698988997816, -31396.467256124888, 1903.4075025805835, -1013.9645354705495, -10334.32904891122, 409.1933857433064, -23652.839500050486, -8016.609611107066, -32939.38582413028, -14344.097893726575, -11881.136820451835, -28003.226578620266, 5676.3596148919605, -0.128, 0.9480000000000001, -0.026000000000000002, 192.0, 0.0, 0.0, 0.0, 0.0, 0.0, 0.0, 0.0, 0.0, 0.0, 1.6583347990677876E9, 0.0, 2022-07-20 12:33:19.067
54.0, -22362.80856881244, -22498.55071288952, -6380.439565234133, -7198.066377409265, -31739.030091646924, 1451.5222849276406, -1366.228028086189, -10720.433082632195, -25.41393344568413, -24241.40563504763, -8061.782486651241, -32815.75832554798, -14686.750136226432, -12221.41977803943, -28587.344716470805, 5951.219016458871, -0.128, 0.9480000000000001, -0.026000000000000002, 192.0, 0.0, 0.0, 0.0, 0.0, 0.0, 0.0, 0.0, 0.0, 0.0, 1.658334799067793E9, 0.0, 2022-07-20 12:33:19.067
56.0, -21875.13820828655, -22023.55379146979, -5886.287198816204, -6743.074267277035, -31312.715269650853, 1906.4696915709605, -1039.3784689162337, -10286.429260543497, 366.97094046723134, -23694.391392992904, -8071.416088511478, -32999.37790624832, -14384.845123868601, -11953.064734109013, -28032.55206734563, 5642.697887742268, -0.134, 0.9420000000000001, -0.024, 192.0, 125.5, 104.0, 14.5, 56.0, 127.5, 32.0, 0.0, 0.0, 0.0, 1.658334799067798E9, 0.0, 2022-07-20 12:33:19.067
58.0, -22392.29051974899, -22543.522422733597, -6380.506620467499, -7222.7203515434685, -31798.642194109227, 1476.310369528576, -1315.064885027991, -10714.331056395897, 46.156352300209086, -24177.30083194981, -7985.048947936171, -32733.034519318884, -14616.56565863677, -12149.536567871162, -28516.17676212511, 6028.399590063047, -0.134, 0.9420000000000001, -0.024, 192.0, 0.0, 0.0, 0.0, 0.0, 0.0, 0.0, 0.0, 0.0, 0.0, 1.6583347990678031E9, 0.0, 2022-07-20 12:33:19.067
60.0, -21870.37728671757, -22013.92018960955, -5931.661240060478, -6735.184101484311, -31287.502501905266, 1862.816734649746, -1096.6659899551858, -10339.648764091584, 289.4774424406818, -23776.019963743685, -8157.157380242036, -33075.5079478631, -14478.543636625247, -12033.352200192476, -28117.779268953716, 5592.719387140201, -0.134, 0.9420000000000001, -0.024, 192.0, 0.0, 0.0, 0.0, 0.0, 0.0, 0.0, 0.0, 0.0, 0.0, 1.6583347990678084E9, 0.0, 2022-07-20 12:33:19.067
62.0, -22413.189400814703, -22562.856681687437, -6376.662120421186, -7251.442343168538, -31854.052168613933, 1503.9818291642464, -1316.741265862139, -10740.370838686329, 109.1659199197197, -24111.363185806655, -7936.545662468156, -32684.62064082869, -14567.369469090638, -12071.037241344124, -28467.226441767987, 6056.67454679901, -0.134, 0.9420000000000001, -0.024, 192.0, 0.0, 0.0, 0.0, 0.0, 0.0, 0.0, 0.0, 0.0, 0.0, 1.6583347990678148E9, 0.0, 2022-07-20 12:33:19.067
64.0, -21851.31124869719, -21985.95815729596, -5953.118914737573, -6712.1841564398, -31236.09348965806, 1841.9178535840338, -1118.5483477769315, -10354.915005554558, 223.4503893197047, -23839.923601141407, -8213.707293713964, -33117.6186344169, -14552.282041583305, -12076.334604780031, -28196.54681641422, 5566.1878664717515, -0.134, 0.9420000000000001, -0.024, 192.0, 0.0, 0.0, 0.0, 0.0, 0.0, 0.0, 0.0, 0.0, 0.0, 1.65833479906782E9, 0.0, 2022-07-20 12:33:19.067
66.0, -22416.318645038446, -22574.166664381824, -6340.385239170223, -7260.807724095313, -31879.153177637243, 1555.0779169890782, -1274.1388409303238, -10727.965620513633, 190.5039179925821, -24040.41874890551, -7883.124993219972, -32637.74903270591, -14496.805011845234, -12002.864420755437, -28383.899138438603, 6083.183715723004, -0.126, 0.9420000000000001, -0.024, 192.0, 126.0, 8.0, 14.5, 56.0, 127.5, 32.0, 0.0, 0.0, 0.0, 1.6583347990678267E9, 0.0, 2022-07-20 12:33:19.067
68.0, -21876.85929260961, -22010.79094538581, -5988.009987832307, -6715.179290196811, -31219.28497782767, 1796.5438123397605, -1166.291673933467, -10378.451392465997, 140.92774879071104, -23935.678474387943, -8274.168762465568, -33160.601039004454, -14609.703673088989, -12147.54726261464, -28273.9732592074, 5549.289947663539, -0.126, 0.9420000000000001, -0.024, 192.0, 0.0, 0.0, 0.0, 0.0, 0.0, 0.0, 0.0, 0.0, 0.0, 1.6583347990678334E9, 0.0, 2022-07-20 12:33:19.067
70.0, -22390.412973214745, -22546.405797768333, -6271.877142414706, -7227.727142301458, -31865.518613519507, 1599.4908332217733, -1221.6569449492629, -10713.54874533996, 260.5542851155144, -23951.88348911804, -7849.351507348002, -32609.563482947768, -14418.842127185122, -11954.517597498609, -28285.663221557526, 6089.263390214848, -0.126, 0.9420000000000001, -0.024, 192.0, 0.0, 0.0, 0.0, 0.0, 0.0, 0.0, 0.0, 0.0, 0.0, 1.658334799067839E9, 0.0, 2022-07-20 12:33:19.067
72.0, -21910.76688894831, -22039.959971899985, -6042.414133836524, -6749.444514446797, -31232.874838456493, 1715.33992473363, -1200.7133603946402, -10443.49496883094, 64.32832054237373, -24019.18459167297, -8309.998608827425, -33173.833271722, -14670.366307540693, -12203.851306897559, -28354.081911335223, 5551.547473853526, -0.126, 0.9420000000000001, -0.024, 192.0, 0.0, 0.0, 0.0, 0.0, 0.0, 0.0, 0.0, 0.0, 0.0, 1.658334799067844E9, 0.0, 2022-07-20 12:33:19.067
74.0, -22340.926210990696, -22501.344680946433, -6209.135795728659, -7198.021673920354, -31843.882124886768, 1656.4877815828065, -1175.7688135825174, -10668.644090729249, 332.7951231950669, -23861.090703140584, -7819.958963389274, -32602.768552633355, -14361.532254401714, -11903.01917827358, -28207.25330200831, 6060.004956722851, -0.126, 0.9420000000000001, -0.024, 192.0, 0.0, 0.0, 0.0, 0.0, 0.0, 0.0, 0.0, 0.0, 0.0, 1.6583347990678492E9, 0.0, 2022-07-20 12:33:19.067
76.0, -21948.608392311144, -22073.12996067166, -6096.952390307473, -6788.96239864378, -31268.65998132944, 1661.8298485076248, -1256.816238977461, -10513.500632464962, 15.37800018525126, -24092.028926852814, -8319.431044987565, -33168.98294317519, -14726.402130890148, -12266.793819283703, -28438.705615843013, 5567.953654283721, -0.128, 0.9440000000000001, -0.022, 192.0, 126.0, 0.0, 14.5, 64.0, 127.5, 40.0, 0.0, 0.0, 0.0, 1.6583347990678544E9, 0.0, 2022-07-20 12:33:19.067
78.0, -22289.31603304339, -22452.126139655848, -6146.372097298157, -7145.964461083944, -31810.980357048556, 1723.6100701820935, -1140.0060224540262, -10638.692753159137, 396.69876059278977, -23776.399943399425, -7808.716035928254, -32610.39049749261, -14323.176660916408, -11850.067895658958, -28138.789908741703, 6027.259651095826, -0.128, 0.9440000000000001, -0.022, 192.0, 0.0, 0.0, 0.0, 0.0, 0.0, 0.0, 0.0, 0.0, 0.0, 1.6583347990678596E9, 0.0, 2022-07-20 12:33:19.067
80.0, -21998.765706868853, -22117.453469926535, -6149.009603143883, -6822.82529149357, -31296.353792709568, 1624.2342143337983, -1294.903611529304, -10548.458760793063, -33.505264938505285, -24162.54868060931, -8318.40286474262, -33138.56221897152, -14766.322346487326, -12292.38656668503, -28509.515942277427, 5616.322829285005, -0.128, 0.9440000000000001, -0.022, 192.0, 0.0, 0.0, 0.0, 0.0, 0.0, 0.0, 0.0, 0.0, 0.0, 1.658334799067865E9, 0.0, 2022-07-20 12:33:19.067
82.0, -22247.987657545527, -22408.026147845525, -6106.340122978702, -7101.439786128973, -31766.25451639349, 1774.9520271959339, -1095.2801817989566, -10576.778421017936, 438.429467490848, -23707.78008792163, -7813.074626097039, -32628.920093646062, -14292.264198334718, -11817.747273176585, -28052.534526888674, 6000.683426938466, -0.128, 0.9440000000000001, -0.022, 192.0, 0.0, 0.0, 0.0, 0.0, 0.0, 0.0, 0.0, 0.0, 0.0, 1.65833479906787E9, 0.0, 2022-07-20 12:33:19.067
84.0, -22091.346632402736, -22214.16946818465, -6239.087133298771, -6914.758016438248, -31392.622756078574, 1557.1342774789666, -1349.1736470667895, -10612.518860401971, -107.15426291874206, -24238.3210943128, -8330.875138148682, -33127.29693976604, -14824.235716371026, -12320.683875165449, -28578.627536133237, 5659.662861783846, -0.128, 0.9440000000000001, -0.022, 192.0, 0.0, 0.0, 0.0, 0.0, 0.0, 0.0, 0.0, 0.0, 0.0, 1.6583347990678751E9, 0.0, 2022-07-20 12:33:19.067
86.0, -22175.836226443796, -22341.350894135347, -6031.618241264611, -7035.368029519085, -31681.474349674507, 1825.6010801316597, -1052.1636667446694, -10546.201234603077, 453.5615984870909, -23678.186378262806, -7852.637213782932, -32698.970460768996, -14292.890047179468, -11808.650113183274, -28009.2615496232, 5939.774923297754, -0.124, 0.9400000000000001, -0.024, 192.0, 126.0, 16.0, 14.5, 48.0, 127.5, 32.0, 0.0, 0.0, 0.0, 1.6583347990678806E9, 0.0, 2022-07-20 12:33:19.067
88.0, -22161.933441392594, -22282.901082384717, -6271.8547906702515, -6976.560589857172, -31447.89862011655, 1514.1071694025004, -1354.4710105026975, -10659.636337713759, -110.1046931868426, -24276.60963256474, -8282.818887569772, -33064.39913086881, -14813.97626566604, -12350.188177846454, -28595.681917152637, 5742.699592435311, -0.124, 0.9400000000000001, -0.024, 192.0, 0.0, 0.0, 0.0, 0.0, 0.0, 0.0, 0.0, 0.0, 0.0, 1.6583347990678859E9, 0.0, 2022-07-20 12:33:19.067
90.0, -22121.00739729493, -22281.895253884228, -5991.809784389709, -6984.406052160985, -31611.44633429603, 1846.6340716641037, -1055.1811522461358, -10503.911734093635, 462.1446683579288, -23659.366209431435, -7891.015159012695, -32766.62919123521, -14284.932826153377, -11834.175805351235, -27976.136264340435, 5869.411631752448, -0.124, 0.9400000000000001, -0.024, 192.0, 0.0, 0.0, 0.0, 0.0, 0.0, 0.0, 0.0, 0.0, 0.0, 1.6583347990678911E9, 0.0, 2022-07-20 12:33:19.067
92.0, -22244.54548889941, -22366.18368222519, -6346.353154939789, -7064.805276966725, -31540.636007861616, 1455.6573576518724, -1409.2327844181998, -10738.247422963075, -117.25725141254085, -24312.70769986006, -8250.565320320764, -33016.54404599, -14803.78387019442, -12355.574948260182, -28637.211458350597, 5781.390462087448, -0.124, 0.9400000000000001, -0.024, 192.0, 0.0, 0.0, 0.0, 0.0, 0.0, 0.0, 0.0, 0.0, 0.0, 1.6583347990678964E9, 0.0, 2022-07-20 12:33:19.067
94.0, -22044.720893468966, -22201.808953500862, -5965.613539888089, -6914.713312949338, -31519.491257606896, 1866.9294556295224, -1039.8031520608845, -10488.511382163928, 438.78709540213293, -23642.334180156493, -7963.457162792345, -32846.87195382976, -14317.611076547037, -11856.616956784363, -27991.1566366144, 5771.645101504934, -0.124, 0.9400000000000001, -0.024, 192.0, 0.0, 0.0, 0.0, 0.0, 0.0, 0.0, 0.0, 0.0, 0.0, 1.6583347990679016E9, 0.0, 2022-07-20 12:33:19.067
96.0, -22297.072088369383, -22427.181592843725, -6371.722384896563, -7110.291076933275, -31613.234473852455, 1456.9090553413696, -1384.4223480728087, -10773.026737335533, -85.98716091956626, -24292.032336238903, -8184.739432899885, -32931.38389961528, -14767.864616854742, -12304.232991246343, -28627.913132657188, 5859.241588025283, -0.126, 0.9430000000000001, -0.026000000000000002, 192.0, 126.0, 0.0, 14.5, 72.0, 127.5, 16.0, 0.0, 0.0, 0.0, 1.6583347990679069E9, 0.0, 2022-07-20 12:33:19.067
98.0, -21972.6365176006, -22127.534106675877, -5915.7915014972095, -6827.295640384632, -31427.22325649539, 1905.1509386480975, -1026.6826780656193, -10439.985744951457, 432.41684823237046, -23652.414816905835, -8004.807890034663, -32899.353849810825, -14335.067788966631, -11885.473058876165, -27994.64350874943, 5719.431426457337, -0.126, 0.9430000000000001, -0.026000000000000002, 192.0, 0.0, 0.0, 0.0, 0.0, 0.0, 0.0, 0.0, 0.0, 0.0, 1.658334799067912E9, 0.0, 2022-07-20 12:33:19.067
100.0, -22346.692961060162, -22478.478846368653, -6378.271446021968, -7156.6262431891255, -31686.74936136596, 1458.9207123423473, -1380.287275348577, -10801.569915004959, -34.220520761075115, -24253.341466586768, -8101.054501659215, -32836.88072405824, -14718.981351730985, -12249.962955708857, -28595.726620641544, 5936.869196518564, -0.126, 0.9430000000000001, -0.026000000000000002, 192.0, 0.0, 0.0, 0.0, 0.0, 0.0, 0.0, 0.0, 0.0, 0.0, 1.6583347990679188E9, 0.0, 2022-07-20 12:33:19.067
102.0, -21922.00981640933, -22072.03472519335, -5896.747815221288, -6774.76904091466, -31353.417796303966, 1900.9488106904998, -1039.8255038053398, -10430.73212274696, 399.29156294960535, -23673.581918905013, -8049.35491673409, -32952.57335335891, -14380.866513355555, -11942.715876426206, -28015.609445048507, 5673.297425901584, -0.126, 0.9430000000000001, -0.026000000000000002, 192.0, 0.0, 0.0, 0.0, 0.0, 0.0, 0.0, 0.0, 0.0, 0.0, 1.658334799067924E9, 0.0, 2022-07-20 12:33:19.067
104.0, -22382.746324866574, -22520.61188466691, -6375.924512854161, -7194.75831922988, -31753.245801120498, 1473.4046427493863, -1358.9860628826693, -10802.66515048327, 11.10881699428761, -24222.585466216264, -8038.961355562372, -32765.690417968086, -14667.95231913952, -12192.921303858913, -28550.754910797466, 6002.113938583606, -0.126, 0.9430000000000001, -0.026000000000000002, 192.0, 0.0, 0.0, 0.0, 0.0, 0.0, 0.0, 0.0, 0.0, 0.0, 1.6583347995468473E9, 0.0, 2022-07-20 12:33:19.546
106.0, -21906.00596737933, -22044.16209985758, -5915.366818352559, -6747.969299312747, -31309.876598105027, 1889.1247378736423, -1078.494021713021, -10415.599991750716, 326.11195160293005, -23733.395187067414, -8129.240051417358, -33029.8433339409, -14446.826511243167, -11994.2813508846, -28062.995143293756, 5638.78633246259, -0.126, 0.9455, -0.025, 192.0, 126.0, 8.0, 14.5, 80.0, 127.5, 32.0, 0.0, 0.0, 0.0, 1.6583347995469868E9, 0.0, 2022-07-20 12:33:19.546
108.0, -22438.91625868276, -22575.373658582408, -6382.07124257937, -7246.524959388371, -31828.995863079534, 1490.6154859799726, -1359.8801326608816, -10824.18988039373, 51.83369539185708, -24181.190035485037, -8002.036273722205, -32732.72159489651, -14637.352780980204, -12156.97969877478, -28506.409049798138, 6042.950575703451, -0.126, 0.9455, -0.025, 192.0, 0.0, 0.0, 0.0, 0.0, 0.0, 0.0, 0.0, 0.0, 0.0, 1.6583347995469944E9, 0.0, 2022-07-20 12:33:19.546
110.0, -21901.066231854707, -22035.400216031103, -5937.249176174304, -6737.128703251923, -31264.70372256085, 1846.74583038638, -1125.231519369068, -10429.480425057463, 246.2044651752073, -23824.94793235635, -8211.67328496853, -33113.282395992566, -14526.801052904255, -12079.016814114668, -28144.33314136662, 5584.3821864583715, -0.126, 0.9455, -0.025, 192.0, 0.0, 0.0, 0.0, 0.0, 0.0, 0.0, 0.0, 0.0, 0.0, 1.6583347995470014E9, 0.0, 2022-07-20 12:33:19.547
112.0, -22449.175709387746, -22600.34055713899, -6358.221931245557, -7273.2576457569185, -31862.07644487339, 1507.602811766006, -1342.1775510522784, -10829.464892085183, 126.66733582822512, -24113.084270129715, -7944.704049194343, -32686.431132129568, -14563.524969044325, -12093.2548753327, -28426.613322092693, 6063.335366646692, -0.126, 0.9455, -0.025, 192.0, 0.0, 0.0, 0.0, 0.0, 0.0, 0.0, 0.0, 0.0, 0.0, 1.6583347995470076E9, 0.0, 2022-07-20 12:33:19.547
114.0, -21903.256702811326, -22033.969704385963, -5979.046938305729, -6743.521302166141, -31226.549294775643, 1782.9986551998443, -1164.972921010604, -10471.322890677797, 172.19783928368562, -23903.2907966722, -8262.21057918198, -33158.298809325555, -14589.520047845846, -12147.904890525924, -28220.239665536843, 5544.439619116738, -0.126, 0.9455, -0.025, 192.0, 0.0, 0.0, 0.0, 0.0, 0.0, 0.0, 0.0, 0.0, 0.0, 1.6583347995470135E9, 0.0, 2022-07-20 12:33:19.547
116.0, -22446.359389586378, -22600.072336205525, -6336.183111212625, -7280.812535382812, -31878.88495670378, 1528.3675823649862, -1300.6033063654074, -10819.294848358018, 184.1336708228196, -24031.478051123388, -7902.012217284706, -32655.317503847782, -14499.196648501951, -12037.308458961066, -28352.718454923448, 6056.003994465351, -0.13, 0.9437500000000001, -0.0225, 192.0, 125.5, 104.0, 14.5, 56.0, 127.5, 48.0, 0.0, 0.0, 0.0, 1.6583347995470195E9, 0.0, 2022-07-20 12:33:19.547
118.0, -21894.76303991831, -22023.509087980878, -6011.792243932753, -6728.0091915141575, -31207.393849777443, 1755.2824920752637, -1198.299371993467, -10491.014777542923, 94.21260287911927, -23988.450943046922, -8306.869364603683, -33178.080103168504, -14661.582071969757, -12227.164176364444, -28311.16656198103, 5531.43090384375, -0.13, 0.9437500000000001, -0.0225, 192.0, 0.0, 0.0, 0.0, 0.0, 0.0, 0.0, 0.0, 0.0, 0.0, 1.658334799547026E9, 0.0, 2022-07-20 12:33:19.547
120.0, -22397.92315935173, -22547.232812313177, -6266.602130723254, -7223.077979454753, -31857.404930282228, 1614.310039795642, -1225.8590729068605, -10753.670126637237, 272.7806893325674, -23926.29074171671, -7848.569196292066, -32605.093134056704, -14422.463109786882, -11956.216330077212, -28250.749796718337, 6077.148744720072, -0.13, 0.9437500000000001, -0.0225, 192.0, 0.0, 0.0, 0.0, 0.0, 0.0, 0.0, 0.0, 0.0, 0.0, 1.6583347995470316E9, 0.0, 2022-07-20 12:33:19.547
122.0, -21949.524813833814, -22066.69265826853, -6076.612302853144, -6762.0508983195905, -31244.207172895334, 1686.7073400863815, -1247.003823161581, -10528.31983903883, 33.08058179385445, -24057.696647369463, -8325.667181690596, -33174.436768822285, -14713.549877828345, -12259.66361280246, -28384.79320821681, 5557.314223922995, -0.13, 0.9437500000000001, -0.0225, 192.0, 0.0, 0.0, 0.0, 0.0, 0.0, 0.0, 0.0, 0.0, 0.0, 1.6583347995470376E9, 0.0, 2022-07-20 12:33:19.547
