%OpenBCI Raw EEG Data
%Number of channels = 16
%Sample Rate = 125 Hz
%Board = OpenBCI_GUI$BoardCytonSerialDaisy
Sample Index, EXG Channel 0, EXG Channel 1, EXG Channel 2, EXG Channel 3, EXG Channel 4, EXG Channel 5, EXG Channel 6, EXG Channel 7, EXG Channel 8, EXG Channel 9, EXG Channel 10, EXG Channel 11, EXG Channel 12, EXG Channel 13, EXG Channel 14, EXG Channel 15, Accel Channel 0, Accel Channel 1, Accel Channel 2, Other, Other, Other, Other, Other, Other, Other, Analog Channel 0, Analog Channel 1, Analog Channel 2, Timestamp, Other, Timestamp (Formatted)
0.0, -18220.18095495474, 22556.017047884114, -35970.21531703655, -34927.88641785221, -28084.542224948673, -28812.203265691194, -24449.120396270802, -3418.8557766504023, 0.0, 0.0, 0.0, 0.0, 0.0, 0.0, 0.0, 0.0, 0.0, 0.0, 0.0, 192.0, 0.0, 0.0, 0.0, 0.0, 0.0, 0.0, 0.0, 0.0, 0.0, 1.6689767558953784E9, 0.0, 2022-11-20 15:39:15.895
196.0, -18130.036369566486, 22232.520250382455, -35884.98811542847, -34839.90995167613, -28008.568645545085, -28729.099479806362, -24370.91164242168, -3343.70921179166, -26135.49246019035, -3636.2041397338085, -28718.527104679004, -33858.0425212434, -27677.449903184166, -10717.192079686176, -22773.924204578903, -35111.59540553038, 0.0, 0.0, 0.0, 192.0, 0.0, 0.0, 0.0, 0.0, 0.0, 0.0, 0.0, 0.0, 0.0, 1.6689767558953876E9, 0.0, 2022-11-20 15:39:15.895
198.0, -18202.545428579502, 22593.433868102296, -35941.40391843366, -34911.971975800036, -28079.31191674613, -28802.346146386404, -24439.30798045492, -3411.099721324411, -26093.20295968091, -3589.6231042889485, -28680.260918171516, -33817.675270757114, -27650.158423204237, -10690.526448550994, -22737.334398905565, -35076.10083533535, 0.0, 0.0, 0.0, 192.0, 0.0, 0.0, 0.0, 0.0, 0.0, 0.0, 0.0, 0.0, 0.0, 1.6689767558953948E9, 0.0, 2022-11-20 15:39:15.895
200.0, -18125.610724164337, 22205.787564013906, -35872.09115887775, -34823.257902056925, -28004.29946235412, -28728.227761772607, -24362.037999872926, -3338.9259384782245, -26133.50315493383, -3638.4616659237945, -28710.033441785985, -33849.32534090583, -27681.786141608496, -10723.584678600393, -22768.671544631907, -35112.958861942156, 0.0, 0.0, 0.0, 192.0, 0.0, 0.0, 0.0, 0.0, 0.0, 0.0, 0.0, 0.0, 0.0, 1.6689767558954017E9, 0.0, 2022-11-20 15:39:15.895
202.0, -18199.37148086685, 22617.596103858486, -35939.36990968823, -34900.46082740556, -28064.246840983255, -28793.427800348738, -24425.248733192533, -3399.8344421189363, -26085.044572954725, -3579.6318745174262, -28671.09670294484, -33800.64324148217, -27640.77069053301, -10679.104707134331, -22714.714433516794, -35064.94731485216, 0.042, 0.47600000000000003, -0.083, 192.0, 1.0, 80.0, 14.5, 96.0, 125.0, 104.0, 0.0, 0.0, 0.0, 1.6689767558954089E9, 0.0, 2022-11-20 15:39:15.895
204.0, -18128.024712565508, 22203.954720968573, -35884.20580437253, -34833.76322195092, -28005.618215276983, -28732.049910074464, -24368.944688909614, -3346.1008484483777, -26140.968637581904, -3638.8863490684453, -28723.95857858164, -33859.629495099725, -27689.519845190032, -10727.384475157794, -22769.051524287646, -35118.59150154489, 0.042, 0.47600000000000003, -0.083, 192.0, 0.0, 0.0, 0.0, 0.0, 0.0, 0.0, 0.0, 0.0, 0.0, 1.668976755895416E9, 0.0, 2022-11-20 15:39:15.895
206.0, -18172.70584973167, 22641.892450081403, -35925.802400803856, -34897.063362248344, -28055.529660645683, -28787.12460841234, -24422.07478547988, -3394.9617618276793, -26065.598555278608, -3565.483220277217, -28652.85767946931, -33790.60730822173, -27624.69978626964, -10663.346727293341, -22707.897151457924, -35055.93956183667, 0.042, 0.47600000000000003, -0.083, 192.0, 0.0, 0.0, 0.0, 0.0, 0.0, 0.0, 0.0, 0.0, 0.0, 1.6689767558954225E9, 0.0, 2022-11-20 15:39:15.895
208.0, -18149.482387242602, 22187.01209867145, -35902.71304878152, -34865.90503047765, -28036.150698202935, -28769.690247737202, -24409.17782892917, -3387.228058246143, -26146.668332418005, -3652.5432649306376, -28732.809869385943, -33877.35442845278, -27704.562569208454, -10746.94225155619, -22796.90179787896, -35145.05596697998, 0.042, 0.47600000000000003, -0.083, 192.0, 0.0, 0.0, 0.0, 0.0, 0.0, 0.0, 0.0, 0.0, 0.0, 1.668976755895429E9, 0.0, 2022-11-20 15:39:15.895
210.0, -18162.804026937967, 22643.90410708238, -35908.189226173075, -34881.506548107456, -28045.136099473966, -28779.100332152884, -24416.397442388232, -3387.1162995238665, -26066.157348889992, -3571.89817093589, -28651.784795735457, -33792.3283925448, -27622.062280423914, -10668.755849451525, -22720.63764579745, -35069.618829443316, 0.042, 0.47600000000000003, -0.083, 192.0, 0.0, 0.0, 0.0, 0.0, 0.0, 0.0, 0.0, 0.0, 0.0, 1.6689767558954358E9, 0.0, 2022-11-20 15:39:15.895
212.0, -18146.666067441234, 22229.77098581445, -35906.1775691721, -34854.28212336089, -28040.911619771912, -28767.633887247313, -24406.31680563889, -3378.9802645421346, -26143.18146028298, -3637.6570031234032, -28730.77586064051, -33860.76943406695, -27702.461505229654, -10740.147321241775, -22795.136010066988, -35133.76833603005, 0.065, 0.7120000000000001, -0.1235, 192.0, 1.0, 96.0, 14.5, 80.0, 125.0, 112.0, 0.0, 0.0, 0.0, 1.668976755895443E9, 0.0, 2022-11-20 15:39:15.895
214.0, -18149.08005584241, 22632.124737754435, -35902.15425517014, -34860.56296355283, -28033.893172012948, -28766.963334913653, -24400.59475905833, -3371.2465609605983, -26061.999924421303, -3560.4540777747725, -28644.073443898375, -33775.85515688123, -27616.787268732463, -10651.947337621134, -22709.282959614153, -35048.138803021764, 0.065, 0.7120000000000001, -0.1235, 192.0, 0.0, 0.0, 0.0, 0.0, 0.0, 0.0, 0.0, 0.0, 0.0, 1.6689767558954504E9, 0.0, 2022-11-20 15:39:15.895
216.0, -18153.148073333272, 22259.811730362384, -35914.06773496482, -34855.64557977267, -28039.68227382687, -28768.237384347605, -24406.383860872254, -3378.4438226752072, -26147.070663818202, -3637.43348567885, -28732.251075774562, -33861.149413722684, -27707.691813432197, -10739.789693330491, -22787.514065207728, -35130.437926106206, 0.065, 0.7120000000000001, -0.1235, 192.0, 0.0, 0.0, 0.0, 0.0, 0.0, 0.0, 0.0, 0.0, 0.0, 1.6689767558954568E9, 0.0, 2022-11-20 15:39:15.895
218.0, -18139.871137126822, 22602.37456588442, -35887.44680731855, -34845.40848081213, -28019.610407306005, -28747.427910259714, -24387.83191297435, -3357.5002381205845, -26065.039761667224, -3559.671766718837, -28637.680844984156, -33773.91055511362, -27616.720213499095, -10645.219462540086, -22700.45402055431, -35044.42841344218, 0.065, 0.7120000000000001, -0.1235, 192.0, 0.0, 0.0, 0.0, 0.0, 0.0, 0.0, 0.0, 0.0, 0.0, 1.6689767558954644E9, 0.0, 2022-11-20 15:39:15.895
220.0, -18163.899262416275, 22307.331539074366, -35917.48755186648, -34862.41815834262, -28047.237163452766, -28769.64554424829, -24410.384823129752, -3384.0764622779448, -26142.019169571304, -3628.4927878967274, -28724.852648359854, -33853.750986307976, -27703.936720363705, -10727.65269609126, -22779.266271503722, -35121.29606262399, 0.065, 0.7120000000000001, -0.1235, 192.0, 0.0, 0.0, 0.0, 0.0, 0.0, 0.0, 0.0, 0.0, 0.0, 1.668976755895472E9, 0.0, 2022-11-20 15:39:15.895
222.0, -18141.6816284277, 22564.488359032675, -35887.78208348538, -34843.106251133235, -28018.78339276116, -28739.090709577886, -24382.601604771808, -3354.5051043635735, -26069.443055324922, -3561.7728306976355, -28643.268781097984, -33773.79879639135, -27617.100193154838, -10645.174759051175, -22707.181895635356, -35048.11645127731, 0.07450000000000001, 0.8260000000000001, -0.14375, 192.0, 1.0, 80.0, 14.5, 48.0, 125.0, 112.0, 0.0, 0.0, 0.0, 1.6689767558954773E9, 0.0, 2022-11-20 15:39:15.895
224.0, -18197.873913988344, 22338.109891189324, -35945.53899115789, -34891.3860191567, -28076.786169622683, -28790.49972182509, -24435.664646108708, -3406.4058549887964, -26160.437007002474, -3641.1215235139757, -28746.712654437146, -33867.02792251443, -27719.314720548955, -10741.68959160919, -22796.432411245398, -35133.27659765203, 0.07450000000000001, 0.8260000000000001, -0.14375, 192.0, 0.0, 0.0, 0.0, 0.0, 0.0, 0.0, 0.0, 0.0, 0.0, 1.6689767558954823E9, 0.0, 2022-11-20 15:39:15.895
226.0, -18132.02567482301, 22504.228055981166, -35872.940525167054, -34832.489172516965, -28008.099258911523, -28728.92066585072, -24372.431561044643, -3344.066839702945, -26081.535349075242, -3585.0633484200657, -28652.589458535847, -33790.71906694402, -27625.102117669838, -10661.82680867038, -22717.776622507172, -35056.31954149241, 0.07450000000000001, 0.8260000000000001, -0.14375, 192.0, 0.0, 0.0, 0.0, 0.0, 0.0, 0.0, 0.0, 0.0, 0.0, 1.6689767558955152E9, 0.0, 2022-11-20 15:39:15.895
228.0, -18202.612483812867, 22392.558740682452, -35936.64299686468, -34895.94577502558, -28075.93680333338, -28801.206207419185, -24441.69961711164, -3414.385427759341, -26138.26407650281, -3638.8639973239897, -28724.427965215204, -33856.50025087598, -27701.276862773524, -10736.436931662194, -22774.684163890382, -35120.916082968244, 0.07450000000000001, 0.8260000000000001, -0.14375, 192.0, 0.0, 0.0, 0.0, 0.0, 0.0, 0.0, 0.0, 0.0, 0.0, 1.6689767558955204E9, 0.0, 2022-11-20 15:39:15.895
230.0, -18119.24047699457, 22447.856956464882, -35846.587818454245, -34816.30650953132, -27991.469561036774, -28723.95857858164, -24363.334401051332, -3340.155284423266, -26085.089276443636, -3602.184784672831, -28655.025798681476, -33798.89980541466, -27630.198315405647, -10676.377794310785, -22715.966131206293, -35068.903573620744, 0.07450000000000001, 0.8260000000000001, -0.14375, 192.0, 0.0, 0.0, 0.0, 0.0, 0.0, 0.0, 0.0, 0.0, 0.0, 1.6689767558955252E9, 0.0, 2022-11-20 15:39:15.895
232.0, -18198.678576788734, 22455.81417749097, -35928.41755490513, -34898.78444657141, -28067.130216017988, -28800.513303341068, -24437.095157753847, -3413.8489858924136, -26109.318567433187, -3607.9291829978447, -28694.431924156183, -33825.87836097221, -27668.777426335506, -10712.699379050659, -22742.83292804157, -35101.24654784758, 0.08025000000000002, 0.8840000000000001, -0.15587499999999999, 192.0, 1.0, 88.0, 14.5, 56.0, 125.0, 96.0, 0.0, 0.0, 0.0, 1.6689767558955305E9, 0.0, 2022-11-20 15:39:15.895
234.0, -18126.035407308987, 22389.742420881084, -35865.51974600789, -34829.00230038194, -27999.82911346306, -28726.64078791628, -24368.29648832041, -3344.1785984252215, -26100.333166162156, -3617.5851366025377, -28671.29786864494, -33816.64709051217, -27642.84940276735, -10694.750928253046, -22738.295523917142, -35091.99292564308, 0.08025000000000002, 0.8840000000000001, -0.15587499999999999, 192.0, 0.0, 0.0, 0.0, 0.0, 0.0, 0.0, 0.0, 0.0, 0.0, 1.6689767558955355E9, 0.0, 2022-11-20 15:39:15.895
236.0, -18193.761193008566, 22522.355320734423, -35931.83737180679, -34886.37922839871, -28067.89017532947, -28786.476407823135, -24431.574276873383, -3402.7625206425814, -26113.587750624152, -3601.7377497837247, -28694.275461944995, -33821.095087658774, -27674.566528149433, -10710.419501116217, -22752.779454324183, -35099.547815268976, 0.08025000000000002, 0.8840000000000001, -0.15587499999999999, 192.0, 0.0, 0.0, 0.0, 0.0, 0.0, 0.0, 0.0, 0.0, 0.0, 1.6689767558955405E9, 0.0, 2022-11-20 15:39:15.895
238.0, -18101.62730236379, 22358.271164688013, -35847.81716439929, -34797.19576802204, -27987.91563366838, -28706.457162673138, -24351.264459045466, -3325.872519716325, -26092.800628280715, -3593.0429211906103, -28659.04911268343, -33795.949375146556, -27639.630751565786, -10676.646015244249, -22731.67940755837, -35076.16789056872, 0.08025000000000002, 0.8840000000000001, -0.15587499999999999, 192.0, 0.0, 0.0, 0.0, 0.0, 0.0, 0.0, 0.0, 0.0, 0.0, 1.6689767558955452E9, 0.0, 2022-11-20 15:39:15.895
240.0, -18194.431745342226, 22568.93635617928, -35937.24649396497, -34891.989516256996, -28077.009687067235, -28801.765001030566, -24445.477061924586, -3417.4476167497182, -26093.627642825562, -3585.286865864619, -28675.410589624717, -33800.93381416009, -27658.205051208148, -10692.381643340785, -22736.082701216066, -35082.627544716306, 0.08025000000000002, 0.8840000000000001, -0.15587499999999999, 192.0, 0.0, 0.0, 0.0, 0.0, 0.0, 0.0, 0.0, 0.0, 0.0, 1.6689767558955505E9, 0.0, 2022-11-20 15:39:15.895
242.0, -18107.55051464445, 22300.380146548767, -35852.0639958458, -34797.50869244441, -27991.223691847765, -28715.30845347744, -24363.088531862322, -3338.0095169555566, -26105.1611429645, -3608.465624864772, -28673.555394834926, -33809.293366586375, -27651.61128659383, -10692.78397474098, -22743.771701308695, -35084.79566392847, 0.084125, 0.9160000000000001, -0.1629375, 192.0, 1.0, 96.0, 14.5, 80.0, 125.0, 88.0, 0.0, 0.0, 0.0, 1.6689767558955553E9, 0.0, 2022-11-20 15:39:15.895
244.0, -18191.570722051947, 22610.354138654966, -35929.26692119443, -34880.94775449607, -28069.74537011926, -28787.83986423491, -24438.816242076904, -3409.468043979173, -26087.88324450055, -3578.6260460169374, -28670.58261282237, -33795.56939549081, -27644.816356279418, -10680.423460057194, -22728.237238912254, -35060.32050374991, 0.084125, 0.9160000000000001, -0.1629375, 192.0, 0.0, 0.0, 0.0, 0.0, 0.0, 0.0, 0.0, 0.0, 0.0, 1.6689767558955603E9, 0.0, 2022-11-20 15:39:15.895
246.0, -18106.857610566334, 22265.466721709578, -35847.41483299909, -34793.01599180889, -27986.909805167892, -28704.847837072353, -24358.506424248986, -3334.4108860982524, -26116.82875357017, -3612.757159800191, -28688.419304897703, -33819.82103822482, -27656.61807735182, -10695.510887564527, -22748.77849206668, -35081.24173656008, 0.084125, 0.9160000000000001, -0.1629375, 192.0, 0.0, 0.0, 0.0, 0.0, 0.0, 0.0, 0.0, 0.0, 0.0, 1.6689767558955653E9, 0.0, 2022-11-20 15:39:15.895
248.0, -18181.199512624684, 22648.329752484533, -35921.890845524176, -34881.975934741014, -28063.531585160687, -28783.347163599392, -24428.73560532756, -3401.287305508531, -26072.19231989292, -3556.967205639745, -28651.80714747991, -33774.69286616956, -27622.777536246485, -10658.33993653535, -22705.103183401014, -35040.49450641805, 0.084125, 0.9160000000000001, -0.1629375, 192.0, 0.0, 0.0, 0.0, 0.0, 0.0, 0.0, 0.0, 0.0, 0.0, 1.6689767558955703E9, 0.0, 2022-11-20 15:39:15.895
250.0, -18104.01893902051, 22242.64559062071, -35856.22142031448, -34806.22587278198, -27996.230482605755, -28712.91681682072, -24357.992334126513, -3333.673278531227, -26131.40209095503, -3625.1623779728866, -28702.21033122663, -33831.9356837196, -27676.645240383776, -10712.341751139373, -22763.26242247372, -35099.57016701343, 0.084125, 0.9160000000000001, -0.1629375, 192.0, 0.0, 0.0, 0.0, 0.0, 0.0, 0.0, 0.0, 0.0, 0.0, 1.6689767558955753E9, 0.0, 2022-11-20 15:39:15.895
252.0, -18157.01492512404, 22679.219863321767, -35906.60225231675, -34869.21308865704, -28049.74055883176, -28767.92445992523, -24407.702613795118, -3379.0026162865897, -26052.612191750075, -3535.151903051365, -28630.304769313905, -33751.603514147224, -27605.79021046045, -10639.00567758151, -22694.329642573553, -35029.25157895703, 0.084125, 0.9160000000000001, -0.1629375, 192.0, 0.0, 0.0, 0.0, 0.0, 0.0, 0.0, 0.0, 0.0, 0.0, 1.6689767558955803E9, 0.0, 2022-11-20 15:39:15.895
254.0, -18118.34640721636, 22220.606770587776, -35874.63925774566, -34825.09074510226, -28009.283901367653, -28728.02659607251, -24364.54139525192, -3338.322441377931, -26131.916181077504, -3620.401456403906, -28708.446467929658, -33830.39341335218, -27676.421722939223, -10710.061873204932, -22769.36444871002, -35105.18045487171, 0.098, 0.9460000000000001, -0.17200000000000001, 192.0, 1.5, 8.0, 14.5, 72.0, 125.0, 80.0, 0.0, 0.0, 0.0, 1.6689767558955853E9, 0.0, 2022-11-20 15:39:15.895
0.0, -18167.5873002514, 22655.10233105449, -35910.91613899662, -34880.858347518246, -28048.064177997614, -28770.249041348583, -24404.260445149, -3373.973473784146, -26068.839558224627, -3557.593054484493, -28646.643894510737, -33771.720084157, -27609.344137828844, -10645.711200918104, -22706.287825857144, -35044.13784076427, 0.098, 0.9460000000000001, -0.17200000000000001, 192.0, 0.0, 0.0, 0.0, 0.0, 0.0, 0.0, 0.0, 0.0, 0.0, 1.6689767558955903E9, 0.0, 2022-11-20 15:39:15.895
2.0, -18132.8303376234, 22217.20930543057, -35888.85496721923, -34839.1723441091, -28018.761041016704, -28734.419194986727, -24374.331459323344, -3343.686860047205, -26145.707207406427, -3633.0301920211546, -28722.05868030294, -33850.21941068404, -27683.19430150918, -10716.610934330338, -22781.099114549055, -35115.08227766541, 0.098, 0.9460000000000001, -0.17200000000000001, 192.0, 0.0, 0.0, 0.0, 0.0, 0.0, 0.0, 0.0, 0.0, 0.0, 1.6689767558955965E9, 0.0, 2022-11-20 15:39:15.895
4.0, -18148.565965719936, 22640.90897332537, -35899.226176646494, -34857.36666409572, -28027.21000042081, -28744.723349180622, -24385.954366440103, -3348.7160025496487, -26066.2020523789, -3552.474505004228, -28642.352359575318, -33770.20016553404, -27602.638614492254, -10633.373037978774, -22709.394718336433, -35037.05233777194, 0.098, 0.9460000000000001, -0.17200000000000001, 192.0, 0.0, 0.0, 0.0, 0.0, 0.0, 0.0, 0.0, 0.0, 0.0, 1.6689767558956015E9, 0.0, 2022-11-20 15:39:15.895
6.0, -18143.87209938432, 22231.40266315969, -35894.93464171108, -34840.804021454336, -28020.683291039863, -28737.235514788095, -24377.997145414014, -3340.490560590096, -26135.917143335002, -3620.4238081483613, -28714.10145927685, -33842.93274199161, -27675.840577583385, -10704.429233602195, -22778.103980792046, -35104.59930951587, 0.098, 0.9460000000000001, -0.17200000000000001, 192.0, 0.0, 0.0, 0.0, 0.0, 0.0, 0.0, 0.0, 0.0, 0.0, 1.6689767558956065E9, 0.0, 2022-11-20 15:39:15.895
8.0, -18157.707829202154, 22612.745775311683, -35891.00073468694, -34852.09165240427, -28024.617198063996, -28740.476517734114, -24385.797904228915, -3342.412810613252, -26072.237023381833, -3557.5259992511274, -28642.33000783086, -33774.64816268065, -27601.386916802756, -10631.00375306651, -22709.752346247715, -35038.39344243925, 0.09, 0.9480000000000001, -0.17, 192.0, 1.0, 104.0, 14.5, 80.0, 125.0, 88.0, 0.0, 0.0, 0.0, 1.6689767558956113E9, 0.0, 2022-11-20 15:39:15.895
10.0, -18154.913861145244, 22276.35202125931, -35890.26312711991, -34836.44543128555, -28028.305235899123, -28736.721424665622, -24385.887311206738, -3343.776267025026, -26147.160070796024, -3622.2790029381517, -28721.54459018047, -33849.12417520573, -27683.887205587293, -10701.612913800825, -22782.41786747192, -35107.59444327289, 0.09, 0.9480000000000001, -0.17, 192.0, 0.0, 0.0, 0.0, 0.0, 0.0, 0.0, 0.0, 0.0, 0.0, 1.6689767558956163E9, 0.0, 2022-11-20 15:39:15.895
12.0, -18137.010113836543, 22593.52327508012, -35864.89389716314, -34823.70493694603, -28009.328604856564, -28716.649558144756, -24364.876671418748, -3321.558633036451, -26064.995058178316, -3539.8681211314347, -28625.09681285582, -33755.49271768245, -27592.960309143105, -10609.970761534067, -22697.995328664223, -35021.227302697574, 0.09, 0.9480000000000001, -0.17, 192.0, 0.0, 0.0, 0.0, 0.0, 0.0, 0.0, 0.0, 0.0, 0.0, 1.6689767558956213E9, 0.0, 2022-11-20 15:39:15.895
14.0, -18166.603823495367, 22311.220742609592, -35902.020144703405, -34852.538687293374, -28044.756119818227, -28752.32294229543, -24399.030136946458, -3357.9249212652353, -26143.449681216443, -3610.0078952321883, -28714.570845910413, -33840.205829168066, -27686.39060096629, -10698.416614343718, -22777.0758005471, -35105.94041418319, 0.09, 0.9480000000000001, -0.17, 192.0, 0.0, 0.0, 0.0, 0.0, 0.0, 0.0, 0.0, 0.0, 0.0, 1.6689767558956263E9, 0.0, 2022-11-20 15:39:15.895
16.0, -18139.938192360187, 22524.724605646683, -35867.93373440907, -34828.93524514857, -28011.54142755764, -28721.276369247007, -24368.29648832041, -3325.5595952939507, -26064.97270643386, -3547.7582869241583, -28626.460269267594, -33762.06413055231, -27597.497713267534, -10614.083482513845, -22698.621177508972, -35034.1689627372, 0.09, 0.9480000000000001, -0.17, 192.0, 0.0, 0.0, 0.0, 0.0, 0.0, 0.0, 0.0, 0.0, 0.0, 1.6689767558956313E9, 0.0, 2022-11-20 15:39:15.895
18.0, -18174.628099754824, 22347.89995526075, -35911.16200818563, -34864.04983568786, -28052.199250721846, -28761.263640077552, -24408.194352173134, -3366.7538603250814, -26147.160070796024, -3620.177938959353, -28723.06450880343, -33849.70532056157, -27695.040726070492, -10704.563344068927, -22785.524759951208, -35120.62551029033, 0.096, 0.9400000000000001, -0.168, 192.0, 1.5, 0.0, 14.5, 48.0, 125.0, 96.0, 0.0, 0.0, 0.0, 1.6689767558956363E9, 0.0, 2022-11-20 15:39:15.895
20.0, -18099.34742442935, 22499.735355345652, -35833.46734445898, -34793.84300635374, -27976.605650973997, -28689.91687177621, -24334.500650703987, -3291.964923377624, -26046.398406791497, -3533.609632683949, -28608.42241149216, -33746.797889089336, -27582.387934015744, -10600.71713932957, -22689.747534960217, -35024.44595389914, 0.096, 0.9400000000000001, -0.168, 192.0, 0.0, 0.0, 0.0, 0.0, 0.0, 0.0, 0.0, 0.0, 0.0, 1.6689767558956416E9, 0.0, 2022-11-20 15:39:15.895
22.0, -18177.913806189754, 22408.249665290077, -35910.58086282979, -34861.83701298678, -28048.488861142265, -28763.521166267536, -24405.556846327407, -3364.7645550685593, -26110.816134311695, -3587.90201996589, -28685.066543229408, -33811.50618928745, -27662.69775184366, -10675.371965810296, -22751.41599791241, -35090.942393653684, 0.096, 0.9400000000000001, -0.168, 192.0, 0.0, 0.0, 0.0, 0.0, 0.0, 0.0, 0.0, 0.0, 0.0, 1.6689767558956463E9, 0.0, 2022-11-20 15:39:15.895
24.0, -18119.419290950216, 22413.30115953698, -35845.20201029802, -34799.96738433449, -27979.66783996437, -28697.49411314656, -24337.62989492773, -3300.391531037275, -26079.076657185156, -3566.2655313331525, -28636.76442346149, -33770.915421356614, -27610.215855862603, -10626.82397685337, -22706.041956668134, -35051.26804724551, 0.096, 0.9400000000000001, -0.168, 192.0, 0.0, 0.0, 0.0, 0.0, 0.0, 0.0, 0.0, 0.0, 0.0, 1.6689767558956516E9, 0.0, 2022-11-20 15:39:15.895
26.0, -18197.493934332604, 22445.666485508264, -35924.77422055891, -34883.652315575164, -28053.808576322626, -28773.758265228065, -24407.993186473035, -3369.3690144263524, -26115.755869836317, -3591.8806304789346, -28692.420267155205, -33819.19518938007, -27660.03789425348, -10672.622701242293, -22737.960247750314, -35088.52840525251, 0.096, 0.9400000000000001, -0.168, 192.0, 0.0, 0.0, 0.0, 0.0, 0.0, 0.0, 0.0, 0.0, 0.0, 1.6689767558956566E9, 0.0, 2022-11-20 15:39:15.895
28.0, -18116.91589557122, 22353.107911718835, -35851.75107142342, -34815.434791497566, -27983.177063843857, -28705.339575450373, -24338.09928156129, -3300.011551381535, -26100.914311517994, -3592.0147409456663, -28662.893612729742, -33803.54896826136, -27630.66770203921, -10653.19903531063, -22720.63764579745, -35076.0784835909, 0.09, 0.9400000000000001, -0.168, 192.0, 1.0, 104.0, 14.5, 48.0, 125.0, 96.0, 0.0, 0.0, 0.0, 1.6689767558956616E9, 0.0, 2022-11-20 15:39:15.895
30.0, -18200.08673668942, 22493.92390178727, -35933.67021485212, -34902.58424312881, -28063.397474693953, -28784.531806055526, -24416.17392494368, -3379.539058153517, -26110.346747678133, -3596.5521450700935, -28688.48636013107, -33823.03968942639, -27660.194356464668, -10685.542009537461, -22743.503480375228, -35098.7878559575, 0.09, 0.9400000000000001, -0.168, 192.0, 0.0, 0.0, 0.0, 0.0, 0.0, 0.0, 0.0, 0.0, 0.0, 1.6689767558956664E9, 0.0, 2022-11-20 15:39:15.895
32.0, -18118.413462449727, 22300.98364364906, -35856.04260635884, -34814.69718393054, -27981.97006964327, -28700.198674225652, -24332.66780765865, -3299.028074625501, -26109.050346499724, -3600.7989765166017, -28669.599136066336, -33812.40025906566, -27639.65310331024, -10667.72766920658, -22734.942762248847, -35092.43996053219, 0.09, 0.9400000000000001, -0.168, 192.0, 0.0, 0.0, 0.0, 0.0, 0.0, 0.0, 0.0, 0.0, 0.0, 1.6689767558956714E9, 0.0, 2022-11-20 15:39:15.895
34.0, -18219.08571947643, 22529.753748149127, -35949.5846569043, -34913.782467100915, -28075.199195766356, -28793.628966048836, -24423.68411108066, -3384.2776279780423, -26107.083392987657, -3578.603694272482, -28682.898424017243, -33807.70639273005, -27651.298362171456, -10662.922044148689, -22732.998160481235, -35088.75192269706, 0.09, 0.9400000000000001, -0.168, 192.0, 0.0, 0.0, 0.0, 0.0, 0.0, 0.0, 0.0, 0.0, 0.0, 1.668976755895678E9, 0.0, 2022-11-20 15:39:15.895
36.0, -18129.187003277184, 22239.717512097064, -35866.77144369739, -34829.00230038194, -27992.140113370435, -28716.20252325565, -24341.563801951863, -3308.482862530096, -26147.093015562656, -3631.174997231364, -28709.564055152427, -33844.47501235903, -27674.790045593985, -10695.712053264626, -22765.631707385983, -35126.101687681876, 0.09, 0.9400000000000001, -0.168, 192.0, 0.0, 0.0, 0.0, 0.0, 0.0, 0.0, 0.0, 0.0, 0.0, 1.668976755895683E9, 0.0, 2022-11-20 15:39:15.895
38.0, -18197.449230843693, 22588.09180117748, -35924.595406603265, -34896.884548292706, -28053.808576322626, -28782.028410676532, -24404.528666082464, -3367.3126539364644, -26092.755924791807, -3571.7193569802475, -28666.604002309323, -33797.67045946961, -27636.23328640858, -10655.702430689626, -22714.15563990541, -35077.75486442505, 0.088, 0.9420000000000001, -0.17, 192.0, 1.0, 96.0, 14.5, 56.0, 125.0, 88.0, 0.0, 0.0, 0.0, 1.668976755895688E9, 0.0, 2022-11-20 15:39:15.895
40.0, -18127.48827069858, 22213.49891585099, -35852.01929235688, -34814.67483218609, -27984.808741189092, -28710.927511564198, -24338.211040283568, -3301.9561531491463, -26137.03473055777, -3624.8718052949675, -28697.471761402103, -33838.12711693372, -27669.872661813817, -10692.806326485435, -22751.617163612507, -35110.14254214079, 0.088, 0.9420000000000001, -0.17, 192.0, 0.0, 0.0, 0.0, 0.0, 0.0, 0.0, 0.0, 0.0, 0.0, 1.6689767558956933E9, 0.0, 2022-11-20 15:39:15.895
42.0, -18190.274320873537, 22609.32595841002, -35913.48658960898, -34884.8816615202, -28042.58800060606, -28772.12658788283, -24397.376107856766, -3357.8802177763246, -26075.612136794585, -3564.2985778210855, -28645.883935199254, -33781.55485171734, -27619.782402489473, -10641.844349127336, -22697.54829377512, -35055.358416480834, 0.088, 0.9420000000000001, -0.17, 192.0, 0.0, 0.0, 0.0, 0.0, 0.0, 0.0, 0.0, 0.0, 0.0, 1.668976755895698E9, 0.0, 2022-11-20 15:39:15.895
44.0, -18143.000381350565, 22184.39694457018, -35877.43322580257, -34829.35992829322, -28001.63960476394, -28725.657311160245, -24353.142005579713, -3318.965830679635, -26139.69458814795, -3631.6890873538364, -28706.770087095512, -33842.37394838023, -27676.399371194766, -10701.54585856746, -22766.861053331024, -35117.58567304441, 0.088, 0.9420000000000001, -0.17, 192.0, 0.0, 0.0, 0.0, 0.0, 0.0, 0.0, 0.0, 0.0, 0.0, 1.6689767558957033E9, 0.0, 2022-11-20 15:39:15.895
46.0, -18199.41618435576, 22605.794382786084, -35924.70716532555, -34892.235385446, -28053.40624492243, -28781.044933920497, -24403.478134093064, -3364.518685879551, -26089.559625334696, -3574.3792145704288, -28663.13948191875, -33792.17193033361, -27629.058376438425, -10651.209730054108, -22717.35193936252, -35064.63439042978, 0.088, 0.9420000000000001, -0.17, 192.0, 0.0, 0.0, 0.0, 0.0, 0.0, 0.0, 0.0, 0.0, 0.0, 1.668976755895708E9, 0.0, 2022-11-20 15:39:15.895
48.0, -18134.64082892428, 22187.34737483828, -35873.856946689724, -34828.10823060373, -28000.142037885435, -28723.623302414813, -24347.28584853242, -3313.1543771212555, -26147.674160918494, -3636.829988578557, -28719.64469190177, -33854.33213166382, -27684.982441065604, -10708.631361559792, -22774.17007376791, -35122.77127775804, 0.09, 0.9460000000000001, -0.168, 192.0, 1.0, 104.0, 14.5, 72.0, 125.0, 96.0, 0.0, 0.0, 0.0, 1.668976755895713E9, 0.0, 2022-11-20 15:39:15.895
50.0, -18181.35597483587, 22617.41728990284, -35909.15035118465, -34877.52793759441, -28041.40335814993, -28765.711637224154, -24393.3080903659, -3351.0852874619113, -26062.78223547724, -3553.4579817602616, -28634.864525182787, -33772.83767137977, -27607.60070176133, -10627.181604764653, -22696.654223996906, -35046.08244253188, 0.09, 0.9460000000000001, -0.168, 192.0, 0.0, 0.0, 0.0, 0.0, 0.0, 0.0, 0.0, 0.0, 0.0, 1.668976755895718E9, 0.0, 2022-11-20 15:39:15.895
52.0, -18162.06641937094, 22182.541749780386, -35892.028914931885, -34846.07903314579, -28020.526828828675, -28743.762224169044, -24376.097247135313, -3339.3059181339645, -26156.614858700617, -3643.9378433153447, -28727.423098972216, -33863.92103003514, -27700.38279299531, -10715.40394012975, -22784.27306226171, -35134.3941848748, 0.09, 0.9460000000000001, -0.168, 192.0, 0.0, 0.0, 0.0, 0.0, 0.0, 0.0, 0.0, 0.0, 0.0, 1.668976755895723E9, 0.0, 2022-11-20 15:39:15.895
54.0, -18192.39773659679, 22584.13554240889, -35914.58182508729, -34884.72519930902, -28045.672541340893, -28771.925422182732, -24408.35081438432, -3368.162020225766, -26085.82688401066, -3572.4793162917276, -28652.209478880108, -33790.003811121445, -27624.14099265826, -10640.235023526553, -22717.35193936252, -35064.232059029586, 0.09, 0.9460000000000001, -0.168, 192.0, 0.0, 0.0, 0.0, 0.0, 0.0, 0.0, 0.0, 0.0, 0.0, 1.6689767558957295E9, 0.0, 2022-11-20 15:39:15.895
56.0, -18173.085829387408, 22202.21128490106, -35904.09885693775, -34860.49590831946, -28038.676445326382, -28761.241288333094, -24400.080668935858, -3362.708194578671, -26167.835434417182, -3653.079706797565, -28736.274389776518, -33873.30876270637, -27710.843409400393, -10729.284373436496, -22801.595664214572, -35145.413594891266, 0.09, 0.9460000000000001, -0.168, 192.0, 0.0, 0.0, 0.0, 0.0, 0.0, 0.0, 0.0, 0.0, 0.0, 1.6689767558957365E9, 0.0, 2022-11-20 15:39:15.895
58.0, -18154.77975067851, 22583.017955186126, -35881.65770550462, -34851.19758262606, -28023.1643346744, -28743.650465446768, -24380.053505903903, -3338.545958822484, -26080.708334530394, -3569.439479045806, -28638.552563017915, -33780.30315402784, -27615.4685158096, -10638.29042175894, -22715.139116661445, -35057.70534964864, 0.082, 0.9520000000000001, -0.162, 192.0, 1.0, 72.0, 14.5, 96.0, 125.0, 120.0, 0.0, 0.0, 0.0, 1.6689767558957436E9, 0.0, 2022-11-20 15:39:15.895
60.0, -18175.566873021948, 22243.204384232093, -35909.12799944019, -34861.74760600896, -28048.913544286916, -28766.538651769002, -24401.77940151446, -3361.635310844816, -26150.423425486497, -3631.510273398194, -28715.286101732985, -33850.10765196176, -27699.95810985066, -10716.588582585882, -22785.055373317646, -35125.58759755941, 0.082, 0.9520000000000001, -0.162, 192.0, 0.0, 0.0, 0.0, 0.0, 0.0, 0.0, 0.0, 0.0, 0.0, 1.668976755895818E9, 0.0, 2022-11-20 15:39:15.895
0.0, -9083.011339069764, 11363.850398522663, -17935.352675360762, -17409.393776582932, -14004.261971028087, -14350.959879274355, -12180.583140919583, -1656.174857160432, -13024.652066785344, -1768.045338159244, -14305.228210118798, -16872.728392211007, -13797.150706905211, -5306.460595901084, -11340.984563944885, -17511.764766188237, 0.08, 0.9500000000000001, -0.162, 192.0, 1.0, 64.0, 14.5, 88.0, 125.0, 120.0, 0.0, 0.0, 0.0, 1.6689767564900544E9, 0.0, 2022-11-20 15:39:16.490
2.0, -18178.293785845493, 22300.5142570155, -35881.38948457116, -34819.838085155265, -28014.491857825742, -28712.715651120623, -24367.938860409125, -3323.033848170501, -26150.222259786402, -3540.8515978874684, -28680.238566427062, -33774.84932838075, -27688.80458936746, -10637.306945002907, -22728.55016333463, -35066.86956487531, 0.08, 0.9500000000000001, -0.162, 192.0, 0.0, 0.0, 0.0, 0.0, 0.0, 0.0, 0.0, 0.0, 0.0, 1.6689767564901357E9, 0.0, 2022-11-20 15:39:16.490
4.0, -18149.6835529427, 22505.16682924829, -35839.591722439734, -34797.12871278867, -27970.19070031532, -28685.021839740497, -24331.1925925246, -3287.6286849532944, -26100.511980117797, -3508.352161449452, -28621.408775020693, -33727.351871413215, -27619.067146666905, -10586.18850543362, -22671.86613939597, -35019.2156456966, 0.08, 0.9500000000000001, -0.162, 192.0, 0.0, 0.0, 0.0, 0.0, 0.0, 0.0, 0.0, 0.0, 0.0, 1.6689767564901476E9, 0.0, 2022-11-20 15:39:16.490
6.0, -18203.640664057813, 22343.13903369177, -35890.978382942485, -34834.724346962495, -28017.44228809384, -28733.949808353165, -24373.906776178694, -3332.958022708657, -26156.547803467252, -3562.309272564563, -28695.63891835677, -33795.591747235274, -27683.306060231458, -10660.955090636622, -22725.823250511083, -35080.861756904334, 0.08, 0.9500000000000001, -0.162, 192.0, 0.0, 0.0, 0.0, 0.0, 0.0, 0.0, 0.0, 0.0, 0.0, 1.668976756490153E9, 0.0, 2022-11-20 15:39:16.490
8.0, -18153.036314610996, 22450.986200688625, -35838.697652661525, -34775.76044508939, -27963.10519732299, -28672.52721458998, -24318.988540052003, -3274.4635074691187, -26098.187398694445, -3512.7778068516027, -28625.968530889575, -33729.318824925285, -27602.437448792156, -10589.697729313104, -22661.025543335145, -35006.85513101282, 0.08600000000000001, 0.9540000000000001, -0.16, 192.0, 1.0, 88.0, 14.5, 104.0, 125.5, 0.0, 0.0, 0.0, 0.0, 1.6689767564901583E9, 0.0, 2022-11-20 15:39:16.490
10.0, -18227.445271902714, 22387.61900515783, -35921.1308862127, -34847.308379090835, -28043.41501515091, -28737.950770610663, -24392.436372332144, -3345.6985170481826, -26163.52154773731, -3564.0080051431664, -28706.948901051153, -33798.43041878109, -27686.278842244014, -10657.714087690603, -22730.02537846868, -35062.04158807297, 0.08600000000000001, 0.9540000000000001, -0.16, 192.0, 0.0, 0.0, 0.0, 0.0, 0.0, 0.0, 0.0, 0.0, 0.0, 1.6689767564901638E9, 0.0, 2022-11-20 15:39:16.490
12.0, -18140.474634227114, 22398.28078726301, -35842.78802189684, -34774.75461658891, -27967.419084002864, -28656.56806904889, -24318.42974644062, -3274.262341769021, -26123.802497840228, -3528.580490181505, -28649.460214312105, -33750.44122343555, -27635.60743756383, -10599.867773040269, -22690.239273338233, -35025.45178239963, 0.08600000000000001, 0.9540000000000001, -0.16, 192.0, 0.0, 0.0, 0.0, 0.0, 0.0, 0.0, 0.0, 0.0, 0.0, 1.6689767564901693E9, 0.0, 2022-11-20 15:39:16.490
14.0, -18220.13625146583, 22451.58969778892, -35926.852932793256, -34862.17228915361, -28054.099149000544, -28739.761261911546, -24402.11467768129, -3356.1367817088108, -26142.17563178249, -3531.553272194061, -28683.72543856209, -33777.10685457073, -27678.634545640296, -10628.321543731874, -22723.11868943199, -35064.433224729684, 0.08600000000000001, 0.9540000000000001, -0.16, 192.0, 0.0, 0.0, 0.0, 0.0, 0.0, 0.0, 0.0, 0.0, 0.0, 1.6689767564901743E9, 0.0, 2022-11-20 15:39:16.490
16.0, -18128.06941605442, 22350.403350639743, -35833.48969620344, -34764.49516588392, -27962.81462464507, -28656.031627181965, -24315.747537105985, -3274.7540801470377, -26133.50315493383, -3529.8545396154573, -28653.930563203165, -33756.029159549376, -27654.33819941738, -10601.655912596692, -22709.998215436724, -35057.392425226266, 0.08600000000000001, 0.9540000000000001, -0.16, 192.0, 0.0, 0.0, 0.0, 0.0, 0.0, 0.0, 0.0, 0.0, 0.0, 1.6689767564901798E9, 0.0, 2022-11-20 15:39:16.490
18.0, -18222.61729510037, 22507.84903858293, -35919.14158095617, -34847.39778606866, -28045.0690442406, -28744.768052669533, -24397.73373576805, -3354.549807852484, -26137.03473055777, -3515.303553975052, -28666.96163022061, -33751.17883100257, -27674.52182466052, -10612.898840057713, -22711.07109917058, -35061.05811131693, 0.08600000000000001, 0.9520000000000001, -0.164, 192.0, 1.0, 88.0, 14.5, 96.0, 125.0, 112.0, 0.0, 0.0, 0.0, 1.6689767564901853E9, 0.0, 2022-11-20 15:39:16.490
20.0, -18128.53880268798, 22295.641576724243, -35827.32061473377, -34749.18422093204, -27950.632923916928, -28652.209478880108, -24306.873894557226, -3266.3051207429316, -26149.954038852935, -3536.448304229773, -28662.893612729742, -33754.39748220414, -27668.017467024027, -10613.502337158006, -22712.63572128245, -35061.68396016168, 0.08600000000000001, 0.9520000000000001, -0.164, 192.0, 0.0, 0.0, 0.0, 0.0, 0.0, 0.0, 0.0, 0.0, 0.0, 1.6689767564901905E9, 0.0, 2022-11-20 15:39:16.490
22.0, -18221.879687533343, 22557.268745573612, -35919.074525722805, -34849.2753326029, -28048.287695442166, -28745.840936403387, -24402.98639571505, -3355.510932864062, -26127.155259508523, -3506.184042237287, -28656.56806904889, -33739.511220396904, -27660.90961228724, -10603.376996919751, -22692.653261739408, -35038.929884306184, 0.08600000000000001, 0.9520000000000001, -0.164, 192.0, 0.0, 0.0, 0.0, 0.0, 0.0, 0.0, 0.0, 0.0, 0.0, 1.6689767564901955E9, 0.0, 2022-11-20 15:39:16.490
24.0, -18121.274485740007, 22267.41132347719, -35829.98047232395, -34750.190049432524, -27958.701903665296, -28654.511708559003, -24318.183877251613, -3274.4635074691187, -26149.529355708284, -3540.4939699761835, -28675.835272769367, -33767.428549221586, -27672.57722289291, -10623.158290762698, -22721.174087664378, -35060.275800261, 0.08600000000000001, 0.9520000000000001, -0.164, 192.0, 0.0, 0.0, 0.0, 0.0, 0.0, 0.0, 0.0, 0.0, 0.0, 1.6689767564902008E9, 0.0, 2022-11-20 15:39:16.490
26.0, -18205.585265825423, 22601.636958317395, -35896.45456033404, -34835.1713818516, -28032.820288279094, -28729.16653503973, -24393.866883977284, -3348.581892082917, -26099.863779528594, -3494.963466520723, -28639.267818840483, -33728.31299642479, -27634.55690557443, -10590.994130491512, -22673.631927207938, -35011.951328748626, 0.08600000000000001, 0.9520000000000001, -0.164, 192.0, 0.0, 0.0, 0.0, 0.0, 0.0, 0.0, 0.0, 0.0, 0.0, 1.6689767564902062E9, 0.0, 2022-11-20 15:39:16.490
28.0, -18132.897392856765, 22224.115994467258, -35826.8065246113, -34754.97332274596, -27972.73879918323, -28661.396045851237, -24332.556048936374, -3290.22148731011, -26139.716939892405, -3555.9390253948004, -28669.263859899507, -33771.340104501265, -27668.218632724125, -10633.037761811944, -22718.223657396276, -35054.933733336184, 0.082, 0.9520000000000001, -0.164, 192.0, 1.0, 72.0, 14.5, 96.0, 125.0, 112.0, 0.0, 0.0, 0.0, 1.6689767564902115E9, 0.0, 2022-11-20 15:39:16.490
30.0, -18206.79226002601, 22615.495039879686, -35884.09404565025, -34832.08684111677, -28033.423785379386, -28729.21123852864, -24400.34888986932, -3356.069726475445, -26080.171892663468, -3508.1733474938096, -28618.27953079695, -33718.94761549802, -27623.71630951361, -10593.43047063714, -22671.173235317856, -35005.022287967484, 0.082, 0.9520000000000001, -0.164, 192.0, 0.0, 0.0, 0.0, 0.0, 0.0, 0.0, 0.0, 0.0, 0.0, 1.6689767564902167E9, 0.0, 2022-11-20 15:39:16.490
32.0, -18165.396829294783, 22174.87510143222, -35846.744280665436, -34783.42709343757, -27985.546348756117, -28687.21231069712, -24352.538508479418, -3316.6636010007387, -26150.13285280858, -3595.6580752918812, -28687.10055197484, -33791.50137799995, -27678.94747006267, -10659.457523758118, -22731.88057325847, -35076.83844290238, 0.082, 0.9520000000000001, -0.164, 192.0, 0.0, 0.0, 0.0, 0.0, 0.0, 0.0, 0.0, 0.0, 0.0, 1.668976756490222E9, 0.0, 2022-11-20 15:39:16.490
34.0, -18222.23731544463, 22600.787592028093, -35902.042496447866, -34849.90118144765, -28030.07102371109, -28743.337541024393, -24400.237131147045, -3358.7519358100817, -26097.405087638508, -3544.629042700415, -28650.689560257146, -33749.48009842397, -27630.66770203921, -10618.889107571735, -22684.897206413414, -35037.678186616686, 0.082, 0.9520000000000001, -0.164, 192.0, 0.0, 0.0, 0.0, 0.0, 0.0, 0.0, 0.0, 0.0, 0.0, 1.6689767564902272E9, 0.0, 2022-11-20 15:39:16.490
36.0, -18173.64462299879, 22165.66618271663, -35870.95121991053, -34808.37164024969, -27989.994345902724, -28716.247226744563, -24363.513215006973, -3329.225281384621, -26162.560422725728, -3623.2401279497303, -28718.39299421227, -33823.46437257104, -27694.034897570004, -10691.465221818116, -22751.281887445675, -35112.91415845325, 0.082, 0.9520000000000001, -0.164, 192.0, 0.0, 0.0, 0.0, 0.0, 0.0, 0.0, 0.0, 0.0, 0.0, 1.668976756490234E9, 0.0, 2022-11-20 15:39:16.490
38.0, -18202.07604194594, 22599.401783871865, -35895.71695276701, -34856.31613210632, -28024.371328874986, -28756.88269816431, -24395.878540978258, -3359.0872119769115, -26078.808436251693, -3554.933196894312, -28639.111356629295, -33750.75414785792, -27618.351890844333, -10625.684037886149, -22676.805874920592, -35047.51295417702, 0.088, 0.9520000000000001, -0.164, 192.0, 1.0, 96.0, 14.5, 96.0, 125.0, 112.0, 0.0, 0.0, 0.0, 1.6689767564902394E9, 0.0, 2022-11-20 15:39:16.490
40.0, -18162.513454260046, 22183.05583990286, -35863.776309940375, -34810.539759461855, -27997.54923552862, -28726.46197396064, -24362.842662673316, -3330.2087581406545, -26150.73634990887, -3634.9300902998557, -28709.452296430147, -33831.44394534158, -27697.81234238295, -10709.16780342672, -22750.20900371182, -35123.82180974744, 0.088, 0.9520000000000001, -0.164, 192.0, 0.0, 0.0, 0.0, 0.0, 0.0, 0.0, 0.0, 0.0, 0.0, 1.6689767564902446E9, 0.0, 2022-11-20 15:39:16.490
42.0, -18178.22673061213, 22597.971272226725, -35871.35355131073, -34831.97508239449, -28013.82130549208, -28733.703939164156, -24378.91356693668, -3339.2165111561435, -26055.070883640157, -3539.734010664703, -28603.169751545163, -33727.374223157676, -27600.64930923573, -10613.47998541355, -22659.930307856837, -35026.72583183358, 0.088, 0.9520000000000001, -0.164, 192.0, 0.0, 0.0, 0.0, 0.0, 0.0, 0.0, 0.0, 0.0, 0.0, 1.66897675649025E9, 0.0, 2022-11-20 15:39:16.490
44.0, -18179.70194574618, 22205.988729714005, -35871.37590305518, -34814.20544555252, -28006.73580249975, -28718.25888374554, -24369.950517410103, -3334.187368653699, -26138.331131736177, -3620.9602500152887, -28694.00724101153, -33812.26614859893, -27688.558720178455, -10695.823811986902, -22746.49861413224, -35105.35926882736, 0.088, 0.9520000000000001, -0.164, 192.0, 0.0, 0.0, 0.0, 0.0, 0.0, 0.0, 0.0, 0.0, 0.0, 1.668976756490255E9, 0.0, 2022-11-20 15:39:16.490
46.0, -18187.68151851672, 22549.535041992076, -35867.39729254214, -34825.60483522473, -28005.39469783243, -28717.141296522776, -24368.944688909614, -3329.359391851353, -26066.380866334544, -3554.642624216393, -28618.123068585763, -33737.67837735157, -27605.253768593524, -10614.374055191762, -22671.799084162605, -35023.88716028776, 0.088, 0.9520000000000001, -0.164, 192.0, 0.0, 0.0, 0.0, 0.0, 0.0, 0.0, 0.0, 0.0, 0.0, 1.6689767564902606E9, 0.0, 2022-11-20 15:39:16.490
48.0, -18187.793277238998, 22238.041131262915, -35879.95897292602, -34823.48141950148, -28014.69302352584, -28723.35508148135, -24373.01270640048, -3337.294261132987, -26140.767471881805, -3621.5860988600375, -28706.63597662878, -33818.94932019107, -27688.692830645185, -10697.947227710156, -22746.83389029907, -35094.27280357752, 0.092, 0.9500000000000001, -0.162, 192.0, 1.0, 112.0, 14.5, 88.0, 125.0, 120.0, 0.0, 0.0, 0.0, 1.6689767564902658E9, 0.0, 2022-11-20 15:39:16.490
50.0, -18159.92065190323, 22531.117204560902, -35854.00859761341, -34804.19186403655, -27983.981726644248, -28699.72928759209, -24345.743578165006, -3307.4099787962414, -26057.01548540777, -3548.920577635834, -28616.67020519617, -33736.40432791762, -27596.670698722686, -10609.613133622783, -22663.774807903148, -35006.206930423614, 0.092, 0.9500000000000001, -0.162, 192.0, 0.0, 0.0, 0.0, 0.0, 0.0, 0.0, 0.0, 0.0, 0.0, 1.6689767564902723E9, 0.0, 2022-11-20 15:39:16.490
52.0, -18215.241219430118, 22274.250957280514, -35912.61487157522, -34854.70680650554, -28039.816384293605, -28762.60474474487, -24401.77940151446, -3370.643063860305, -26136.1183090351, -3614.7241133122584, -28709.20642724114, -33820.759811491946, -27690.65978415725, -10695.98027419809, -22746.655076343428, -35088.10372210786, 0.092, 0.9500000000000001, -0.162, 192.0, 0.0, 0.0, 0.0, 0.0, 0.0, 0.0, 0.0, 0.0, 0.0, 1.6689767564902792E9, 0.0, 2022-11-20 15:39:16.490
54.0, -18173.64462299879, 22452.68493326723, -35861.04939711683, -34817.669965943096, -27999.359726829498, -28726.998415827566, -24362.552089995395, -3333.315650619942, -26088.73261078985, -3581.8670489629567, -28644.833403209857, -33768.59083993326, -27628.052547937936, -10642.693715416637, -22690.239273338233, -35046.976512310095, 0.092, 0.9500000000000001, -0.162, 192.0, 0.0, 0.0, 0.0, 0.0, 0.0, 0.0, 0.0, 0.0, 0.0, 1.6689767564902864E9, 0.0, 2022-11-20 15:39:16.490
56.0, -18217.409338642283, 22329.482117829575, -35901.28253713638, -34852.15870763764, -28045.493727385252, -28761.151881355272, -24405.22157016058, -3371.6041888718833, -26142.30974224922, -3620.2226424482637, -28706.47951441759, -33818.390526579686, -27697.030031327016, -10703.535163823983, -22740.88832627396, -35109.18141712921, 0.092, 0.9500000000000001, -0.162, 192.0, 0.0, 0.0, 0.0, 0.0, 0.0, 0.0, 0.0, 0.0, 0.0, 1.6689767564902937E9, 0.0, 2022-11-20 15:39:16.490
58.0, -18139.513509215536, 22429.48382252262, -35825.37601296616, -34772.45238691001, -27967.39673225841, -28675.209423924618, -24332.421938469644, -3298.424577525208, -26077.91436647348, -3558.1965515847864, -28622.0569756099, -33741.00878727541, -27615.244998365048, -10622.443034940128, -22673.855444652494, -35042.50616341903, 0.09, 0.9520000000000001, -0.16, 192.0, 1.0, 104.0, 14.5, 96.0, 125.5, 0.0, 0.0, 0.0, 0.0, 1.6689767564903011E9, 0.0, 2022-11-20 15:39:16.490
60.0, -18231.93797253823, 22391.351746481865, -35909.798551773856, -34856.76316699543, -28049.829965809582, -28754.200488829672, -24413.78228828696, -3379.874334320347, -26118.54983789323, -3584.593961786504, -28678.383371637272, -33784.72879942999, -27674.47712117161, -10671.21454134161, -22720.79410800864, -35085.37680928431, 0.09, 0.9520000000000001, -0.16, 192.0, 0.0, 0.0, 0.0, 0.0, 0.0, 0.0, 0.0, 0.0, 0.0, 1.6689767564903083E9, 0.0, 2022-11-20 15:39:16.490
62.0, -18150.48821574309, 22363.99321126857, -35824.25842574339, -34779.67200036907, -27964.49100547922, -28678.562185592913, -24332.53369719192, -3303.3419613053757, -26100.668442328984, -3579.5201157951496, -28642.352359575318, -33762.26529625241, -27630.690053783663, -10639.698581659626, -22691.982709405747, -35057.81710837092, 0.09, 0.9520000000000001, -0.16, 192.0, 0.0, 0.0, 0.0, 0.0, 0.0, 0.0, 0.0, 0.0, 0.0, 1.6689767564903157E9, 0.0, 2022-11-20 15:39:16.490
64.0, -18241.92920230975, 22440.033845905524, -35928.57401711631, -34876.6338678162, -28063.151605504943, -28774.831148961923, -24428.132108227266, -3392.7489391266035, -26131.446794443942, -3595.8145375030685, -28692.397915410747, -33794.36240129023, -27678.32162121792, -10683.105669391833, -22725.10799468851, -35090.80828318695, 0.09, 0.9520000000000001, -0.16, 192.0, 0.0, 0.0, 0.0, 0.0, 0.0, 0.0, 0.0, 0.0, 0.0, 1.6689767564903216E9, 0.0, 2022-11-20 15:39:16.490
66.0, -18134.283201012993, 22321.435489825668, -35838.00474858341, -34777.459177667995, -27972.694095694318, -28683.278403672983, -24337.920467605647, -3304.0125136390348, -26114.638282613552, -3588.9972554441997, -28663.653572041225, -33774.71521791401, -27648.929077259196, -10652.10379983232, -22715.25087538372, -35069.44001548768, 0.09, 0.9520000000000001, -0.16, 192.0, 0.0, 0.0, 0.0, 0.0, 0.0, 0.0, 0.0, 0.0, 0.0, 1.668976756490327E9, 0.0, 2022-11-20 15:39:16.490
68.0, -18212.000216484095, 22517.92967533227, -35917.3757931442, -34863.26752463192, -28060.06706477011, -28768.237384347605, -24421.44893663513, -3386.28928497902, -26103.484762130352, -3571.272322091141, -28667.922755232186, -33771.40715973463, -27663.167138477223, -10660.753924936525, -22721.68817778685, -35069.59647769886, 0.088, 0.9490000000000001, -0.159, 192.0, 1.0, 88.0, 14.5, 72.0, 125.5, 8.0, 0.0, 0.0, 0.0, 1.668976756490334E9, 0.0, 2022-11-20 15:39:16.490
70.0, -18114.05487228094, 22291.730021444564, -35821.17388500856, -34760.38244490414, -27970.01188635968, -28676.23760416956, -24329.82913611283, -3295.9658856351243, -26096.466314371388, -3580.6153512734595, -28638.95489441811, -33760.432453207075, -27639.966027732615, -10645.308869517907, -22710.199381136823, -35057.83946011537, 0.088, 0.9490000000000001, -0.159, 192.0, 0.0, 0.0, 0.0, 0.0, 0.0, 0.0, 0.0, 0.0, 0.0, 1.6689767564903395E9, 0.0, 2022-11-20 15:39:16.490
72.0, -18207.149887937296, 22565.18126311079, -35901.48370283648, -34850.81760297032, -28056.11080600152, -28759.810776687955, -24412.97762548657, -3376.0745377629446, -26086.340974133134, -3556.5201707506385, -28640.43010955216, -33753.704578126024, -27645.196335935158, -10645.577090451372, -22701.795125221626, -35046.1718495097, 0.088, 0.9490000000000001, -0.159, 192.0, 0.0, 0.0, 0.0, 0.0, 0.0, 0.0, 0.0, 0.0, 0.0, 1.6689767564903448E9, 0.0, 2022-11-20 15:39:16.490
74.0, -18126.974180576108, 22233.92841028314, -35821.17388500856, -34769.50195664191, -27972.515281738673, -28677.511653603513, -24331.706682647073, -3296.122347846311, -26110.771430822784, -3594.3616741134733, -28653.05884516941, -33776.34689525925, -27648.549097603453, -10655.881244645268, -22718.201305651823, -35061.66160841723, 0.088, 0.9490000000000001, -0.159, 192.0, 0.0, 0.0, 0.0, 0.0, 0.0, 0.0, 0.0, 0.0, 0.0, 1.66897675649035E9, 0.0, 2022-11-20 15:39:16.490
76.0, -18195.54933256499, 22601.659310061852, -35887.37975208518, -34848.627132013695, -28031.099203956033, -28740.521221223025, -24391.430543831655, -3350.906473506269, -26075.321564116668, -3554.79908642758, -28633.47871702656, -33746.14968850013, -27623.157515902225, -10630.355552477307, -22685.187779091335, -35033.207837725626, 0.088, 0.9490000000000001, -0.159, 192.0, 0.0, 0.0, 0.0, 0.0, 0.0, 0.0, 0.0, 0.0, 0.0, 1.6689767564903553E9, 0.0, 2022-11-20 15:39:16.490
78.0, -18130.259887011038, 22205.04995644688, -35833.646158414624, -34781.28132596986, -27964.803929901595, -28678.025743725986, -24326.074043044337, -3290.2438390545653, -26117.476954159374, -3599.4131683603728, -28666.894574987244, -33782.650087195645, -27652.930039516694, -10660.575110980883, -22722.761061520705, -35071.76459691102, 0.086, 0.9505000000000001, -0.1565, 192.0, 1.0, 80.0, 14.5, 96.0, 125.5, 24.0, 0.0, 0.0, 0.0, 1.6689767564903605E9, 0.0, 2022-11-20 15:39:16.490
80.0, -18217.431690386737, 22606.50963860865, -35915.34178439877, -34874.24223115948, -28043.12444247299, -28761.710674966656, -24402.092325936836, -3361.389441655808, -26075.20980539439, -3551.535731737105, -28629.365996046785, -33740.3158831973, -27616.02730942098, -10627.114549531289, -22683.846674424014, -35033.811334825914, 0.086, 0.9505000000000001, -0.1565, 192.0, 0.0, 0.0, 0.0, 0.0, 0.0, 0.0, 0.0, 0.0, 0.0, 1.668976756490366E9, 0.0, 2022-11-20 15:39:16.490
82.0, -18149.907070387253, 22171.365877552733, -35854.343873780235, -34789.73028537396, -27977.075037607556, -28689.268671187005, -24332.131365791724, -3295.3176850459204, -26156.771320911805, -3636.7182298562802, -28703.64084287177, -33820.31277660284, -27688.558720178455, -10700.249457389053, -22760.960192794824, -35108.287347351, 0.086, 0.9505000000000001, -0.1565, 192.0, 0.0, 0.0, 0.0, 0.0, 0.0, 0.0, 0.0, 0.0, 0.0, 1.6689767564903712E9, 0.0, 2022-11-20 15:39:16.490
84.0, -18200.46671634516, 22608.34248165399, -35897.63920279017, -34844.223838356, -28020.280959639666, -28735.24620953157, -24377.43835180263, -3333.583871553406, -26066.514976801274, -3544.561987467049, -28619.62063546427, -33728.961197014, -27597.98945164555, -10604.38282542024, -22670.145055072913, -35016.80165729543, 0.086, 0.9505000000000001, -0.1565, 192.0, 0.0, 0.0, 0.0, 0.0, 0.0, 0.0, 0.0, 0.0, 0.0, 1.6689767564903767E9, 0.0, 2022-11-20 15:39:16.490
86.0, -18169.040163640995, 22153.30566803285, -35870.14655711014, -34807.097590815734, -27990.15080811391, -28704.177284738696, -24348.224621799545, -3307.5664410074287, -26154.46909123291, -3632.9631367877887, -28709.251130730052, -33819.82103822482, -27680.780313108007, -10687.218390371609, -22757.65213461544, -35102.23002460361, 0.086, 0.9505000000000001, -0.1565, 192.0, 0.0, 0.0, 0.0, 0.0, 0.0, 0.0, 0.0, 0.0, 0.0, 1.668976756490382E9, 0.0, 2022-11-20 15:39:16.490
88.0, -18193.336509863915, 22596.13842918139, -35883.73641773897, -34843.866210444714, -28010.155619401412, -28726.953712338654, -24371.224566844056, -3323.749103993071, -26077.53438681774, -3556.3860602839068, -28632.33877805934, -33750.552982157824, -27601.588082502854, -10608.62965686675, -22682.885549412436, -35029.7209655906, 0.088, 0.9512500000000002, -0.15725, 192.0, 1.0, 104.0, 14.5, 96.0, 125.5, 8.0, 0.0, 0.0, 0.0, 1.6689767564903872E9, 0.0, 2022-11-20 15:39:16.490
90.0, -18161.239404826094, 22191.370688840234, -35856.869620903686, -34809.08689607226, -27987.73681971274, -28701.070392259408, -24346.81646189886, -3301.9561531491463, -26139.89575384805, -3613.04773247811, -28692.263804944017, -33814.27780559991, -27666.877528056804, -10676.087221632866, -22744.531660620174, -35095.09981812237, 0.088, 0.9512500000000002, -0.15725, 192.0, 0.0, 0.0, 0.0, 0.0, 0.0, 0.0, 0.0, 0.0, 0.0, 1.6689767564904006E9, 0.0, 2022-11-20 15:39:16.490
92.0, -18164.145131605284, 22595.04319370308, -35861.272914561385, -34830.879846916185, -27996.230482605755, -28712.313319720426, -24356.67358120365, -3307.164109607233, -26053.327447572643, -3527.6864204032927, -28599.638175921224, -33725.67549057907, -27578.90106188072, -10587.730775801037, -22669.921537628357, -35018.70155557413, 0.088, 0.9512500000000002, -0.15725, 192.0, 0.0, 0.0, 0.0, 0.0, 0.0, 0.0, 0.0, 0.0, 0.0, 1.668976756490406E9, 0.0, 2022-11-20 15:39:16.490
94.0, -18162.111122859853, 22228.11695672476, -35868.22430708698, -34823.682585201575, -28001.86312220849, -28714.146162765763, -24357.075912603847, -3311.2097753536436, -26131.469146188396, -3600.5531073275934, -28685.53592986297, -33807.25935784094, -27670.14088274728, -10672.10861111982, -22757.383913681977, -35104.86753044934, 0.088, 0.9512500000000002, -0.15725, 192.0, 0.0, 0.0, 0.0, 0.0, 0.0, 0.0, 0.0, 0.0, 0.0, 1.6689767564904113E9, 0.0, 2022-11-20 15:39:16.490
96.0, -18163.318117060437, 22566.343553822466, -35849.71706267799, -34814.78659090836, -27989.413200546885, -28704.356098694338, -24347.15173806569, -3297.061121113434, -26046.331351558132, -3522.6125744119377, -28591.435085706125, -33718.74644979792, -27578.051695591414, -10580.824086764347, -22669.720371928262, -35020.333232919365, 0.088, 0.9512500000000002, -0.15725, 192.0, 0.0, 0.0, 0.0, 0.0, 0.0, 0.0, 0.0, 0.0, 0.0, 1.6689767564904163E9, 0.0, 2022-11-20 15:39:16.490
98.0, -18196.622216298845, 22251.765102358473, -35879.377827570184, -34829.538742248864, -28017.64345379394, -28729.390052484283, -24373.482093034043, -3325.2690226160316, -26142.153280038034, -3608.443273120317, -28695.035421256474, -33814.21075036654, -27677.606365395353, -10671.929797164179, -22755.282849703177, -35101.224196103125, 0.089, 0.948625, -0.16062500000000002, 192.0, 1.0, 104.0, 14.5, 72.0, 125.0, 112.0, 0.0, 0.0, 0.0, 1.6689767564904215E9, 0.0, 2022-11-20 15:39:16.490
100.0, -18196.26458838756, 22481.429276636754, -35876.62856300218, -34832.39976553914, -28014.178933403367, -28726.149049538264, -24372.565671511373, -3323.3020691039646, -26083.792875265226, -3564.432688287817, -28628.695443713124, -33756.3197322273, -27606.572521516387, -10605.254543453997, -22691.58037800555, -35040.76272735152, 0.089, 0.948625, -0.16062500000000002, 192.0, 0.0, 0.0, 0.0, 0.0, 0.0, 0.0, 0.0, 0.0, 0.0, 1.6689767564904287E9, 0.0, 2022-11-20 15:39:16.490
102.0, -18231.915620793774, 22266.338439743333, -35920.23681643448, -34869.23544040149, -28050.388759420963, -28764.951677912675, -24406.69678529463, -3359.064860232456, -26166.628440216595, -3637.0311542786544, -28728.048947816962, -33844.60912282576, -27704.00377559707, -10700.07064343341, -22778.282794747687, -35126.749888271086, 0.089, 0.948625, -0.16062500000000002, 192.0, 0.0, 0.0, 0.0, 0.0, 0.0, 0.0, 0.0, 0.0, 0.0, 1.668976756490434E9, 0.0, 2022-11-20 15:39:16.490
104.0, -18159.652430969767, 22436.72578772614, -35851.348740023226, -34809.757448405915, -27981.500683009708, -28699.170493980706, -24338.322799005844, -3290.266190799021, -26091.034840468747, -3581.8894007074123, -28639.267818840483, -33769.01552307791, -27616.09436465435, -10624.745264619025, -22705.997253179223, -35055.984265325584, 0.089, 0.948625, -0.16062500000000002, 192.0, 0.0, 0.0, 0.0, 0.0, 0.0, 0.0, 0.0, 0.0, 0.0, 1.6689767564904392E9, 0.0, 2022-11-20 15:39:16.490
106.0, -18214.682425818733, 22336.120585932804, -35907.608080817234, -34856.98668443998, -28035.658959824916, -28750.333637038904, -24391.341136853833, -3338.9259384782245, -26131.446794443942, -3611.1701859438645, -28689.44748514265, -33809.136904375184, -27673.33718220439, -10676.690718733158, -22749.672561844895, -35099.27959433551, 0.089, 0.948625, -0.16062500000000002, 192.0, 0.0, 0.0, 0.0, 0.0, 0.0, 0.0, 0.0, 0.0, 0.0, 1.6689767564904444E9, 0.0, 2022-11-20 15:39:16.490
108.0, -18138.17240454822, 22394.2351215166, -35826.67241414457, -34776.900384056615, -27957.181985042334, -28671.34257213385, -24312.305368459867, -3260.8065916069263, -26083.278785142757, -3565.505572021672, -28620.671167453667, -33745.72500535548, -27605.70080348263, -10611.62479062376, -22689.434610537843, -35035.39830868224, 0.0865, 0.9473125, -0.16331250000000003, 192.0, 1.0, 80.0, 14.5, 72.0, 125.0, 104.0, 0.0, 0.0, 0.0, 1.66897675649045E9, 0.0, 2022-11-20 15:39:16.490
110.0, -18214.056576973984, 22400.739479153097, -35902.73540052598, -34845.006149411936, -28027.902904498926, -28740.342407267384, -24382.758066982995, -3330.8793104743136, -26112.64897735703, -3579.028377417133, -28665.24054589755, -33780.07963658329, -27653.04179823897, -10644.168930550686, -22715.519096317184, -35064.05324507395, 0.0865, 0.9473125, -0.16331250000000003, 192.0, 0.0, 0.0, 0.0, 0.0, 0.0, 0.0, 0.0, 0.0, 0.0, 1.6689767564904552E9, 0.0, 2022-11-20 15:39:16.490
112.0, -18133.098558556863, 22344.18956568117, -35828.72877463446, -34770.55248863131, -27954.790348385617, -28664.167662163698, -24312.394775437686, -3261.968882318602, -26092.577110836162, -3572.9934064142, -28631.71292921459, -33755.9174008271, -27617.860152466317, -10609.0543400114, -22696.386003063442, -35041.88031457428, 0.0865, 0.9473125, -0.16331250000000003, 192.0, 0.0, 0.0, 0.0, 0.0, 0.0, 0.0, 0.0, 0.0, 0.0, 1.6689767564904604E9, 0.0, 2022-11-20 15:39:16.490
114.0, -18209.09448970491, 22462.609107805387, -35911.83256051929, -34856.6290565287, -28037.0671197256, -28747.338503281895, -24392.145799654223, -3340.512912334551, -26099.50615161731, -3567.9195604228453, -28655.070502170387, -33769.931944600576, -27647.789138291973, -10631.33902923334, -22717.12842191797, -35060.29815200545, 0.0865, 0.9473125, -0.16331250000000003, 192.0, 0.0, 0.0, 0.0, 0.0, 0.0, 0.0, 0.0, 0.0, 0.0, 1.6689767564904656E9, 0.0, 2022-11-20 15:39:16.490
116.0, -18139.35704700435, 22291.059469110904, -35840.0611090733, -34787.22688999497, -27965.899165379902, -28680.8197117829, -24323.61535115425, -3276.7433854035603, -26095.68400331545, -3579.028377417133, -28637.077347883864, -33764.85809860922, -27628.119603171304, -10620.073750027866, -22714.759137005705, -35058.95704733814, 0.0865, 0.9473125, -0.16331250000000003, 192.0, 0.0, 0.0, 0.0, 0.0, 0.0, 0.0, 0.0, 0.0, 0.0, 1.6689767564904718E9, 0.0, 2022-11-20 15:39:16.490
118.0, -18233.904926050298, 22485.49729412762, -35911.899615752656, -34870.733007279996, -28046.45485239683, -28760.50368076607, -24396.437334589642, -3345.586758325906, -26115.018262269292, -3581.017682673655, -28662.647743540736, -33778.939697616064, -27658.652086097252, -10643.25250902802, -22720.905866730915, -35071.74224516657, 0.08424999999999999, 0.94865625, -0.16265625, 192.0, 1.0, 72.0, 14.5, 88.0, 125.0, 120.0, 0.0, 0.0, 0.0, 1.668976756490477E9, 0.0, 2022-11-20 15:39:16.490
120.0, -18143.29095402848, 22232.184974215626, -35820.19040825253, -34771.044227009326, -27954.320961752055, -28669.085045943862, -24306.739784090496, -3261.655957896228, -26120.382680938565, -3593.8475839910016, -28654.131728903263, -33779.05145633834, -27645.106928957335, -10633.618907167782, -22715.183820150356, -35072.0775213334, 0.08424999999999999, 0.94865625, -0.16265625, 192.0, 0.0, 0.0, 0.0, 0.0, 0.0, 0.0, 0.0, 0.0, 0.0, 1.6689767569699624E9, 0.0, 2022-11-20 15:39:16.969
122.0, -18246.578365156456, 22519.851925355426, -35914.80534253184, -34866.888507233685, -28045.4713756408, -28755.36277954135, -24396.146761911725, -3342.5022175910735, -26099.12617196157, -3558.1965515847864, -28648.409682322705, -33757.79494736135, -27633.193449162656, -10615.044607525422, -22689.72518321576, -35046.50712567653, 0.08424999999999999, 0.94865625, -0.16265625, 192.0, 0.0, 0.0, 0.0, 0.0, 0.0, 0.0, 0.0, 0.0, 0.0, 1.6689767569700568E9, 0.0, 2022-11-20 15:39:16.970
124.0, -18179.433724812716, 22173.891624676184, -35860.73647269446, -34789.97615456297, -27981.210110331787, -28684.194825195653, -24334.433595470622, -3283.4042052512414, -26159.833509902182, -3618.792130803124, -28700.06456375892, -33810.142732875676, -27679.90859507425, -10656.082410345365, -22744.330494920076, -35088.86368141934, 0.08424999999999999, 0.94865625, -0.16265625, 192.0, 0.0, 0.0, 0.0, 0.0, 0.0, 0.0, 0.0, 0.0, 0.0, 1.6689767569700725E9, 0.0, 2022-11-20 15:39:16.970
126.0, -18245.393722700326, 22549.535041992076, -35923.410764147135, -34866.93321072259, -28046.365445419007, -28746.98087537061, -24403.12050618178, -3343.262176902554, -26110.50320988932, -3557.861275417957, -28660.971362706587, -33764.20989802002, -27644.726949301596, -10615.826918581357, -22708.59005553604, -35042.70732911913, 0.08424999999999999, 0.94865625, -0.16265625, 192.0, 0.0, 0.0, 0.0, 0.0, 0.0, 0.0, 0.0, 0.0, 0.0, 1.6689767569700782E9, 0.0, 2022-11-20 15:39:16.970
128.0, -18165.8885676728, 22161.084075103292, -35847.459536488, -34785.23758473845, -27975.73393294024, -28671.744903534047, -24330.365577979755, -3272.876533612792, -26153.485614476875, -3612.8242150335573, -28691.570900865903, -33810.38860206468, -27682.948432320172, -10653.377849266273, -22756.13221599248, -35083.83453891689, 0.086125, 0.948328125, -0.162328125, 192.0, 1.0, 96.0, 14.5, 80.0, 125.0, 120.0, 0.0, 0.0, 0.0, 1.668976756970084E9, 0.0, 2022-11-20 15:39:16.970
130.0, -18242.018609287574, 22567.014106156126, -35914.760639042936, -34874.86808000423, -28046.27603844119, -28749.350160282873, -24402.53936082594, -3341.451685601674, -26095.43813412644, -3554.8884934054013, -28640.94419967463, -33758.4207962061, -27633.70753928513, -10606.9532760326, -22703.136229888943, -35033.94544529265, 0.086125, 0.948328125, -0.162328125, 192.0, 0.0, 0.0, 0.0, 0.0, 0.0, 0.0, 0.0, 0.0, 0.0, 1.6689767569700897E9, 0.0, 2022-11-20 15:39:16.970
132.0, -18175.008079410563, 22152.769226165918, -35854.29917029133, -34805.13063730367, -27984.093485366524, -28686.698220574646, -24339.14981355069, -3285.907600630236, -26158.872384890605, -3622.3907616604283, -28702.232682971084, -33822.83852372629, -27691.553853935464, -10669.180532596176, -22760.423750927897, -35094.96570765563, 0.086125, 0.948328125, -0.162328125, 192.0, 0.0, 0.0, 0.0, 0.0, 0.0, 0.0, 0.0, 0.0, 0.0, 1.6689767569701033E9, 0.0, 2022-11-20 15:39:16.970
134.0, -18225.14304222382, 22579.1287516509, -35901.48370283648, -34864.47451883251, -28029.78045103317, -28733.41336648624, -24384.747372239515, -3329.2699848735315, -26085.849235755115, -3545.612519456449, -28632.741109459534, -33750.59768564674, -27622.24109437956, -10603.019369008467, -22687.042973881125, -35028.0669365009, 0.086125, 0.948328125, -0.162328125, 192.0, 0.0, 0.0, 0.0, 0.0, 0.0, 0.0, 0.0, 0.0, 0.0, 1.6689767569701087E9, 0.0, 2022-11-20 15:39:16.970
136.0, -18191.995405196598, 22144.72259816201, -35880.13778688166, -34818.631090954674, -27999.516189040685, -28699.30460444744, -24352.292639290412, -3301.777339193504, -26163.119216337112, -3621.139063970931, -28711.955691809144, -33832.002738952964, -27697.76763889404, -10678.769430967503, -22762.16718699541, -35104.86753044934, 0.086125, 0.948328125, -0.162328125, 192.0, 0.0, 0.0, 0.0, 0.0, 0.0, 0.0, 0.0, 0.0, 0.0, 1.6689767569701145E9, 0.0, 2022-11-20 15:39:16.970
138.0, -18215.911771763775, 22561.672039231307, -35885.63631601767, -34846.05668140134, -28013.553084558618, -28719.175305268207, -24371.49278777752, -3318.6976097461716, -26074.583956549643, -3540.471618231728, -28621.073498853864, -33749.41304319061, -27611.959291930118, -10583.595703076804, -22675.062438853078, -35020.0650119859, 0.086125, 0.948328125, -0.162328125, 192.0, 0.0, 0.0, 0.0, 0.0, 0.0, 0.0, 0.0, 0.0, 0.0, 1.66897675697012E9, 0.0, 2022-11-20 15:39:16.970
140.0, -18193.82824824193, 22161.844034414775, -35862.05522561732, -34812.149085062636, -27993.2577005932, -28696.912967790722, -24354.080778846834, -3302.93962990518, -26151.831585387183, -3619.6191453479705, -28695.303642189938, -33828.18059065111, -27692.470275458134, -10668.375869795784, -22750.54427987865, -35100.35247806936, 0.092, 0.9500000000000001, -0.17400000000000002, 192.0, 1.0, 112.0, 14.5, 88.0, 125.0, 72.0, 0.0, 0.0, 0.0, 1.668976756970126E9, 0.0, 2022-11-20 15:39:16.970
142.0, -18200.377309367337, 22540.30377153203, -35864.44686227404, -34831.08101261628, -27993.525921526663, -28704.15493299424, -24357.902927148694, -3305.1301008618, -26070.985325692338, -3548.093563090988, -28612.781001660944, -33745.68030186657, -27603.93501567066, -10583.483944354528, -22673.833092908037, -35023.50718063202, 0.092, 0.9500000000000001, -0.17400000000000002, 192.0, 0.0, 0.0, 0.0, 0.0, 0.0, 0.0, 0.0, 0.0, 0.0, 1.6689767569701314E9, 0.0, 2022-11-20 15:39:16.970
144.0, -18207.865143759864, 22187.101505649272, -35883.95993518352, -34834.724346962495, -28006.40052633292, -28717.186000011683, -24366.977735397548, -3316.6636010007387, -26154.200870299446, -3619.2615174366856, -28709.564055152427, -33831.33218661931, -27692.649089413775, -10671.482762275073, -22759.328515449586, -35107.929719439715, 0.092, 0.9500000000000001, -0.17400000000000002, 192.0, 0.0, 0.0, 0.0, 0.0, 0.0, 0.0, 0.0, 0.0, 0.0, 1.6689767569701371E9, 0.0, 2022-11-20 15:39:16.970
146.0, -18198.11978317735, 22498.953044289716, -35869.923039665584, -34830.18694283807, -27993.59297676003, -28708.424116185204, -24357.277078303945, -3304.325438061409, -26077.512035073287, -3547.1100863349543, -28625.119164600274, -33748.49662166794, -27604.292643581946, -10589.38480489073, -22682.662031967884, -35031.017366769, 0.092, 0.9500000000000001, -0.17400000000000002, 192.0, 0.0, 0.0, 0.0, 0.0, 0.0, 0.0, 0.0, 0.0, 0.0, 1.6689767569701428E9, 0.0, 2022-11-20 15:39:16.970
148.0, -18243.091493021428, 22207.53100008142, -35914.44771462056, -34866.66498978913, -28036.64243658095, -28748.88077364931, -24396.39263110073, -3346.324365892931, -26171.52347225231, -3628.403380918906, -28727.668968161222, -33843.5362390919, -27707.870627387838, -10688.69360550566, -22774.438294701373, -35125.09585918139, 0.092, 0.9500000000000001, -0.17400000000000002, 192.0, 0.0, 0.0, 0.0, 0.0, 0.0, 0.0, 0.0, 0.0, 0.0, 1.6689767569701483E9, 0.0, 2022-11-20 15:39:16.970
150.0, -18198.11978317735, 22443.565421529463, -35866.167946597096, -34825.96246313601, -27990.553139514108, -28705.138409750274, -24353.834909657828, -3297.999894380557, -26107.12809647657, -3578.179011127831, -28647.225039866575, -33775.96691560351, -27631.002978206037, -10615.648104625716, -22704.96907293428, -35053.03383505748, 0.084, 0.9520000000000001, -0.17200000000000001, 192.0, 1.0, 80.0, 14.5, 96.0, 125.0, 80.0, 0.0, 0.0, 0.0, 1.668976756970154E9, 0.0, 2022-11-20 15:39:16.970
152.0, -18229.345170181416, 22280.3082800279, -35899.49439757996, -34847.80011746885, -28021.82323000708, -28732.519296708026, -24383.942709439125, -3325.6937057606824, -26151.18338479798, -3614.902927267901, -28703.05969751593, -33825.587788294295, -27690.72683939062, -10671.415707041706, -22749.73961707826, -35094.11634136633, 0.084, 0.9520000000000001, -0.17200000000000001, 192.0, 0.0, 0.0, 0.0, 0.0, 0.0, 0.0, 0.0, 0.0, 0.0, 1.6689767569701598E9, 0.0, 2022-11-20 15:39:16.970
154.0, -18176.304480588973, 22410.4401362467, -35838.965873594985, -34798.849797111725, -27963.77574965665, -28676.86345301431, -24326.610484911263, -3270.261379511521, -26084.821055510172, -3557.4589440177615, -28621.22996106505, -33752.385825203164, -27609.634710506765, -10596.38090090524, -22680.426857522354, -35022.769573064994, 0.084, 0.9520000000000001, -0.17200000000000001, 192.0, 0.0, 0.0, 0.0, 0.0, 0.0, 0.0, 0.0, 0.0, 0.0, 1.6689767569701655E9, 0.0, 2022-11-20 15:39:16.970
156.0, -18246.935993067742, 22327.157536406226, -35905.171740671605, -34868.8778124902, -28032.88734351246, -28745.013921858543, -24394.40332584421, -3338.098923933378, -26140.163974781513, -3601.983618972733, -28694.34251717836, -33818.994023679974, -27679.14863576277, -10665.648956972236, -22738.787262295158, -35084.303925550455, 0.084, 0.9520000000000001, -0.17200000000000001, 192.0, 0.0, 0.0, 0.0, 0.0, 0.0, 0.0, 0.0, 0.0, 0.0, 1.6689767569701712E9, 0.0, 2022-11-20 15:39:16.970
158.0, -18161.462922270646, 22364.23908045758, -35823.744335620926, -34786.22106149448, -27956.42202573085, -28665.262897642006, -24320.173182508133, -3261.7006613851386, -26086.184511921947, -3565.438516788306, -28622.9063418992, -33763.00290381943, -27612.339271585857, -10605.478060898551, -22690.060459382592, -35036.80646858293, 0.084, 0.9520000000000001, -0.17200000000000001, 192.0, 0.0, 0.0, 0.0, 0.0, 0.0, 0.0, 0.0, 0.0, 0.0, 1.6689767569701767E9, 0.0, 2022-11-20 15:39:16.970
160.0, -18249.886423335844, 22388.893054591783, -35919.476857123, -34866.50852757794, -28047.103052986033, -28749.193698071686, -24404.953349227115, -3345.609110070361, -26125.434175185466, -3591.0089124451774, -28678.875110015288, -33800.53148275989, -27671.95137404816, -10654.741305678048, -22739.524869862184, -35081.9793441271, 0.08600000000000001, 0.9440000000000001, -0.166, 192.0, 1.0, 88.0, 14.5, 64.0, 125.0, 104.0, 0.0, 0.0, 0.0, 1.6689767569701824E9, 0.0, 2022-11-20 15:39:16.970
162.0, -18169.286032830005, 22301.810658193906, -35838.98822533944, -34785.997544049926, -27961.361761255477, -28666.559298820415, -24319.256760985467, -3266.0145480650126, -26101.40604989601, -3576.927313438334, -28643.9616851761, -33772.99413359095, -27631.427661350688, -10611.982418535044, -22714.915599216893, -35055.17960252519, 0.08600000000000001, 0.9440000000000001, -0.166, 192.0, 0.0, 0.0, 0.0, 0.0, 0.0, 0.0, 0.0, 0.0, 0.0, 1.668976756970188E9, 0.0, 2022-11-20 15:39:16.970
164.0, -18265.733810154656, 22434.423558047245, -35930.09393573927, -34883.11587370824, -28049.98642802077, -28754.267544063037, -24407.367337628286, -3351.3311566509196, -26121.008529783314, -3583.968112941756, -28681.892595516754, -33803.705430472546, -27664.731760589097, -10643.29721251693, -22731.83586976956, -35075.74320742407, 0.08600000000000001, 0.9440000000000001, -0.166, 192.0, 0.0, 0.0, 0.0, 0.0, 0.0, 0.0, 0.0, 0.0, 0.0, 1.6689767569701953E9, 0.0, 2022-11-20 15:39:16.970
166.0, -18171.968242164643, 22247.4512156786, -35843.436222486045, -34792.52425343088, -27964.11102582348, -28671.67784830068, -24323.48124068752, -3270.6413591672613, -26124.629512385072, -3597.625028803948, -28668.72741803258, -33799.41389553713, -27651.43247263819, -10641.151445049221, -22726.113823189, -35069.77529165451, 0.08600000000000001, 0.9440000000000001, -0.166, 192.0, 0.0, 0.0, 0.0, 0.0, 0.0, 0.0, 0.0, 0.0, 0.0, 1.6689767569702013E9, 0.0, 2022-11-20 15:39:16.970
168.0, -18237.61531562988, 22501.590550135443, -35907.45161860605, -34867.3802456117, -28035.636608080462, -28747.383206770803, -24397.577273556864, -3341.317575134942, -26102.613044096597, -3568.9030371788785, -28658.266801627495, -33783.633563951684, -27650.918382515716, -10634.53532869045, -22715.094413172534, -35054.97843682509, 0.08600000000000001, 0.9440000000000001, -0.166, 192.0, 0.0, 0.0, 0.0, 0.0, 0.0, 0.0, 0.0, 0.0, 0.0, 1.6689767569702067E9, 0.0, 2022-11-20 15:39:16.970
170.0, -18153.751570433567, 22225.770023556954, -35823.14083852063, -34774.531099144355, -27957.67372342035, -28668.123920932285, -24320.866086586248, -3269.3002544999426, -26106.770468565282, -3586.8067844875795, -28645.369845076784, -33783.29828778485, -27644.726949301596, -10633.305982745407, -22713.57449454957, -35056.7218728926, 0.084, 0.9420000000000001, -0.166, 192.0, 1.0, 80.0, 14.5, 56.0, 125.0, 104.0, 0.0, 0.0, 0.0, 1.6689767569702127E9, 0.0, 2022-11-20 15:39:16.970
172.0, -18230.328646937447, 22548.015123369114, -35892.69946726554, -34853.76803323842, -28035.97188424729, -28740.96825611213, -24395.856189233804, -3340.9822989681124, -26078.003773451303, -3544.3608217669516, -28628.04724312392, -33752.67639788108, -27631.315902628412, -10615.603401136805, -22686.975918647757, -35031.2185324691, 0.084, 0.9420000000000001, -0.166, 192.0, 0.0, 0.0, 0.0, 0.0, 0.0, 0.0, 0.0, 0.0, 0.0, 1.6689767569702182E9, 0.0, 2022-11-20 15:39:16.970
174.0, -18153.840977411386, 22187.839113216294, -35813.77545759385, -34766.66328509609, -27963.731046167737, -28663.184185407663, -24320.28494123041, -3269.747289389049, -26118.12515474858, -3586.627970531937, -28655.741054504044, -33782.89595638466, -27655.56754536242, -10641.084389815855, -22716.390814350943, -35062.15334679525, 0.084, 0.9420000000000001, -0.166, 192.0, 0.0, 0.0, 0.0, 0.0, 0.0, 0.0, 0.0, 0.0, 0.0, 1.668976756970224E9, 0.0, 2022-11-20 15:39:16.970
176.0, -18240.543394153523, 22561.292059575568, -35889.68198176408, -34849.94588493656, -28038.296465670643, -28739.515392722536, -24398.180770657156, -3342.5022175910735, -26078.16023566249, -3538.6164234419375, -28625.56619948938, -33745.23326697746, -27624.722138014098, -10603.511107386483, -22672.71550568527, -35021.89785503124, 0.084, 0.9420000000000001, -0.166, 192.0, 0.0, 0.0, 0.0, 0.0, 0.0, 0.0, 0.0, 0.0, 0.0, 1.6689767569702296E9, 0.0, 2022-11-20 15:39:16.970
178.0, -18172.236463098106, 22153.23861279948, -35833.66851015908, -34765.41158740659, -27976.96327888528, -28664.234717397063, -24334.679464659628, -3280.878458127792, -26141.482727704377, -3607.3033341530963, -28679.791531537954, -33803.146636861165, -27677.47225492862, -10651.097971331832, -22731.969980236292, -35071.362265510834, 0.084, 0.9420000000000001, -0.166, 192.0, 0.0, 0.0, 0.0, 0.0, 0.0, 0.0, 0.0, 0.0, 0.0, 1.6689767569702609E9, 0.0, 2022-11-20 15:39:16.970
180.0, -18233.055559760996, 22575.731286493694, -35887.04447591835, -34837.518315019406, -28036.530677858675, -28719.64469190177, -24392.34696535432, -3333.0921331753893, -26073.801645493706, -3533.766094895136, -28617.13959182973, -33735.44320290604, -27619.692995511654, -10586.993168234012, -22671.66497369587, -35004.821122267385, 0.08600000000000001, 0.9440000000000001, -0.17, 192.0, 1.0, 88.0, 14.5, 64.0, 125.0, 88.0, 0.0, 0.0, 0.0, 1.6689767569702668E9, 0.0, 2022-11-20 15:39:16.970
182.0, -18186.094544660395, 22135.916010846617, -35845.06789983129, -34790.84787259673, -27989.793180202625, -28672.683676801167, -24344.983618853526, -3289.0815483428896, -26149.75287315284, -3615.506424368194, -28689.00045025354, -33816.423573067616, -27691.173874279724, -10662.720878448592, -22744.106977475523, -35079.386541770284, 0.08600000000000001, 0.9440000000000001, -0.17, 192.0, 0.0, 0.0, 0.0, 0.0, 0.0, 0.0, 0.0, 0.0, 0.0, 1.6689767569702723E9, 0.0, 2022-11-20 15:39:16.970
184.0, -18228.451100403203, 22571.529158536097, -35884.00463867243, -34844.89439068966, -28026.830020765072, -28716.448392444658, -24384.367392583776, -3325.1349121493, -26076.26033738379, -3540.695135676281, -28619.12889708625, -33745.747357099935, -27618.016614677505, -10594.61511309327, -22674.458941752786, -35011.236072926054, 0.08600000000000001, 0.9440000000000001, -0.17, 192.0, 0.0, 0.0, 0.0, 0.0, 0.0, 0.0, 0.0, 0.0, 0.0, 1.668976756970278E9, 0.0, 2022-11-20 15:39:16.970
186.0, -18187.726222005633, 22154.132682577692, -35857.80839417081, -34799.073314556284, -27993.0565348931, -28682.317278661405, -24349.655133444685, -3294.7365396900823, -26152.256268531833, -3611.8854417664343, -28696.890616046265, -33819.06107891334, -27693.81138012545, -10672.019204142, -22749.136119977968, -35086.31558255143, 0.08600000000000001, 0.9440000000000001, -0.17, 192.0, 0.0, 0.0, 0.0, 0.0, 0.0, 0.0, 0.0, 0.0, 0.0, 1.6689767569702835E9, 0.0, 2022-11-20 15:39:16.970
188.0, -18199.863219244864, 22575.373658582408, -35866.033836130366, -34821.51446598941, -28002.3101570976, -28694.54368287846, -24360.227508572043, -3300.905621159747, -26055.29440108471, -3518.209280754242, -28599.884045110233, -33719.99814748742, -27597.94474815664, -10573.42565934964, -22655.63877292142, -34995.43338959615, 0.08600000000000001, 0.9440000000000001, -0.17, 192.0, 0.0, 0.0, 0.0, 0.0, 0.0, 0.0, 0.0, 0.0, 0.0, 1.6689767569702895E9, 0.0, 2022-11-20 15:39:16.970
190.0, -18197.672748288245, 22172.706982220054, -35874.281629834375, -34817.9158351321, -28009.797991490126, -28700.44454341466, -24365.39076154122, -3313.6014120103614, -26146.89184986256, -3608.443273120317, -28697.114133490817, -33816.02124166742, -27696.895920860283, -10667.593558739849, -22747.415035654907, -35095.65861173375, 0.08600000000000001, 0.9500000000000001, -0.166, 192.0, 1.0, 88.0, 14.5, 88.0, 125.0, 104.0, 0.0, 0.0, 0.0, 1.668976756970295E9, 0.0, 2022-11-20 15:39:16.970
192.0, -18183.45703881467, 22557.961649651726, -35852.48867899045, -34809.04219258335, -27989.860235435994, -28683.904252517732, -24348.87282238875, -3294.6694844567164, -26059.228308108846, -3524.803045368558, -28599.41465847667, -33726.793077801834, -27600.69401272464, -10573.179790160631, -22659.013886334167, -35011.34783164833, 0.08600000000000001, 0.9500000000000001, -0.166, 192.0, 0.0, 0.0, 0.0, 0.0, 0.0, 0.0, 0.0, 0.0, 0.0, 1.668976756970302E9, 0.0, 2022-11-20 15:39:16.970
194.0, -18202.210152412674, 22226.73114856853, -35871.10768212172, -34811.07620132878, -28009.194494389834, -28697.047078257452, -24367.178901097646, -3311.9473829206686, -26137.258248002323, -3586.3597495984736, -28681.62437458329, -33798.34101180327, -27685.205958510156, -10654.830712655868, -22735.076872715577, -35084.03570461699, 0.08600000000000001, 0.9500000000000001, -0.166, 192.0, 0.0, 0.0, 0.0, 0.0, 0.0, 0.0, 0.0, 0.0, 0.0, 1.6689767569703095E9, 0.0, 2022-11-20 15:39:16.970
196.0, -18189.11203016186, 22510.397137450833, -35843.70444341951, -34792.92658483107, -27985.948680156314, -28676.43876986966, -24346.548240965396, -3289.0815483428896, -26066.91730820147, -3522.187891267287, -28602.45449572259, -33718.23235967545, -27604.5161610265, -10571.659871537671, -22661.80785439108, -35005.446971112135, 0.08600000000000001, 0.9500000000000001, -0.166, 192.0, 0.0, 0.0, 0.0, 0.0, 0.0, 0.0, 0.0, 0.0, 0.0, 1.668976756970319E9, 0.0, 2022-11-20 15:39:16.970
198.0, -18234.866051061876, 22246.44538717811, -35885.85983346222, -34826.65536721413, -28026.628855064973, -28714.280273232496, -24386.28964260693, -3331.415752341241, -26152.1221580651, -3602.1400811839203, -28701.070392259408, -33806.94643341857, -27697.81234238295, -10664.419611027195, -22740.463643129307, -35086.20382382916, 0.08600000000000001, 0.9500000000000001, -0.166, 192.0, 0.0, 0.0, 0.0, 0.0, 0.0, 0.0, 0.0, 0.0, 0.0, 1.6689767569703271E9, 0.0, 2022-11-20 15:39:16.970
200.0, -18194.65526278678, 22447.924011698247, -35843.235056785954, -34793.79830286483, -27983.557043499597, -28673.845967512843, -24343.709569419574, -3290.333246032387, -26083.12232293157, -3544.2043595557643, -28619.642987208725, -33737.72308084048, -27611.13227738527, -10584.176848432642, -22665.697057926307, -35010.40905838121, 0.08600000000000001, 0.9500000000000001, -0.166, 192.0, 1.0, 88.0, 14.5, 88.0, 125.0, 104.0, 0.0, 0.0, 0.0, 1.668976756970333E9, 0.0, 2022-11-20 15:39:16.970
202.0, -18249.640554146834, 22286.387954519745, -35905.41760986061, -34848.2248006135, -28041.69393082785, -28732.094613563375, -24400.371241613775, -3349.0512787164785, -26153.3738557546, -3601.022493961155, -28703.909063805233, -33813.271977099415, -27699.622833683832, -10663.659651715714, -22739.32370416209, -35086.15912034024, 0.08600000000000001, 0.9500000000000001, -0.166, 192.0, 0.0, 0.0, 0.0, 0.0, 0.0, 0.0, 0.0, 0.0, 0.0, 1.6689767569703388E9, 0.0, 2022-11-20 15:39:16.970
204.0, -18181.087753902408, 22397.833752373906, -35832.461515958494, -34781.92952655906, -27969.408389259388, -28661.396045851237, -24332.243124514, -3281.258437783532, -26094.298195159223, -3550.6416619588927, -28628.270760568474, -33749.658912379615, -27621.257617623523, -10593.274008425953, -22680.426857522354, -35022.74722132054, 0.08600000000000001, 0.9500000000000001, -0.166, 192.0, 0.0, 0.0, 0.0, 0.0, 0.0, 0.0, 0.0, 0.0, 0.0, 1.6689767569703443E9, 0.0, 2022-11-20 15:39:16.970
206.0, -18272.305223024516, 22334.37714986529, -35927.612892104735, -34870.10715843525, -28057.65307636894, -28743.02461660202, -24416.17392494368, -3363.0658224899557, -26142.13092829358, -3586.985598443222, -28693.73902007807, -33803.727782217, -27684.96008932115, -10652.416724254696, -22736.17210819389, -35079.52065223702, 0.08600000000000001, 0.9500000000000001, -0.166, 192.0, 0.0, 0.0, 0.0, 0.0, 0.0, 0.0, 0.0, 0.0, 0.0, 1.66897675697035E9, 0.0, 2022-11-20 15:39:16.970
208.0, -18193.045937185998, 22318.686225257665, -35851.70636793451, -34790.5125964299, -27974.415180017375, -28659.697313272634, -24330.63379891322, -3276.7880888924706, -26120.87441931658, -3584.28103736413, -28664.257069141517, -33785.511110485924, -27644.503431857043, -10620.140805261231, -22716.703738773318, -35056.543058936964, 0.08600000000000001, 0.9500000000000001, -0.166, 192.0, 0.0, 0.0, 0.0, 0.0, 0.0, 0.0, 0.0, 0.0, 0.0, 1.6689767569703555E9, 0.0, 2022-11-20 15:39:16.970
210.0, -18260.727019396665, 22396.112668050846, -35920.79561004587, -34854.81856522782, -28038.65409358193, -28723.198619270162, -24393.151628154712, -3338.255386144565, -26125.434175185466, -3573.663958747859, -28686.228833941084, -33791.389619277674, -27664.39648442227, -10631.897822844723, -22720.704701030816, -35060.43226247219, 0.084, 0.9490000000000001, -0.168, 192.0, 1.0, 72.0, 14.5, 80.0, 125.0, 88.0, 0.0, 0.0, 0.0, 1.6689767569703617E9, 0.0, 2022-11-20 15:39:16.970
212.0, -18193.761193008566, 22268.484207211044, -35859.84240291624, -34795.02764880987, -27980.96424114278, -28669.688543044158, -24338.25574377248, -3286.7569669195377, -26121.634378628063, -3573.306330836574, -28665.8663947423, -33775.58693594777, -27645.08457721288, -10616.005732537, -22716.524924817673, -35052.94442807966, 0.084, 0.9490000000000001, -0.168, 192.0, 0.0, 0.0, 0.0, 0.0, 0.0, 0.0, 0.0, 0.0, 0.0, 1.6689767569703672E9, 0.0, 2022-11-20 15:39:16.970
214.0, -18274.786266659055, 22443.766587229562, -35933.7819735744, -34879.316077150834, -28066.012628795223, -28756.346256297384, -24422.722986069082, -3370.8218778159476, -26134.71014913442, -3583.8563542194793, -28692.509674133027, -33798.13984610318, -27682.277879986512, -10651.857930643313, -22739.279000673178, -35080.6829429487, 0.084, 0.9490000000000001, -0.168, 192.0, 0.0, 0.0, 0.0, 0.0, 0.0, 0.0, 0.0, 0.0, 0.0, 1.668976756970373E9, 0.0, 2022-11-20 15:39:16.970
216.0, -18173.421105554236, 22245.104282510794, -35830.51691419088, -34773.54762238832, -27967.3520287695, -28661.641915040247, -24331.68433090262, -3282.040748839468, -26124.65186412953, -3583.632836774926, -28658.82559523888, -33779.18556680508, -27654.606420350843, -10629.997924566022, -22720.749404519727, -35066.958971853135, 0.084, 0.9490000000000001, -0.168, 192.0, 0.0, 0.0, 0.0, 0.0, 0.0, 0.0, 0.0, 0.0, 0.0, 1.6689767569703786E9, 0.0, 2022-11-20 15:39:16.970
218.0, -18256.70370539471, 22510.88887582885, -35910.31264189633, -34862.21699264253, -28045.113747729512, -28742.287009034993, -24410.563637085397, -3360.4059648997745, -26110.391451167045, -3559.1353248519094, -28658.020932438485, -33769.95429634504, -27654.449958139656, -10622.823014595868, -22705.036128167645, -35054.12907053579, 0.084, 0.9490000000000001, -0.168, 192.0, 0.0, 0.0, 0.0, 0.0, 0.0, 0.0, 0.0, 0.0, 0.0, 1.6689767569703844E9, 0.0, 2022-11-20 15:39:16.970
220.0, -18179.344317834893, 22195.930444709116, -35838.18356253905, -34781.48249166995, -27969.050761348102, -28662.781854007466, -24331.214944269057, -3284.2759232849985, -26131.759718866317, -3595.3227991250515, -28670.448502355637, -33791.814302422325, -27659.881432042293, -10637.552814191917, -22717.284884129156, -35068.38948349828, 0.085, 0.9515, -0.166, 192.0, 1.0, 88.0, 14.5, 104.0, 125.0, 112.0, 0.0, 0.0, 0.0, 1.66897675697039E9, 0.0, 2022-11-20 15:39:16.970
222.0, -18265.778513643567, 22540.88491688787, -35918.247511177964, -34869.2801438904, -28062.70457061584, -28745.371549769825, -24415.481020865565, -3360.8306480444253, -26107.150448221022, -3554.7767346831247, -28659.362037105806, -33767.49560445495, -27648.437338881176, -10622.174814006665, -22696.900093185915, -35043.75786110853, 0.085, 0.9515, -0.166, 192.0, 0.0, 0.0, 0.0, 0.0, 0.0, 0.0, 0.0, 0.0, 0.0, 1.6689767569703956E9, 0.0, 2022-11-20 15:39:16.970
224.0, -18179.679594001722, 22179.703078234565, -35836.9095131051, -34767.758520574396, -27985.59105224503, -28658.80324349442, -24336.266438515955, -3282.420728495208, -26149.395245241554, -3601.3577701279846, -28686.273537429995, -33797.22342458051, -27683.46252244264, -10652.595538210338, -22739.770739051193, -35075.94437312417, 0.085, 0.9515, -0.166, 192.0, 0.0, 0.0, 0.0, 0.0, 0.0, 0.0, 0.0, 0.0, 0.0, 1.6689767569704013E9, 0.0, 2022-11-20 15:39:16.970
226.0, -18233.860222561387, 22588.628243044408, -35887.04447591835, -34824.80017242434, -28038.363520904008, -28714.883770332788, -24391.855226976306, -3334.589700053895, -26087.190340422436, -3530.2345192711973, -28628.471926268572, -33731.129316226165, -27632.27702763999, -10594.168078204166, -22683.57845349055, -35012.018383981995, 0.085, 0.9515, -0.166, 192.0, 0.0, 0.0, 0.0, 0.0, 0.0, 0.0, 0.0, 0.0, 0.0, 1.6689767569704072E9, 0.0, 2022-11-20 15:39:16.970
228.0, -18168.436666540703, 22180.99947941297, -35829.06405080129, -34755.59917159071, -27974.571642228562, -28655.53988880395, -24329.560915179365, -3280.4090714942304, -26127.624646142085, -3576.9943686716997, -28664.614697052803, -33774.268183024906, -27664.508243144544, -10631.830767611358, -22720.34707311953, -35051.11158503433, 0.085, 0.9515, -0.166, 192.0, 0.0, 0.0, 0.0, 0.0, 0.0, 0.0, 0.0, 0.0, 0.0, 1.6689767569704144E9, 0.0, 2022-11-20 15:39:16.970
230.0, -18225.388911412825, 22608.99068224319, -35874.75101646793, -34824.95663463553, -28019.58805556155, -28712.380374953795, -24378.041848902925, -3329.873481973825, -26068.884261713538, -3512.3307719624963, -28611.37284176026, -33718.05354571981, -27609.3664895733, -10578.074822196344, -22659.997363090202, -35002.004802466014, 0.0865, 0.95475, -0.164, 192.0, 1.0, 96.0, 14.5, 120.0, 125.0, 120.0, 0.0, 0.0, 0.0, 1.66897675697042E9, 0.0, 2022-11-20 15:39:16.970
232.0, -18180.573663779935, 22178.049049144873, -35834.54022819283, -34772.67590435456, -27977.544424241118, -28663.72062727459, -24332.421938469644, -3286.980484364091, -26135.64892240154, -3585.622142031448, -28677.623412325793, -33789.087389598775, -27671.23611822559, -10644.817131139891, -22720.481183586264, -35072.2786870335, 0.0865, 0.95475, -0.164, 192.0, 0.0, 0.0, 0.0, 0.0, 0.0, 0.0, 0.0, 0.0, 0.0, 1.6689767569704258E9, 0.0, 2022-11-20 15:39:16.970
234.0, -18220.73974856612, 22611.24820843318, -35871.95704841102, -34823.950806135035, -28016.59292180454, -28701.36096493733, -24371.470436033065, -3318.7199614906267, -26062.469311054865, -3507.50279516015, -28603.99676609001, -33713.784362528844, -27598.36943130129, -10567.725964513536, -22654.38707523192, -35000.86486349879, 0.0865, 0.95475, -0.164, 192.0, 0.0, 0.0, 0.0, 0.0, 0.0, 0.0, 0.0, 0.0, 0.0, 1.6689767569704313E9, 0.0, 2022-11-20 15:39:16.970
236.0, -18200.08673668942, 22181.58062476881, -35865.49739426344, -34802.001393079925, -28005.260587365698, -28688.39695315325, -24360.160453338678, -3312.975563165613, -26150.825756886694, -3589.086662422021, -28693.761371822522, -33800.129151359695, -27689.47514170112, -10652.908462632711, -22749.96313452281, -35090.69652446467, 0.0865, 0.95475, -0.164, 192.0, 0.0, 0.0, 0.0, 0.0, 0.0, 0.0, 0.0, 0.0, 0.0, 1.6689767569704373E9, 0.0, 2022-11-20 15:39:16.970
238.0, -18227.065292246974, 22566.500016033653, -35882.64118226065, -34833.02561438389, -28023.812535263605, -28715.129639521798, -24382.40043907171, -3332.6003947973722, -26089.380811379055, -3529.7874843820914, -28625.34268204483, -33733.47624939397, -27621.302321112435, -10588.244865923509, -22683.757267446195, -35034.21366622611, 0.0865, 0.95475, -0.164, 192.0, 0.0, 0.0, 0.0, 0.0, 0.0, 0.0, 0.0, 0.0, 0.0, 1.6689767569704428E9, 0.0, 2022-11-20 15:39:16.970
240.0, -18211.75434729509, 22201.272511633935, -35863.97747564047, -34802.5154832024, -28001.974880930768, -28698.05290675794, -24363.446159773608, -3319.189348124188, -26166.159053583033, -3601.670694550359, -28704.333746949884, -33810.65682299815, -27701.500380218076, -10667.459448273117, -22746.990352510256, -35099.123132124325, 0.09025, 0.956375, -0.164, 192.0, 1.0, 120.0, 14.5, 120.0, 125.0, 112.0, 0.0, 0.0, 0.0, 1.6689767574503505E9, 0.0, 2022-11-20 15:39:17.450
242.0, -18221.18678345523, 22539.923791876292, -35861.29526630584, -34815.47949498647, -28003.941834442838, -28702.366793437817, -24370.397552299208, -3322.3409440923865, -26080.104837430103, -3526.2112052692423, -28611.551655715903, -33726.793077801834, -27607.84657095034, -10575.482019839528, -22650.76609263016, -35010.83374152586, 0.09025, 0.956375, -0.164, 192.0, 0.0, 0.0, 0.0, 0.0, 0.0, 0.0, 0.0, 0.0, 0.0, 1.6689767574504433E9, 0.0, 2022-11-20 15:39:17.450
244.0, -18242.62210638787, 22219.19861068709, -35882.50707179392, -34820.17336132209, -28025.041881208646, -28717.34246222287, -24389.843569975328, -3341.742258279593, -26176.820835688217, -3616.4004941464063, -28720.24818900206, -33827.84531448428, -27712.788011168006, -10678.50121003404, -22744.17403270889, -35098.47493153512, 0.09025, 0.956375, -0.164, 192.0, 0.0, 0.0, 0.0, 0.0, 0.0, 0.0, 0.0, 0.0, 0.0, 1.668976757450467E9, 0.0, 2022-11-20 15:39:17.450
246.0, -18209.630931571835, 22488.134799973348, -35847.459536488, -34797.01695406639, -27987.759171457194, -28686.318240918907, -24361.032171372437, -3312.0144381540345, -26085.379849121553, -3534.9954408401777, -28622.459307010093, -33734.95146452802, -27605.723155227086, -10579.103002441288, -22656.555194444085, -35007.23511066855, 0.09025, 0.956375, -0.164, 192.0, 0.0, 0.0, 0.0, 0.0, 0.0, 0.0, 0.0, 0.0, 0.0, 1.6689767574504726E9, 0.0, 2022-11-20 15:39:17.450
248.0, -18235.491899906625, 22272.619279935276, -35886.32922009578, -34822.38618402317, -28023.1643346744, -28721.008148313544, -24394.3586223553, -3348.7607060385594, -26151.31749526471, -3594.406377602384, -28702.322089948906, -33806.275881084905, -27685.116551532337, -10658.429343513173, -22733.959285492812, -35082.89576564977, 0.09025, 0.956375, -0.164, 192.0, 0.0, 0.0, 0.0, 0.0, 0.0, 0.0, 0.0, 0.0, 0.0, 1.6689767574504778E9, 0.0, 2022-11-20 15:39:17.450
250.0, -18192.330681363426, 22445.241802363613, -35838.49648696143, -34780.38725619164, -27976.4044852739, -28673.845967512843, -24344.58128745333, -3296.6140862243283, -26088.754962534305, -3543.1091240774545, -28623.398080277217, -33735.890237795145, -27607.354832572324, -10587.887238012223, -22670.100351584002, -35020.86967478629, 0.091125, 0.9541875, -0.161, 192.0, 1.0, 112.0, 14.5, 96.0, 125.5, 8.0, 0.0, 0.0, 0.0, 1.668976757450483E9, 0.0, 2022-11-20 15:39:17.450
252.0, -18272.14876081333, 22298.74846920353, -35917.5769588443, -34858.61836178522, -28051.104015243534, -28745.080977091908, -24413.24584642003, -3365.502162635584, -26151.56336445372, -3596.753310770191, -28704.02082252751, -33810.32154683132, -27687.709353889153, -10661.178608081176, -22735.948590749336, -35084.90742265075, 0.091125, 0.9541875, -0.161, 192.0, 0.0, 0.0, 0.0, 0.0, 0.0, 0.0, 0.0, 0.0, 0.0, 1.6689767574504883E9, 0.0, 2022-11-20 15:39:17.450
254.0, -18195.83990524291, 22378.32067946442, -35842.09511781873, -34798.06748605579, -27973.454055005797, -28678.003391981532, -24337.987522839016, -3294.0212838675125, -26110.92789303397, -3574.915656437356, -28652.343589346838, -33773.552927202334, -27628.834858993872, -10610.373092934262, -22690.798066949614, -35045.769518109504, 0.091125, 0.9541875, -0.161, 192.0, 0.0, 0.0, 0.0, 0.0, 0.0, 0.0, 0.0, 0.0, 0.0, 1.6689767574504936E9, 0.0, 2022-11-20 15:39:17.450
0.0, -18265.398533987827, 22360.86396704483, -35914.71593555402, -34871.73883578048, -28040.17401220489, -28749.97600912762, -24404.506314338007, -3362.9764155121347, -26151.764530153818, -3601.313066639074, -28706.85949407333, -33817.78702947939, -27684.15542652076, -10668.331166306874, -22732.12644244748, -35095.055114633455, 0.091125, 0.9541875, -0.161, 192.0, 0.0, 0.0, 0.0, 0.0, 0.0, 0.0, 0.0, 0.0, 0.0, 1.668976757450499E9, 0.0, 2022-11-20 15:39:17.450
2.0, -18175.9915561666, 22328.61039979582, -35828.08057404525, -34782.66713412609, -27954.231554774233, -28668.48154884357, -24323.324778476333, -3282.264266284021, -26107.441020898943, -3566.3325865665183, -28643.358188075807, -33762.0194270634, -27620.721175756596, -10612.541212146427, -22683.310232557087, -35049.524611178, 0.091125, 0.9541875, -0.161, 192.0, 0.0, 0.0, 0.0, 0.0, 0.0, 0.0, 0.0, 0.0, 0.0, 1.6689767574505043E9, 0.0, 2022-11-20 15:39:17.450
4.0, -18269.89123462334, 22414.932836882217, -35921.1308862127, -34872.31998113632, -28052.802747822137, -28764.303477323472, -24419.660797078704, -3375.873372062847, -26130.731538621374, -3576.524982038138, -28683.63603158427, -33784.617040707715, -27669.582089135896, -10651.433247498662, -22719.184782407854, -35078.984210370094, 0.09156249999999999, 0.95209375, -0.1585, 192.0, 1.0, 112.0, 14.5, 88.0, 125.5, 16.0, 0.0, 0.0, 0.0, 1.66897675745052E9, 0.0, 2022-11-20 15:39:17.450
6.0, -18183.948777192687, 22267.321916499368, -35828.61701591218, -34772.005352020904, -27966.48031073574, -28666.492243587047, -24333.71833964805, -3288.455699498141, -26129.010454298314, -3586.2032873872863, -28664.279420885974, -33776.59276444826, -27649.95725750414, -10636.167006035686, -22718.000139951724, -35068.09891082036, 0.09156249999999999, 0.95209375, -0.1585, 192.0, 0.0, 0.0, 0.0, 0.0, 0.0, 0.0, 0.0, 0.0, 0.0, 1.6689767574505253E9, 0.0, 2022-11-20 15:39:17.450
8.0, -18272.059353835506, 22468.845244508415, -35908.54685408436, -34855.28795186138, -28046.231334952277, -28740.38711075629, -24410.854209763314, -3359.1095637213666, -26119.2650937158, -3560.6552434748705, -28670.180281422174, -33769.28374401137, -27653.33237091689, -10634.28945950144, -22710.48995381474, -35052.22917225709, 0.09156249999999999, 0.95209375, -0.1585, 192.0, 0.0, 0.0, 0.0, 0.0, 0.0, 0.0, 0.0, 0.0, 0.0, 1.6689767574505308E9, 0.0, 2022-11-20 15:39:17.450
10.0, -18189.492009817604, 22214.951779240582, -35837.58006543876, -34778.39795093512, -27967.1508630694, -28662.603040051825, -24332.0419588139, -3286.332283774887, -26131.42444269949, -3584.6833687643257, -28669.599136066336, -33781.532499972884, -27648.347931903358, -10629.461482699095, -22719.028320196667, -35060.9240008502, 0.09156249999999999, 0.95209375, -0.1585, 192.0, 0.0, 0.0, 0.0, 0.0, 0.0, 0.0, 0.0, 0.0, 0.0, 1.668976757450536E9, 0.0, 2022-11-20 15:39:17.450
12.0, -18270.025345090075, 22513.012291552102, -35918.13575245569, -34871.984704969494, -28045.605486107528, -28748.679607949212, -24411.144782441235, -3364.80925855747, -26116.627587870073, -3566.42199354434, -28669.554432577424, -33776.90568887063, -27651.320713915913, -10632.635430411749, -22706.556046790607, -35055.71604439212, 0.09156249999999999, 0.95209375, -0.1585, 192.0, 0.0, 0.0, 0.0, 0.0, 0.0, 0.0, 0.0, 0.0, 0.0, 1.6689767574505413E9, 0.0, 2022-11-20 15:39:17.450
14.0, -18184.79814348199, 22184.084020147806, -35834.94255959303, -34784.05294228232, -27963.462825234274, -28671.54373783395, -24332.243124514, -3291.65199895525, -26141.03569281527, -3599.5472788271045, -28681.8702437723, -33800.64324148217, -27661.53546113199, -10650.852102142824, -22722.246971398232, -35077.017256858024, 0.08978124999999999, 0.952046875, -0.16225, 192.0, 1.0, 96.0, 14.5, 96.0, 125.0, 104.0, 0.0, 0.0, 0.0, 1.6689767574505465E9, 0.0, 2022-11-20 15:39:17.450
16.0, -18262.04577231953, 22559.23569908568, -35900.94726096955, -34851.04112041487, -28033.9155237574, -28743.35989276885, -24402.874636992772, -3359.4001363992857, -26105.49641913133, -3552.541560237594, -28652.880031213765, -33753.72692987048, -27638.4237573652, -10623.96295356309, -22682.97495639026, -35039.779250595486, 0.08978124999999999, 0.952046875, -0.16225, 192.0, 0.0, 0.0, 0.0, 0.0, 0.0, 0.0, 0.0, 0.0, 0.0, 1.668976757450552E9, 0.0, 2022-11-20 15:39:17.450
18.0, -18189.894341217798, 22167.38726703969, -35834.65198691511, -34759.26485768138, -27960.870022877458, -28664.32412437488, -24331.214944269057, -3291.249667555054, -26149.819928386205, -3599.1896509158196, -28684.73126706258, -33783.29828778485, -27669.313868202433, -10654.495436489038, -22719.676520785873, -35070.82582364391, 0.08978124999999999, 0.952046875, -0.16225, 192.0, 0.0, 0.0, 0.0, 0.0, 0.0, 0.0, 0.0, 0.0, 0.0, 1.6689767574505572E9, 0.0, 2022-11-20 15:39:17.450
20.0, -18273.19929280273, 22564.80128345505, -35911.83256051929, -34849.65531225864, -28040.017549993703, -28739.917724122733, -24407.188523672645, -3360.361261410864, -26100.64609058453, -3547.467714246239, -28645.213382865597, -33742.70751985401, -27628.387824104768, -10607.713235344081, -22677.118799342967, -35022.12137247579, 0.08978124999999999, 0.952046875, -0.16225, 192.0, 0.0, 0.0, 0.0, 0.0, 0.0, 0.0, 0.0, 0.0, 0.0, 1.6689767574505625E9, 0.0, 2022-11-20 15:39:17.450
22.0, -18199.282073889026, 22140.52047020441, -35843.83855388624, -34781.32602945877, -27971.531804982642, -28670.67201980019, -24336.557011193876, -3296.2117548241326, -26163.45449250394, -3616.624011590959, -28707.641805129268, -33816.40122132316, -27685.09419978788, -10667.794724439946, -22744.30814317562, -35089.60128898636, 0.08978124999999999, 0.952046875, -0.16225, 192.0, 0.0, 0.0, 0.0, 0.0, 0.0, 0.0, 0.0, 0.0, 0.0, 1.6689767574505675E9, 0.0, 2022-11-20 15:39:17.450
24.0, -18250.04288554703, 22581.4309813298, -35879.511938036914, -34847.64365525766, -28019.945683472837, -28724.87500010431, -24387.429581574153, -3341.9881274686013, -26084.843407254626, -3541.678612432315, -28633.031682137454, -33747.53549665636, -27611.33344308537, -10601.655912596692, -22672.603746962996, -35024.62476785479, 0.089890625, 0.9510234375, -0.16512500000000002, 192.0, 1.0, 104.0, 14.5, 88.0, 125.0, 96.0, 0.0, 0.0, 0.0, 1.668976757450573E9, 0.0, 2022-11-20 15:39:17.450
26.0, -18201.204323912185, 22148.500042974956, -35833.33323399225, -34797.41928546659, -27978.371438785965, -28689.49218863156, -24345.721226420552, -3306.56061250694, -26147.85297487414, -3608.107996953487, -28689.38042990928, -33810.12038113122, -27671.32552520341, -10668.77820119598, -22735.702721560327, -35092.43996053219, 0.089890625, 0.9510234375, -0.16512500000000002, 192.0, 0.0, 0.0, 0.0, 0.0, 0.0, 0.0, 0.0, 0.0, 0.0, 1.6689767574505785E9, 0.0, 2022-11-20 15:39:17.450
28.0, -18234.08374000594, 22573.697277748262, -35860.53530699436, -34833.33853880627, -28002.93600594235, -28718.907084334744, -24372.833892444836, -3330.454627329663, -26072.102912915103, -3534.41429548434, -28609.405888248195, -33731.553999370815, -27591.97683238707, -10595.039796237921, -22659.371514245453, -35020.959081764115, 0.089890625, 0.9510234375, -0.16512500000000002, 192.0, 0.0, 0.0, 0.0, 0.0, 0.0, 0.0, 0.0, 0.0, 0.0, 1.6689767574505837E9, 0.0, 2022-11-20 15:39:17.450
30.0, -18214.570667096457, 22143.18032779459, -35851.57225746778, -34803.45425646952, -27993.2577005932, -28703.752601594046, -24359.892232405215, -3323.9502696931686, -26164.1250448376, -3624.3577151724953, -28704.847837072353, -33820.044555669374, -27688.558720178455, -10686.9725211826, -22749.69491358935, -35112.51182705305, 0.089890625, 0.9510234375, -0.16512500000000002, 192.0, 0.0, 0.0, 0.0, 0.0, 0.0, 0.0, 0.0, 0.0, 0.0, 1.6689767574505887E9, 0.0, 2022-11-20 15:39:17.450
32.0, -18213.36367289587, 22550.60792572593, -35842.02806258536, -34803.7671808919, -27990.97782265876, -28694.946014278656, -24359.132273093735, -3316.551842278462, -26062.134034888037, -3525.048914557566, -28600.129914299243, -33715.885426507644, -27582.99143111604, -10583.349833887796, -22651.57075543055, -35009.02325022498, 0.089890625, 0.9510234375, -0.16512500000000002, 192.0, 0.0, 0.0, 0.0, 0.0, 0.0, 0.0, 0.0, 0.0, 0.0, 1.668976757450594E9, 0.0, 2022-11-20 15:39:17.450
34.0, -18220.024492743552, 22188.86729346124, -35854.03094935786, -34797.665154655595, -28000.16438962989, -28692.554377621935, -24362.619145228764, -3318.384685323797, -26150.356370253132, -3604.576421329549, -28694.34251717836, -33801.69377347157, -27676.600536894864, -10665.045459871944, -22742.40824489692, -35086.31558255143, 0.089890625, 0.9510234375, -0.16512500000000002, 192.0, 0.0, 0.0, 0.0, 0.0, 0.0, 0.0, 0.0, 0.0, 0.0, 1.6689767574505994E9, 0.0, 2022-11-20 15:39:17.450
36.0, -18212.13432695083, 22516.11918403139, -35842.27393177437, -34799.94503259004, -27987.379191801454, -28682.652554828233, -24346.123557820745, -3295.6529612127497, -26078.048476940214, -3535.062496073544, -28611.261083037985, -33723.73088881146, -27590.568672486388, -10574.18561866112, -22667.306383527088, -35005.35756413431, 0.088, 0.9540000000000001, -0.168, 192.0, 1.0, 96.0, 14.5, 104.0, 125.0, 96.0, 0.0, 0.0, 0.0, 1.6689767574506063E9, 0.0, 2022-11-20 15:39:17.450
38.0, -18232.586173127434, 22222.953703755582, -35872.42643504458, -34824.8225241688, -28010.53559905715, -28715.889598833277, -24368.721171465062, -3320.4410458136854, -26155.4749197334, -3602.3859503729286, -28698.87992130279, -33804.42068629512, -27676.71229561714, -10660.77627668098, -22741.894154774447, -35079.58770747038, 0.088, 0.9540000000000001, -0.168, 192.0, 0.0, 0.0, 0.0, 0.0, 0.0, 0.0, 0.0, 0.0, 0.0, 1.6689767574506116E9, 0.0, 2022-11-20 15:39:17.450
40.0, -18174.873968943833, 22489.07357324047, -35819.72102161897, -34780.02962828036, -27957.42785423134, -28672.929545990177, -24317.356862706765, -3264.159353275222, -26076.372096106064, -3538.2587955306526, -28607.595396947316, -33723.440316133536, -27587.171207329182, -10582.0981361983, -22663.998325347704, -35006.22928216807, 0.088, 0.9540000000000001, -0.168, 192.0, 0.0, 0.0, 0.0, 0.0, 0.0, 0.0, 0.0, 0.0, 0.0, 1.6689767574506168E9, 0.0, 2022-11-20 15:39:17.450
42.0, -18227.467623647168, 22287.349079531323, -35872.940525167054, -34820.039250855356, -28006.60169203302, -28716.850723844855, -24365.01078188548, -3311.7238654761154, -26135.403053212533, -3577.2625896051636, -28676.505825103024, -33778.179738304585, -27658.786196563986, -10643.811302639402, -22722.671654542883, -35066.266067775025, 0.088, 0.9540000000000001, -0.168, 192.0, 0.0, 0.0, 0.0, 0.0, 0.0, 0.0, 0.0, 0.0, 0.0, 1.668976757450622E9, 0.0, 2022-11-20 15:39:17.450
44.0, -18181.624195769335, 22427.852145177385, -35818.357565207196, -34780.14138700264, -27955.23738327472, -28661.351342362326, -24314.00410103847, -3257.364422960809, -26081.222424652868, -3534.9060338623567, -28608.333004514338, -33722.79211554433, -27587.50648349601, -10574.47619133904, -22665.026505592647, -35009.626747325274, 0.088, 0.9540000000000001, -0.168, 192.0, 0.0, 0.0, 0.0, 0.0, 0.0, 0.0, 0.0, 0.0, 0.0, 1.6689767574506273E9, 0.0, 2022-11-20 15:39:17.450
46.0, -18257.441312961735, 22313.947655433138, -35894.30879286633, -34862.03817868688, -28034.250799924233, -28734.665064175733, -24392.525779309963, -3332.7345052641044, -26143.13675679407, -3591.053615934088, -28686.564110107913, -33803.68307872809, -27666.25167921206, -10654.428381255673, -22733.847526770536, -35078.626582458804, 0.09, 0.9520000000000001, -0.168, 192.0, 1.0, 104.0, 14.5, 96.0, 125.0, 96.0, 0.0, 0.0, 0.0, 1.6689767574506328E9, 0.0, 2022-11-20 15:39:17.450
48.0, -18187.636815027814, 22356.863004787327, -35829.533437434846, -34798.961555834, -27971.285935793632, -28666.469891842593, -24329.38210122372, -3267.6462254102503, -26102.054250485213, -3562.9798248982224, -28632.91992341518, -33764.63458116467, -27611.288739596457, -10602.505278885994, -22701.213979865788, -35038.10286976134, 0.09, 0.9520000000000001, -0.168, 192.0, 0.0, 0.0, 0.0, 0.0, 0.0, 0.0, 0.0, 0.0, 0.0, 1.668976757450638E9, 0.0, 2022-11-20 15:39:17.450
50.0, -18261.799903130523, 22373.872682317815, -35907.80924651733, -34869.7271787795, -28046.83483205257, -28739.247171789073, -24402.472305592575, -3339.127104178322, -26138.84522185865, -3582.8505257189904, -28684.217176940107, -33799.32448855931, -27664.687057100185, -10646.471160229583, -22741.715340818806, -35075.36322776833, 0.09, 0.9520000000000001, -0.168, 192.0, 0.0, 0.0, 0.0, 0.0, 0.0, 0.0, 0.0, 0.0, 0.0, 1.6689767574506433E9, 0.0, 2022-11-20 15:39:17.450
52.0, -18172.92936717622, 22313.590027521852, -35820.99507105292, -34777.950916046015, -27957.91959260936, -28652.63416202476, -24315.61342663925, -3255.688042126661, -26110.88318954506, -3566.2431795886973, -28636.473850783572, -33759.00194156193, -27618.530704799978, -10604.606342864794, -22711.384023592953, -35045.277779731485, 0.09, 0.9520000000000001, -0.168, 192.0, 0.0, 0.0, 0.0, 0.0, 0.0, 0.0, 0.0, 0.0, 0.0, 1.6689767574506483E9, 0.0, 2022-11-20 15:39:17.450
54.0, -18274.00395560312, 22419.358482284366, -35917.66636582212, -34875.3821701267, -28054.054445511636, -28752.32294229543, -24408.820201017883, -3348.134857193811, -26127.870515331095, -3578.4248803168393, -28672.10253144533, -33782.381866262185, -27656.036931995983, -10635.317639746385, -22734.003988981724, -35071.67518993321, 0.09, 0.9520000000000001, -0.168, 192.0, 0.0, 0.0, 0.0, 0.0, 0.0, 0.0, 0.0, 0.0, 0.0, 1.6689767574506538E9, 0.0, 2022-11-20 15:39:17.450
56.0, -18183.010003925563, 22243.36084644328, -35828.415850212084, -34784.03059053786, -27963.1499008119, -28669.777950021977, -24318.47444992953, -3263.4664491971075, -26126.149431008034, -3584.6163135309594, -28653.260010869508, -33778.20209004904, -27636.501507342044, -10621.571316906371, -22725.711491788807, -35070.75876841054, 0.092, 0.9460000000000001, -0.17, 192.0, 1.0, 112.0, 14.5, 72.0, 125.0, 88.0, 0.0, 0.0, 0.0, 1.6689767574506593E9, 0.0, 2022-11-20 15:39:17.450
58.0, -18261.66579266379, 22472.086247454437, -35907.31750813931, -34865.14507116617, -28040.12930871598, -28747.673779448724, -24392.48107582105, -3335.5061215765622, -26109.07269824418, -3563.091583620499, -28653.61763878079, -33772.792967890855, -27640.99420797756, -10619.71612211658, -22715.742613761737, -35058.95704733814, 0.092, 0.9460000000000001, -0.17, 192.0, 0.0, 0.0, 0.0, 0.0, 0.0, 0.0, 0.0, 0.0, 0.0, 1.6689767574506643E9, 0.0, 2022-11-20 15:39:17.450
60.0, -18188.21796038365, 22191.884778962707, -35835.8589811157, -34784.11999751568, -27962.121720566956, -28664.748807519532, -24313.24414172699, -3259.97957706208, -26128.183439753466, -3589.4889938222163, -28659.652609783723, -33787.43336050909, -27645.263391168523, -10625.929907075157, -22729.868916257492, -35067.29424801996, 0.092, 0.9460000000000001, -0.17, 192.0, 0.0, 0.0, 0.0, 0.0, 0.0, 0.0, 0.0, 0.0, 0.0, 1.6689767574506927E9, 0.0, 2022-11-20 15:39:17.450
62.0, -18273.132237569363, 22496.472000655176, -35915.34178439877, -34871.24709740247, -28037.02241623669, -28737.704901421657, -24388.323651352366, -3328.5547290509617, -26106.323433676178, -3559.7164702077475, -28652.8129759804, -33772.5694504463, -27634.780423018983, -10610.842479567824, -22712.72512826027, -35042.70732911913, 0.092, 0.9460000000000001, -0.17, 192.0, 0.0, 0.0, 0.0, 0.0, 0.0, 0.0, 0.0, 0.0, 0.0, 1.668976757450698E9, 0.0, 2022-11-20 15:39:17.450
64.0, -18177.77969572302, 22161.464054759035, -35829.77930662386, -34777.660343368094, -27949.314170994065, -28647.649723011225, -24303.29761544438, -3248.066097267401, -26136.386529968564, -3600.7542730276914, -28673.8683192573, -33802.565491505324, -27653.131205216792, -10636.278764757964, -22741.55887860762, -35067.47306197561, 0.092, 0.9460000000000001, -0.17, 192.0, 0.0, 0.0, 0.0, 0.0, 0.0, 0.0, 0.0, 0.0, 0.0, 1.668976757450704E9, 0.0, 2022-11-20 15:39:17.450
66.0, -18270.13710381235, 22530.133727804867, -35917.9792902445, -34877.70675155005, -28041.40335814993, -28734.88858162029, -24394.269215377477, -3332.622746541828, -26085.201035165912, -3541.052763587566, -28632.830516437356, -33751.827031591776, -27616.831972221375, -10593.966912504067, -22694.284939084642, -35023.73069807657, 0.088, 0.9460000000000001, -0.16, 192.0, 1.0, 96.0, 14.5, 72.0, 125.5, 0.0, 0.0, 0.0, 0.0, 1.6689767574507093E9, 0.0, 2022-11-20 15:39:17.450
68.0, -18182.808838225465, 22140.56517369332, -35836.75305089391, -34788.38918070665, -27959.037179832125, -28655.67399927068, -24314.697005116584, -3258.8396380948593, -26155.050236588748, -3614.590002845526, -28691.81677005491, -33818.47993355751, -27676.309964216944, -10652.617889954792, -22750.924259534393, -35084.572146483915, 0.088, 0.9460000000000001, -0.16, 192.0, 0.0, 0.0, 0.0, 0.0, 0.0, 0.0, 0.0, 0.0, 0.0, 1.6689767574507165E9, 0.0, 2022-11-20 15:39:17.450
70.0, -18235.55895513999, 22567.103513133945, -35874.39338855665, -34846.526068034895, -28007.02637517767, -28706.524217906503, -24361.34509579481, -3300.36917929282, -26064.905651200494, -3524.9148040908344, -28605.628443435246, -33734.03504300535, -27595.597814988832, -10571.212836648565, -22665.0488573371, -35002.988279222045, 0.088, 0.9460000000000001, -0.16, 192.0, 0.0, 0.0, 0.0, 0.0, 0.0, 0.0, 0.0, 0.0, 0.0, 1.6689767574507215E9, 0.0, 2022-11-20 15:39:17.450
72.0, -18190.430783084725, 22130.372778221703, -35833.444992714525, -34791.853701097214, -27965.519185724163, -28667.945106976644, -24318.5415051629, -3262.5723794188953, -26143.2708672608, -3608.5997353315042, -28676.05879021392, -33809.226311353006, -27665.826996067408, -10645.755904407013, -22735.993294238247, -35074.80443415695, 0.088, 0.9460000000000001, -0.16, 192.0, 0.0, 0.0, 0.0, 0.0, 0.0, 0.0, 0.0, 0.0, 0.0, 1.668976757450727E9, 0.0, 2022-11-20 15:39:17.450
74.0, -18241.772740098564, 22550.719684448206, -35877.61203975821, -34844.51441103392, -28016.168238659888, -28713.229741243096, -24366.77656969745, -3301.419711282219, -26074.941584460925, -3531.665030916337, -28609.60705394829, -33738.10306049622, -27601.632785991766, -10575.258502394976, -22671.284994040132, -35008.240939169045, 0.088, 0.9460000000000001, -0.16, 192.0, 0.0, 0.0, 0.0, 0.0, 0.0, 0.0, 0.0, 0.0, 0.0, 1.6689767574507325E9, 0.0, 2022-11-20 15:39:17.450
76.0, -18206.99342572611, 22124.33780721877, -35849.85117314472, -34796.50286394392, -27987.91563366838, -28678.562185592913, -24335.48412746002, -3274.4411557246635, -26153.619724943608, -3606.990409730722, -28686.9217380192, -33813.74136373298, -27681.76378986404, -10647.521692218983, -22752.84650955755, -35082.828710416405, 0.08600000000000001, 0.9500000000000001, -0.164, 192.0, 1.0, 88.0, 14.5, 88.0, 125.0, 112.0, 0.0, 0.0, 0.0, 1.6689767574507377E9, 0.0, 2022-11-20 15:39:17.450
78.0, -18242.62210638787, 22533.218268539702, -35887.04447591835, -34843.01684415541, -28026.181820175865, -28712.335671464883, -24373.280927333944, -3307.678199729705, -26082.049439197715, -3529.1392837928875, -28614.300920283906, -33736.67254885108, -27608.159495372714, -10572.308072126874, -22688.697002970817, -35014.812352038905, 0.08600000000000001, 0.9500000000000001, -0.164, 192.0, 0.0, 0.0, 0.0, 0.0, 0.0, 0.0, 0.0, 0.0, 0.0, 1.6689767574507427E9, 0.0, 2022-11-20 15:39:17.450
80.0, -18215.397681641305, 22138.508813203433, -35866.43616753056, -34807.47757047148, -27997.68334599535, -28685.759447307522, -24346.77175840995, -3287.8298506533924, -26165.913184394027, -3616.981639502244, -28705.943072550665, -33827.666500528634, -27699.779295895016, -10663.413782526706, -22779.400381970452, -35100.97832691411, 0.08600000000000001, 0.9500000000000001, -0.164, 192.0, 0.0, 0.0, 0.0, 0.0, 0.0, 0.0, 0.0, 0.0, 0.0, 1.668976757450748E9, 0.0, 2022-11-20 15:39:17.450
82.0, -18219.398643898803, 22506.41852693779, -35854.99207436944, -34819.636919455166, -27991.938947670336, -28695.124828234297, -24351.86795614576, -3290.489708243574, -26066.850252968106, -3537.6105949414487, -28598.408829976182, -33726.56956035728, -27593.139123098746, -10571.95044421559, -22670.77090391766, -35005.13404668976, 0.08600000000000001, 0.9500000000000001, -0.164, 192.0, 0.0, 0.0, 0.0, 0.0, 0.0, 0.0, 0.0, 0.0, 0.0, 1.6689767574507535E9, 0.0, 2022-11-20 15:39:17.450
84.0, -18225.56772536847, 22156.792540167873, -35867.33023730877, -34825.13544859117, -28001.661956508397, -28709.11702026332, -24360.741598694516, -3304.6607142282387, -26147.495346962853, -3622.7483895717132, -28688.39695315325, -33814.97070967802, -27683.86485384284, -10669.940491907655, -22750.477224645285, -35094.96570765563, 0.08600000000000001, 0.9500000000000001, -0.164, 192.0, 0.0, 0.0, 0.0, 0.0, 0.0, 0.0, 0.0, 0.0, 0.0, 1.6689767574507596E9, 0.0, 2022-11-20 15:39:17.450
86.0, -18220.248010188105, 22454.54012805702, -35854.6120947137, -34828.66702421511, -27985.099313867013, -28696.980023024087, -24345.25183978699, -3287.740443675571, -26067.274936112757, -3554.396755027384, -28601.493370711014, -33736.5607901288, -27590.591024230842, -10586.9484647451, -22666.367610259964, -35018.03100324047, 0.08600000000000001, 0.9460000000000001, -0.164, 192.0, 1.0, 88.0, 14.5, 72.0, 125.0, 112.0, 0.0, 0.0, 0.0, 1.668976757450765E9, 0.0, 2022-11-20 15:39:17.450
88.0, -18262.09047580844, 22172.036429886393, -35897.03570568987, -34865.65916128864, -28024.59484631954, -28732.6310554303, -24378.48888379203, -3321.0892464028893, -26159.207661057433, -3641.1438752584313, -28709.049965029953, -33838.574151822824, -27689.899824845772, -10685.474954304094, -22760.781378839183, -35112.62358577533, 0.08600000000000001, 0.9460000000000001, -0.164, 192.0, 0.0, 0.0, 0.0, 0.0, 0.0, 0.0, 0.0, 0.0, 0.0, 1.6689767574507709E9, 0.0, 2022-11-20 15:39:17.450
90.0, -18218.057539231486, 22397.364365740345, -35851.75107142342, -34829.24816957094, -27983.087656866035, -28692.017935755008, -24341.005008340482, -3279.7161674161157, -26090.54310209073, -3576.860258204968, -28626.013234378486, -33766.89210735466, -27607.310129083413, -10600.538325373927, -22691.58037800555, -35044.6742826312, 0.08600000000000001, 0.9460000000000001, -0.164, 192.0, 0.0, 0.0, 0.0, 0.0, 0.0, 0.0, 0.0, 0.0, 0.0, 1.668976757450776E9, 0.0, 2022-11-20 15:39:17.450
92.0, -18255.027324560564, 22229.882744536728, -35903.830636004284, -34870.10715843525, -28037.961189503814, -28737.63784618829, -24392.838703732337, -3328.1076941618558, -26146.355407995634, -3622.770741316169, -28696.220063712608, -33830.28165462991, -27684.24483349858, -10666.811247683912, -22761.183710239377, -35107.90736769526, 0.08600000000000001, 0.9460000000000001, -0.164, 192.0, 0.0, 0.0, 0.0, 0.0, 0.0, 0.0, 0.0, 0.0, 0.0, 1.6689767574507816E9, 0.0, 2022-11-20 15:39:17.450
94.0, -18200.46671634516, 22353.979629752594, -35853.494507490934, -34822.766163678905, -27991.514264525686, -28696.24241545706, -24351.420921256653, -3287.5169262310183, -26082.474122342366, -3572.2334471027193, -28619.12889708625, -33761.84061310776, -27613.546265786445, -10601.186525963132, -22710.244084625734, -35050.88806758977, 0.08600000000000001, 0.9460000000000001, -0.164, 192.0, 0.0, 0.0, 0.0, 0.0, 0.0, 0.0, 0.0, 0.0, 0.0, 1.6689767574507868E9, 0.0, 2022-11-20 15:39:17.450
96.0, -18251.585155914447, 22290.478323755066, -35899.29323187986, -34859.73594900798, -28039.972846504792, -28745.55036372547, -24395.140933411236, -3332.555691308462, -26134.017245056304, -3613.3830086449398, -28682.943127506154, -33811.796761965365, -27683.4848741871, -10677.16010536672, -22761.206061983834, -35104.59930951587, 0.08600000000000001, 0.9460000000000001, -0.164, 192.0, 1.0, 88.0, 14.5, 72.0, 125.0, 112.0, 0.0, 0.0, 0.0, 1.668976757450792E9, 0.0, 2022-11-20 15:39:17.450
98.0, -18179.523131790535, 22306.191600107148, -35821.1068297752, -34771.7594828319, -27960.422987988353, -28661.396045851237, -24313.869990571737, -3249.1166292568005, -26077.892014729026, -3571.2052668577753, -28609.830571392846, -33747.490793167446, -27603.17505635918, -10602.52763063045, -22685.545407002617, -35021.47317188659, 0.08600000000000001, 0.9460000000000001, -0.164, 192.0, 0.0, 0.0, 0.0, 0.0, 0.0, 0.0, 0.0, 0.0, 0.0, 1.668976757450797E9, 0.0, 2022-11-20 15:39:17.450
100.0, -18274.942728870243, 22325.95054220564, -35919.81213328983, -34866.41912060012, -28052.82509956659, -28753.37347428483, -24407.92613123967, -3339.104752433867, -26119.376852438076, -3599.3237613825518, -28672.258993656516, -33797.98338389199, -27663.502414644056, -10653.981346366567, -22730.852393013527, -35058.08532930438, 0.08600000000000001, 0.9460000000000001, -0.164, 192.0, 0.0, 0.0, 0.0, 0.0, 0.0, 0.0, 0.0, 0.0, 0.0, 1.668976757450804E9, 0.0, 2022-11-20 15:39:17.450
102.0, -18177.8914544453, 22234.464852150068, -35828.16998102307, -34776.43099742306, -27958.92542110985, -28660.47962432857, -24316.954531306572, -3247.708469356116, -26099.79672429523, -3597.625028803948, -28642.82174620888, -33781.532499972884, -27628.030196193482, -10625.192299508131, -22714.82619223907, -35041.07565177389, 0.08600000000000001, 0.9460000000000001, -0.164, 192.0, 0.0, 0.0, 0.0, 0.0, 0.0, 0.0, 0.0, 0.0, 0.0, 1.6689767574508092E9, 0.0, 2022-11-20 15:39:17.450
104.0, -18268.03603983355, 22386.38965921279, -35908.05511570634, -34868.56488806783, -28043.97380876229, -28745.483308492105, -24399.2089509021, -3326.2748511165205, -26103.529465619264, -3586.695025765303, -28664.234717397063, -33788.43918900957, -27648.884373770285, -10637.999849081023, -22726.98554122276, -35054.01731181351, 0.08600000000000001, 0.9460000000000001, -0.164, 192.0, 0.0, 0.0, 0.0, 0.0, 0.0, 0.0, 0.0, 0.0, 0.0, 1.6689767579305031E9, 0.0, 2022-11-20 15:39:17.930
106.0, -18179.657242257268, 22188.040278916393, -35819.385745452135, -34775.60398287821, -27961.451168233296, -28661.172528406685, -24317.0886417733, -3249.3177949568985, -26097.092163216137, -3586.337397854018, -28639.9607229186, -33769.84253762275, -27622.531667057476, -10613.077654013356, -22713.239218382743, -35047.870582088304, 0.09, 0.9460000000000001, -0.163, 192.0, 1.0, 120.0, 14.5, 72.0, 125.0, 120.0, 0.0, 0.0, 0.0, 1.6689767579305933E9, 0.0, 2022-11-20 15:39:17.930
108.0, -18279.167208572293, 22417.235066561112, -35920.974424001506, -34885.99924874297, -28061.65403862644, -28770.472558793135, -24423.818221547393, -3357.097906720389, -26108.3127389327, -3586.024473431644, -28664.659400541714, -33782.53832847337, -27651.65599008274, -10632.255450756009, -22732.75229129223, -35078.93950688118, 0.09, 0.9460000000000001, -0.163, 192.0, 0.0, 0.0, 0.0, 0.0, 0.0, 0.0, 0.0, 0.0, 0.0, 1.6689767579306333E9, 0.0, 2022-11-20 15:39:17.930
110.0, -18178.494951545592, 22141.235726026982, -35829.9581205795, -34791.69723888603, -27967.32967702504, -28683.077237972884, -24332.66780765865, -3273.5470859464513, -26116.381718681067, -3612.623049333459, -28658.535022560958, -33792.64131696717, -27646.89506851376, -10638.893918859234, -22746.07393098759, -35107.303870594966, 0.09, 0.9460000000000001, -0.163, 192.0, 0.0, 0.0, 0.0, 0.0, 0.0, 0.0, 0.0, 0.0, 0.0, 1.6689767579306386E9, 0.0, 2022-11-20 15:39:17.930
112.0, -18255.809635616497, 22469.806369519996, -35893.079446921285, -34873.6834375481, -28034.16139294641, -28755.765110941546, -24397.376107856766, -3335.282604132009, -26078.11553217358, -3564.0750603765323, -28632.025853636966, -33759.69484564005, -27620.698824012143, -10615.893973814724, -22713.798011994128, -35085.01918137303, 0.09, 0.9460000000000001, -0.163, 192.0, 0.0, 0.0, 0.0, 0.0, 0.0, 0.0, 0.0, 0.0, 0.0, 1.668976757930644E9, 0.0, 2022-11-20 15:39:17.930
114.0, -18191.302501118484, 22103.237760452957, -35825.979510066456, -34802.291965757846, -27965.429778746344, -28688.329897919884, -24327.929237834127, -3272.8318301238814, -26110.100878489124, -3607.817424275568, -28653.260010869508, -33796.37405829121, -27636.836783508872, -10640.704410160115, -22737.4685093723, -35111.975385186124, 0.09, 0.9460000000000001, -0.163, 192.0, 0.0, 0.0, 0.0, 0.0, 0.0, 0.0, 0.0, 0.0, 0.0, 1.6689767579306493E9, 0.0, 2022-11-20 15:39:17.930
116.0, -18269.66771717879, 22490.39232616333, -35900.36611561372, -34885.37339989822, -28036.4189191364, -28760.97306739963, -24400.12537242477, -3341.5857960684057, -26080.998907208315, -3571.7864122136134, -28631.48941177004, -33770.33427600077, -27615.51321929851, -10618.173851749165, -22704.700852000817, -35079.14067258128, 0.09, 0.9460000000000001, -0.1625, 192.0, 1.0, 104.0, 14.5, 72.0, 125.0, 120.0, 0.0, 0.0, 0.0, 1.6689767579306557E9, 0.0, 2022-11-20 15:39:17.930
118.0, -18204.154754180283, 22083.478818354466, -35845.20201029802, -34806.896425115636, -27975.33160154004, -28691.72736307709, -24337.987522839016, -3281.2137342946216, -26140.141623037056, -3632.7396193432355, -28684.127769962284, -33822.279730114904, -27665.938754789684, -10669.11347736281, -22754.724056091793, -35117.87624572233, 0.09, 0.9460000000000001, -0.1625, 192.0, 0.0, 0.0, 0.0, 0.0, 0.0, 0.0, 0.0, 0.0, 0.0, 1.6689767579306612E9, 0.0, 2022-11-20 15:39:17.930
