%OpenBCI Raw EEG Data
%Number of channels = 16
%Sample Rate = 125 Hz
%Board = OpenBCI_GUI$BoardCytonSerialDaisy
Sample Index, EXG Channel 0, EXG Channel 1, EXG Channel 2, EXG Channel 3, EXG Channel 4, EXG Channel 5, EXG Channel 6, EXG Channel 7, EXG Channel 8, EXG Channel 9, EXG Channel 10, EXG Channel 11, EXG Channel 12, EXG Channel 13, EXG Channel 14, EXG Channel 15, Accel Channel 0, Accel Channel 1, Accel Channel 2, Other, Other, Other, Other, Other, Other, Other, Analog Channel 0, Analog Channel 1, Analog Channel 2, Timestamp, Other, Timestamp (Formatted)
0.0, -20246.143072383773, 22406.506229222567, -33582.51256734283, -32343.242447762783, -26027.734700171317, -26329.706767762516, -22249.73109361304, -1212.9621163561483, 0.0, 0.0, 0.0, 0.0, 0.0, 0.0, 0.0, 0.0, 0.0, 0.0, 0.0, 192.0, 0.0, 0.0, 0.0, 0.0, 0.0, 0.0, 0.0, 0.0, 0.0, 1.6689769089795628E9, 0.0, 2022-11-20 15:41:48.979
46.0, -20243.930249682697, 22127.17647876459, -33581.30557314224, -32322.187104485885, -26024.516048969752, -26328.522125306386, -22247.361808700778, -1213.4762064786205, -25165.426750830025, -2117.090179573319, -26462.610240293772, -30796.792304133454, -26263.411493708074, -8213.662590225053, -20639.623181774998, -32870.85537563031, 0.042, 0.9540000000000001, -0.116, 192.0, 0.5, 40.0, 14.5, 104.0, 126.0, 48.0, 0.0, 0.0, 0.0, 1.6689769089795694E9, 0.0, 2022-11-20 15:41:48.979
48.0, -20227.077034363396, 22393.56456918294, -33557.38920657506, -32307.166732211917, -26014.01072907576, -26314.708747233006, -22228.206363702582, -1194.4995754360648, -25078.456113154425, -2041.1389519141856, -26370.230480459988, -30708.189989112616, -26175.703248465452, -8121.863975747106, -20551.222032454258, -32783.72827574352, 0.042, 0.9540000000000001, -0.116, 192.0, 0.0, 0.0, 0.0, 0.0, 0.0, 0.0, 0.0, 0.0, 0.0, 1.668976908979575E9, 0.0, 2022-11-20 15:41:48.979
50.0, -20237.67176123521, 22154.71382793353, -33572.67779978249, -32312.508799136736, -26028.405252504977, -26329.25973287341, -22242.779701087442, -1212.6044884448634, -25153.960305924455, -2105.936659090121, -26450.875574454734, -30782.151911515226, -26256.124825015646, -8198.508107484355, -20614.79039368515, -32847.43074744115, 0.042, 0.9540000000000001, -0.116, 192.0, 0.0, 0.0, 0.0, 0.0, 0.0, 0.0, 0.0, 0.0, 0.0, 1.66897690897958E9, 0.0, 2022-11-20 15:41:48.979
52.0, -20218.04692960345, 22375.213786985136, -33543.24055233486, -32294.11331345002, -25999.549150413175, -26300.560092992797, -22216.069366463347, -1183.0331305304921, -25076.064476497708, -2039.0602396798422, -26362.139148967166, -30702.378535554235, -26165.667315205017, -8116.141929166548, -20529.719654288252, -32758.895487653674, 0.042, 0.9540000000000001, -0.116, 192.0, 0.0, 0.0, 0.0, 0.0, 0.0, 0.0, 0.0, 0.0, 0.0, 1.6689769089795852E9, 0.0, 2022-11-20 15:41:48.979
54.0, -20258.458883578645, 22179.367802067736, -33589.575718590706, -32320.935406796387, -26039.268200310256, -26328.767994495392, -22254.6037739043, -1219.1535495702685, -25163.482149062416, -2110.22819402554, -26461.649115282195, -30787.829254606877, -26265.691371642515, -8204.990113376392, -20606.1626203254, -32824.45315414109, 0.042, 0.9540000000000001, -0.116, 192.0, 0.0, 0.0, 0.0, 0.0, 0.0, 0.0, 0.0, 0.0, 0.0, 1.6689769089795902E9, 0.0, 2022-11-20 15:41:48.979
56.0, -20210.08970857736, 22340.859155757327, -33542.92762791248, -32281.752798766232, -25987.546263640674, -26280.44352298302, -22206.391061114202, -1169.7338425795845, -25085.474560913393, -2044.804638004856, -26371.25866070493, -30705.954814667086, -26174.60801298714, -8110.643400030542, -20522.12006117345, -32738.84597287726, 0.046, 0.9540000000000001, -0.11800000000000001, 192.0, 0.5, 56.0, 14.5, 104.0, 126.0, 40.0, 0.0, 0.0, 0.0, 1.6689769089795952E9, 0.0, 2022-11-20 15:41:48.979
58.0, -20264.20328190366, 22206.189895414103, -33602.159750719045, -32340.001444816764, -26036.317770042155, -26339.116852178202, -22259.945840829118, -1228.943613641693, -25149.020570399833, -2103.053284055386, -26453.222507622544, -30781.66017313721, -26256.124825015646, -8189.522706213321, -20587.320099749577, -32813.858427269275, 0.046, 0.9540000000000001, -0.11800000000000001, 192.0, 0.0, 0.0, 0.0, 0.0, 0.0, 0.0, 0.0, 0.0, 0.0, 1.6689769089796016E9, 0.0, 2022-11-20 15:41:48.979
60.0, -20191.80598161292, 22315.489925800553, -33524.621549203584, -32275.449606829836, -25967.653211075452, -26276.95665084799, -22194.63404353071, -1170.0914704908694, -25091.509531916327, -2059.9144172566434, -26377.919480552613, -30718.628253773244, -26176.686725221483, -8122.422769358489, -20533.072415956547, -32769.467862781035, 0.046, 0.9540000000000001, -0.11800000000000001, 192.0, 0.0, 0.0, 0.0, 0.0, 0.0, 0.0, 0.0, 0.0, 0.0, 1.6689769089796069E9, 0.0, 2022-11-20 15:41:48.979
62.0, -20276.943776243184, 22243.025570276448, -33608.50764614435, -32363.7389974283, -26058.62481100855, -26374.343201439766, -22285.784457419453, -1261.4654018241647, -25131.563857980236, -2086.803565836378, -26437.442176037097, -30764.47168165108, -26237.550525373284, -8181.006691575849, -20586.761306138196, -32834.53379089043, 0.046, 0.9540000000000001, -0.11800000000000001, 192.0, 0.0, 0.0, 0.0, 0.0, 0.0, 0.0, 0.0, 0.0, 0.0, 1.668976908979612E9, 0.0, 2022-11-20 15:41:48.979
64.0, -20189.45904844511, 22272.64163167973, -33525.78383991526, -32279.450569087337, -25976.750371068763, -26292.133485333146, -22204.82643900233, -1180.1274037513024, -25108.653319913545, -2073.5713331188363, -26393.90097783816, -30731.860486490787, -26192.869388207127, -8146.383839414578, -20566.197701239314, -32816.6970988151, 0.046, 0.9540000000000001, -0.11800000000000001, 192.0, 0.0, 0.0, 0.0, 0.0, 0.0, 0.0, 0.0, 0.0, 0.0, 1.668976908979617E9, 0.0, 2022-11-20 15:41:48.979
66.0, -20265.09735168187, 22294.65809996821, -33602.94206177498, -32348.74097689879, -26051.67341848295, -26355.791253541858, -22272.88750086874, -1241.326480069933, -25123.15960206504, -2066.195257448585, -26423.204114819066, -30744.42216687467, -26223.066594966247, -8165.04754603476, -20584.682593903854, -32826.017776252964, 0.05, 0.9540000000000001, -0.114, 192.0, 0.5, 72.0, 14.5, 104.0, 126.0, 56.0, 0.0, 0.0, 0.0, 1.6689769089796224E9, 0.0, 2022-11-20 15:41:48.979
68.0, -20192.454182202124, 22235.224811461547, -33536.33386329816, -32269.124063148985, -25977.599737358065, -26278.789493893328, -22201.361918611758, -1167.0963367338584, -25117.370500251116, -2073.906609285666, -26402.55110294236, -30730.832306245844, -26199.99959468837, -8141.399400401045, -20579.02760255666, -32807.08584869932, 0.05, 0.9540000000000001, -0.114, 192.0, 0.0, 0.0, 0.0, 0.0, 0.0, 0.0, 0.0, 0.0, 0.0, 1.6689769089796274E9, 0.0, 2022-11-20 15:41:48.979
70.0, -20266.840787749385, 22334.75712952103, -33606.31717518773, -32341.074328550618, -26043.336217801123, -26343.028407457878, -22265.5561286874, -1230.4411805201985, -25116.92346536201, -2057.701594555568, -26420.879533395713, -30732.46398359108, -26220.719661798437, -8148.037868504271, -20580.480465946253, -32796.91580497215, 0.05, 0.9540000000000001, -0.114, 192.0, 0.0, 0.0, 0.0, 0.0, 0.0, 0.0, 0.0, 0.0, 0.0, 1.6689769089796329E9, 0.0, 2022-11-20 15:41:48.979
72.0, -20202.91479860721, 22189.515494050444, -33536.423270275984, -32270.643981771947, -25971.2294901883, -26272.128674045645, -22194.76815399744, -1166.0011012555483, -25128.92635213451, -2079.0251587659313, -26415.26924553743, -30738.342492382824, -26207.219208147435, -8143.455760890933, -20577.954718822806, -32798.25690963947, 0.05, 0.9540000000000001, -0.114, 192.0, 0.0, 0.0, 0.0, 0.0, 0.0, 0.0, 0.0, 0.0, 0.0, 1.668976908979638E9, 0.0, 2022-11-20 15:41:48.979
74.0, -20289.97484326063, 22344.167213936715, -33610.36284093414, -32355.580610702113, -26047.694807969907, -26352.282029662376, -22269.02064907797, -1240.7229829696398, -25127.898171889567, -2061.2331701795065, -26427.89798115468, -30735.74969002601, -26217.09867919668, -8151.27887145029, -20562.666125615375, -32798.547482317386, 0.05, 0.9540000000000001, -0.114, 192.0, 0.0, 0.0, 0.0, 0.0, 0.0, 0.0, 0.0, 0.0, 0.0, 1.668976908979643E9, 0.0, 2022-11-20 15:41:48.979
76.0, -20209.575618454888, 22161.48640650349, -33538.90431391053, -32270.6663335164, -25979.432580403398, -26283.215139295477, -22200.244331388993, -1173.8689153038163, -25149.959343666953, -2094.2690484844506, -26434.491745768995, -30752.13351871175, -26224.318292655742, -8161.940653555472, -20572.344430964524, -32808.38224987772, 0.042, 0.9560000000000001, -0.116, 192.0, 0.5, 40.0, 14.5, 112.0, 126.0, 48.0, 0.0, 0.0, 0.0, 1.6689769089796522E9, 0.0, 2022-11-20 15:41:48.979
78.0, -20276.943776243184, 22376.621946885818, -33611.100448501165, -32357.949895614376, -26058.557755775186, -26360.239250688464, -22278.810713149396, -1246.5120847835642, -25119.87389563011, -2060.8084870348557, -26414.64339669268, -30725.73610851003, -26213.43299310601, -8148.3954964155555, -20551.64671559891, -32781.761322231454, 0.042, 0.9560000000000001, -0.116, 192.0, 0.0, 0.0, 0.0, 0.0, 0.0, 0.0, 0.0, 0.0, 0.0, 1.6689769089796572E9, 0.0, 2022-11-20 15:41:48.979
80.0, -20197.349214237835, 22146.66719992962, -33543.844049435145, -32280.814025499112, -25992.597757887575, -26288.49015098693, -22211.978997228027, -1181.3120462074335, -25154.384989069105, -2112.0386853264195, -26441.0408068944, -30763.734074084055, -26243.339627187208, -8182.1466305430695, -20596.953701609815, -32820.51924711696, 0.042, 0.9560000000000001, -0.116, 192.0, 0.0, 0.0, 0.0, 0.0, 0.0, 0.0, 0.0, 0.0, 0.0, 1.6689769089796624E9, 0.0, 2022-11-20 15:41:48.979
82.0, -20250.94869744166, 22426.01930213205, -33590.60389883565, -32341.677825650913, -26046.554869002684, -26338.35689286672, -22261.465759452076, -1224.8085409174612, -25084.20051147944, -2028.5102162969372, -26374.767884584417, -30691.02384937094, -26186.454437548455, -8113.75029250983, -20537.609820080976, -32754.179269573604, 0.042, 0.9560000000000001, -0.116, 192.0, 0.0, 0.0, 0.0, 0.0, 0.0, 0.0, 0.0, 0.0, 0.0, 1.6689769089796677E9, 0.0, 2022-11-20 15:41:48.979
84.0, -20218.270447048002, 22126.483574686477, -33566.575773546196, -32304.9762612553, -26019.2410372783, -26310.327805319765, -22233.30256143839, -1201.6074301728524, -25160.41996007204, -2100.393426465205, -26444.974713918535, -30761.029513004964, -26252.168566247055, -8178.860924108139, -20619.305446065122, -32833.17033447866, 0.042, 0.9560000000000001, -0.116, 192.0, 0.0, 0.0, 0.0, 0.0, 0.0, 0.0, 0.0, 0.0, 0.0, 1.668976908979673E9, 0.0, 2022-11-20 15:41:48.979
86.0, -20251.641601519776, 22423.851182919883, -33590.201567435455, -32349.59034318809, -26042.285685811723, -26348.482233104973, -22260.437579207133, -1232.4751892656313, -25102.931273332986, -2033.002916932454, -26394.616233660727, -30701.75268670949, -26198.36791734313, -8121.327533880179, -20568.768151851673, -32800.38032536273, 0.036000000000000004, 0.9560000000000001, -0.12, 192.0, 0.5, 16.0, 14.5, 112.0, 126.0, 32.0, 0.0, 0.0, 0.0, 1.668976908979678E9, 0.0, 2022-11-20 15:41:48.979
88.0, -20216.527010980488, 22127.75762412043, -33561.613686277116, -32307.05497348964, -26006.76876387224, -26317.994453667936, -22226.73114856853, -1204.6696191632295, -25160.688181005502, -2094.7831386069224, -26449.57917327633, -30760.22485020457, -26251.520365657852, -8179.039738063781, -20624.51340252321, -32874.99044835454, 0.036000000000000004, 0.9560000000000001, -0.12, 192.0, 0.0, 0.0, 0.0, 0.0, 0.0, 0.0, 0.0, 0.0, 0.0, 1.6689769089796832E9, 0.0, 2022-11-20 15:41:48.979
90.0, -20239.370493813814, 22423.426499775233, -33575.80704400624, -32332.06657553513, -26020.783307645717, -26332.67954977507, -22242.3997214317, -1220.2711367930337, -25081.026563766787, -2022.5870040162808, -26372.75622758344, -30683.044276600394, -26171.121140852112, -8103.93787669395, -20546.505814374188, -32802.794313763894, 0.036000000000000004, 0.9560000000000001, -0.12, 192.0, 0.0, 0.0, 0.0, 0.0, 0.0, 0.0, 0.0, 0.0, 0.0, 1.6689769089796886E9, 0.0, 2022-11-20 15:41:48.979
92.0, -20245.986610172586, 22114.346577447246, -33574.75651201684, -32313.849903804054, -26017.207028532866, -26320.810773469304, -22236.11888123976, -1212.7609506560507, -25164.26446011835, -2110.675228914646, -26460.643286781706, -30768.09266425284, -26255.051941281792, -8182.548961943265, -20615.483297763265, -32864.060445315896, 0.036000000000000004, 0.9560000000000001, -0.12, 192.0, 0.0, 0.0, 0.0, 0.0, 0.0, 0.0, 0.0, 0.0, 0.0, 1.6689769089796937E9, 0.0, 2022-11-20 15:41:48.979
94.0, -20241.71742698162, 22401.00770008656, -33557.03157866378, -32313.425220659403, -26011.95436858587, -26306.77387795137, -22224.563029356366, -1198.4334824601988, -25095.756363362834, -2041.9883182034873, -26382.61334688823, -30695.158922095172, -26175.457379276442, -8108.005894184816, -20529.11615718796, -32769.42315929212, 0.036000000000000004, 0.9560000000000001, -0.12, 192.0, 0.0, 0.0, 0.0, 0.0, 0.0, 0.0, 0.0, 0.0, 0.0, 1.668976908979699E9, 0.0, 2022-11-20 15:41:48.979
96.0, -20233.514336766522, 22144.342618506267, -33548.69437798195, -32283.607993556023, -26002.432525447908, -26288.87013064267, -22215.287055407414, -1188.1516800107574, -25156.418997814537, -2099.611115409269, -26450.98733317701, -30758.61552460379, -26241.99852251989, -8171.216627504424, -20579.496989190222, -32805.11889518725, 0.042, 0.9520000000000001, -0.124, 192.0, 0.5, 40.0, 14.5, 96.0, 126.0, 16.0, 0.0, 0.0, 0.0, 1.668976908979704E9, 0.0, 2022-11-20 15:41:48.979
98.0, -20232.68732222168, 22395.62092967283, -33543.59818024614, -32284.032676700674, -25999.727964368816, -26290.233587054445, -22216.851677519284, -1186.4976509210649, -25084.021697523796, -2027.414980818627, -26369.98461127098, -30673.41067474016, -26163.923879137503, -8083.150754350514, -20500.640034751897, -32720.495190679456, 0.042, 0.9520000000000001, -0.124, 192.0, 0.0, 0.0, 0.0, 0.0, 0.0, 0.0, 0.0, 0.0, 0.0, 1.6689769089797091E9, 0.0, 2022-11-20 15:41:48.979
100.0, -20268.67363079472, 22147.807138896842, -33587.74287554537, -32314.92278753791, -26042.64331372301, -26331.45020383003, -22259.208233262092, -1229.1894828307013, -25173.11575092265, -2103.612077666769, -26469.405170608185, -30761.32008568288, -26266.831310609738, -8176.245770006868, -20594.159733552904, -32811.15386619018, 0.042, 0.9520000000000001, -0.124, 192.0, 0.0, 0.0, 0.0, 0.0, 0.0, 0.0, 0.0, 0.0, 0.0, 1.6689769089797144E9, 0.0, 2022-11-20 15:41:48.979
102.0, -20208.681548676675, 22379.19239749818, -33531.327072540174, -32274.33201960707, -25983.99233627228, -26282.455179983997, -22210.123802438236, -1180.775604340506, -25092.78358135028, -2035.3498501002612, -26378.612384630727, -30680.83145389932, -26172.75281819735, -8090.638588743042, -20519.661369283363, -32740.29883626686, 0.042, 0.9520000000000001, -0.124, 192.0, 0.0, 0.0, 0.0, 0.0, 0.0, 0.0, 0.0, 0.0, 0.0, 1.6689769089797196E9, 0.0, 2022-11-20 15:41:48.979
104.0, -20253.38503758729, 22202.613616301252, -33591.29680291376, -32323.88583706449, -26043.380921290034, -26332.746605008437, -22265.332611242844, -1234.6433084777962, -25148.595887255182, -2076.968798276043, -26447.433405808617, -30738.007216215996, -26244.792490576805, -8154.028136018293, -20593.757402152707, -32812.78554353542, 0.042, 0.9520000000000001, -0.124, 192.0, 0.0, 0.0, 0.0, 0.0, 0.0, 0.0, 0.0, 0.0, 0.0, 1.668976908979725E9, 0.0, 2022-11-20 15:41:48.979
106.0, -20210.24617078855, 22348.5258041055, -33549.94607567145, -32295.007383228232, -25994.81058058865, -26293.76516267838, -22222.081985721827, -1192.487918435087, -25094.124686017596, -2032.511178554437, -26378.344163697264, -30676.428160241627, -26173.915108909026, -8092.113803877092, -20550.68559058733, -32771.077188381816, 0.044, 0.9540000000000001, -0.124, 192.0, 0.5, 48.0, 14.5, 104.0, 126.0, 16.0, 0.0, 0.0, 0.0, 1.66897690897973E9, 0.0, 2022-11-20 15:41:48.979
108.0, -20275.803837275966, 22225.345340412303, -33615.727259603416, -32359.78273865971, -26057.417816807967, -26359.881622777182, -22279.145989316225, -1254.6928232542066, -25159.749407738378, -2084.6354466242133, -26455.77060649045, -30743.349283140815, -26252.48149066943, -8169.1155635256255, -20615.058614618614, -32841.485183416036, 0.044, 0.9540000000000001, -0.124, 192.0, 0.0, 0.0, 0.0, 0.0, 0.0, 0.0, 0.0, 0.0, 0.0, 1.6689769089797368E9, 0.0, 2022-11-20 15:41:48.979
110.0, -20199.249112516536, 22313.925303688684, -33536.087994109155, -32283.83151100058, -25983.657060105452, -26287.841950397727, -22206.279302391926, -1184.3295317089, -25112.006081581843, -2062.574274846825, -26397.119629039724, -30700.009250641975, -26192.46705680693, -8122.17690016948, -20570.69040187483, -32802.168464919145, 0.044, 0.9540000000000001, -0.124, 192.0, 0.0, 0.0, 0.0, 0.0, 0.0, 0.0, 0.0, 0.0, 0.0, 1.6689769089797418E9, 0.0, 2022-11-20 15:41:48.979
112.0, -20271.378191873813, 22271.993431090526, -33604.596090864674, -32344.762366385745, -26056.501395285297, -26356.618268086706, -22277.22373929307, -1253.195256375701, -25137.82234642772, -2073.616036607747, -26434.581152746818, -30724.529114309447, -26234.57774336073, -8157.380897686589, -20595.813762642596, -32824.85548554129, 0.044, 0.9540000000000001, -0.124, 192.0, 0.0, 0.0, 0.0, 0.0, 0.0, 0.0, 0.0, 0.0, 0.0, 1.668976908979747E9, 0.0, 2022-11-20 15:41:48.979
114.0, -20184.18403675366, 22286.969099875583, -33513.982118842854, -32254.90835367541, -25973.08468497809, -26276.599022936705, -22192.175351640624, -1170.5161536355204, -25111.268474014818, -2060.4732108680264, -26388.3800969577, -30686.620555713245, -26187.639080004585, -8113.303257620723, -20560.095675003013, -32792.06547642535, 0.044, 0.9540000000000001, -0.124, 192.0, 0.0, 0.0, 0.0, 0.0, 0.0, 0.0, 0.0, 0.0, 0.0, 1.6689769089797523E9, 0.0, 2022-11-20 15:41:48.979
116.0, -20267.913671483242, 22317.054547912427, -33593.755494803845, -32335.7322616258, -26055.450863295897, -26363.27908793439, -22273.625108435765, -1253.910512198271, -25123.696043931966, -2053.4324113646044, -26415.760983915447, -30698.332869807826, -26217.70217629697, -8138.89600502205, -20572.366782708978, -32809.85746501177, 0.042, 0.9520000000000001, -0.124, 192.0, 0.5, 40.0, 14.5, 96.0, 126.0, 16.0, 0.0, 0.0, 0.0, 1.6689769089797575E9, 0.0, 2022-11-20 15:41:48.979
118.0, -20188.542626922444, 22244.769006343962, -33519.950034612426, -32255.57890600907, -25975.76689431273, -26285.316203274277, -22198.76911625494, -1181.5132119075313, -25113.838924627176, -2053.6782805536127, -26390.23529174749, -30682.574889966836, -26189.918957939026, -8113.124443665081, -20553.188985966324, -32796.2899561274, 0.042, 0.9520000000000001, -0.124, 192.0, 0.0, 0.0, 0.0, 0.0, 0.0, 0.0, 0.0, 0.0, 0.0, 1.6689769089797628E9, 0.0, 2022-11-20 15:41:48.979
120.0, -20269.522997084023, 22348.99519073906, -33597.5776431057, -32336.22400000382, -26051.338142316123, -26357.378227398185, -22268.84183512233, -1248.4790382956312, -25118.30927351824, -2054.2370741649956, -26416.69975718257, -30700.679802975632, -26216.51753384084, -8134.939746253461, -20567.158826250892, -32808.11402894426, 0.042, 0.9520000000000001, -0.124, 192.0, 0.0, 0.0, 0.0, 0.0, 0.0, 0.0, 0.0, 0.0, 0.0, 1.668976908979768E9, 0.0, 2022-11-20 15:41:48.979
122.0, -20201.774859639987, 22192.73414525201, -33530.72357543988, -32258.641094999446, -25973.57642335611, -26271.72634264545, -22189.850770217272, -1170.8737815468053, -25133.217887069928, -2073.1466499741855, -26414.956321115056, -30707.586492012324, -26206.19102790249, -8127.586022327665, -20567.851730329006, -32800.26856664045, 0.042, 0.9520000000000001, -0.124, 192.0, 0.0, 0.0, 0.0, 0.0, 0.0, 0.0, 0.0, 0.0, 0.0, 1.668976908979773E9, 0.0, 2022-11-20 15:41:48.979
124.0, -20293.461715395657, 22358.89701353276, -33621.73987886189, -32352.049035078173, -26050.511127771275, -26342.089634190757, -22267.254861266003, -1242.3546603148773, -25116.319968261716, -2043.0388501928867, -26421.728899685015, -30699.36105005277, -26204.469943579432, -8112.699760520431, -20549.120968475458, -32771.68068548211, 0.042, 0.9520000000000001, -0.124, 192.0, 0.0, 0.0, 0.0, 0.0, 0.0, 0.0, 0.0, 0.0, 0.0, 1.6689769089797783E9, 0.0, 2022-11-20 15:41:48.979
126.0, -20214.247133046047, 22160.547633236365, -33556.65159900804, -32279.7187900208, -25983.098266494068, -26269.53587168883, -22197.562122054354, -1175.6570548602408, -25165.35969559666, -2099.678170642635, -26460.75504550398, -30745.293884908428, -26238.221077706945, -8149.4236766605, -20595.45613473131, -32812.96435749106, 0.043, 0.9500000000000001, -0.126, 192.0, 0.5, 48.0, 14.5, 80.0, 126.0, 0.0, 0.0, 0.0, 0.0, 1.6689769089797835E9, 0.0, 2022-11-20 15:41:48.979
128.0, -20262.459845836147, 22411.91535138075, -33609.982861278404, -32350.618523433033, -26038.821165421148, -26336.658160288116, -22255.63195414924, -1234.1292183553242, -25104.182971022485, -2029.6054517752473, -26407.312024511342, -30686.6429074577, -26191.952966684457, -8103.98258018286, -20546.617573096464, -32766.67389472412, 0.043, 0.9500000000000001, -0.126, 192.0, 0.0, 0.0, 0.0, 0.0, 0.0, 0.0, 0.0, 0.0, 0.0, 1.6689769089797888E9, 0.0, 2022-11-20 15:41:48.979
130.0, -20190.88956009025, 22163.52041524892, -33539.46310752191, -32274.846109729544, -25978.67262109192, -26277.135464803632, -22197.91974996564, -1180.462679918132, -25140.05752087325, -2076.0970802422858, -26429.61906547774, -30720.304634607393, -26223.804202533272, -8141.891138779061, -20593.310367263603, -32817.39000289321, 0.043, 0.9500000000000001, -0.126, 192.0, 0.0, 0.0, 0.0, 0.0, 0.0, 0.0, 0.0, 0.0, 0.0, 1.668976908979794E9, 0.0, 2022-11-20 15:41:48.979
132.0, -20263.48802608109, 22421.325435796432, -33591.78854129178, -32348.182183287405, -26041.43631952242, -26348.88456450517, -22259.92348908466, -1244.0533928934806, -25086.68155511398, -2025.515082539926, -26381.272242220908, -30671.242555527995, -26182.721696224417, -8102.0826819041595, -20546.081131229537, -32776.70982798455, 0.043, 0.9500000000000001, -0.126, 192.0, 0.0, 0.0, 0.0, 0.0, 0.0, 0.0, 0.0, 0.0, 0.0, 1.6689769089797995E9, 0.0, 2022-11-20 15:41:48.979
134.0, -20226.160612840726, 22128.584638665277, -33559.53497404277, -32296.81787452911, -26009.361566229054, -26309.903122175114, -22224.719491567554, -1210.9728110996261, -25163.146872895584, -2102.6286009107353, -26451.367312832754, -30743.773966285466, -26249.978095290437, -8172.468325193921, -20611.370576783487, -32848.57068640836, 0.043, 0.9500000000000001, -0.126, 192.0, 0.0, 0.0, 0.0, 0.0, 0.0, 0.0, 0.0, 0.0, 0.0, 1.6689769089798048E9, 0.0, 2022-11-20 15:41:48.979
136.0, -20250.993400930573, 22436.569325514953, -33577.50577658484, -32327.59622664407, -26030.86394439506, -26335.339407365253, -22244.813709832873, -1228.138950841302, -25090.436648182473, -2026.9232424406105, -26380.780503842892, -30668.426235726623, -26180.71003922344, -8099.3781208250675, -20543.153052705893, -32774.16172911665, 0.042499999999999996, 0.9510000000000001, -0.128, 192.0, 0.5, 40.0, 14.5, 96.0, 125.5, 120.0, 0.0, 0.0, 0.0, 1.66897690897981E9, 0.0, 2022-11-20 15:41:48.979
138.0, -20217.577542969888, 22140.09578705976, -33549.096709382145, -32281.216356899306, -26006.165266771946, -26302.21412208249, -22217.231657175023, -1203.6414389182853, -25160.55407053877, -2093.799661850889, -26444.550030773884, -30730.832306245844, -26243.38433067612, -8163.5946826451645, -20609.716547693795, -32838.177125236645, 0.042499999999999996, 0.9510000000000001, -0.128, 192.0, 0.0, 0.0, 0.0, 0.0, 0.0, 0.0, 0.0, 0.0, 0.0, 1.6689769089798152E9, 0.0, 2022-11-20 15:41:48.979
140.0, -20231.770900699008, 22441.084377894924, -33560.272581609795, -32300.48356061978, -26021.900894868482, -26321.12369789168, -22231.380311415232, -1217.454816991665, -25079.48429339937, -2019.6589254926355, -26367.101236236245, -30651.327151218316, -26167.097826850157, -8087.799917197218, -20530.859593255474, -32765.5339557569, 0.042499999999999996, 0.9510000000000001, -0.128, 192.0, 0.0, 0.0, 0.0, 0.0, 0.0, 0.0, 0.0, 0.0, 0.0, 1.6689769089798217E9, 0.0, 2022-11-20 15:41:48.979
142.0, -20204.814696885907, 22166.560252494844, -33536.155049342524, -32258.931667677367, -26003.14778127048, -26294.703935945505, -22210.995520471995, -1198.7464068825732, -25145.086663375696, -2077.9746267765317, -26429.48495501101, -30709.821666457854, -26236.634103850618, -8155.1457232410585, -20592.885684118948, -32830.01873851046, 0.042499999999999996, 0.9510000000000001, -0.128, 192.0, 0.0, 0.0, 0.0, 0.0, 0.0, 0.0, 0.0, 0.0, 0.0, 1.6689769089798267E9, 0.0, 2022-11-20 15:41:48.979
144.0, -20223.880734906284, 22431.786052201518, -33532.15408708502, -32283.116255178007, -26002.007842303257, -26303.26465407189, -22213.58832282881, -1199.5510696829642, -25065.04506648124, -2006.3372857972727, -26341.955523724024, -30626.49436312847, -26148.568230696706, -8069.672652443965, -20504.99862492068, -32750.40182476066, 0.042499999999999996, 0.9510000000000001, -0.128, 192.0, 0.0, 0.0, 0.0, 0.0, 0.0, 0.0, 0.0, 0.0, 0.0, 1.668976908979832E9, 0.0, 2022-11-20 15:41:48.979
146.0, -20235.48129027859, 22160.994668125473, -33549.54374427125, -32295.09679020605, -25997.112810267547, -26304.806924439305, -22212.269569905948, -1199.3052004939557, -25151.859241945655, -2091.877411827733, -26440.95139991658, -30722.562160797377, -26234.868316038646, -8160.554845399242, -20575.74189612173, -32829.05761349888, 0.040249999999999994, 0.9545000000000001, -0.125, 192.0, 0.5, 24.0, 14.5, 120.0, 126.0, 24.0, 0.0, 0.0, 0.0, 1.6689769089798372E9, 0.0, 2022-11-20 15:41:48.979
148.0, -20228.95458089764, 22394.302176749967, -33551.91302918351, -32304.9762612553, -25982.405362415953, -26293.720459189473, -22199.841999988796, -1182.5413921524755, -25081.764171333813, -2028.9572511860433, -26368.01765775891, -30654.21052625305, -26144.656675417027, -8077.965149636883, -20502.67404349733, -32754.91687714063, 0.040249999999999994, 0.9545000000000001, -0.125, 192.0, 0.0, 0.0, 0.0, 0.0, 0.0, 0.0, 0.0, 0.0, 0.0, 1.6689769089798424E9, 0.0, 2022-11-20 15:41:48.979
150.0, -20276.25087216507, 22150.914031376127, -33618.94591080498, -32348.7856803877, -26036.85421190908, -26342.69313129105, -22251.653343636197, -1231.3128985539554, -25180.11184693716, -2113.5586039493805, -26482.1009614588, -30755.97801875806, -26254.359037203674, -8177.206895018447, -20605.89439939194, -32848.79420385292, 0.040249999999999994, 0.9545000000000001, -0.125, 192.0, 0.0, 0.0, 0.0, 0.0, 0.0, 0.0, 0.0, 0.0, 0.0, 1.6689769089798477E9, 0.0, 2022-11-20 15:41:48.979
152.0, -20212.123717322793, 22370.94460379417, -33557.43391006398, -32296.81787452911, -25986.026345017715, -26291.664098699584, -22197.91974996564, -1172.8854385477828, -25109.30152050275, -2051.2419404079847, -26397.298442995365, -30676.40580849717, -26173.356315297642, -8096.382987068056, -20547.802215552594, -32780.33081058631, 0.040249999999999994, 0.9545000000000001, -0.125, 192.0, 0.0, 0.0, 0.0, 0.0, 0.0, 0.0, 0.0, 0.0, 0.0, 1.668976908979853E9, 0.0, 2022-11-20 15:41:48.979
154.0, -20241.180985114694, 22220.45030837659, -33592.0791139697, -32334.25704649175, -26032.495621740298, -26333.573619553285, -22236.856488806785, -1212.2915640224892, -25145.377236053617, -2074.3983476636827, -26441.666655739147, -30720.08111716284, -26230.554429358774, -8147.635537104075, -20598.13834406595, -32829.3481861768, 0.040249999999999994, 0.9545000000000001, -0.125, 192.0, 0.0, 0.0, 0.0, 0.0, 0.0, 0.0, 0.0, 0.0, 0.0, 1.6689769089798577E9, 0.0, 2022-11-20 15:41:48.979
156.0, -20183.222911742083, 22355.74541756456, -33527.974310871876, -32289.598261070045, -25975.52102512372, -26284.600947451705, -22187.280319604914, -1162.9612640096266, -25080.44541841095, -2022.2964313383618, -26355.41127388612, -30655.484575687, -26149.238783030367, -8075.104126346604, -20543.421273639357, -32774.564060516845, 0.040124999999999994, 0.95625, -0.1215, 192.0, 0.5, 32.0, 14.5, 120.0, 126.0, 40.0, 0.0, 0.0, 0.0, 1.668976908979863E9, 0.0, 2022-11-20 15:41:48.979
158.0, -20258.794159745474, 22238.935201041128, -33596.43770413849, -32356.206459546862, -26055.249697595802, -26356.730026808982, -22256.570727416365, -1231.715229954151, -25143.030302885807, -2073.683091841113, -26433.307103312865, -30727.45719283309, -26229.52624911383, -8149.826008060695, -20610.632969216465, -32843.54154390592, 0.040124999999999994, 0.95625, -0.1215, 192.0, 0.0, 0.0, 0.0, 0.0, 0.0, 0.0, 0.0, 0.0, 0.0, 1.6689769089798682E9, 0.0, 2022-11-20 15:41:48.979
160.0, -20185.256920487514, 22307.398594307735, -33517.33488051115, -32271.269830616693, -25973.129388467, -26277.78366539284, -22181.24534860198, -1156.1439819507577, -25099.95849132043, -2038.7249635130124, -26371.303364193842, -30674.036523584906, -26162.426312259, -8089.766870709285, -20554.93242203384, -32787.997458934486, 0.040124999999999994, 0.95625, -0.1215, 192.0, 0.0, 0.0, 0.0, 0.0, 0.0, 0.0, 0.0, 0.0, 0.0, 1.6689769089798732E9, 0.0, 2022-11-20 15:41:48.979
162.0, -20255.843729477376, 22275.681468925653, -33584.45716911044, -32329.764345856234, -26040.452842766386, -26343.095462691246, -22247.78649184543, -1220.3381920263996, -25129.462794001436, -2055.0193852209313, -26418.733765928006, -30708.100582134794, -26210.169638415533, -8131.60933632962, -20587.118934049482, -32811.08681095682, 0.040124999999999994, 0.95625, -0.1215, 192.0, 0.0, 0.0, 0.0, 0.0, 0.0, 0.0, 0.0, 0.0, 0.0, 1.6689769089798784E9, 0.0, 2022-11-20 15:41:48.979
164.0, -20191.94009207965, 22244.031398776937, -33516.61962468858, -32258.19406011034, -25972.727057066808, -26278.185996793032, -22185.5368835374, -1160.0555372304366, -25103.043032055266, -2055.131143943208, -26378.41121893063, -30684.184215567617, -26167.79073092827, -8098.931085935961, -20561.660297114886, -32782.29776409838, 0.040124999999999994, 0.95625, -0.1215, 192.0, 0.0, 0.0, 0.0, 0.0, 0.0, 0.0, 0.0, 0.0, 0.0, 1.6689769089798837E9, 0.0, 2022-11-20 15:41:48.979
0.0, -10143.378096029532, 11166.372736260026, -16802.722728576988, -16164.088685999954, -13029.368284865413, -13169.714888300286, -11140.288250480682, -630.3415453841145, -12571.023413064888, -1047.8944835537056, -13209.635103897466, -15365.28204265619, -13105.051291591084, -4070.6997002005223, -10301.047301417268, -16412.081290731585, 0.044, 0.9500000000000001, -0.122, 192.0, 0.5, 48.0, 14.5, 88.0, 126.0, 24.0, 0.0, 0.0, 0.0, 1.6689769095478883E9, 0.0, 2022-11-20 15:41:49.547
2.0, -20197.259807260016, 22121.65559788413, -33522.788706158244, -32234.61296970999, -25976.90683327995, -26254.470795925954, -22199.68553777761, -1184.2401247310788, -25133.55316323676, -2069.9056470281657, -26412.85525713626, -30681.680820188623, -26216.3387198852, -8145.199196958447, -20576.233634499746, -32804.24717715349, 0.044, 0.9500000000000001, -0.122, 192.0, 0.0, 0.0, 0.0, 0.0, 0.0, 0.0, 0.0, 0.0, 0.0, 1.6689769095479653E9, 0.0, 2022-11-20 15:41:49.547
4.0, -20252.24509862007, 22399.15250529677, -33563.670046767, -32299.63419433048, -26021.543266957196, -26300.76125869289, -22241.43859642012, -1221.008744360059, -25070.185967705962, -2007.8572044202335, -26351.96910524, -30620.660557825635, -26159.297068035256, -8090.951513165416, -20509.066642411548, -32735.023824575404, 0.044, 0.9500000000000001, -0.122, 192.0, 0.0, 0.0, 0.0, 0.0, 0.0, 0.0, 0.0, 0.0, 0.0, 1.6689769095480835E9, 0.0, 2022-11-20 15:41:49.548
6.0, -20215.118851079806, 22103.438926153056, -33527.974310871876, -32263.178499123875, -25994.207083488356, -26266.786607120826, -22205.094659935792, -1188.2187352441235, -25153.20034661297, -2089.865754826755, -26429.21673407754, -30703.809047199375, -26235.62827535013, -8170.680185637497, -20580.860445601993, -32802.48138934152, 0.044, 0.9500000000000001, -0.122, 192.0, 0.0, 0.0, 0.0, 0.0, 0.0, 0.0, 0.0, 0.0, 0.0, 1.6689769095481017E9, 0.0, 2022-11-20 15:41:49.548
8.0, -20227.166441341215, 22416.184534571712, -33530.857685906616, -32287.49719709125, -26001.04671729168, -26280.39881949411, -22212.20251467258, -1191.0574067899474, -25056.05966521021, -2003.96800088501, -26335.205296898523, -30616.838409523778, -26139.918105592504, -8084.156582851003, -20492.280482325612, -32716.42717318859, 0.042, 0.9540000000000001, -0.12, 192.0, 0.5, 40.0, 14.5, 104.0, 126.0, 32.0, 0.0, 0.0, 0.0, 1.6689769095481102E9, 0.0, 2022-11-20 15:41:49.548
10.0, -20215.76705166901, 22118.056967026827, -33529.67304345048, -32267.559441037112, -25994.96704279984, -26276.979002592445, -22207.73216578152, -1189.2916189779783, -25131.675616702512, -2079.0251587659313, -26412.94466411408, -30694.801294183886, -26218.551542586272, -8157.336194197678, -20571.875044330962, -32798.77099976194, 0.042, 0.9540000000000001, -0.12, 192.0, 0.0, 0.0, 0.0, 0.0, 0.0, 0.0, 0.0, 0.0, 0.0, 1.6689769095481203E9, 0.0, 2022-11-20 15:41:49.548
12.0, -20217.555191225434, 22408.786107157008, -33526.27557829327, -32281.39517085495, -25995.972871300328, -26293.452238256006, -22212.515439094954, -1195.7065696366512, -25056.81962452169, -2004.8844224076777, -26331.763128252405, -30613.15037168865, -26138.375835225088, -8078.143963592525, -20502.58463651951, -32734.442679219566, 0.042, 0.9540000000000001, -0.12, 192.0, 0.0, 0.0, 0.0, 0.0, 0.0, 0.0, 0.0, 0.0, 0.0, 1.6689769095481296E9, 0.0, 2022-11-20 15:41:49.548
14.0, -20233.693150722167, 22129.925743332595, -33546.92859016998, -32287.564252324613, -26007.886351095003, -26312.808848954304, -22225.367692156757, -1214.6608489347518, -25143.96907615293, -2089.5975338932913, -26425.171068331132, -30700.366878553257, -26232.32021717074, -8176.022252562315, -20588.348279994523, -32827.11301173127, 0.042, 0.9540000000000001, -0.12, 192.0, 0.0, 0.0, 0.0, 0.0, 0.0, 0.0, 0.0, 0.0, 0.0, 1.6689769095481396E9, 0.0, 2022-11-20 15:41:49.548
16.0, -20229.893354164764, 22374.744400351574, -33533.5175434968, -32286.71488603531, -25982.092437993582, -26301.521218004375, -22206.68163379212, -1198.4111307157434, -25074.90218578603, -2025.000992417454, -26346.40352087063, -30625.756755561444, -26149.775224897294, -8103.736710993852, -20513.268770369144, -32759.498984753965, 0.042, 0.9540000000000001, -0.12, 192.0, 0.0, 0.0, 0.0, 0.0, 0.0, 0.0, 0.0, 0.0, 0.0, 1.6689769095481484E9, 0.0, 2022-11-20 15:41:49.548
18.0, -20250.16638638573, 22140.94515334906, -33564.474709567396, -32297.33196465158, -26009.67449065143, -26315.513410033396, -22227.66992183565, -1217.9465553696818, -25147.053616887762, -2084.5013361574815, -26430.535487000405, -30702.579701254333, -26231.247333436888, -8175.776383373307, -20577.150056022412, -32820.36278490577, 0.04, 0.9560000000000001, -0.124, 192.0, 0.5, 32.0, 14.5, 112.0, 126.0, 16.0, 0.0, 0.0, 0.0, 1.668976909548158E9, 0.0, 2022-11-20 15:41:49.548
20.0, -20209.553266710434, 22355.56660360892, -33525.78383991526, -32264.47490030228, -25975.632783846, -26274.92264210256, -22194.365822597247, -1179.814479328928, -25069.493063627848, -2019.457759792538, -26344.749491780938, -30624.7285753165, -26146.869498118103, -8092.560838766199, -20507.211447621758, -32741.684644423087, 0.04, 0.9560000000000001, -0.124, 192.0, 0.0, 0.0, 0.0, 0.0, 0.0, 0.0, 0.0, 0.0, 0.0, 1.6689769095481677E9, 0.0, 2022-11-20 15:41:49.548
22.0, -20245.96425842813, 22183.122895136225, -33563.133604900075, -32286.826644757588, -26014.949502342883, -26303.376412794165, -22230.01685500346, -1212.3362675113997, -25141.35392205166, -2076.342949431294, -26427.9873881325, -30695.31538430636, -26231.783775303815, -8167.66270013603, -20578.848788601015, -32801.65437479668, 0.04, 0.9560000000000001, -0.124, 192.0, 0.0, 0.0, 0.0, 0.0, 0.0, 0.0, 0.0, 0.0, 0.0, 1.6689769095481775E9, 0.0, 2022-11-20 15:41:49.548
24.0, -20206.669891675698, 22320.720234003096, -33517.62545318907, -32249.387472794948, -25975.85630129055, -26258.583516905728, -22190.96835744004, -1170.4043949132438, -25067.72727581588, -2018.8319109477893, -26343.028407457878, -30618.8277147803, -26142.421500971497, -8081.317911305179, -20508.977235433726, -32723.400917458646, 0.04, 0.9560000000000001, -0.124, 192.0, 0.0, 0.0, 0.0, 0.0, 0.0, 0.0, 0.0, 0.0, 0.0, 1.6689769095481873E9, 0.0, 2022-11-20 15:41:49.548
26.0, -20272.696944796677, 22195.19283714209, -33586.3794191336, -32312.642909603466, -26045.705502713383, -26323.15770663711, -22257.040114049927, -1237.772552701539, -25140.325741806715, -2085.484812913515, -26433.441213779595, -30700.41158204217, -26232.47667938193, -8171.708365882441, -20586.40367822691, -32798.63688929521, 0.04, 0.9560000000000001, -0.124, 192.0, 0.0, 0.0, 0.0, 0.0, 0.0, 0.0, 0.0, 0.0, 0.0, 1.6689769095481963E9, 0.0, 2022-11-20 15:41:49.548
28.0, -20198.533856693968, 22284.26453879649, -33514.07152582068, -32246.079414615564, -25972.34707741107, -26250.223964479443, -22185.603938770764, -1167.9904065120706, -25089.29670921525, -2039.9096059691437, -26363.368494912207, -30640.01716852393, -26164.236803559877, -8104.094338905137, -20527.037444953614, -32742.13167931219, 0.032, 0.9560000000000001, -0.12, 192.0, 0.5, 0.0, 14.5, 112.0, 126.0, 32.0, 0.0, 0.0, 0.0, 1.6689769095482059E9, 0.0, 2022-11-20 15:41:49.548
30.0, -20268.45011335017, 22242.824404576353, -33588.391076134576, -32322.701194608355, -26049.527651015243, -26326.197543883034, -22257.48714893903, -1238.711325968662, -25126.44530849997, -2064.7870975479004, -26419.51607698394, -30686.59820396879, -26219.24444666439, -8161.337156455178, -20569.394000696422, -32788.2880316124, 0.032, 0.9560000000000001, -0.12, 192.0, 0.0, 0.0, 0.0, 0.0, 0.0, 0.0, 0.0, 0.0, 0.0, 1.6689769095482156E9, 0.0, 2022-11-20 15:41:49.548
32.0, -20181.591234396845, 22254.961401815584, -33505.91313909449, -32244.09010935904, -25967.586155842087, -26250.313371457265, -22179.926595679117, -1165.1964384551572, -25089.29670921525, -2047.5539025728588, -26364.06139899032, -30647.281485471904, -26165.667315205017, -8118.622972801087, -20533.83237526803, -32755.252153307458, 0.032, 0.9560000000000001, -0.12, 192.0, 0.0, 0.0, 0.0, 0.0, 0.0, 0.0, 0.0, 0.0, 0.0, 1.6689769095482252E9, 0.0, 2022-11-20 15:41:49.548
34.0, -20265.09735168187, 22290.254806310513, -33587.184081933985, -32330.323139467615, -26051.226383593847, -26336.72521552148, -22260.616393162774, -1244.5004277825867, -25101.97014832141, -2050.8172572633334, -26395.689117394584, -30669.365008993747, -26200.08900166619, -8148.127275482092, -20555.02182901166, -32780.75549373096, 0.032, 0.9560000000000001, -0.12, 192.0, 0.0, 0.0, 0.0, 0.0, 0.0, 0.0, 0.0, 0.0, 0.0, 1.6689769095482342E9, 0.0, 2022-11-20 15:41:49.548
36.0, -20184.787533853952, 22224.138346211716, -33509.35530774061, -32248.068719872084, -25977.197405957868, -26262.249202996398, -22189.24727311698, -1171.142002480269, -25101.724279132402, -2057.8804085112106, -26374.61142237323, -30659.17261352213, -26178.47486477791, -8125.864938004606, -20547.936326019328, -32774.273487838924, 0.032, 0.9560000000000001, -0.12, 192.0, 0.0, 0.0, 0.0, 0.0, 0.0, 0.0, 0.0, 0.0, 0.0, 1.6689769095482445E9, 0.0, 2022-11-20 15:41:49.548
38.0, -20260.358781857347, 22330.84557424135, -33584.14424468807, -32322.6788428639, -26051.561659760675, -26338.066320188802, -22260.236413507035, -1239.7395062136063, -25099.19853200895, -2045.1175624272303, -26391.1293615257, -30661.45249145657, -26195.37278358612, -8139.521853866799, -20552.54078537712, -32778.7885402189, 0.034, 0.9580000000000001, -0.11800000000000001, 192.0, 0.5, 8.0, 14.5, 120.0, 126.0, 40.0, 0.0, 0.0, 0.0, 1.668976909548256E9, 0.0, 2022-11-20 15:41:49.548
40.0, -20178.23847272855, 22188.129685894215, -33501.19692101442, -32228.91327487389, -25969.933089009894, -26256.01306629337, -22179.412505556644, -1162.693043076163, -25112.229599026396, -2062.6636818246466, -26385.206149245045, -30664.02294206893, -26189.203702116454, -8133.777455541785, -20553.770131322162, -32785.762284488956, 0.034, 0.9580000000000001, -0.11800000000000001, 192.0, 0.0, 0.0, 0.0, 0.0, 0.0, 0.0, 0.0, 0.0, 0.0, 1.668976909548266E9, 0.0, 2022-11-20 15:41:49.548
42.0, -20250.613421274833, 22367.23421421459, -33568.20745089143, -32303.5233978657, -26037.10008109809, -26323.44827931503, -22245.953648800096, -1227.0884188519024, -25078.366706176606, -2017.5578615138368, -26364.419026901607, -30631.34469167527, -26164.70619019344, -8107.648266273531, -20523.10353792948, -32757.554382986356, 0.034, 0.9580000000000001, -0.11800000000000001, 192.0, 0.0, 0.0, 0.0, 0.0, 0.0, 0.0, 0.0, 0.0, 0.0, 1.6689769095482757E9, 0.0, 2022-11-20 15:41:49.548
44.0, -20186.396859454737, 22160.30176404736, -33513.088049064645, -32234.680024943358, -25974.738714067786, -26256.929487816036, -22185.872159704228, -1164.6376448437745, -25122.5784567092, -2065.9940917484873, -26394.862102849736, -30667.062779314852, -26190.41069631704, -8134.693877064452, -20562.10733200399, -32791.93136595862, 0.034, 0.9580000000000001, -0.11800000000000001, 192.0, 0.0, 0.0, 0.0, 0.0, 0.0, 0.0, 0.0, 0.0, 0.0, 1.6689769095482843E9, 0.0, 2022-11-20 15:41:49.548
46.0, -20256.67074402222, 22385.696755134675, -33584.77009353282, -32318.387307928482, -26044.72202595735, -26327.337482850253, -22252.36859945877, -1224.71913393964, -25082.568834134203, -2019.1224836257081, -26372.08567524978, -30634.11630798773, -26166.471978005407, -8105.480147061366, -20533.698264801296, -32756.548554485867, 0.034, 0.9580000000000001, -0.11800000000000001, 192.0, 0.0, 0.0, 0.0, 0.0, 0.0, 0.0, 0.0, 0.0, 0.0, 1.6689769095482934E9, 0.0, 2022-11-20 15:41:49.548
48.0, -20182.239434986048, 22139.89462135966, -33517.692508422435, -32238.345711034028, -25974.20227220086, -26254.58255464823, -22179.501912534466, -1152.0312609709813, -25128.613427712135, -2075.1806587196184, -26407.535541955895, -30677.366933508747, -26204.358184857156, -8146.674412092497, -20581.240425257736, -32797.362839861256, 0.038, 0.96, -0.11800000000000001, 192.0, 0.5, 24.0, 15.0, 0.0, 126.0, 40.0, 0.0, 0.0, 0.0, 1.668976909548303E9, 0.0, 2022-11-20 15:41:49.548
50.0, -20233.581391999887, 22422.174802085734, -33560.205526376434, -32294.001554727743, -26011.2391127633, -26298.704898203006, -22216.248180418992, -1186.6988166211627, -25058.943040244943, -1999.2070793160296, -26343.654256302627, -30607.316566385816, -26138.26407650281, -8082.077870616659, -20510.072470912037, -32725.747850626452, 0.038, 0.96, -0.11800000000000001, 192.0, 0.0, 0.0, 0.0, 0.0, 0.0, 0.0, 0.0, 0.0, 0.0, 1.6689769095483124E9, 0.0, 2022-11-20 15:41:49.548
52.0, -20208.033348087472, 22114.592446636256, -33539.97719764438, -32258.931667677367, -25986.406324673455, -26267.591269921217, -22188.934348694605, -1161.553104108942, -25135.475413259916, -2073.8619057967553, -26415.962149615545, -30682.55253822238, -26199.172580143524, -8146.94263302596, -20577.060649044593, -32792.311345614355, 0.038, 0.96, -0.11800000000000001, 192.0, 0.0, 0.0, 0.0, 0.0, 0.0, 0.0, 0.0, 0.0, 0.0, 1.668976909548324E9, 0.0, 2022-11-20 15:41:49.548
54.0, -20252.736836998087, 22396.358537239856, -33577.37166611811, -32317.090906750072, -26020.649197178984, -26309.83606694175, -22227.11112822427, -1194.879555091805, -25086.949776047444, -2022.8552249497445, -26376.064285762823, -30641.224162724517, -26154.04440808826, -8098.238181857847, -20530.09963394399, -32749.10542358225, 0.038, 0.96, -0.11800000000000001, 192.0, 0.0, 0.0, 0.0, 0.0, 0.0, 0.0, 0.0, 0.0, 0.0, 1.6689769095483332E9, 0.0, 2022-11-20 15:41:49.548
56.0, -20203.987682341063, 22115.218295481005, -33535.35038654213, -32270.62163002749, -25978.13617922499, -26266.987772820925, -22185.000441670472, -1151.137191192769, -25139.945762150975, -2084.546039646392, -26429.864934666748, -30706.066573389362, -26207.152152914066, -8156.911511053027, -20590.02466082867, -32807.46582835505, 0.038, 0.96, -0.11800000000000001, 192.0, 0.0, 0.0, 0.0, 0.0, 0.0, 0.0, 0.0, 0.0, 0.0, 1.6689769095483425E9, 0.0, 2022-11-20 15:41:49.548
58.0, -20218.449261003647, 22416.67627294973, -33538.34552029914, -32295.186197183873, -25986.09340025108, -26282.54458696182, -22198.29972962138, -1161.3519384088443, -25049.085920940153, -1995.8543176477335, -26334.0653579313, -30619.25239792495, -26117.63341637056, -8072.176047822959, -20510.430098823323, -32723.557379669834, 0.04, 0.9580000000000001, -0.122, 192.0, 0.5, 32.0, 14.5, 120.0, 126.0, 24.0, 0.0, 0.0, 0.0, 1.6689769095483513E9, 0.0, 2022-11-20 15:41:49.548
60.0, -20229.513374509024, 22106.143487232148, -33550.30370358273, -32285.44083660136, -25988.797961330172, -26285.874996885657, -22202.5912645568, -1166.8951710337606, -25139.40932028405, -2080.0309872664197, -26420.477201995516, -30707.988823412517, -26209.990824459892, -8159.571368643209, -20595.143210308936, -32805.16359867616, 0.04, 0.9580000000000001, -0.122, 192.0, 0.0, 0.0, 0.0, 0.0, 0.0, 0.0, 0.0, 0.0, 0.0, 1.6689769095483603E9, 0.0, 2022-11-20 15:41:49.548
62.0, -20237.090615879373, 22375.258490474047, -33545.16280235801, -32295.700287306347, -25989.446161919375, -26289.987717865435, -22201.3395668673, -1164.9505692661487, -25076.71267708691, -2019.0554283923423, -26352.41614012911, -30641.402976680158, -26134.106652034123, -8086.145888107525, -20521.784785006617, -32732.788650129874, 0.04, 0.9580000000000001, -0.122, 192.0, 0.0, 0.0, 0.0, 0.0, 0.0, 0.0, 0.0, 0.0, 0.0, 1.66897690954837E9, 0.0, 2022-11-20 15:41:49.548
64.0, -20240.845708947865, 22116.581751892776, -33559.11029089812, -32295.9238047509, -25997.67160387893, -26298.995470880924, -22208.469773348545, -1175.8358688158833, -25158.721227493435, -2093.8220135953443, -26441.063158638855, -30725.669053276666, -26222.261932165853, -8169.517894925821, -20596.17139055388, -32810.840941767805, 0.04, 0.9580000000000001, -0.122, 192.0, 0.0, 0.0, 0.0, 0.0, 0.0, 0.0, 0.0, 0.0, 0.0, 1.6689769095483809E9, 0.0, 2022-11-20 15:41:49.548
66.0, -20225.355950040335, 22353.42083614121, -33548.69437798195, -32299.45538037484, -25982.60652811605, -26293.116962089178, -22192.018889429437, -1162.7824500539841, -25081.741819589355, -2023.682239494591, -26355.187756441566, -30647.72852036101, -26136.766509624304, -8089.096318375626, -20519.68372102782, -32742.176382801103, 0.04, 0.9580000000000001, -0.122, 192.0, 0.0, 0.0, 0.0, 0.0, 0.0, 0.0, 0.0, 0.0, 0.0, 1.6689769095483902E9, 0.0, 2022-11-20 15:41:49.548
68.0, -20252.02158117552, 22133.434967212077, -33582.087884198176, -32320.06368876263, -26014.971854087336, -26322.55420953682, -22219.511535109465, -1192.3314562239, -25152.507442534858, -2093.240868239506, -26439.252667337976, -30731.055823690396, -26228.09573746869, -8179.710290397441, -20602.049899345624, -32829.41524141017, 0.041, 0.9520000000000001, -0.125, 192.0, 0.5, 40.0, 14.5, 72.0, 126.0, 0.0, 0.0, 0.0, 0.0, 1.6689769095483985E9, 0.0, 2022-11-20 15:41:49.548
70.0, -20206.982816098072, 22333.70659753163, -33519.6147584456, -32267.67119975939, -25961.573536583608, -26267.323048987753, -22168.66131647364, -1139.0001939535373, -25077.651450354035, -2019.97184991501, -26342.44726210204, -30640.285389457393, -26136.94532357995, -8089.811574198196, -20522.164764662357, -32751.921743383617, 0.041, 0.9520000000000001, -0.125, 192.0, 0.0, 0.0, 0.0, 0.0, 0.0, 0.0, 0.0, 0.0, 0.0, 1.66897690954841E9, 0.0, 2022-11-20 15:41:49.548
72.0, -20254.748493999065, 22160.994668125473, -33565.659352023526, -32308.552540368146, -26009.1380487845, -26311.557151264806, -22215.801145529884, -1183.0331305304921, -25134.156660337052, -2066.9775685045206, -26414.866914137237, -30700.32217506435, -26206.19102790249, -8155.883330808084, -20577.462980444787, -32807.06349695486, 0.041, 0.9520000000000001, -0.125, 192.0, 0.0, 0.0, 0.0, 0.0, 0.0, 0.0, 0.0, 0.0, 0.0, 1.6689769095484183E9, 0.0, 2022-11-20 15:41:49.548
74.0, -20199.38322298327, 22290.634785966253, -33514.11622930959, -32260.608048511513, -25960.94768773886, -26260.505766928884, -22168.326040306813, -1135.8709497297943, -25073.583432863168, -2021.3129545823283, -26342.536669079862, -30640.128927246205, -26125.612989141107, -8089.9903881538385, -20516.82269773754, -32746.199696803058, 0.041, 0.9520000000000001, -0.125, 192.0, 0.0, 0.0, 0.0, 0.0, 0.0, 0.0, 0.0, 0.0, 0.0, 1.6689769095484264E9, 0.0, 2022-11-20 15:41:49.548
76.0, -20268.517168583534, 22182.67586024712, -33591.98970699188, -32329.093793522574, -26037.703578198383, -26336.032311443367, -22241.59505863131, -1207.4188837312322, -25136.21302082694, -2071.2243999510288, -26423.65114970817, -30707.65354724569, -26211.667205294038, -8167.170961758014, -20583.855579359006, -32806.83997951031, 0.041, 0.9520000000000001, -0.125, 192.0, 0.0, 0.0, 0.0, 0.0, 0.0, 0.0, 0.0, 0.0, 0.0, 1.6689769095484347E9, 0.0, 2022-11-20 15:41:49.548
78.0, -20171.84587381433, 22268.059524066393, -33497.26301399029, -32239.28448430115, -25945.79320499816, -26241.417377164053, -22149.595278453267, -1116.0002489090264, -25085.474560913393, -2033.4946553104705, -26355.41127388612, -30651.707130874056, -26144.07553006119, -8105.927181950472, -20530.032578710627, -32751.72057768352, 0.0405, 0.9520000000000001, -0.1255, 192.0, 0.5, 32.0, 14.5, 96.0, 126.0, 8.0, 0.0, 0.0, 0.0, 1.6689769095484433E9, 0.0, 2022-11-20 15:41:49.548
80.0, -20255.955488199652, 22240.566878386366, -33581.61849756462, -32317.806162572644, -26035.2448863083, -26321.16840138059, -22233.369616671756, -1197.4053022152546, -25106.418145468015, -2042.9941467039762, -26389.251814991454, -30677.903375375674, -26191.349469584165, -8140.438275389466, -20560.989744781225, -32781.29193559789, 0.0405, 0.9520000000000001, -0.1255, 192.0, 0.0, 0.0, 0.0, 0.0, 0.0, 0.0, 0.0, 0.0, 0.0, 1.6689769095484524E9, 0.0, 2022-11-20 15:41:49.548
82.0, -20170.57182438038, 22238.957552785585, -33491.8538918321, -32224.84525738302, -25953.951591724348, -26234.086004982713, -22153.350371521756, -1119.2189001105905, -25086.122761502596, -2030.9912599314762, -26345.956485981525, -30647.281485471904, -26155.385512755576, -8099.0875481471485, -20536.73810204722, -32755.47567075201, 0.0405, 0.9520000000000001, -0.1255, 192.0, 0.0, 0.0, 0.0, 0.0, 0.0, 0.0, 0.0, 0.0, 0.0, 1.6689769095484617E9, 0.0, 2022-11-20 15:41:49.548
84.0, -20241.67272349271, 22298.279082569967, -33561.1219478991, -32296.39319138446, -26022.638502435508, -26308.941997163536, -22227.155831713182, -1190.0515782894586, -25087.44151442546, -2015.7697219574122, -26363.03321874538, -30650.29897097337, -26178.31840256672, -8110.397530841534, -20535.73227354673, -32754.49219399598, 0.0405, 0.9520000000000001, -0.1255, 192.0, 0.0, 0.0, 0.0, 0.0, 0.0, 0.0, 0.0, 0.0, 0.0, 1.6689769095484707E9, 0.0, 2022-11-20 15:41:49.548
86.0, -20149.382370636748, 22224.898305523195, -33477.34760968061, -32208.528483930648, -25934.863201959517, -26226.642874079094, -22144.163804550626, -1109.9652779060934, -25085.027526024285, -2027.9737744300098, -26345.64356155915, -30643.951075548062, -26154.871422633103, -8100.898039448028, -20535.68757005782, -32755.274505051915, 0.0405, 0.9520000000000001, -0.1255, 192.0, 0.0, 0.0, 0.0, 0.0, 0.0, 0.0, 0.0, 0.0, 0.0, 1.6689769095484798E9, 0.0, 2022-11-20 15:41:49.548
88.0, -20248.825281718407, 22334.824184754394, -33577.99751496286, -32316.934444538885, -26032.070938595647, -26325.862267716202, -22240.321009197356, -1204.71432265214, -25073.62813635208, -2008.0807218647865, -26351.96910524, -30638.921933045618, -26160.146434324557, -8107.044769173238, -20531.3960351224, -32754.447490507067, 0.04025, 0.9550000000000001, -0.12375, 192.0, 0.5, 32.0, 14.5, 120.0, 126.0, 24.0, 0.0, 0.0, 0.0, 1.6689769095484889E9, 0.0, 2022-11-20 15:41:49.548
90.0, -20162.18992020964, 22182.139418380193, -33502.26980474828, -32231.95311211981, -25950.732940522783, -26243.22786846493, -22162.872214659717, -1128.3160601039006, -25109.346223991663, -2047.3974403616717, -26371.102198493743, -30665.028770569417, -26177.580794999696, -8129.597679328643, -20561.74970409271, -32782.811854220854, 0.04025, 0.9550000000000001, -0.12375, 192.0, 0.0, 0.0, 0.0, 0.0, 0.0, 0.0, 0.0, 0.0, 0.0, 1.6689769095484977E9, 0.0, 2022-11-20 15:41:49.548
92.0, -20238.141147868773, 22364.95433628015, -33573.66127653853, -32313.268758448216, -26019.95629310087, -26315.133430377657, -22228.049901491395, -1192.8231946019166, -25067.168482204495, -2002.224564817496, -26347.25288715993, -30631.6799678421, -26152.61389644312, -8100.629818514564, -20527.305665887077, -32747.04906309236, 0.04025, 0.9550000000000001, -0.12375, 192.0, 0.0, 0.0, 0.0, 0.0, 0.0, 0.0, 0.0, 0.0, 0.0, 1.6689769095485072E9, 0.0, 2022-11-20 15:41:49.548
94.0, -20185.43573444316, 22136.00541782444, -33507.18718852844, -32247.688740216345, -25953.817481257618, -26258.516461672363, -22167.47667401751, -1136.0944671743473, -25111.268474014818, -2057.7910015333896, -26377.40539043014, -30674.30474451837, -26180.263004334334, -8128.122464194592, -20564.20839598279, -32786.81281647835, 0.04025, 0.9550000000000001, -0.12375, 192.0, 0.0, 0.0, 0.0, 0.0, 0.0, 0.0, 0.0, 0.0, 0.0, 1.668976909548516E9, 0.0, 2022-11-20 15:41:49.548
96.0, -20250.188738130182, 22375.2808422185, -33549.61079950462, -32319.706060851346, -26013.04960406418, -26320.11786939119, -22223.758366555976, -1191.3703312123218, -25074.656316597026, -2018.0495998918534, -26347.722273793494, -30643.459337170047, -26145.014303328313, -8103.22262087138, -20526.232782153224, -32760.39305453218, 0.04025, 0.9550000000000001, -0.12375, 192.0, 0.0, 0.0, 0.0, 0.0, 0.0, 0.0, 0.0, 0.0, 0.0, 1.6689769095485249E9, 0.0, 2022-11-20 15:41:49.548
98.0, -20180.27248147398, 22134.261981756925, -33489.61871738657, -32246.77231869368, -25948.676580032898, -26254.15787150358, -22162.469883259524, -1136.6979642746408, -25114.196552538462, -2064.6529870811687, -26380.400524187153, -30684.944174879096, -26172.395190286064, -8136.549071854243, -20561.079151759048, -32805.76709577645, 0.039125, 0.9565000000000001, -0.123875, 192.0, 0.5, 24.0, 14.5, 120.0, 126.0, 16.0, 0.0, 0.0, 0.0, 1.668976909548534E9, 0.0, 2022-11-20 15:41:49.548
100.0, -20253.832072476398, 22390.211807514646, -33558.48444205337, -32323.796430086666, -26020.515086712254, -26327.67275901708, -22236.834137062327, -1208.268250020534, -25062.653429824524, -2002.4927857509597, -26336.72521552148, -30635.703281844057, -26126.194134496945, -8089.409242798, -20512.77703199113, -32757.77790043091, 0.039125, 0.9565000000000001, -0.123875, 192.0, 0.0, 0.0, 0.0, 0.0, 0.0, 0.0, 0.0, 0.0, 0.0, 1.6689769095485432E9, 0.0, 2022-11-20 15:41:49.548
102.0, -20200.456106717123, 22109.183324478072, -33513.579787442664, -32253.544897263637, -25973.911699522938, -26273.44742696851, -22188.26379636095, -1160.234351186079, -25140.191631339985, -2087.965856548054, -26414.21871354803, -30714.157904882184, -26205.833399991203, -8168.042679791771, -20590.002309084215, -32828.02943325394, 0.039125, 0.9565000000000001, -0.123875, 192.0, 0.0, 0.0, 0.0, 0.0, 0.0, 0.0, 0.0, 0.0, 0.0, 1.668976909548555E9, 0.0, 2022-11-20 15:41:49.548
104.0, -20243.460863049135, 22394.86097036135, -33547.97912215938, -32297.130798951486, -26001.940787069892, -26308.33850006324, -22218.617465331256, -1187.101148021358, -25058.652467567026, -2003.6997799515464, -26333.46186083101, -30631.165877719628, -26127.445832186444, -8084.111879362093, -20503.031671408615, -32733.99564433046, 0.039125, 0.9565000000000001, -0.123875, 192.0, 0.0, 0.0, 0.0, 0.0, 0.0, 0.0, 0.0, 0.0, 0.0, 1.6689769095485635E9, 0.0, 2022-11-20 15:41:49.548
106.0, -20218.91864763721, 22094.028841737374, -33540.33482555566, -32268.073531159585, -25987.09922875157, -26286.63495619714, -22197.137438909704, -1168.8397728013722, -25145.332532564706, -2091.251562982984, -26419.046690350377, -30716.46013456108, -26213.85767625066, -8167.685051880486, -20582.3580124805, -32802.07905794133, 0.039125, 0.9565000000000001, -0.123875, 192.0, 0.0, 0.0, 0.0, 0.0, 0.0, 0.0, 0.0, 0.0, 0.0, 1.6689769095485716E9, 0.0, 2022-11-20 15:41:49.548
108.0, -20236.017732145516, 22386.791990612983, -33553.67881699548, -32296.616708829013, -25996.352850956067, -26305.790401195336, -22209.944988482595, -1180.5073834070424, -25076.77973232028, -2023.9281086835992, -26347.319942393297, -30644.688683115088, -26142.68972190496, -8093.298446333224, -20515.638055281408, -32736.364929242725, 0.0415625, 0.95825, -0.1219375, 192.0, 0.5, 48.0, 15.0, 0.0, 126.0, 32.0, 0.0, 0.0, 0.0, 1.66897690954858E9, 0.0, 2022-11-20 15:41:49.548
110.0, -20221.824374416396, 22114.41363268061, -33532.042328362746, -32274.15320565143, -25980.259594948246, -26294.77099117887, -22196.042203431392, -1170.0467670019589, -25139.87870691761, -2081.9532372895765, -26410.955358857558, -30706.89358793421, -26206.928635469514, -8162.52179891131, -20571.15978850839, -32804.135418431215, 0.0415625, 0.95825, -0.1219375, 192.0, 0.0, 0.0, 0.0, 0.0, 0.0, 0.0, 0.0, 0.0, 0.0, 1.6689769095485897E9, 0.0, 2022-11-20 15:41:49.548
112.0, -20227.5240692525, 22380.86877833233, -33523.839238147644, -32291.00642097073, -25979.454932147855, -26296.223854568467, -22199.998462199983, -1172.4384036586766, -25066.207357192918, -2018.0943033807641, -26331.62901778567, -30636.574999877812, -26127.401128697533, -8092.31496957719, -20497.95782541726, -32743.20456304605, 0.0415625, 0.95825, -0.1219375, 192.0, 0.0, 0.0, 0.0, 0.0, 0.0, 0.0, 0.0, 0.0, 0.0, 1.668976909548599E9, 0.0, 2022-11-20 15:41:49.548
114.0, -20235.593049000865, 22127.221182253503, -33545.5651337582, -32294.940327994864, -26002.410173703454, -26308.91964541908, -22219.936218254115, -1192.6890841351849, -25146.964209909944, -2089.642237382202, -26418.9349316281, -30715.297843849403, -26215.176429173524, -8178.592703174675, -20578.669974645374, -32823.4473256406, 0.0415625, 0.95825, -0.1219375, 192.0, 0.0, 0.0, 0.0, 0.0, 0.0, 0.0, 0.0, 0.0, 0.0, 1.6689769095486083E9, 0.0, 2022-11-20 15:41:49.548
116.0, -20209.4191562437, 22364.14967347976, -33525.29210153724, -32278.087112675563, -25981.846568804573, -26283.3045462733, -22200.445497089087, -1168.7280140790956, -25063.368685647096, -2019.5918702592696, -26330.131450907167, -30629.869476541222, -26131.111518277114, -8093.656074244509, -20505.62447376543, -32739.494173466468, 0.0415625, 0.95825, -0.1219375, 192.0, 0.0, 0.0, 0.0, 0.0, 0.0, 0.0, 0.0, 0.0, 0.0, 1.6689769095486171E9, 0.0, 2022-11-20 15:41:49.548
118.0, -20238.230554846592, 22158.33481053529, -33564.22884037839, -32300.26004317523, -26020.67154892344, -26310.663081486593, -22236.610619617775, -1204.1331772963022, -25141.286866818296, -2083.5849146348137, -26415.69392868208, -30706.535960022924, -26219.42326062003, -8174.368223472622, -20592.21513178529, -32812.025584223935, 0.041781250000000006, 0.9561250000000001, -0.12096875, 192.0, 0.5, 40.0, 14.5, 104.0, 126.0, 32.0, 0.0, 0.0, 0.0, 1.6689769095486274E9, 0.0, 2022-11-20 15:41:49.548
120.0, -20179.80309484042, 22356.639487342774, -33502.29215649273, -32248.80632743911, -25963.4287313734, -26259.72345587295, -22182.899377691672, -1148.8349615138725, -25059.077150711677, -2012.774588200401, -26316.295721089333, -30617.598368835257, -26126.194134496945, -8082.256684572302, -20516.330959359522, -32733.81683037482, 0.041781250000000006, 0.9561250000000001, -0.12096875, 192.0, 0.0, 0.0, 0.0, 0.0, 0.0, 0.0, 0.0, 0.0, 0.0, 1.6689769100278475E9, 0.0, 2022-11-20 15:41:50.027
122.0, -20235.5259937675, 22199.55142731088, -33557.85859320863, -32297.57783384059, -26017.989339588803, -26319.223799612977, -22234.464852150068, -1203.3508662403663, -25117.750479906856, -2067.066975482342, -26388.491855679975, -30683.625421956232, -26203.2853011233, -8159.481961665388, -20581.732163635752, -32800.13445617371, 0.041781250000000006, 0.9561250000000001, -0.12096875, 192.0, 0.0, 0.0, 0.0, 0.0, 0.0, 0.0, 0.0, 0.0, 0.0, 1.668976910027914E9, 0.0, 2022-11-20 15:41:50.027
124.0, -20176.60679538331, 22321.1672688922, -33481.5050341493, -32233.875362142964, -25947.536641065675, -26256.9965430494, -22165.286203060892, -1137.9943654530484, -25059.188909433953, -2014.7191899680126, -26310.81954369778, -30617.799534535356, -26124.27188447379, -8082.971940394872, -20511.614741279453, -32731.939283840573, 0.041781250000000006, 0.9561250000000001, -0.12096875, 192.0, 0.0, 0.0, 0.0, 0.0, 0.0, 0.0, 0.0, 0.0, 0.0, 1.668976910027976E9, 0.0, 2022-11-20 15:41:50.027
126.0, -20249.138206140782, 22236.87884055124, -33542.92762791248, -32300.327098408594, -26006.142915027493, -26314.77580246637, -22222.640779333207, -1195.5501074254641, -25109.43563096948, -2045.8328182498, -26379.618213131216, -30673.455378229068, -26190.2318823614, -8139.767723055807, -20550.149148720404, -32779.034409407905, 0.041781250000000006, 0.9561250000000001, -0.12096875, 192.0, 0.0, 0.0, 0.0, 0.0, 0.0, 0.0, 0.0, 0.0, 0.0, 1.6689769100279903E9, 0.0, 2022-11-20 15:41:50.027
128.0, -20182.731173364064, 22273.26748052448, -33476.92292653596, -32234.076527843063, -25944.13917590847, -26245.843022566205, -22158.178348324105, -1132.6746502726853, -25079.596052121648, -2026.4762075515043, -26334.2665236314, -30640.30774120185, -26135.291294490256, -8087.59875149712, -20506.965578432748, -32739.85180137775, 0.041890625, 0.9560625, -0.122484375, 192.0, 0.5, 40.0, 14.5, 112.0, 126.0, 16.0, 0.0, 0.0, 0.0, 1.6689769100279958E9, 0.0, 2022-11-20 15:41:50.027
130.0, -20281.838808278895, 22243.092625509817, -33588.50283485685, -32334.324101725117, -26045.973723646846, -26344.525974336386, -22257.30833498339, -1229.8600351643604, -25113.5260002048, -2049.4090973626494, -26391.08465803679, -30681.50200623298, -26188.264928849334, -8137.644307332553, -20546.662276585375, -32776.21808960653, 0.041890625, 0.9560625, -0.122484375, 192.0, 0.0, 0.0, 0.0, 0.0, 0.0, 0.0, 0.0, 0.0, 0.0, 1.6689769100280013E9, 0.0, 2022-11-20 15:41:50.028
132.0, -20182.865283830797, 22229.413357903166, -33498.693525635426, -32232.646016197923, -25952.342266123567, -26248.368769689652, -22167.744894950974, -1140.4754090875876, -25112.78839263778, -2057.3439666442832, -26375.37138168471, -30669.186195038106, -26168.59539372866, -8119.941725723949, -20548.49511963071, -32772.97708666052, 0.041890625, 0.9560625, -0.122484375, 192.0, 0.0, 0.0, 0.0, 0.0, 0.0, 0.0, 0.0, 0.0, 0.0, 1.6689769100280063E9, 0.0, 2022-11-20 15:41:50.028
134.0, -20259.77763650151, 22304.93990241765, -33573.19188990496, -32303.813970543622, -26022.10206056858, -26319.06733740179, -22237.415282418166, -1206.9942005865814, -25090.54840690475, -2023.9728121725097, -26375.41608517362, -30650.902468073666, -26165.55555648274, -8115.091397177148, -20538.861517770474, -32757.24145856398, 0.041890625, 0.9560625, -0.122484375, 192.0, 0.0, 0.0, 0.0, 0.0, 0.0, 0.0, 0.0, 0.0, 0.0, 1.668976910028018E9, 0.0, 2022-11-20 15:41:50.028
136.0, -20177.38910643925, 22195.908092964663, -33497.3077174792, -32221.89482711492, -25938.1712601389, -26242.2443917089, -22164.168615838127, -1135.982708452071, -25103.8253431112, -2047.5315508284034, -26371.07984674929, -30657.987971065995, -26160.325248280198, -8114.376141354578, -20553.59131736652, -32762.427063277613, 0.041890625, 0.9560625, -0.122484375, 192.0, 0.0, 0.0, 0.0, 0.0, 0.0, 0.0, 0.0, 0.0, 0.0, 1.6689769100280232E9, 0.0, 2022-11-20 15:41:50.028
138.0, -20254.077941665404, 22340.76974877951, -33570.84495673716, -32314.542807882168, -26021.655025679473, -26329.617360784694, -22240.87980280874, -1211.9339361112043, -25080.557177133225, -2018.6530969921469, -26363.390846656665, -30642.833488325297, -26156.95013486745, -8111.760987253308, -20539.219145681756, -32748.256057292947, 0.041890625, 0.9560625, -0.122484375, 192.0, 0.0, 0.0, 0.0, 0.0, 0.0, 0.0, 0.0, 0.0, 0.0, 1.6689769100280285E9, 0.0, 2022-11-20 15:41:50.028
140.0, -20181.6135861413, 22164.213319327035, -33499.90051983601, -32245.09593785953, -25950.3753126115, -26261.91392682957, -22172.461113031044, -1148.2761679024898, -25109.97207283641, -2060.5626178458474, -26376.913652052124, -30670.326134005325, -26170.115312351623, -8134.760932297819, -20566.532977406143, -32788.24332812349, 0.036000000000000004, 0.9520000000000001, -0.132, 192.0, 0.5, 16.0, 14.5, 96.0, 125.5, 112.0, 0.0, 0.0, 0.0, 1.668976910028034E9, 0.0, 2022-11-20 15:41:50.028
142.0, -20261.498720824566, 22357.1759292097, -33572.05195093774, -32326.29982546566, -26026.617112948552, -26332.433680586062, -22243.249087721004, -1215.845491390883, -25081.920633545, -2020.8882714376775, -26361.088616977766, -30647.86263082774, -26155.340809266665, -8115.091397177148, -20537.989799736715, -32765.95863890155, 0.036000000000000004, 0.9520000000000001, -0.132, 192.0, 0.0, 0.0, 0.0, 0.0, 0.0, 0.0, 0.0, 0.0, 0.0, 1.6689769100280392E9, 0.0, 2022-11-20 15:41:50.028
144.0, -20195.359908981314, 22126.5729816643, -33514.58561594315, -32249.633341983958, -25962.445254617367, -26264.23850825292, -22183.72639223652, -1158.9826534965819, -25131.45209925796, -2078.242847709995, -26399.108934296244, -30693.16961683865, -26194.635176019096, -8150.161284227524, -20582.246253758225, -32810.32685164533, 0.036000000000000004, 0.9520000000000001, -0.132, 192.0, 0.0, 0.0, 0.0, 0.0, 0.0, 0.0, 0.0, 0.0, 0.0, 1.6689769100280445E9, 0.0, 2022-11-20 15:41:50.028
146.0, -20253.496796309566, 22382.634566144297, -33568.69918926945, -32319.14726723996, -26012.58021743062, -26322.040119414345, -22237.147061484702, -1212.492729722587, -25075.572738119692, -2013.4004370451496, -26352.460843618017, -30637.379662678202, -26150.915163864516, -8101.568591781687, -20525.450471097287, -32759.20841207605, 0.036000000000000004, 0.9520000000000001, -0.132, 192.0, 0.0, 0.0, 0.0, 0.0, 0.0, 0.0, 0.0, 0.0, 0.0, 1.6689769100280497E9, 0.0, 2022-11-20 15:41:50.028
148.0, -20194.555246180924, 22118.124022260192, -33515.323223510175, -32256.562382765103, -25952.722245779307, -26260.90809832908, -22176.327964821812, -1154.9593394946266, -25127.138212578084, -2076.0747284978306, -26399.377155229708, -30693.75076219449, -26195.9315771975, -8151.927072039494, -20569.103428018505, -32803.55427307538, 0.036000000000000004, 0.9520000000000001, -0.132, 192.0, 0.0, 0.0, 0.0, 0.0, 0.0, 0.0, 0.0, 0.0, 0.0, 1.668976910028055E9, 0.0, 2022-11-20 15:41:50.028
150.0, -20261.565776057934, 22378.38773469779, -33574.26477363882, -32332.759479613243, -26012.15553428597, -26320.92253219158, -22233.906058538683, -1210.2128517881456, -25071.19179620645, -2025.5374342843813, -26352.79611978485, -30647.996741294475, -26144.477861461386, -8103.781414482763, -20507.747889488684, -32744.456260735544, 0.038, 0.9520000000000001, -0.132, 192.0, 0.5, 24.0, 14.5, 96.0, 125.5, 112.0, 0.0, 0.0, 0.0, 1.6689769100280604E9, 0.0, 2022-11-20 15:41:50.028
152.0, -20217.085804591872, 22091.32428065828, -33533.428136518974, -32282.468054588804, -25972.369429155522, -26281.337592761232, -22193.605863285764, -1174.9641507821264, -25152.194518112483, -2110.474063214548, -26428.1885538326, -30729.64766378971, -26219.892647253593, -8182.6160171766305, -20575.11604727698, -32813.90313075818, 0.038, 0.9520000000000001, -0.132, 192.0, 0.0, 0.0, 0.0, 0.0, 0.0, 0.0, 0.0, 0.0, 0.0, 1.6689769100280657E9, 0.0, 2022-11-20 15:41:50.028
154.0, -20237.358836812837, 22405.92508386673, -33546.54861051424, -32311.748839825257, -25995.95051955587, -26306.371546551174, -22217.25400891948, -1193.80667135795, -25068.15195896053, -2022.1399691271747, -26340.949695223535, -30639.994816779476, -26136.16301252401, -8097.008835912805, -20492.638110236898, -32736.119060053716, 0.038, 0.9520000000000001, -0.132, 192.0, 0.0, 0.0, 0.0, 0.0, 0.0, 0.0, 0.0, 0.0, 0.0, 1.6689769100280707E9, 0.0, 2022-11-20 15:41:50.028
156.0, -20219.09746159285, 22110.5691326343, -33536.40091853153, -32281.685743532867, -25988.14976074097, -26300.224816825965, -22211.576665827833, -1191.0797585344028, -25147.45594828796, -2097.5994584082914, -26422.958245630056, -30714.94021593812, -26220.42908912052, -8177.497467696366, -20584.101448548015, -32829.795221065906, 0.038, 0.9520000000000001, -0.132, 192.0, 0.0, 0.0, 0.0, 0.0, 0.0, 0.0, 0.0, 0.0, 0.0, 1.6689769100280762E9, 0.0, 2022-11-20 15:41:50.028
158.0, -20221.489098249567, 22414.306988037468, -33530.67887195097, -32283.362124367017, -25986.965118284836, -26303.73404070545, -22213.856543762275, -1191.4373864456877, -25064.732142058867, -2013.2663265784176, -26331.606666041218, -30621.15229620365, -26132.854954344628, -8088.671635230975, -20507.3902615774, -32753.933400384594, 0.038, 0.9520000000000001, -0.132, 192.0, 0.0, 0.0, 0.0, 0.0, 0.0, 0.0, 0.0, 0.0, 0.0, 1.6689769100280817E9, 0.0, 2022-11-20 15:41:50.028
160.0, -20218.985702870574, 22132.85382185624, -33540.11130811111, -32272.141548650452, -25996.15168525597, -26300.671851715073, -22216.561104841367, -1193.136119024291, -25136.83886967169, -2082.6908448566014, -26406.0826785663, -30695.650660473188, -26214.796449517784, -8161.270101221812, -20582.26860550268, -32818.41818313816, 0.036000000000000004, 0.9540000000000001, -0.128, 192.0, 0.5, 16.0, 14.5, 104.0, 126.0, 0.0, 0.0, 0.0, 0.0, 1.668976910028087E9, 0.0, 2022-11-20 15:41:50.028
162.0, -20204.501772463533, 22401.834714631404, -33524.17451431448, -32276.656601030423, -25979.387876914487, -26286.746714919416, -22203.48533433501, -1178.9204095507157, -25063.793368791747, -2021.3353063267837, -26328.07509041728, -30625.220313694517, -26134.285465989768, -8090.258609087302, -20515.10161341448, -32747.987836359483, 0.036000000000000004, 0.9540000000000001, -0.128, 192.0, 0.0, 0.0, 0.0, 0.0, 0.0, 0.0, 0.0, 0.0, 0.0, 1.668976910028092E9, 0.0, 2022-11-20 15:41:50.028
164.0, -20217.734005181075, 22169.465979274035, -33544.42519479099, -32291.475807604293, -26001.225531247324, -26298.436677269543, -22222.372558399744, -1195.5724591699195, -25126.93704687799, -2078.9134000436547, -26402.595806431273, -30692.767285438455, -26209.09675468168, -8163.147647756058, -20582.045088058127, -32813.47844761353, 0.036000000000000004, 0.9540000000000001, -0.128, 192.0, 0.0, 0.0, 0.0, 0.0, 0.0, 0.0, 0.0, 0.0, 0.0, 1.6689769100280974E9, 0.0, 2022-11-20 15:41:50.028
166.0, -20211.833144644876, 22374.565586395933, -33532.39995627403, -32292.414580871417, -25990.407286930953, -26291.887616144137, -22213.67772980663, -1185.4247671872101, -25058.317191400194, -2016.4626260355267, -26320.430793813564, -30616.39137463467, -26128.474012431387, -8089.610408498098, -20507.144392388393, -32741.5281822119, 0.036000000000000004, 0.9540000000000001, -0.128, 192.0, 0.0, 0.0, 0.0, 0.0, 0.0, 0.0, 0.0, 0.0, 0.0, 1.6689769100281043E9, 0.0, 2022-11-20 15:41:50.028
168.0, -20249.026447418506, 22168.43779902909, -33570.912011970526, -32311.212397958327, -26027.935865871415, -26324.54351479334, -22249.842852335318, -1221.9028141382712, -25146.20425059846, -2100.2369642540175, -26426.020434620434, -30713.01796591496, -26233.638970093605, -8190.841459136183, -20596.014928342694, -32830.1975524661, 0.036000000000000004, 0.9540000000000001, -0.128, 192.0, 0.0, 0.0, 0.0, 0.0, 0.0, 0.0, 0.0, 0.0, 0.0, 1.6689769100281098E9, 0.0, 2022-11-20 15:41:50.028
170.0, -20197.304510748927, 22339.160423178724, -33510.65170891902, -32257.23293509876, -25965.485091863287, -26270.228775766944, -22196.221017387037, -1169.689139090674, -25068.755456060822, -2031.1700738871186, -26334.02065444239, -30630.24945619696, -26140.007512570326, -8096.405338812511, -20517.850877982484, -32743.271618279414, 0.036000000000000004, 0.9540000000000001, -0.122, 192.0, 0.5, 16.0, 14.5, 104.0, 126.0, 24.0, 0.0, 0.0, 0.0, 1.6689769100281153E9, 0.0, 2022-11-20 15:41:50.028
172.0, -20271.7358197851, 22185.3357178373, -33579.89741324156, -32323.34939519756, -26036.898915397993, -26339.362721367208, -22263.611526919787, -1239.1360091133129, -25137.55412549426, -2090.0445687823976, -26415.381004259707, -30699.40575354168, -26220.026757720323, -8170.3449094706675, -20581.3074804911, -32810.48331385652, 0.036000000000000004, 0.9540000000000001, -0.122, 192.0, 0.0, 0.0, 0.0, 0.0, 0.0, 0.0, 0.0, 0.0, 0.0, 1.6689769100281205E9, 0.0, 2022-11-20 15:41:50.028
174.0, -20214.09067083486, 22281.11294282829, -33520.01708984579, -32269.258173615715, -25976.05746699065, -26280.421171238562, -22198.657357532666, -1179.523906651009, -25099.57851166469, -2064.7870975479004, -26360.306305921833, -30654.38934020869, -26160.1240825801, -8116.745426266841, -20536.31341890257, -32773.446473294076, 0.036000000000000004, 0.9540000000000001, -0.122, 192.0, 0.0, 0.0, 0.0, 0.0, 0.0, 0.0, 0.0, 0.0, 0.0, 1.668976910028149E9, 0.0, 2022-11-20 15:41:50.028
176.0, -20278.396639632778, 22213.96830248455, -33587.45230286745, -32331.038395290187, -26043.269162567754, -26340.88263999017, -22261.890442596727, -1238.0184218905476, -25142.91854416353, -2088.7481676039897, -26421.639492707192, -30701.640927987213, -26223.804202533272, -8169.987281559383, -20581.665108402387, -32820.65335758369, 0.036000000000000004, 0.9540000000000001, -0.122, 192.0, 0.0, 0.0, 0.0, 0.0, 0.0, 0.0, 0.0, 0.0, 0.0, 1.6689769100281544E9, 0.0, 2022-11-20 15:41:50.028
178.0, -20200.746679395044, 22251.854509336295, -33509.26590076279, -32251.488536773748, -25967.697914564364, -26260.394008206607, -22186.028621915415, -1162.067194231414, -25096.762191863323, -2061.5907980907914, -26362.74264606746, -30653.96465706404, -26159.94526862446, -8114.577307054676, -20535.82168052455, -32768.417330791635, 0.036000000000000004, 0.9540000000000001, -0.122, 192.0, 0.0, 0.0, 0.0, 0.0, 0.0, 0.0, 0.0, 0.0, 0.0, 1.6689769100281599E9, 0.0, 2022-11-20 15:41:50.028
180.0, -20287.225578692625, 22259.632916406743, -33591.98970699188, -32332.647720890967, -26048.58887774812, -26345.084767947767, -22268.59596593332, -1245.0815731384246, -25132.793203925277, -2079.963932033054, -26415.828039148815, -30691.537939493413, -26210.28139713781, -8159.012575031827, -20567.73997160673, -32795.73116251602, 0.038, 0.96, -0.122, 192.0, 0.5, 24.0, 15.0, 0.0, 126.0, 24.0, 0.0, 0.0, 0.0, 1.668976910028165E9, 0.0, 2022-11-20 15:41:50.028
182.0, -20194.62230141429, 22222.30550316638, -33498.8052843577, -32234.18828656534, -25954.443330102367, -26251.87799356914, -22177.043220644384, -1157.2392174290678, -25112.78839263778, -2071.6043796067693, -26381.138131754178, -30666.369875236738, -26171.74698969686, -8124.2109089149135, -20544.4494538843, -32771.65833373765, 0.038, 0.96, -0.122, 192.0, 0.0, 0.0, 0.0, 0.0, 0.0, 0.0, 0.0, 0.0, 0.0, 1.6689769100281703E9, 0.0, 2022-11-20 15:41:50.028
184.0, -20278.6872123107, 22310.773707720484, -33581.90907024254, -32320.44366841837, -26036.340121786612, -26334.534744564862, -22256.43661694963, -1232.0505061209806, -25111.53669494828, -2052.873617753222, -26396.493780194975, -30665.229936269516, -26185.672126492518, -8133.352772397134, -20546.48346262973, -32772.127720371216, 0.038, 0.96, -0.122, 192.0, 0.0, 0.0, 0.0, 0.0, 0.0, 0.0, 0.0, 0.0, 0.0, 1.6689769100281756E9, 0.0, 2022-11-20 15:41:50.028
186.0, -20180.563054151902, 22207.441593103602, -33488.36701969708, -32225.6052166945, -25941.27815261819, -26241.886763797615, -22165.15209259416, -1144.1634469227133, -25111.648453670558, -2059.1991614340736, -26378.165349741623, -30656.02101755393, -26169.66827746252, -8115.761949510807, -20541.901355016395, -32766.226859835013, 0.038, 0.96, -0.122, 192.0, 0.0, 0.0, 0.0, 0.0, 0.0, 0.0, 0.0, 0.0, 0.0, 1.6689769100281808E9, 0.0, 2022-11-20 15:41:50.028
188.0, -20277.033183221007, 22341.283838901978, -33581.7749597758, -32336.045186048173, -26039.134089843523, -26347.319942393297, -22265.444369965124, -1245.4392010497095, -25093.16356100602, -2037.8085419903448, -26377.114817752223, -30648.533183161402, -26173.535129253287, -8120.209946657414, -20535.888735757915, -32764.99751388997, 0.038, 0.96, -0.122, 192.0, 0.0, 0.0, 0.0, 0.0, 0.0, 0.0, 0.0, 0.0, 0.0, 1.668976910028186E9, 0.0, 2022-11-20 15:41:50.028
190.0, -20193.37060372479, 22159.586508224787, -33503.70031639341, -32246.280580315663, -25961.104149950046, -26268.66415365507, -22188.82258997233, -1174.271246704012, -25123.047843342763, -2084.3001704573835, -26393.677460393606, -30678.663334687157, -26190.94713818397, -8146.361487670123, -20565.348334950013, -32799.68742128461, 0.04, 0.9580000000000001, -0.122, 192.0, 0.5, 32.0, 14.5, 120.0, 126.0, 24.0, 0.0, 0.0, 0.0, 1.6689769100281913E9, 0.0, 2022-11-20 15:41:50.028
192.0, -20251.127511397306, 22383.685098133697, -33555.2210873629, -32305.11037172203, -26013.518990697743, -26314.999319910923, -22238.063483007372, -1218.4606454921538, -25080.937156788965, -2032.5558820433478, -26362.161500711623, -30637.223200467015, -26163.253326803846, -8113.2362023873575, -20525.36106411947, -32755.363912029734, 0.04, 0.9580000000000001, -0.122, 192.0, 0.0, 0.0, 0.0, 0.0, 0.0, 0.0, 0.0, 0.0, 0.0, 1.6689769100281968E9, 0.0, 2022-11-20 15:41:50.028
194.0, -20176.38327793876, 22160.324115791813, -33491.51861566527, -32220.576074192057, -25946.910792220926, -26239.33866492971, -22164.593298982778, -1146.9797667240819, -25111.35788099264, -2062.7530888024676, -26382.479236421495, -30655.93161057611, -26181.112370623636, -8127.831891516673, -20549.076264986546, -32774.564060516845, 0.04, 0.9580000000000001, -0.122, 192.0, 0.0, 0.0, 0.0, 0.0, 0.0, 0.0, 0.0, 0.0, 0.0, 1.668976910028202E9, 0.0, 2022-11-20 15:41:50.028
196.0, -20256.894261466776, 22400.650072175275, -33571.00141894835, -32309.91599677992, -26020.67154892344, -26316.675700745072, -22238.30935219638, -1220.2711367930337, -25075.416275908505, -2006.6278584751915, -26351.946753495547, -30611.4739908545, -26152.256268531833, -8085.430632284955, -20508.574904033532, -32735.33674899778, 0.04, 0.9580000000000001, -0.122, 192.0, 0.0, 0.0, 0.0, 0.0, 0.0, 0.0, 0.0, 0.0, 0.0, 1.6689769100282073E9, 0.0, 2022-11-20 15:41:50.028
198.0, -20197.885656104765, 22128.539935176366, -33518.675985178474, -32246.81702218259, -25963.540490095675, -26261.28807798482, -22184.665165503644, -1170.2255809576013, -25137.196497582972, -2081.6626646116574, -26413.0340710919, -30681.680820188623, -26214.371766373133, -8150.585967372176, -20573.193797253825, -32804.694212042596, 0.04, 0.9580000000000001, -0.122, 192.0, 0.0, 0.0, 0.0, 0.0, 0.0, 0.0, 0.0, 0.0, 0.0, 1.668976910028214E9, 0.0, 2022-11-20 15:41:50.028
200.0, -20244.019656660515, 22419.291427051, -33559.13264264258, -32302.137589709473, -26007.729888883816, -26305.768049450882, -22230.240372448014, -1210.3469622548776, -25068.8672147831, -2013.3557335562389, -26348.169308682598, -30618.648900824657, -26148.03178882978, -8085.922370662973, -20503.97044467574, -32737.460164721033, 0.04, 0.9560000000000001, -0.13, 192.0, 0.5, 32.0, 14.5, 112.0, 125.5, 120.0, 0.0, 0.0, 0.0, 1.6689769100282195E9, 0.0, 2022-11-20 15:41:50.028
202.0, -20197.460972960114, 22132.38443522268, -33519.45829623441, -32246.660559971402, -25967.630859330995, -26264.64083965312, -22195.505761564466, -1179.523906651009, -25141.622142985125, -2088.9493333040873, -26416.722108927028, -30688.07341910284, -26215.154077429066, -8158.207912231435, -20574.154922265403, -32803.53192133092, 0.04, 0.9560000000000001, -0.13, 192.0, 0.0, 0.0, 0.0, 0.0, 0.0, 0.0, 0.0, 0.0, 0.0, 1.6689769100282247E9, 0.0, 2022-11-20 15:41:50.028
204.0, -20218.873944148298, 22439.16212787177, -33526.45439224892, -32270.599278283036, -25985.132275239503, -26285.4056102521, -22212.940122239605, -1196.2206597591235, -25046.247249394328, -1996.3013525368397, -26320.96723568049, -30589.85985396622, -26125.568285652196, -8067.6833471874415, -20482.62452872092, -32714.05788827633, 0.04, 0.9560000000000001, -0.13, 192.0, 0.0, 0.0, 0.0, 0.0, 0.0, 0.0, 0.0, 0.0, 0.0, 1.66897691002823E9, 0.0, 2022-11-20 15:41:50.028
206.0, -20231.077996620894, 22124.71778687451, -33540.87126742259, -32264.787824724655, -25996.688127122896, -26291.97702312196, -22216.695215308097, -1201.5403749394864, -25138.738767950388, -2086.647103625191, -26415.22454204852, -30675.578793952325, -26214.84115300669, -8158.029098275793, -20570.668050130374, -32803.241348653006, 0.04, 0.9560000000000001, -0.13, 192.0, 0.0, 0.0, 0.0, 0.0, 0.0, 0.0, 0.0, 0.0, 0.0, 1.6689769100282352E9, 0.0, 2022-11-20 15:41:50.028
208.0, -20237.448243790655, 22410.4401362467, -33535.73036619787, -32278.757665009223, -25989.356754941557, -26297.63201446915, -22210.615540816252, -1198.165261526735, -25077.62909860958, -2023.1010941387528, -26347.431701115573, -30605.461371596026, -26145.081358561678, -8088.045786386227, -20498.315453328545, -32738.801269388354, 0.04, 0.9560000000000001, -0.13, 192.0, 0.0, 0.0, 0.0, 0.0, 0.0, 0.0, 0.0, 0.0, 0.0, 1.6689769100282404E9, 0.0, 2022-11-20 15:41:50.028
210.0, -20235.90597342324, 22140.118138804217, -33536.13269759806, -32271.0686649166, -25987.613318874042, -26294.167494078578, -22209.02856695993, -1197.2488400040675, -25149.020570399833, -2095.744263618501, -26427.070966609834, -30682.127855077728, -26223.245408921888, -8168.690880380975, -20569.5057594187, -32816.18300869263, 0.038, 0.9560000000000001, -0.12, 192.0, 0.5, 24.0, 14.5, 112.0, 126.0, 32.0, 0.0, 0.0, 0.0, 1.6689769100282457E9, 0.0, 2022-11-20 15:41:50.028
212.0, -20229.871002420306, 22396.738516895595, -33528.39899401653, -32285.753761023734, -25986.160455484445, -26294.547473734317, -22211.48725885001, -1198.165261526735, -25076.690325342457, -2030.387762831183, -26344.637733058662, -30606.467200096515, -26140.923934092993, -8088.470469530877, -20497.801363206072, -32743.58454270179, 0.038, 0.9560000000000001, -0.12, 192.0, 0.0, 0.0, 0.0, 0.0, 0.0, 0.0, 0.0, 0.0, 0.0, 1.668976910028251E9, 0.0, 2022-11-20 15:41:50.028
214.0, -20240.62219150331, 22171.254118830457, -33548.113232626114, -32296.616708829013, -26002.857208592563, -26310.0595843863, -22230.82151780385, -1219.0194391035366, -25144.39375929758, -2096.41481595216, -26424.254646808466, -30682.41842775565, -26225.1900106895, -8171.976586815905, -20575.49602693272, -32820.22867443904, 0.038, 0.9560000000000001, -0.12, 192.0, 0.0, 0.0, 0.0, 0.0, 0.0, 0.0, 0.0, 0.0, 0.0, 1.6689769100282562E9, 0.0, 2022-11-20 15:41:50.028
216.0, -20201.327824750882, 22384.646223145275, -33501.37573497006, -32264.29608634664, -25965.842719774573, -26271.882804856636, -22190.588377784297, -1179.7697758400175, -25070.945927017445, -2031.6841640095909, -26336.479346332475, -30602.689755283565, -26138.867573603104, -8088.1128416195925, -20497.37668006142, -32739.76239439993, 0.038, 0.9560000000000001, -0.12, 192.0, 0.0, 0.0, 0.0, 0.0, 0.0, 0.0, 0.0, 0.0, 0.0, 1.6689769100282617E9, 0.0, 2022-11-20 15:41:50.028
218.0, -20261.38696210229, 22189.04610741688, -33559.40086357604, -32312.553502625648, -26023.621979191543, -26325.39288108264, -22242.86910806526, -1231.9834508876147, -25132.8826109031, -2081.483850656015, -26411.625911191215, -30669.63322992721, -26214.28235939531, -8160.9571767994385, -20561.5038349037, -32802.28022364142, 0.038, 0.9560000000000001, -0.12, 192.0, 0.0, 0.0, 0.0, 0.0, 0.0, 0.0, 0.0, 0.0, 0.0, 1.668976910028267E9, 0.0, 2022-11-20 15:41:50.028
220.0, -20204.255903274527, 22343.742530792064, -33498.09002853513, -32253.746062963735, -25966.55797559714, -26270.20642402249, -22188.91199695015, -1175.6347031157857, -25088.648508626047, -2047.2186264060292, -26349.532765094373, -30617.48661011298, -26154.46909123291, -8099.0875481471485, -20516.15214540388, -32755.54272598538, 0.038, 0.958, -0.123, 192.0, 0.5, 24.0, 15.0, 0.0, 126.0, 8.0, 0.0, 0.0, 0.0, 1.668976910028272E9, 0.0, 2022-11-20 15:41:50.028
222.0, -20254.368514343325, 22233.526078882944, -33552.96356117291, -32291.34169713756, -26015.262426765257, -26312.093593131733, -22233.01198876047, -1221.4334275047097, -25124.83598289919, -2069.190391205596, -26404.071021565323, -30655.998665809475, -26205.207551146457, -8144.640403347064, -20552.965468521772, -32785.047028666384, 0.038, 0.958, -0.123, 192.0, 0.0, 0.0, 0.0, 0.0, 0.0, 0.0, 0.0, 0.0, 0.0, 1.6689769100282774E9, 0.0, 2022-11-20 15:41:50.028
224.0, -20206.066394575406, 22307.063318140903, -33504.59438617163, -32242.078452358062, -25953.79512951316, -26252.68265636953, -22173.265775831434, -1163.6318163432857, -25084.982822535378, -2040.3119373693394, -26357.758207053925, -30613.798572277854, -26150.73634990887, -8088.604579997609, -20508.172572633335, -32738.778917643896, 0.038, 0.958, -0.123, 192.0, 0.0, 0.0, 0.0, 0.0, 0.0, 0.0, 0.0, 0.0, 0.0, 1.6689769100282826E9, 0.0, 2022-11-20 15:41:50.028
226.0, -20278.240177421594, 22264.282079253448, -33575.516471328316, -32314.408697415438, -26022.593798946597, -26318.240322856942, -22238.041131262915, -1227.6919159521958, -25136.257724315852, -2069.749184816979, -26423.360577030253, -30663.799424624376, -26212.225998905422, -8140.862958534117, -20547.95867776378, -32782.945964687584, 0.038, 0.958, -0.123, 192.0, 0.0, 0.0, 0.0, 0.0, 0.0, 0.0, 0.0, 0.0, 0.0, 1.668976910028288E9, 0.0, 2022-11-20 15:41:50.028
228.0, -20212.436641745167, 22262.918622841673, -33516.798438644226, -32258.417577554894, -25961.461777861332, -26258.85173783919, -22182.944081180583, -1173.7571565815397, -25111.715508903922, -2061.7472603019787, -26384.1779690001, -30638.944284790075, -26168.08130360619, -8103.803766227218, -20520.2425146392, -32759.409577776147, 0.038, 0.958, -0.123, 192.0, 0.0, 0.0, 0.0, 0.0, 0.0, 0.0, 0.0, 0.0, 0.0, 1.6689769100282931E9, 0.0, 2022-11-20 15:41:50.028
230.0, -20282.330546656915, 22293.51816100099, -33591.56502384723, -32335.061709292142, -26040.072863110647, -26339.697997534036, -22265.042038564927, -1250.2224743631452, -25132.793203925277, -2073.928961030121, -26424.545219486383, -30668.64975317118, -26213.701214039473, -8146.964984770416, -20556.07236100106, -32790.61261303575, 0.039, 0.9570000000000001, -0.1225, 192.0, 0.5, 32.0, 14.5, 112.0, 126.0, 24.0, 0.0, 0.0, 0.0, 1.6689769100283003E9, 0.0, 2022-11-20 15:41:50.028
232.0, -20196.499847948533, 22230.441538148112, -33504.0579443047, -32250.14743210643, -25960.053617960646, -26259.030551794836, -22186.81093297135, -1175.1653164822242, -25113.749517649358, -2075.605341864269, -26384.736762611483, -30646.49917441597, -26179.90537642305, -8126.110807193614, -20548.20454695279, -32781.269583853435, 0.039, 0.9570000000000001, -0.1225, 192.0, 0.0, 0.0, 0.0, 0.0, 0.0, 0.0, 0.0, 0.0, 0.0, 1.6689769100283055E9, 0.0, 2022-11-20 15:41:50.028
234.0, -20281.458828623156, 22333.19250740916, -33575.449416094954, -32338.392119215983, -26036.2954182977, -26343.900125491637, -22260.683448396143, -1251.1165441413575, -25108.0274710688, -2063.870676025233, -26391.107009781244, -30647.572058149824, -26190.701268994962, -8139.723019566896, -20549.25507894219, -32788.31038335686, 0.039, 0.9570000000000001, -0.1225, 192.0, 0.0, 0.0, 0.0, 0.0, 0.0, 0.0, 0.0, 0.0, 0.0, 1.6689769100283108E9, 0.0, 2022-11-20 15:41:50.028
236.0, -20210.00030159954, 22190.05193591737, -33502.940357081934, -32255.735368220256, -25954.331571380088, -26267.0995315432, -22181.044182901882, -1175.880572304794, -25121.617331697624, -2084.9707227910426, -26393.208073760044, -30655.953962320564, -26179.100713622658, -8140.281813178279, -20548.20454695279, -32797.0946189278, 0.039, 0.9570000000000001, -0.1225, 192.0, 0.0, 0.0, 0.0, 0.0, 0.0, 0.0, 0.0, 0.0, 0.0, 1.668976910028316E9, 0.0, 2022-11-20 15:41:50.028
238.0, -20280.475351867124, 22368.843539815374, -33575.80704400624, -32330.703119123355, -26033.56850547415, -26335.16059340961, -22250.960439558083, -1240.0300788915251, -25107.289863501774, -2053.857094509255, -26393.252777248956, -30642.07352901382, -26174.38449554259, -8128.390685128056, -20525.2940088861, -32770.227822092515, 0.039, 0.9570000000000001, -0.1225, 192.0, 0.0, 0.0, 0.0, 0.0, 0.0, 0.0, 0.0, 0.0, 0.0, 1.6689769100283215E9, 0.0, 2022-11-20 15:41:50.028
240.0, -20197.170400282193, 22179.680726490107, -33498.827636102156, -32239.105670345507, -25962.020571472716, -26258.896441328103, -22179.21133985655, -1170.203229213146, -25138.112919105643, -2090.268086226951, -26409.301329767863, -30663.30768624636, -26192.534112040295, -8147.501426637344, -20557.726390090753, -32793.786560748405, 0.036500000000000005, 0.9605, -0.12525, 192.0, 0.5, 8.0, 15.0, 16.0, 126.0, 0.0, 0.0, 0.0, 0.0, 1.6689769105080364E9, 0.0, 2022-11-20 15:41:50.508
242.0, -20270.30530813996, 22405.075717577427, -33567.0228084353, -32311.055935747143, -26038.28472355422, -26327.181020639066, -22251.251012236004, -1235.8950061672933, -25083.194682978952, -2026.2526901069511, -26361.937983267067, -30604.612005306724, -26155.65373368904, -8096.606504512609, -20511.055947668072, -32738.778917643896, 0.036500000000000005, 0.9605, -0.12525, 192.0, 0.0, 0.0, 0.0, 0.0, 0.0, 0.0, 0.0, 0.0, 0.0, 1.6689769105080905E9, 0.0, 2022-11-20 15:41:50.508
244.0, -20193.28119674697, 22163.073380359816, -33503.2085780154, -32231.81900165308, -25971.85533903305, -26259.76815936186, -22187.079153904815, -1172.7289763365957, -25139.297561561772, -2090.5586589048694, -26406.0826785663, -30656.468052443037, -26204.1346674126, -8141.913490523517, -20566.64473612842, -32789.3385636018, 0.036500000000000005, 0.9605, -0.12525, 192.0, 0.0, 0.0, 0.0, 0.0, 0.0, 0.0, 0.0, 0.0, 0.0, 1.6689769105082111E9, 0.0, 2022-11-20 15:41:50.508
246.0, -20260.917575468728, 22424.029996875524, -33560.78667173227, -32305.758572311235, -26026.77357515974, -26322.710671748006, -22240.768044086464, -1222.752180427573, -25071.705886328924, -2026.5432627848702, -26348.973971482992, -30596.744191258455, -26147.048312073748, -8087.107013119104, -20505.803287721075, -32735.269693764414, 0.036500000000000005, 0.9605, -0.12525, 192.0, 0.0, 0.0, 0.0, 0.0, 0.0, 0.0, 0.0, 0.0, 0.0, 1.668976910508248E9, 0.0, 2022-11-20 15:41:50.508
248.0, -20203.585350940866, 22144.00734233944, -33509.9588048409, -32242.749004691723, -25964.635725573986, -26264.797301864302, -22182.67586024712, -1168.7280140790956, -25142.91854416353, -2103.410911966671, -26416.02920484891, -30664.78290138041, -26206.48160058041, -8152.821141817706, -20566.39886693941, -32804.73891553151, 0.036500000000000005, 0.9605, -0.12525, 192.0, 0.0, 0.0, 0.0, 0.0, 0.0, 0.0, 0.0, 0.0, 0.0, 1.6689769105082898E9, 0.0, 2022-11-20 15:41:50.508
250.0, -20246.076017150404, 22439.564459271965, -33545.58748550266, -32300.81883678661, -26004.57829291562, -26303.465819771984, -22218.662168820163, -1202.9932383290814, -25064.15099670303, -2017.5355097693814, -26343.475442346986, -30584.875414952687, -26124.584808896165, -8071.907826889495, -20490.849970680472, -32731.71576639602, 0.038250000000000006, 0.96225, -0.123625, 192.0, 0.5, 32.0, 15.0, 16.0, 126.0, 24.0, 0.0, 0.0, 0.0, 1.6689769105083222E9, 0.0, 2022-11-20 15:41:50.508
252.0, -20216.169383069206, 22137.145356791658, -33516.30670026621, -32261.971504923287, -25973.93405126739, -26268.44063621052, -22186.788581226898, -1171.4102234137326, -25143.097358119176, -2102.4050834661825, -26424.99225437549, -30671.376665994725, -26199.37374584362, -8152.75408658434, -20572.00915479769, -32812.22674992403, 0.038250000000000006, 0.96225, -0.123625, 192.0, 0.0, 0.0, 0.0, 0.0, 0.0, 0.0, 0.0, 0.0, 0.0, 1.6689769105083487E9, 0.0, 2022-11-20 15:41:50.508
254.0, -20237.24707809056, 22434.736482469616, -33532.73523244086, -32293.733333794276, -25993.24595847678, -26292.312299288787, -22206.68163379212, -1187.9505143106599, -25066.49792987084, -2024.3080883393395, -26344.3695121252, -30594.106685412728, -26119.153334993523, -8068.488009987833, -20494.605063748964, -32730.48642045098, 0.038250000000000006, 0.96225, -0.123625, 192.0, 0.0, 0.0, 0.0, 0.0, 0.0, 0.0, 0.0, 0.0, 0.0, 1.668976910508355E9, 0.0, 2022-11-20 15:41:50.508
0.0, -20221.891429649764, 22148.52239471941, -33527.30375853822, -32271.158071894417, -25978.583214114096, -26280.264709027375, -22193.427049330123, -1177.0205112720146, -25145.69016047599, -2091.5644874053582, -26424.679329953116, -30672.136625306208, -26197.630309776105, -8144.081609735681, -20570.846864086016, -32802.01200270796, 0.038250000000000006, 0.96225, -0.123625, 192.0, 0.0, 0.0, 0.0, 0.0, 0.0, 0.0, 0.0, 0.0, 0.0, 1.6689769105083618E9, 0.0, 2022-11-20 15:41:50.508
2.0, -20226.652351218745, 22427.11453761036, -33526.70026143792, -32288.838301758566, -25977.46562689133, -26289.07129634277, -22198.210322643557, -1183.524868908509, -25067.570813604692, -2015.8591289352335, -26340.83793650126, -30592.497359811947, -26112.1125354901, -8062.430687240445, -20499.365985317945, -32732.811001874332, 0.038250000000000006, 0.96225, -0.123625, 192.0, 0.0, 0.0, 0.0, 0.0, 0.0, 0.0, 0.0, 0.0, 0.0, 1.6689769105083692E9, 0.0, 2022-11-20 15:41:50.508
4.0, -20225.691226207164, 22162.246365814968, -33532.39995627403, -32286.603127313036, -25990.340231697588, -26294.167494078578, -22205.452287847078, -1191.5491451679643, -25145.667808731534, -2089.418719937649, -26422.354748529764, -30676.361105008258, -26199.351394099165, -8142.89696727955, -20583.274434003168, -32820.60865409478, 0.037125000000000005, 0.959125, -0.12381249999999999, 192.0, 0.5, 16.0, 14.5, 112.0, 126.0, 16.0, 0.0, 0.0, 0.0, 1.668976910508376E9, 0.0, 2022-11-20 15:41:50.508
6.0, -20210.179115555184, 22404.91925536624, -33509.310604251696, -32280.38934235446, -25975.85630129055, -26278.38716249313, -22189.739011494996, -1171.8572583028388, -25057.42312162198, -2017.803730702845, -26326.041081671847, -30593.793760990357, -26107.329262176667, -8058.362669749578, -20505.222142365237, -32740.030615333395, 0.037125000000000005, 0.959125, -0.12381249999999999, 192.0, 0.0, 0.0, 0.0, 0.0, 0.0, 0.0, 0.0, 0.0, 0.0, 1.6689769105083864E9, 0.0, 2022-11-20 15:41:50.508
8.0, -20253.67561026521, 22172.19289209758, -33558.75266298684, -32307.524360123203, -26023.778441402726, -26313.457049543507, -22230.866221292763, -1210.5481279549751, -25141.040997629287, -2094.179641506629, -26421.773603173926, -30678.238651542506, -26204.402888346063, -8148.3731446711, -20590.874027117974, -32814.81955228085, 0.037125000000000005, 0.959125, -0.12381249999999999, 192.0, 0.0, 0.0, 0.0, 0.0, 0.0, 0.0, 0.0, 0.0, 0.0, 1.6689769105083916E9, 0.0, 2022-11-20 15:41:50.508
10.0, -20201.19371428415, 22378.275975975514, -33509.176493784966, -32260.988028167252, -25968.748446553764, -26265.221985008957, -22178.3843253117, -1158.8708947743053, -25074.656316597026, -2032.5335302988924, -26347.766977282405, -30605.39431636266, -26124.987140296358, -8075.104126346604, -20526.16572691986, -32742.109327567738, 0.037125000000000005, 0.959125, -0.12381249999999999, 192.0, 0.0, 0.0, 0.0, 0.0, 0.0, 0.0, 0.0, 0.0, 0.0, 1.6689769105083969E9, 0.0, 2022-11-20 15:41:50.508
12.0, -20250.702828252655, 22202.859485490262, -33560.80902347672, -32301.802313542645, -26018.01169133326, -26321.59308452524, -22226.909962524172, -1210.883404121805, -25115.64941592806, -2069.056280738864, -26406.79793438887, -30654.59050590879, -26186.2309201039, -8138.873653277595, -20575.674840888365, -32792.534863058914, 0.037125000000000005, 0.959125, -0.12381249999999999, 192.0, 0.0, 0.0, 0.0, 0.0, 0.0, 0.0, 0.0, 0.0, 0.0, 1.668976910508402E9, 0.0, 2022-11-20 15:41:50.508
14.0, -20205.731118408577, 22329.28095212948, -33504.01324081579, -32255.221278097782, -25963.406379628945, -26280.465874727473, -22178.697249734076, -1169.9350082796823, -25072.57760436268, -2042.9494432150655, -26346.85055575974, -30605.95310997404, -26128.608122898117, -8088.202248597414, -20521.62832279543, -32747.876077637207, 0.0375625, 0.9565625, -0.12590625, 192.0, 0.5, 24.0, 14.5, 104.0, 126.0, 0.0, 0.0, 0.0, 0.0, 1.6689769105084076E9, 0.0, 2022-11-20 15:41:50.508
16.0, -20262.325735369413, 22230.083910236826, -33557.88094495308, -32309.69247933537, -26016.46942096584, -26336.72521552148, -22231.894401537706, -1221.5898897158968, -25124.83598289919, -2079.8521733107773, -26406.37325124422, -30658.993799566484, -26191.774152728816, -8151.435333661478, -20564.566023894076, -32800.51443582946, 0.0375625, 0.9565625, -0.12590625, 192.0, 0.0, 0.0, 0.0, 0.0, 0.0, 0.0, 0.0, 0.0, 0.0, 1.6689769105084128E9, 0.0, 2022-11-20 15:41:50.508
18.0, -20191.537760679457, 22290.59008247734, -33483.583746383636, -32248.135775105453, -25941.61342878502, -26259.85756633968, -22157.306630290346, -1145.9292347346825, -25086.614499880612, -2052.583045075303, -26347.901087749135, -30615.564360089826, -26130.955056065926, -8094.483088789355, -20512.665273268853, -32755.274505051915, 0.0375625, 0.9565625, -0.12590625, 192.0, 0.0, 0.0, 0.0, 0.0, 0.0, 0.0, 0.0, 0.0, 0.0, 1.668976910508418E9, 0.0, 2022-11-20 15:41:50.508
20.0, -20261.923403969216, 22265.824349620863, -33546.63801749206, -32315.7274503383, -26005.360603971556, -26317.927398434567, -22220.427956632135, -1204.3343429963998, -25110.48616295888, -2063.870676025233, -26391.755210370447, -30647.415595938637, -26173.80335018675, -8131.318763651701, -20539.95675324878, -32779.70496174156, 0.0375625, 0.9565625, -0.12590625, 192.0, 0.0, 0.0, 0.0, 0.0, 0.0, 0.0, 0.0, 0.0, 0.0, 1.6689769105084233E9, 0.0, 2022-11-20 15:41:50.508
22.0, -20194.823467114387, 22255.006105304492, -33481.46033066038, -32247.44287102734, -25929.65524550143, -26244.636028365618, -22149.01413309743, -1136.5862055523642, -25097.879779086088, -2050.258463651951, -26360.239250688464, -30617.576017090803, -26131.916181077504, -8091.2197340988805, -20515.05690992557, -32754.782766673896, 0.0375625, 0.9565625, -0.12590625, 192.0, 0.0, 0.0, 0.0, 0.0, 0.0, 0.0, 0.0, 0.0, 0.0, 1.6689769105084288E9, 0.0, 2022-11-20 15:41:50.508
24.0, -20283.045802479483, 22290.79124817744, -33576.18702366198, -32343.533020440704, -26014.48011570932, -26335.473517831986, -22239.717512097064, -1229.10007585288, -25116.655244428548, -2055.8240480213226, -26399.824190118816, -30644.44281392608, -26168.014248372823, -8121.416940858, -20538.280372414636, -32784.66704901064, 0.03778125, 0.95828125, -0.123953125, 192.0, 0.5, 24.0, 15.0, 0.0, 126.0, 24.0, 0.0, 0.0, 0.0, 1.668976910508434E9, 0.0, 2022-11-20 15:41:50.508
26.0, -20194.398783969737, 22206.033433202916, -33502.69448789293, -32253.321379819085, -25944.74267300876, -26257.44357793851, -22165.01798212743, -1155.5851883393752, -25123.78545090979, -2080.2768564554285, -26395.107972038746, -30650.701302373567, -26159.65469594654, -8116.410150100011, -20551.44554989881, -32800.06740094035, 0.03778125, 0.95828125, -0.123953125, 192.0, 0.0, 0.0, 0.0, 0.0, 0.0, 0.0, 0.0, 0.0, 0.0, 1.6689769105084393E9, 0.0, 2022-11-20 15:41:50.508
28.0, -20258.280069623004, 22339.18277492318, -33568.810947991726, -32323.371746942015, -26012.602569175073, -26335.406462598618, -22231.6485323487, -1219.2876600370003, -25097.991537808364, -2047.777420017412, -26385.049687033857, -30631.25528469745, -26158.73827442387, -8109.4140540855005, -20541.16374744937, -32784.01884842144, 0.03778125, 0.95828125, -0.123953125, 192.0, 0.0, 0.0, 0.0, 0.0, 0.0, 0.0, 0.0, 0.0, 0.0, 1.6689769105084448E9, 0.0, 2022-11-20 15:41:50.508
30.0, -20184.295795475937, 22188.710831250053, -33491.45156043191, -32240.111498845996, -25945.077949175593, -26266.47368269845, -22162.76045593744, -1151.1818946816798, -25110.173238536507, -2075.4041761641715, -26379.417047431118, -30640.195982479574, -26157.46422498992, -8122.3333623806675, -20552.138453976924, -32795.8429212383, 0.03778125, 0.95828125, -0.123953125, 192.0, 0.0, 0.0, 0.0, 0.0, 0.0, 0.0, 0.0, 0.0, 0.0, 1.66897691050845E9, 0.0, 2022-11-20 15:41:50.508
32.0, -20251.19456663067, 22378.99123179808, -33546.012168647314, -32302.092886220562, -26008.825124362127, -26323.336520592755, -22221.858468277274, -1205.4072267302545, -25083.842883568155, -2036.065105922831, -26357.400579142643, -30606.33308962978, -26144.634323672573, -8105.569554039187, -20523.707035029776, -32757.263810308435, 0.03778125, 0.95828125, -0.123953125, 192.0, 0.0, 0.0, 0.0, 0.0, 0.0, 0.0, 0.0, 0.0, 0.0, 1.6689769105084567E9, 0.0, 2022-11-20 15:41:50.508
34.0, -20188.766144366997, 22165.353258294257, -33492.52444416576, -32234.210638309796, -25951.917582978916, -26259.90226982859, -22165.01798212743, -1150.690156303663, -25114.53182870529, -2072.36433891825, -26372.75622758344, -30628.05898524034, -26163.163919826024, -8120.880498991072, -20548.11513997497, -32778.67678149662, 0.03778125, 0.95828125, -0.123953125, 192.0, 0.0, 0.0, 0.0, 0.0, 0.0, 0.0, 0.0, 0.0, 0.0, 1.668976910508462E9, 0.0, 2022-11-20 15:41:50.508
36.0, -20263.800950503464, 22392.08935404889, -33565.033503178776, -32314.20753171534, -26030.841592650606, -26324.901142704624, -22235.962419028572, -1218.035962347503, -25088.20147373694, -2028.9125476971326, -26359.83691928827, -30598.174702903594, -26152.144509809557, -8096.360635323601, -20527.797404265097, -32756.34738878577, 0.036000000000000004, 0.9540000000000001, -0.12, 192.0, 0.5, 16.0, 14.5, 104.0, 126.0, 32.0, 0.0, 0.0, 0.0, 1.6689769105084672E9, 0.0, 2022-11-20 15:41:50.508
38.0, -20193.57176942489, 22144.18615629508, -33504.572034427176, -32235.819963910577, -25959.964210982827, -26244.993656276903, -22167.275508317412, -1149.1255341917913, -25137.934105149998, -2082.1767547341296, -26404.65216692116, -30648.220258739027, -26194.858693463648, -8130.894080507051, -20578.245291500723, -32799.28508988441, 0.036000000000000004, 0.9540000000000001, -0.12, 192.0, 0.0, 0.0, 0.0, 0.0, 0.0, 0.0, 0.0, 0.0, 0.0, 1.6689769105084743E9, 0.0, 2022-11-20 15:41:50.508
40.0, -20251.82041547542, 22408.875514134827, -33553.16472687301, -32304.14924671045, -26006.589949916597, -26298.615491225184, -22216.315235652357, -1195.5724591699195, -25066.743799059845, -2011.7240562110017, -26348.01284647141, -30590.977441188985, -26133.771375867294, -8065.425820997456, -20511.681796512818, -32733.123926296703, 0.036000000000000004, 0.9540000000000001, -0.12, 192.0, 0.0, 0.0, 0.0, 0.0, 0.0, 0.0, 0.0, 0.0, 0.0, 1.6689769105084796E9, 0.0, 2022-11-20 15:41:50.508
42.0, -20200.99254858405, 22132.630304411687, -33506.58369142815, -32245.542972748637, -25955.09153069157, -26248.927563301037, -22167.454322273057, -1150.3101766479226, -25132.480279502903, -2081.5285541449257, -26408.56372220084, -30657.652694899167, -26192.75762948485, -8130.357638640123, -20569.72927686325, -32790.97024094704, 0.036000000000000004, 0.9540000000000001, -0.12, 192.0, 0.0, 0.0, 0.0, 0.0, 0.0, 0.0, 0.0, 0.0, 0.0, 1.668976910508486E9, 0.0, 2022-11-20 15:41:50.508
44.0, -20230.318037309415, 22431.987217901617, -33523.12398232508, -32285.507891834724, -25983.344135683077, -26280.24235728292, -22195.6398720312, -1175.8582205603386, -25052.326923886172, -1998.7600444269235, -26326.957503194513, -30576.627621248677, -26115.197076224933, -8052.886492358029, -20487.318395056536, -32711.107458008228, 0.036000000000000004, 0.9540000000000001, -0.12, 192.0, 0.0, 0.0, 0.0, 0.0, 0.0, 0.0, 0.0, 0.0, 0.0, 1.6689769105084913E9, 0.0, 2022-11-20 15:41:50.508
46.0, -20207.161630053717, 22128.13760377617, -33503.521502437776, -32253.94722866383, -25963.607545329043, -26263.34443847471, -22179.166636367638, -1163.005967498537, -25120.857372386145, -2077.996978520987, -26395.018565060924, -30647.326188960815, -26184.263966591832, -8130.000010728838, -20556.385285423432, -32784.80115947738, 0.036000000000000004, 0.9540000000000001, -0.13, 192.0, 0.5, 16.0, 14.5, 104.0, 125.5, 120.0, 0.0, 0.0, 0.0, 1.6689769105084968E9, 0.0, 2022-11-20 15:41:50.508
48.0, -20227.05468261894, 22413.971711870636, -33513.46802872039, -32284.323249378594, -25977.823254802617, -26293.206369067, -22195.21518888655, -1182.3178747079223, -25052.52808958627, -2022.0505621493535, -26324.02942467087, -30578.326353827284, -26115.286483202755, -8072.623082712064, -20490.58174974701, -32730.598179173256, 0.036000000000000004, 0.9540000000000001, -0.13, 192.0, 0.0, 0.0, 0.0, 0.0, 0.0, 0.0, 0.0, 0.0, 0.0, 1.668976910508502E9, 0.0, 2022-11-20 15:41:50.508
50.0, -20225.065377362418, 22128.294065987357, -33515.56909269918, -32266.35244683653, -25978.42675190291, -26291.15000857711, -22192.667090018644, -1182.2955229634672, -25130.15569807955, -2090.4916036715035, -26400.047707563368, -30648.577886650313, -26192.355298084654, -8149.602490616142, -20560.69917210331, -32805.051839953885, 0.036000000000000004, 0.9540000000000001, -0.13, 192.0, 0.0, 0.0, 0.0, 0.0, 0.0, 0.0, 0.0, 0.0, 0.0, 1.6689769105085075E9, 0.0, 2022-11-20 15:41:50.508
52.0, -20219.47744124859, 22405.366290255344, -33509.15414204051, -32261.792690967646, -25966.71443780833, -26277.381333992642, -22180.261871845945, -1166.2246187001012, -25065.134473459064, -2016.3285155687947, -26331.271389874386, -30574.10187412523, -26117.78987858175, -8069.426783254956, -20494.493305026688, -32736.99077808747, 0.036000000000000004, 0.9540000000000001, -0.13, 192.0, 0.0, 0.0, 0.0, 0.0, 0.0, 0.0, 0.0, 0.0, 0.0, 1.6689769105085127E9, 0.0, 2022-11-20 15:41:50.508
54.0, -20243.95260142715, 22136.00541782444, -33547.465032036904, -32277.707133019823, -25993.581234643607, -26299.196636581022, -22209.25208440448, -1192.174994012713, -25141.398625540573, -2082.087347756308, -26421.438327007098, -30652.40003495217, -26201.631272033606, -8146.18267371448, -20574.601957154508, -32808.58341557782, 0.036000000000000004, 0.9540000000000001, -0.13, 192.0, 0.0, 0.0, 0.0, 0.0, 0.0, 0.0, 0.0, 0.0, 0.0, 1.6689769105085187E9, 0.0, 2022-11-20 15:41:50.508
56.0, -20223.38899652827, 22373.827978828907, -33525.247398048334, -32260.20571711132, -25978.09147573608, -26278.431865982042, -22188.375555083225, -1168.3480344233556, -25075.237461952864, -2020.3965330596607, -26347.20818367102, -30581.00856316192, -26124.495401918342, -8069.113858832581, -20512.240590124202, -32738.443641477068, 0.04, 0.9540000000000001, -0.132, 192.0, 0.5, 32.0, 14.5, 104.0, 125.5, 112.0, 0.0, 0.0, 0.0, 1.6689769105085258E9, 0.0, 2022-11-20 15:41:50.508
58.0, -20256.91661321123, 22163.207490826546, -33564.22884037839, -32284.61382205651, -26014.90479885397, -26310.81954369778, -22222.5960758443, -1204.0214185740256, -25159.637649016102, -2089.575182148836, -26439.56559176035, -30660.536069933903, -26220.742013542895, -8155.548054641254, -20595.433782986856, -32812.6961365576, 0.04, 0.9540000000000001, -0.132, 192.0, 0.0, 0.0, 0.0, 0.0, 0.0, 0.0, 0.0, 0.0, 0.0, 1.6689769105085335E9, 0.0, 2022-11-20 15:41:50.508
60.0, -20206.826353886885, 22361.020429256016, -33506.226063516864, -32243.866591914488, -25959.248955160256, -26260.036380295325, -22169.86831067423, -1152.008909226526, -25074.455150896927, -2022.2964313383618, -26339.58623881176, -30574.168929358595, -26123.064890273203, -8065.247007041813, -20506.63030226592, -32727.915969838617, 0.04, 0.9540000000000001, -0.132, 192.0, 0.0, 0.0, 0.0, 0.0, 0.0, 0.0, 0.0, 0.0, 0.0, 1.668976910508541E9, 0.0, 2022-11-20 15:41:50.508
62.0, -20265.879662737807, 22193.739973752497, -33563.06654966671, -32300.72942980879, -26017.16232504396, -26312.29475883183, -22224.25010493399, -1207.262421520045, -25146.852451187668, -2087.8093943368667, -26425.32753054232, -30655.171651264627, -26211.913074483047, -8148.440199904467, -20577.97707056726, -32804.94008123161, 0.04, 0.9540000000000001, -0.132, 192.0, 0.0, 0.0, 0.0, 0.0, 0.0, 0.0, 0.0, 0.0, 0.0, 1.6689769105085485E9, 0.0, 2022-11-20 15:41:50.508
64.0, -20201.774859639987, 22325.883486972274, -33493.88790057754, -32247.66638847189, -25952.43167310139, -26247.988790033913, -22163.989801882482, -1145.8621795013166, -25079.43958991046, -2033.002916932454, -26342.35785512422, -30586.931775442576, -26129.949227565437, -8067.3927745095225, -20510.3406918455, -32736.163763542627, 0.04, 0.9540000000000001, -0.132, 192.0, 0.0, 0.0, 0.0, 0.0, 0.0, 0.0, 0.0, 0.0, 0.0, 1.668976910508556E9, 0.0, 2022-11-20 15:41:50.508
66.0, -20267.19841566067, 22232.54260212691, -33561.92661069949, -32314.363993926527, -26021.85619137957, -26310.81954369778, -22228.206363702582, -1209.4752442211204, -25137.82234642772, -2080.3886151777047, -26415.336300770796, -30654.92578207562, -26201.586568544695, -8137.7113625659185, -20569.37164895197, -32795.90997647166, 0.034, 0.9560000000000001, -0.134, 192.0, 0.5, 8.0, 14.5, 112.0, 125.5, 104.0, 0.0, 0.0, 0.0, 1.6689769105085633E9, 0.0, 2022-11-20 15:41:50.508
68.0, -20195.203446770127, 22286.387954519745, -33488.836406330636, -32245.118289603986, -25946.016722442713, -26239.629237607627, -22154.870290144718, -1138.7096212756182, -25081.026563766787, -2048.0903444397863, -26349.577468583284, -30604.90257798464, -26129.256323487323, -8079.909751404495, -20516.085090170516, -32740.991740344973, 0.034, 0.9560000000000001, -0.134, 192.0, 0.0, 0.0, 0.0, 0.0, 0.0, 0.0, 0.0, 0.0, 0.0, 1.6689769105085704E9, 0.0, 2022-11-20 15:41:50.508
70.0, -20268.763037772544, 22279.50361722751, -33562.91008745552, -32319.616653873523, -26017.832877377616, -26314.954616422012, -22223.691311322607, -1207.7094564091512, -25112.58722693768, -2071.023234250931, -26403.869855865225, -30645.336883704294, -26179.88302467859, -8132.570461341198, -20550.81970105406, -32778.92265068563, 0.034, 0.9560000000000001, -0.134, 192.0, 0.0, 0.0, 0.0, 0.0, 0.0, 0.0, 0.0, 0.0, 0.0, 1.668976910508577E9, 0.0, 2022-11-20 15:41:50.508
72.0, -20195.42696421468, 22259.632916406743, -33491.22804298736, -32241.318493046583, -25940.2723241177, -26240.38919691911, -22148.32122901931, -1133.9486997066379, -25089.788447593266, -2061.344928901783, -26364.910765279623, -30616.547836845857, -26136.900620091037, -8095.533620778754, -20525.36106411947, -32753.799289917864, 0.034, 0.9560000000000001, -0.134, 192.0, 0.0, 0.0, 0.0, 0.0, 0.0, 0.0, 0.0, 0.0, 0.0, 1.6689769105085824E9, 0.0, 2022-11-20 15:41:50.508
74.0, -20288.499628126578, 22307.778573963475, -33578.735122529884, -32332.245389490774, -26025.678339681428, -26332.232514885967, -22232.02851200444, -1219.1311978258132, -25121.058538086243, -2068.0504522383753, -26405.054498321355, -30641.626494124714, -26183.74987646936, -8128.681257805974, -20552.183157465835, -32782.99066817649, 0.034, 0.9560000000000001, -0.134, 192.0, 0.0, 0.0, 0.0, 0.0, 0.0, 0.0, 0.0, 0.0, 0.0, 1.6689769105085878E9, 0.0, 2022-11-20 15:41:50.508
76.0, -20194.689356647654, 22220.986750243515, -33488.702295863906, -32235.887019143942, -25945.81555674262, -26245.083063254722, -22149.01413309743, -1139.4695805870988, -25120.231523541395, -2075.001844763976, -26377.69596310806, -30625.510886372434, -26163.342733781665, -8107.491804062343, -20539.97910499324, -32772.66416223814, 0.036000000000000004, 0.9540000000000001, -0.126, 192.0, 0.5, 16.0, 14.5, 104.0, 126.0, 8.0, 0.0, 0.0, 0.0, 1.668976910508593E9, 0.0, 2022-11-20 15:41:50.508
78.0, -20276.809665776454, 22357.824129798908, -33570.487328825875, -32319.5272468957, -26032.58502871812, -26333.59597129774, -22235.02364576145, -1222.327497282922, -25107.8263053687, -2044.6705275381241, -26376.578375885296, -30610.91519724312, -26172.775169941804, -8103.98258018286, -20534.279410157134, -32766.80800519085, 0.036000000000000004, 0.9540000000000001, -0.126, 192.0, 0.0, 0.0, 0.0, 0.0, 0.0, 0.0, 0.0, 0.0, 0.0, 1.6689769105085983E9, 0.0, 2022-11-20 15:41:50.508
80.0, -20186.732135621565, 22205.765212269453, -33488.99286854182, -32219.547893947114, -25952.901059734948, -26246.67003711105, -22153.171557566115, -1141.6153480548082, -25128.412262012036, -2074.93478953061, -26383.775637599905, -30624.43800263858, -26180.30770782324, -8115.247859388335, -20553.993648766715, -32783.169482132136, 0.036000000000000004, 0.9540000000000001, -0.126, 192.0, 0.0, 0.0, 0.0, 0.0, 0.0, 0.0, 0.0, 0.0, 0.0, 1.6689769105086038E9, 0.0, 2022-11-20 15:41:50.508
82.0, -20265.745552271077, 22395.01743257254, -33565.01115143432, -32298.53895885217, -26031.042758350704, -26321.526029291872, -22231.58147711533, -1216.5383954689976, -25083.082924256676, -2023.7939982168673, -26354.20427968553, -30583.646069007646, -26151.831585387183, -8082.144925850025, -20520.220162894748, -32742.601065945753, 0.036000000000000004, 0.9540000000000001, -0.126, 192.0, 0.0, 0.0, 0.0, 0.0, 0.0, 0.0, 0.0, 0.0, 0.0, 1.6689769105086093E9, 0.0, 2022-11-20 15:41:50.508
84.0, -20203.495943963044, 22162.067551859327, -33509.55647344071, -32225.113478316485, -25972.19061519988, -26260.30460122879, -22173.399886298168, -1162.4024703982438, -25138.045863872274, -2091.273914727439, -26398.23721626249, -30635.92679928861, -26195.819818475225, -8131.22935667388, -20576.859483344495, -32797.29578462789, 0.036000000000000004, 0.9540000000000001, -0.126, 192.0, 0.0, 0.0, 0.0, 0.0, 0.0, 0.0, 0.0, 0.0, 0.0, 1.6689769105086143E9, 0.0, 2022-11-20 15:41:50.508
86.0, -20263.420970847725, 22415.91631363825, -33565.07820666769, -32291.855787260032, -26027.332368771124, -26318.910875190602, -22231.670884093153, -1218.2594797920563, -25084.82636032419, -2030.4548180645488, -26355.92536400859, -30585.18833937506, -26155.430216244487, -8084.693024717931, -20528.467956598754, -32751.228839305502, 0.034, 0.9580000000000001, -0.12, 192.0, 0.5, 8.0, 14.5, 120.0, 126.0, 32.0, 0.0, 0.0, 0.0, 1.66897691050862E9, 0.0, 2022-11-20 15:41:50.508
88.0, -20197.349214237835, 22159.81002566934, -33504.75084838281, -32219.570245691568, -25968.05554247565, -26253.24144998091, -22172.52816826441, -1159.8320197858834, -25133.463756258938, -2084.836612324311, -26398.728954640505, -30632.752851575955, -26196.110391153146, -8130.089417706659, -20576.188931010834, -32798.547482317386, 0.034, 0.9580000000000001, -0.12, 192.0, 0.0, 0.0, 0.0, 0.0, 0.0, 0.0, 0.0, 0.0, 0.0, 1.6689769105086255E9, 0.0, 2022-11-20 15:41:50.508
90.0, -20253.720313754122, 22432.76952895755, -33547.71090122592, -32292.459284360324, -26012.356699986067, -26306.706822718006, -22217.946912997595, -1202.6356104177964, -25070.364781661607, -2019.3907045591718, -26339.20625915602, -30573.85600493622, -26139.940457336957, -8072.0866408451375, -20508.53020054462, -32734.397975730655, 0.034, 0.9580000000000001, -0.12, 192.0, 0.0, 0.0, 0.0, 0.0, 0.0, 0.0, 0.0, 0.0, 0.0, 1.6689769105086308E9, 0.0, 2022-11-20 15:41:50.508
92.0, -20208.212162043117, 22151.517528476423, -33510.53995019674, -32251.555592007113, -25972.548243111163, -26266.943069332014, -22178.272566589425, -1165.107031477336, -25142.06917787423, -2093.196164750596, -26405.36742274373, -30647.05796802735, -26204.60405404616, -8144.059257991226, -20571.78563735314, -32803.643680053196, 0.034, 0.9580000000000001, -0.12, 192.0, 0.0, 0.0, 0.0, 0.0, 0.0, 0.0, 0.0, 0.0, 0.0, 1.668976910508636E9, 0.0, 2022-11-20 15:41:50.508
94.0, -20244.3772845718, 22442.090206395413, -33542.25707557882, -32310.72065958031, -26005.360603971556, -26316.78745946735, -22218.103375208782, -1207.0165523310368, -25069.24719443884, -2024.6657162506244, -26339.273314389386, -30581.09797013974, -26135.51481193481, -8084.827135184662, -20504.171610375837, -32747.138470070182, 0.034, 0.9580000000000001, -0.12, 192.0, 0.0, 0.0, 0.0, 0.0, 0.0, 0.0, 0.0, 0.0, 0.0, 1.6689769105086412E9, 0.0, 2022-11-20 15:41:50.508
96.0, -20196.09751654834, 22166.739066450486, -33505.64491816103, -32258.19406011034, -25962.534661595186, -26274.229738024445, -22180.038354401393, -1172.3713484253108, -25134.044901614776, -2096.213650252062, -26404.31689075433, -30649.091976772783, -26199.753725499362, -8157.827932575695, -20565.39303843892, -32816.47358137054, 0.036000000000000004, 0.9560000000000001, -0.128, 192.0, 0.5, 16.0, 14.5, 112.0, 126.0, 0.0, 0.0, 0.0, 0.0, 1.6689769105086467E9, 0.0, 2022-11-20 15:41:50.508
98.0, -20216.95169412514, 22459.77043625956, -33511.94811009742, -32276.20956614132, -25979.745504825773, -26288.087819586734, -22195.39400284219, -1182.6084473858414, -25040.279333624763, -2009.5335852543815, -26310.931302420056, -30555.99696111643, -26103.864741786092, -8063.995309352316, -20476.61190946244, -32720.33872846827, 0.036000000000000004, 0.9560000000000001, -0.128, 192.0, 0.0, 0.0, 0.0, 0.0, 0.0, 0.0, 0.0, 0.0, 0.0, 1.668976910508652E9, 0.0, 2022-11-20 15:41:50.508
100.0, -20230.318037309415, 22154.75853142244, -33525.470915492886, -32265.614839269503, -25986.67454560692, -26292.312299288787, -22203.530037823923, -1191.7279591236068, -25137.68823596099, -2102.896821844199, -26410.016585590434, -30648.82375583932, -26205.341661613187, -8158.856112820639, -20569.25989022969, -32802.74961027499, 0.036000000000000004, 0.9560000000000001, -0.128, 192.0, 0.0, 0.0, 0.0, 0.0, 0.0, 0.0, 0.0, 0.0, 0.0, 1.6689769105086577E9, 0.0, 2022-11-20 15:41:50.508
102.0, -20223.970141884107, 22422.018339874547, -33514.58561594315, -32258.976371166274, -25970.938917510382, -26283.751581162403, -22189.761363239453, -1176.7746420830063, -25060.395903634537, -2024.9786406729986, -26323.984721181958, -30561.29432455234, -26116.940512292447, -8068.197437309914, -20483.831522921508, -32714.080240020783, 0.036000000000000004, 0.9560000000000001, -0.128, 192.0, 0.0, 0.0, 0.0, 0.0, 0.0, 0.0, 0.0, 0.0, 0.0, 1.6689769105086641E9, 0.0, 2022-11-20 15:41:50.508
104.0, -20244.82431946091, 22171.902319419663, -33547.487383781365, -32273.14737715094, -26001.225531247324, -26311.177171609066, -22218.170430442147, -1208.7376366540952, -25145.109015120153, -2097.2641822414616, -26419.22550430602, -30644.59927613727, -26209.76730701534, -8158.006746531338, -20569.416352440876, -32800.58149106282, 0.036000000000000004, 0.9560000000000001, -0.128, 192.0, 0.0, 0.0, 0.0, 0.0, 0.0, 0.0, 0.0, 0.0, 0.0, 1.6689769109882689E9, 0.0, 2022-11-20 15:41:50.988
106.0, -20221.109118593828, 22395.62092967283, -33511.38931648604, -32251.10855711801, -25975.81159780164, -26285.562072463283, -22195.14813365318, -1185.3130084649335, -25074.566909619203, -2032.7123442545349, -26336.12171842119, -30569.72093221199, -26130.64213164355, -8078.211018825891, -20500.52827602962, -32739.04713857736, 0.036000000000000004, 0.9540000000000001, -0.13, 192.0, 0.5, 16.0, 14.5, 96.0, 125.5, 112.0, 0.0, 0.0, 0.0, 1.668976910988394E9, 0.0, 2022-11-20 15:41:50.988
108.0, -20249.428778818703, 22199.752593010973, -33533.67400570798, -32271.940382950354, -26002.991319059292, -26308.047927385323, -22217.723395553043, -1208.8270436319165, -25141.44332902948, -2092.5256124169364, -26413.70462342556, -30642.49821215847, -26213.790621017295, -8149.758952827329, -20559.514529647175, -32805.99061322101, 0.036000000000000004, 0.9540000000000001, -0.13, 192.0, 0.0, 0.0, 0.0, 0.0, 0.0, 0.0, 0.0, 0.0, 0.0, 1.6689769109884367E9, 0.0, 2022-11-20 15:41:50.988
110.0, -20197.52802819348, 22380.42174344322, -33475.87239454656, -32221.55955094809, -25950.017684700215, -26244.61367662116, -22163.00632512645, -1152.4782958600874, -25068.57664210518, -2025.1127511397306, -26326.711634005504, -30563.641257720144, -26123.31075946221, -8063.101239574104, -20481.082258353505, -32725.546684926354, 0.036000000000000004, 0.9540000000000001, -0.13, 192.0, 0.0, 0.0, 0.0, 0.0, 0.0, 0.0, 0.0, 0.0, 0.0, 1.6689769109884422E9, 0.0, 2022-11-20 15:41:50.988
112.0, -20248.62411601831, 22244.567840643864, -33534.83629641966, -32273.683819017868, -26008.020461561737, -26291.798209166314, -22219.891514765208, -1205.9883720860926, -25121.125593319608, -2059.1768096896185, -26391.26347199243, -30612.882150755187, -26188.488446293886, -8120.768740268796, -20533.810023523572, -32766.986819146496, 0.036000000000000004, 0.9540000000000001, -0.13, 192.0, 0.0, 0.0, 0.0, 0.0, 0.0, 0.0, 0.0, 0.0, 0.0, 1.6689769109884477E9, 0.0, 2022-11-20 15:41:50.988
114.0, -20187.536798421956, 22350.269240173013, -33477.19114746942, -32218.542065446625, -25952.543431823666, -26236.343531172697, -22165.66618271663, -1150.46663885911, -25067.012019993308, -2028.35375408575, -26327.53864855035, -30563.82007167579, -26126.864686830606, -8065.559931464188, -20490.42528753582, -32716.360117955224, 0.036000000000000004, 0.9540000000000001, -0.13, 192.0, 0.0, 0.0, 0.0, 0.0, 0.0, 0.0, 0.0, 0.0, 0.0, 1.6689769109884531E9, 0.0, 2022-11-20 15:41:50.988
116.0, -20258.05655217845, 22273.93803285814, -33552.40476756153, -32294.560348339124, -26023.554923958174, -26311.132468120155, -22234.755424827985, -1221.1428548267907, -25109.97207283641, -2059.7579550454566, -26383.820341088813, -30612.233950165984, -26190.120123639124, -8123.652115303531, -20539.643828826407, -32763.05291212236, 0.037000000000000005, 0.9540000000000001, -0.126, 192.0, 0.5, 24.0, 14.5, 104.0, 126.0, 24.0, 0.0, 0.0, 0.0, 1.6689769109884596E9, 0.0, 2022-11-20 15:41:50.988
118.0, -20177.545568650436, 22322.351911348334, -33474.68775209042, -32222.47597247076, -25942.842774730063, -26238.176374218034, -22158.021886112918, -1148.365574880311, -25080.333659688673, -2042.9494432150655, -26338.915686478103, -30579.533348027868, -26146.623628929097, -8085.676501473964, -20507.993758677694, -32741.90816186764, 0.037000000000000005, 0.9540000000000001, -0.126, 192.0, 0.0, 0.0, 0.0, 0.0, 0.0, 0.0, 0.0, 0.0, 0.0, 1.6689769109884653E9, 0.0, 2022-11-20 15:41:50.988
120.0, -20268.80774126145, 22316.69692000114, -33565.525241556796, -32312.642909603466, -26027.064147837656, -26324.275293859875, -22240.92450629765, -1230.2847183090114, -25108.63096816909, -2054.5276468429147, -26384.98263180049, -30610.44581060956, -26186.923824182013, -8122.17690016948, -20535.598163079998, -32776.95569717356, 0.037000000000000005, 0.9540000000000001, -0.126, 192.0, 0.0, 0.0, 0.0, 0.0, 0.0, 0.0, 0.0, 0.0, 0.0, 1.6689769109884708E9, 0.0, 2022-11-20 15:41:50.988
