%OpenBCI Raw EEG Data
%Number of channels = 16
%Sample Rate = 125 Hz
%Board = OpenBCI_GUI$BoardCytonSerialDaisy
Sample Index, EXG Channel 0, EXG Channel 1, EXG Channel 2, EXG Channel 3, EXG Channel 4, EXG Channel 5, EXG Channel 6, EXG Channel 7, EXG Channel 8, EXG Channel 9, EXG Channel 10, EXG Channel 11, EXG Channel 12, EXG Channel 13, EXG Channel 14, EXG Channel 15, Accel Channel 0, Accel Channel 1, Accel Channel 2, Other, Other, Other, Other, Other, Other, Other, Analog Channel 0, Analog Channel 1, Analog Channel 2, Timestamp, Other, Timestamp (Formatted)
0.0, -29552.627152517696, -32271.33688585006, -60975.491818844304, -59749.72215291526, -27150.775748583765, -44721.169140478276, -58569.10301078594, -38530.85351358098, 0.0, 0.0, 0.0, 0.0, 0.0, 0.0, 0.0, 0.0, 0.0, 0.0, 0.0, 192.0, 0.0, 0.0, 0.0, 0.0, 0.0, 0.0, 0.0, 0.0, 0.0, 1.6581653320509408E9, 0.0, 2022-07-18 13:28:52.050
30.0, -29513.355137509723, -32327.30565396615, -60908.10130931155, -59684.09743119448, -27100.529027048236, -44676.778575990036, -58530.00980973361, -38496.632992819905, -19706.03551936573, -64613.99818825701, -62850.043219333085, -74855.7686633788, -57607.50861257418, -56393.18303980625, -54402.961361761256, -53820.966639633974, 0.0, 0.0, 0.0, 192.0, 0.0, 0.0, 0.0, 0.0, 0.0, 0.0, 0.0, 0.0, 0.0, 1.6581653320509515E9, 0.0, 2022-07-18 13:28:52.050
32.0, -29547.486251292976, -32276.723656263788, -60975.40241186648, -59750.43740873783, -27159.448225432425, -44722.53259689004, -58591.90179013035, -38548.35492948949, -19673.625489905535, -64576.223740127534, -62817.83435557299, -74826.86785779809, -57587.92848443133, -56358.22491147815, -54374.798163747575, -53787.282560739826, 0.041, 0.47600000000000003, 0.07, 192.0, 1.0, 72.0, 14.5, 96.0, 2.0, 48.0, 0.0, 0.0, 0.0, 1.6581653320509603E9, 0.0, 2022-07-18 13:28:52.050
34.0, -29518.071355589793, -32326.59039814358, -60913.21985879182, -59695.29565516659, -27108.17332365195, -44694.436454109724, -58529.20514693322, -38511.49690288269, -19708.47185951136, -64618.78146157044, -62854.9829548577, -74865.40226523904, -57623.37835113744, -56403.151917833326, -54413.667847355355, -53832.38838105064, 0.041, 0.47600000000000003, 0.07, 192.0, 0.0, 0.0, 0.0, 0.0, 0.0, 0.0, 0.0, 0.0, 0.0, 1.6581653320509691E9, 0.0, 2022-07-18 13:28:52.050
36.0, -29534.18696334207, -32271.649810272436, -60959.51032155876, -59737.33928648702, -27145.478385147857, -44721.21384396718, -58574.69094689977, -38530.831161836526, -19664.260108978764, -64575.8437604718, -62806.904352534344, -74819.58118910565, -57575.99265289219, -56358.739001600625, -54359.397811817864, -53783.23689499342, 0.041, 0.47600000000000003, 0.07, 192.0, 0.0, 0.0, 0.0, 0.0, 0.0, 0.0, 0.0, 0.0, 0.0, 1.658165332050978E9, 0.0, 2022-07-18 13:28:52.050
38.0, -29509.622396185685, -32315.68274684939, -60913.398672747455, -59695.47446912223, -27109.000338196798, -44695.93402098823, -58531.0156382341, -38511.9886412607, -19708.09187985562, -64627.16336574118, -62853.84301589049, -74866.34103850616, -57625.79233953862, -56414.26073482761, -54419.613411380466, -53842.156093377605, 0.041, 0.47600000000000003, 0.07, 192.0, 0.0, 0.0, 0.0, 0.0, 0.0, 0.0, 0.0, 0.0, 0.0, 1.6581653320509868E9, 0.0, 2022-07-18 13:28:52.050
40.0, -29526.98970162746, -32271.0686649166, -60960.06911517014, -59733.49478644071, -27141.03038800125, -44708.27218392756, -58582.916388859325, -38523.61154837746, -19656.973440286332, -64557.738847463, -62795.46025937322, -74804.69492729842, -57563.16275157485, -56345.64087934982, -54365.075154909515, -53778.92300831354, 0.041, 0.47600000000000003, 0.07, 192.0, 0.0, 0.0, 0.0, 0.0, 0.0, 0.0, 0.0, 0.0, 0.0, 1.658165332050995E9, 0.0, 2022-07-18 13:28:52.050
42.0, -29513.01986134289, -32311.570025869612, -60926.474443253814, -59705.21982970474, -27120.444431357915, -44697.61040182238, -58557.07777226899, -38520.1917314758, -19709.09770835611, -64620.837822060326, -62856.14524556938, -74866.81042513972, -57632.72138031977, -56404.22480156718, -54440.89227210192, -53852.0579161713, 0.0635, 0.7140000000000001, 0.10300000000000001, 192.0, 1.0, 88.0, 14.5, 96.0, 2.0, 32.0, 0.0, 0.0, 0.0, 1.6581653320510037E9, 0.0, 2022-07-18 13:28:52.051
44.0, -29527.637902216662, -32281.998667955242, -60947.35097257507, -59724.68819912532, -27135.308341420692, -44703.243041425114, -58571.807571865036, -38549.53957194562, -19655.341762941094, -64549.71457120354, -62789.82761977048, -74798.34703187311, -57560.569949218036, -56333.928565255235, -54369.59020728948, -53777.58190364622, 0.0635, 0.7140000000000001, 0.10300000000000001, 192.0, 0.0, 0.0, 0.0, 0.0, 0.0, 0.0, 0.0, 0.0, 0.0, 1.6581653320510123E9, 0.0, 2022-07-18 13:28:52.051
46.0, -29534.41048078662, -32316.845037561066, -60927.56967873212, -59708.37142567294, -27127.731100050343, -44707.311058915984, -58545.38780991886, -38552.66881616936, -19727.336731831638, -64628.3033047084, -62867.3881730304, -74872.01838159781, -57635.87297628796, -56411.77969119307, -54438.56769067857, -53859.836323241754, 0.0635, 0.7140000000000001, 0.10300000000000001, 192.0, 0.0, 0.0, 0.0, 0.0, 0.0, 0.0, 0.0, 0.0, 0.0, 1.658165332051021E9, 0.0, 2022-07-18 13:28:52.051
48.0, -29516.149105566634, -32296.59435708456, -60921.35589377355, -59697.21790518975, -27117.56105632318, -44687.41800635076, -58560.45288568174, -38509.082914481514, -19674.586614917116, -64552.754408449466, -62792.979215738684, -74794.88251148254, -57555.27258578213, -56333.05684722148, -54357.98965191718, -53768.887075053106, 0.0635, 0.7140000000000001, 0.10300000000000001, 192.0, 0.0, 0.0, 0.0, 0.0, 0.0, 0.0, 0.0, 0.0, 0.0, 1.6581653320510297E9, 0.0, 2022-07-18 13:28:52.051
50.0, -29509.108306063215, -32301.44468563136, -60913.93511461438, -59685.97497772873, -27112.531913820734, -44685.11577667186, -58541.27508893909, -38520.72817334273, -19717.278446826753, -64607.80675504288, -62846.64575417588, -74849.53252667577, -57616.8516417565, -56391.14903106082, -54408.52694613063, -53819.49142449992, 0.0635, 0.7140000000000001, 0.10300000000000001, 192.0, 0.0, 0.0, 0.0, 0.0, 0.0, 0.0, 0.0, 0.0, 0.0, 1.658165332051042E9, 0.0, 2022-07-18 13:28:52.051
52.0, -29495.920776834584, -32296.683764062378, -60899.31707374062, -59670.26170137664, -27086.98386990832, -44668.933113686224, -58519.012751461596, -38491.49209159519, -19660.259146721262, -64525.619390680724, -62774.78489575206, -74774.29655483921, -57543.582623432, -56319.57874531493, -54334.00623011664, -53740.723877039425, 0.07375000000000001, 0.8320000000000001, 0.12050000000000001, 192.0, 1.0, 80.0, 14.5, 88.0, 2.0, 40.0, 0.0, 0.0, 0.0, 1.6581653320510504E9, 0.0, 2022-07-18 13:28:52.051
54.0, -29499.474704202978, -32286.71488603531, -60914.67272218141, -59689.506553352665, -27108.776820752242, -44699.64441056781, -58531.8650045234, -38539.72715612974, -19707.577789733146, -64593.83691475832, -62834.41934995882, -74834.13217474606, -57609.140289919414, -56382.63301642335, -54394.62416107943, -53812.025941851854, 0.07375000000000001, 0.8320000000000001, 0.12050000000000001, 192.0, 0.0, 0.0, 0.0, 0.0, 0.0, 0.0, 0.0, 0.0, 0.0, 1.658165332051096E9, 0.0, 2022-07-18 13:28:52.051
56.0, -29476.564166136286, -32290.671144803902, -60885.235474733774, -59657.700020992765, -27083.228776839827, -44661.93701767171, -58511.323751368975, -38483.981905458204, -19652.257222206263, -64512.23069575199, -62767.45352357072, -74758.80679593168, -57540.76630363063, -56311.8897452223, -54332.486311493674, -53740.098028194676, 0.07375000000000001, 0.8320000000000001, 0.12050000000000001, 192.0, 0.0, 0.0, 0.0, 0.0, 0.0, 0.0, 0.0, 0.0, 0.0, 1.6581653320511065E9, 0.0, 2022-07-18 13:28:52.051
58.0, -29515.299739277332, -32295.96850823981, -60938.29851607067, -59714.20523097578, -27141.142146723527, -44712.89899502981, -58579.205999279744, -38558.301455772096, -19691.551588958693, -64579.21887388455, -62827.06562603303, -74819.84941003913, -57603.17237414985, -56373.04411805202, -54399.049806481584, -53806.50506097139, 0.07375000000000001, 0.8320000000000001, 0.12050000000000001, 192.0, 0.0, 0.0, 0.0, 0.0, 0.0, 0.0, 0.0, 0.0, 0.0, 1.6581653320511143E9, 0.0, 2022-07-18 13:28:52.051
60.0, -29484.49903541792, -32316.576816627603, -60882.508561910225, -59660.13636113839, -27094.002317667284, -44660.17122985974, -58532.46850162369, -38512.234510449714, -19676.374754473538, -64529.41918723813, -62790.744041293154, -74782.03025842074, -57568.50481849966, -56333.05684722148, -54366.30450085455, -53772.35159544368, 0.07375000000000001, 0.8320000000000001, 0.12050000000000001, 192.0, 0.0, 0.0, 0.0, 0.0, 0.0, 0.0, 0.0, 0.0, 0.0, 1.6581653320511272E9, 0.0, 2022-07-18 13:28:52.051
62.0, -29513.310434020812, -32289.91118549242, -60932.86704216803, -59717.78151008863, -27137.878792033054, -44714.32950667495, -58560.743458359655, -38565.38695876443, -19694.546722715702, -64577.274272116934, -62820.69537886327, -74817.99421524933, -57606.88276372943, -56373.44644945222, -54389.97499823273, -53808.13673831663, 0.07375000000000001, 0.8320000000000001, 0.12050000000000001, 192.0, 0.0, 0.0, 0.0, 0.0, 0.0, 0.0, 0.0, 0.0, 0.0, 1.6581653320511348E9, 0.0, 2022-07-18 13:28:52.051
64.0, -29478.17349173707, -32314.520456137714, -60859.91094826591, -59648.87108193291, -27078.6913727154, -44662.11583162735, -58501.24311461963, -38514.67085059534, -19670.07156253714, -64524.658265669146, -62777.35534636443, -74775.59295601762, -57558.29007128359, -56332.810978032474, -54347.9760704012, -53768.060060508265, 0.08, 0.9560000000000001, 0.146, 192.0, 1.0, 64.0, 14.5, 112.0, 2.0, 72.0, 0.0, 0.0, 0.0, 1.6581653320511425E9, 0.0, 2022-07-18 13:28:52.051
66.0, -29526.341501038256, -32285.19496741235, -60935.43749278039, -59717.58034438853, -27148.831146816156, -44722.39848642331, -58582.53640920358, -38574.08178735754, -19683.862588866068, -64568.73590573501, -62809.16187872433, -74809.52290410077, -57589.090775143006, -56362.650556880304, -54380.743727772686, -53801.185345791026, 0.08, 0.9560000000000001, 0.146, 192.0, 0.0, 0.0, 0.0, 0.0, 0.0, 0.0, 0.0, 0.0, 0.0, 1.6581653320511508E9, 0.0, 2022-07-18 13:28:52.051
68.0, -29499.675869903072, -32340.806107617154, -60876.13831474046, -59661.36570708343, -27086.98386990832, -44679.23726788012, -58516.285838638054, -38528.57363564654, -19684.04140282171, -64551.4356555266, -62798.589503596966, -74796.06715393867, -57575.3891557919, -56348.79247531801, -54362.057669408045, -53780.06294728076, 0.08, 0.9560000000000001, 0.146, 192.0, 0.0, 0.0, 0.0, 0.0, 0.0, 0.0, 0.0, 0.0, 0.0, 1.658165332051159E9, 0.0, 2022-07-18 13:28:52.051
70.0, -29512.59517819824, -32270.643981771947, -60928.7319694438, -59709.26549545115, -27132.916704763975, -44707.84750078291, -58566.130228773385, -38544.82335386555, -19685.404859233484, -64562.07508588733, -62807.396090912356, -74803.89026449803, -57582.653472739876, -56357.95669054469, -54371.355995101454, -53791.12706078614, 0.08, 0.9560000000000001, 0.146, 192.0, 0.0, 0.0, 0.0, 0.0, 0.0, 0.0, 0.0, 0.0, 0.0, 1.6581653320511668E9, 0.0, 2022-07-18 13:28:52.051
72.0, -29486.376581952165, -32328.5797034001, -60865.163608212904, -59647.485273776685, -27069.862433655555, -44656.17026760224, -58491.83303020395, -38489.860414249946, -19687.729440656836, -64543.76900717843, -62803.08220423248, -74796.98357546135, -57573.01987087964, -56350.96059453018, -54373.09943116897, -53784.66740663855, 0.08, 0.9560000000000001, 0.146, 192.0, 0.0, 0.0, 0.0, 0.0, 0.0, 0.0, 0.0, 0.0, 0.0, 1.6581653320511749E9, 0.0, 2022-07-18 13:28:52.051
74.0, -29511.924625864584, -32270.688685260855, -60935.79512069168, -59706.225658205236, -27127.731100050343, -44693.832957009436, -58564.78912410607, -38545.18098177684, -19666.048248535186, -64530.82734713881, -62783.63618655637, -74778.67749675244, -57561.039335851594, -56320.40575985978, -54348.46780877922, -53763.61206336166, 0.078, 0.9500000000000001, 0.14, 192.0, 1.0, 56.0, 14.5, 88.0, 2.0, 48.0, 0.0, 0.0, 0.0, 1.6581653320511827E9, 0.0, 2022-07-18 13:28:52.051
76.0, -29498.379468724666, -32344.69531115238, -60891.98570155927, -59666.52896005261, -27095.119904890053, -44674.63280852232, -58516.59876306043, -38538.81073460707, -19702.258074552785, -64562.00803065396, -62820.047178274064, -74814.82026753668, -57596.75742349117, -56350.647670107806, -54397.12755645842, -53804.6498661816, 0.078, 0.9500000000000001, 0.14, 192.0, 0.0, 0.0, 0.0, 0.0, 0.0, 0.0, 0.0, 0.0, 0.0, 1.6581653320511897E9, 0.0, 2022-07-18 13:28:52.051
78.0, -29521.625282958186, -32282.37864761098, -60955.889338957, -59730.454949194784, -27149.70286484991, -44717.21288170968, -58594.29342678707, -38579.1556333489, -19683.773181888246, -64559.54933876388, -62803.752756566144, -74805.09725869862, -57581.468830283746, -56340.0976467249, -54382.37540511792, -53791.37292997515, 0.078, 0.9500000000000001, 0.14, 192.0, 0.0, 0.0, 0.0, 0.0, 0.0, 0.0, 0.0, 0.0, 0.0, 1.6581653320511973E9, 0.0, 2022-07-18 13:28:52.051
80.0, -29494.713782633997, -32339.844982605577, -60894.35498647154, -59679.11299218095, -27102.004242182287, -44686.14395691681, -58535.95537375872, -38528.08189726852, -19704.38149027604, -64581.78932449691, -62828.00439930015, -74829.63947411055, -57601.22777238223, -56370.45131569521, -54415.835966567516, -53821.681895456546, 0.078, 0.9500000000000001, 0.14, 192.0, 0.0, 0.0, 0.0, 0.0, 0.0, 0.0, 0.0, 0.0, 0.0, 1.6581653320512044E9, 0.0, 2022-07-18 13:28:52.051
82.0, -29496.65838440161, -32266.464205558805, -60929.29076305518, -59710.338379185014, -27119.148030179505, -44695.50933784358, -58559.2235397367, -38545.11392654347, -19659.253318220774, -64536.41528325264, -62783.92675923429, -74789.42868583545, -57557.39600150538, -56335.00144898909, -54365.343375842975, -53779.25828448037, 0.078, 0.9500000000000001, 0.14, 192.0, 0.0, 0.0, 0.0, 0.0, 0.0, 0.0, 0.0, 0.0, 0.0, 1.6581653320512116E9, 0.0, 2022-07-18 13:28:52.051
84.0, -29477.30177370331, -32327.886799321986, -60874.77485832869, -59666.39484958588, -27072.857567412564, -44674.543401544506, -58495.521068039074, -38535.77089736115, -19684.823713877646, -64568.24416735699, -62808.06664324601, -74817.79304954923, -57587.70496698678, -56361.77883884655, -54391.76313778915, -53812.98706686343, 0.078, 0.9540000000000001, 0.14200000000000002, 192.0, 1.0, 56.0, 14.5, 104.0, 2.0, 56.0, 0.0, 0.0, 0.0, 1.6581653320512192E9, 0.0, 2022-07-18 13:28:52.051
86.0, -29518.585445712262, -32301.958775753832, -60942.29947832817, -59727.817443349064, -27131.79911754121, -44711.51318687358, -58568.45481019674, -38559.19552555031, -19661.64495487749, -64544.59602172328, -62784.4184976123, -74797.58707256164, -57560.32408002902, -56335.38142864483, -54359.64368100688, -53785.27090373885, 0.078, 0.9540000000000001, 0.14200000000000002, 192.0, 0.0, 0.0, 0.0, 0.0, 0.0, 0.0, 0.0, 0.0, 0.0, 1.6581653320512266E9, 0.0, 2022-07-18 13:28:52.051
88.0, -29490.757523865406, -32337.788622115688, -60888.23060849078, -59671.55810255506, -27098.27150085825, -44680.265448125065, -58530.70271381173, -38517.15189422988, -19700.492286740817, -64591.42292635715, -62833.83820460299, -74842.58113415017, -57604.49112707271, -56380.93428384475, -54414.696027600294, -53827.403942037105, 0.078, 0.9540000000000001, 0.14200000000000002, 192.0, 0.0, 0.0, 0.0, 0.0, 0.0, 0.0, 0.0, 0.0, 0.0, 1.6581653320512338E9, 0.0, 2022-07-18 13:28:52.051
90.0, -29501.17343678158, -32288.570080825102, -60906.201411032845, -59681.90696023786, -27106.787515495722, -44673.35875908837, -58539.352838915926, -38533.51337117116, -19654.0900652516, -64527.87691687071, -62772.4156108398, -74777.62696476304, -57548.34354500098, -56315.98011445763, -54340.08590460848, -53754.58195860171, 0.078, 0.9540000000000001, 0.14200000000000002, 192.0, 0.0, 0.0, 0.0, 0.0, 0.0, 0.0, 0.0, 0.0, 0.0, 1.658165332051241E9, 0.0, 2022-07-18 13:28:52.051
92.0, -29502.35807923771, -32333.407680202446, -60889.772878858195, -59665.6348902744, -27098.673832258446, -44677.806756234975, -58515.83880374895, -38543.750470131694, -19691.88686512552, -64577.430734328125, -62818.88488756239, -74818.32949141617, -57599.17141189235, -56364.86337958138, -54381.81661150654, -53799.75483414589, 0.078, 0.9540000000000001, 0.14200000000000002, 192.0, 0.0, 0.0, 0.0, 0.0, 0.0, 0.0, 0.0, 0.0, 0.0, 1.6581653320512514E9, 0.0, 2022-07-18 13:28:52.051
94.0, -29511.946977609037, -32319.236674217784, -60914.06922508112, -59687.71841379624, -27116.97991096734, -44689.42966335174, -58543.4655598957, -38551.61828417996, -19669.42336194794, -64531.430844239105, -62778.20471265373, -74776.19645311791, -57554.17735030381, -56328.139463441315, -54342.2763755651, -53758.337051670205, 0.078, 0.96, 0.146, 192.0, 1.0, 56.0, 15.0, 0.0, 2.0, 72.0, 0.0, 0.0, 0.0, 1.6581653320512593E9, 0.0, 2022-07-18 13:28:52.051
96.0, -29503.632128671663, -32343.331854740605, -60905.217934276814, -59683.15865792736, -27114.61062605508, -44690.90487848579, -58543.53261512907, -38553.94286560331, -19716.31732181517, -64602.12941195124, -62842.689495407285, -74843.49755567283, -57616.31519988957, -56391.28314152756, -54406.82821355203, -53818.239726810425, 0.078, 0.96, 0.146, 192.0, 0.0, 0.0, 0.0, 0.0, 0.0, 0.0, 0.0, 0.0, 0.0, 1.6581653320512664E9, 0.0, 2022-07-18 13:28:52.051
98.0, -29493.50678843341, -32321.00246202975, -60899.65234990745, -59673.32389036702, -27089.107285631573, -44663.92632292823, -58524.84655676444, -38539.81656310756, -19656.816978075145, -64523.29480925737, -62772.795590495545, -74769.15565361448, -57540.207510019245, -56312.51559406705, -54337.806026674036, -53742.959051484955, 0.078, 0.96, 0.146, 192.0, 0.0, 0.0, 0.0, 0.0, 0.0, 0.0, 0.0, 0.0, 0.0, 1.6581653320512738E9, 0.0, 2022-07-18 13:28:52.051
100.0, -29501.2628437594, -32324.221113231317, -60907.184887788884, -59683.11395443845, -27104.731155005833, -44677.15855564577, -58544.58314711847, -38528.08189726852, -19700.201714062896, -64588.71836527805, -62835.1793092703, -74828.32072118769, -57601.56304854907, -56370.80894360649, -54401.642608838396, -53802.77231964735, 0.078, 0.96, 0.146, 192.0, 0.0, 0.0, 0.0, 0.0, 0.0, 0.0, 0.0, 0.0, 0.0, 1.6581653320512807E9, 0.0, 2022-07-18 13:28:52.051
102.0, -29491.472779687978, -32337.341587226583, -60896.500753939246, -59675.5367130681, -27092.258881599773, -44663.70280548368, -58528.62400157738, -38512.27921393862, -19652.011353017253, -64514.778794619895, -62773.0191079401, -74762.80775818918, -57535.35718147245, -56311.71093126666, -54342.924576154306, -53738.71222003845, 0.078, 0.96, 0.146, 192.0, 0.0, 0.0, 0.0, 0.0, 0.0, 0.0, 0.0, 0.0, 0.0, 1.6581653320512884E9, 0.0, 2022-07-18 13:28:52.051
104.0, -29514.204503799025, -32329.853752834053, -60924.39573101947, -59704.07989073752, -27123.46191685938, -44695.41993086576, -58549.25466170963, -38551.88650511343, -19707.935417644432, -64593.79221126941, -62839.71671339473, -74834.02041602379, -57608.76031026367, -56383.4600309682, -54403.43074839482, -53812.33886627422, 0.08, 0.9560000000000001, 0.14400000000000002, 192.0, 1.0, 64.0, 14.5, 112.0, 2.0, 64.0, 0.0, 0.0, 0.0, 1.658165332051296E9, 0.0, 2022-07-18 13:28:52.051
106.0, -29487.293003474835, -32340.49318319478, -60881.05569852063, -59662.99738442867, -27084.16755010695, -44657.35491005837, -58505.19937338822, -38526.65138562339, -19668.953975314376, -64521.90900110114, -62783.01033771162, -74774.60947926158, -57546.801274633566, -56317.70119878068, -54346.88083492289, -53755.185455702005, 0.08, 0.9560000000000001, 0.14400000000000002, 192.0, 0.0, 0.0, 0.0, 0.0, 0.0, 0.0, 0.0, 0.0, 0.0, 1.6581653320513034E9, 0.0, 2022-07-18 13:28:52.051
108.0, -29505.733192650463, -32318.432011417393, -60919.65716119495, -59699.29661742409, -27121.60672206959, -44694.168233176264, -58543.6667255958, -38559.1508220614, -19691.618644192058, -64577.5424930504, -62819.1754602403, -74817.56953210468, -57594.321083345545, -56358.6495946228, -54389.2373906657, -53797.36319748917, 0.08, 0.9560000000000001, 0.14400000000000002, 192.0, 0.0, 0.0, 0.0, 0.0, 0.0, 0.0, 0.0, 0.0, 0.0, 1.6581653320513108E9, 0.0, 2022-07-18 13:28:52.051
110.0, -29477.92762254806, -32350.372654244027, -60868.605776859025, -59649.742799966676, -27073.192843579396, -44653.80098268998, -58494.00114941611, -38517.80009481908, -19661.488492666304, -64529.7321116605, -62778.13765742036, -74773.60365076108, -57550.46696072423, -56317.52238482504, -54345.629137233394, -53752.6373568341, 0.08, 0.9560000000000001, 0.14400000000000002, 192.0, 0.0, 0.0, 0.0, 0.0, 0.0, 0.0, 0.0, 0.0, 0.0, 1.658165332051319E9, 0.0, 2022-07-18 13:28:52.051
112.0, -29498.670041402584, -32307.166732211917, -60914.2256872923, -59687.29373065159, -27118.633940057032, -44686.30041912799, -58543.264394195605, -38549.2489992677, -19680.487475453316, -64564.46672254404, -62808.6254368574, -74803.15265693101, -57583.704004729276, -56353.66515560927, -54378.642663793886, -53788.93658982952, 0.08, 0.9560000000000001, 0.14400000000000002, 192.0, 0.0, 0.0, 0.0, 0.0, 0.0, 0.0, 0.0, 0.0, 0.0, 1.6581653320513265E9, 0.0, 2022-07-18 13:28:52.051
114.0, -29475.088951002235, -32347.98101758731, -60846.499901592724, -59621.065511830515, -27056.02670383772, -44637.90889238226, -58485.86511443438, -38528.77480134664, -19663.12017001154, -64511.71660562952, -62773.95788120722, -74761.31019131067, -57546.75657114465, -56311.39800684428, -54340.242366819664, -53741.19326367298, 0.08, 0.9540000000000001, 0.148, 192.0, 1.0, 64.0, 14.5, 104.0, 2.0, 80.0, 0.0, 0.0, 0.0, 1.6581653320513628E9, 0.0, 2022-07-18 13:28:52.051
116.0, -29495.138465778648, -32296.504950106737, -60904.10034705405, -59681.21405615975, -27110.6990707754, -44686.16630866126, -58550.908690799326, -38562.88356338544, -19672.038516049208, -64542.5843647223, -62794.81205878402, -74790.34510735811, -57572.72929820172, -56331.73809429861, -54359.04018390658, -53769.0435372643, 0.08, 0.9540000000000001, 0.148, 192.0, 0.0, 0.0, 0.0, 0.0, 0.0, 0.0, 0.0, 0.0, 0.0, 1.6581653320513713E9, 0.0, 2022-07-18 13:28:52.051
118.0, -29471.78089282285, -32359.559221215157, -60847.03634345965, -59634.14128233687, -27059.64768643948, -44647.69895645368, -58506.071091421974, -38518.58240587502, -19664.528329912227, -64522.132518545695, -62780.66340454381, -74776.12939788454, -57554.7361439152, -56321.23277440462, -54353.876930937404, -53752.70441206747, 0.08, 0.9540000000000001, 0.148, 192.0, 0.0, 0.0, 0.0, 0.0, 0.0, 0.0, 0.0, 0.0, 0.0, 1.6581653320513785E9, 0.0, 2022-07-18 13:28:52.051
120.0, -29484.521387162375, -32292.213415171318, -60896.88073359499, -59682.801030016075, -27096.349250835094, -44681.36068360337, -58544.337277929466, -38540.04008055211, -19663.74601885629, -64539.253954798456, -62784.35144237894, -74783.63958402153, -57557.32894627201, -56330.084065208925, -54346.50085526716, -53755.185455702005, 0.08, 0.9540000000000001, 0.148, 192.0, 0.0, 0.0, 0.0, 0.0, 0.0, 0.0, 0.0, 0.0, 0.0, 1.658165332051386E9, 0.0, 2022-07-18 13:28:52.051
122.0, -29461.27557292886, -32359.514517726246, -60837.93918346634, -59628.62040145641, -27048.49416595628, -44641.373412772824, -58476.030346874046, -38501.0362864776, -19661.84612057759, -64521.774890634406, -62776.70714577522, -74768.68626698092, -57539.26873675213, -56322.10449243838, -54336.01788711762, -53738.39929561607, 0.08, 0.9540000000000001, 0.148, 192.0, 0.0, 0.0, 0.0, 0.0, 0.0, 0.0, 0.0, 0.0, 0.0, 1.6581653320513928E9, 0.0, 2022-07-18 13:28:52.051
124.0, -29509.17536129658, -32311.815895058622, -60920.48417573979, -59705.443347149296, -27117.248131900804, -44693.56473607597, -58552.361554188916, -38580.58614499404, -19669.26689973675, -64539.119844331726, -62789.93937849276, -74783.59488053262, -57556.12195207143, -56336.00727748958, -54341.56111974253, -53752.659708578554, 0.076, 0.9540000000000001, 0.146, 192.0, 1.0, 48.0, 14.5, 104.0, 2.0, 72.0, 0.0, 0.0, 0.0, 1.6581653320514052E9, 0.0, 2022-07-18 13:28:52.051
126.0, -29465.50005263091, -32354.954761857363, -60842.38718061295, -59632.08492184698, -27052.69629391388, -44642.7368691846, -58469.68245144874, -38537.469629939755, -19680.465123708862, -64548.37346653622, -62804.26684668862, -74794.5025318268, -57570.15884758936, -56345.953803772194, -54364.24814036467, -53773.73740359991, 0.076, 0.9540000000000001, 0.146, 192.0, 0.0, 0.0, 0.0, 0.0, 0.0, 0.0, 0.0, 0.0, 0.0, 1.6581653320514128E9, 0.0, 2022-07-18 13:28:52.051
128.0, -29493.707954133508, -32289.888833747966, -60902.60278017555, -59680.767021270636, -27104.977024194843, -44672.75526198808, -58518.47630959467, -38531.07703102553, -19657.37577168653, -64522.84777436827, -62776.4165730973, -74764.08180762314, -57545.63898392189, -56315.2425068906, -54328.41829400281, -53737.706391537955, 0.076, 0.9540000000000001, 0.146, 192.0, 0.0, 0.0, 0.0, 0.0, 0.0, 0.0, 0.0, 0.0, 0.0, 1.65816533205142E9, 0.0, 2022-07-18 13:28:52.051
130.0, -29458.615715338674, -32342.191915773383, -60839.12382592247, -59619.70205541874, -27054.573840448124, -44634.84670339188, -58471.8505706609, -38505.32782141302, -19679.302832997186, -64535.38710300769, -62792.28631166057, -74776.41997056246, -57566.91784464334, -56328.139463441315, -54351.26177683613, -53755.09604872418, 0.076, 0.9540000000000001, 0.146, 192.0, 0.0, 0.0, 0.0, 0.0, 0.0, 0.0, 0.0, 0.0, 0.0, 1.65816533205153E9, 0.0, 2022-07-18 13:28:52.051
132.0, -29484.811959840295, -32290.514682592715, -60904.36856798751, -59676.229617146215, -27107.279253873738, -44669.67072125325, -58535.44128363625, -38552.1994295358, -19652.36898092854, -64496.271550210906, -62759.362192077904, -74744.32286552463, -57541.21333851974, -56297.62933225982, -54328.46299749172, -53726.75403675486, 0.076, 0.9540000000000001, 0.146, 192.0, 0.0, 0.0, 0.0, 0.0, 0.0, 0.0, 0.0, 0.0, 0.0, 1.6581653320515373E9, 0.0, 2022-07-18 13:28:52.051
134.0, -29476.25124171391, -32348.562162943148, -60856.06644821959, -59632.576660225, -27067.24727955428, -44648.235398320605, -58485.172210356264, -38510.22285344874, -19698.145353573007, -64537.82344315332, -62809.497154891156, -74788.78048524624, -57592.644702511396, -56337.68365832373, -54376.02750969261, -53771.01049077636, 0.078, 0.9520000000000001, 0.147, 192.0, 1.0, 64.0, 14.5, 88.0, 2.0, 80.0, 0.0, 0.0, 0.0, 1.6581653320515451E9, 0.0, 2022-07-18 13:28:52.051
136.0, -29488.857625586705, -32300.148284452953, -60891.76218411472, -59664.98668968519, -27086.112151874564, -44654.516238512544, -58526.32177189848, -38527.83602807952, -19650.17850997192, -64484.29101518286, -62758.9151571888, -74738.64552243298, -57540.699248397264, -56280.46319251814, -54319.41054098732, -53716.13695813858, 0.078, 0.9520000000000001, 0.147, 192.0, 0.0, 0.0, 0.0, 0.0, 0.0, 0.0, 0.0, 0.0, 0.0, 1.6581653320516636E9, 0.0, 2022-07-18 13:28:52.051
138.0, -29483.560262150797, -32359.089834581595, -60870.215102459806, -59649.11695112193, -27081.127712861027, -44658.67366298124, -58492.81650695998, -38533.37926070443, -19700.93932162992, -64555.883652673205, -62822.79644284207, -74805.29842439872, -57596.846830468996, -56343.986850260124, -54383.80591676306, -53782.946322315496, 0.078, 0.9520000000000001, 0.147, 192.0, 0.0, 0.0, 0.0, 0.0, 0.0, 0.0, 0.0, 0.0, 0.0, 1.6581653320516717E9, 0.0, 2022-07-18 13:28:52.051
140.0, -29496.88190184616, -32324.35522369805, -60899.29472199616, -59681.50462883766, -27101.065468915163, -44668.374320074836, -58522.074940451974, -38549.31605450107, -19649.37384717153, -64497.791468833864, -62763.98900318015, -74750.11196733857, -57527.91405056883, -56291.013215901046, -54324.97612535669, -53726.374057099114, 0.078, 0.9520000000000001, 0.147, 192.0, 0.0, 0.0, 0.0, 0.0, 0.0, 0.0, 0.0, 0.0, 0.0, 1.6581653320516791E9, 0.0, 2022-07-18 13:28:52.051
142.0, -29503.632128671663, -32370.846852165087, -60894.75731787173, -59683.89626549438, -27110.60966379758, -44697.16336693327, -58523.48310035266, -38587.22461309726, -19709.008301378286, -64574.50265580448, -62832.58650691349, -74824.58797986365, -57602.68063577183, -56371.83712385144, -54398.848640781485, -53807.93557261653, 0.078, 0.9520000000000001, 0.147, 192.0, 0.0, 0.0, 0.0, 0.0, 0.0, 0.0, 0.0, 0.0, 0.0, 1.6581653320516863E9, 0.0, 2022-07-18 13:28:52.051
144.0, -29506.82842812877, -32342.750709384767, -60897.41717546192, -59682.26458814915, -27112.956596965385, -44687.57446856195, -58545.365458174405, -38575.847575169515, -19680.308661497675, -64526.893440114676, -62783.837352256465, -74774.98945891732, -57563.81095216405, -56323.55735582797, -54353.742820470674, -53762.85210405017, 0.079, 0.9510000000000001, 0.14250000000000002, 192.0, 1.0, 64.0, 14.5, 88.0, 2.0, 40.0, 0.0, 0.0, 0.0, 1.658165332051694E9, 0.0, 2022-07-18 13:28:52.051
146.0, -29489.93050932056, -32339.97909307231, -60876.786515329666, -59662.036259417095, -27094.27053860075, -44682.478270826134, -58516.73287352716, -38569.0526448551, -19715.08797587013, -64575.26261511596, -62827.5797161555, -74817.36836640458, -57616.18108942284, -56366.94209181573, -54396.613466335955, -53806.52741271585, 0.079, 0.9510000000000001, 0.14250000000000002, 192.0, 0.0, 0.0, 0.0, 0.0, 0.0, 0.0, 0.0, 0.0, 0.0, 1.658165332051702E9, 0.0, 2022-07-18 13:28:52.051
148.0, -29485.773084851873, -32334.458212191847, -60877.255901963224, -59656.53773028109, -27092.41534381096, -44664.954503173176, -58506.89810596682, -38533.401612448884, -19650.536137883206, -64485.29684368335, -62751.382619307355, -74736.03036833172, -57534.15018727186, -56286.83343968791, -54316.92949735278, -53725.01060068734, 0.079, 0.9510000000000001, 0.14250000000000002, 192.0, 0.0, 0.0, 0.0, 0.0, 0.0, 0.0, 0.0, 0.0, 0.0, 1.658165332051708E9, 0.0, 2022-07-18 13:28:52.051
150.0, -29497.239529757444, -32334.748784869767, -60891.09163178106, -59669.41233508734, -27109.067393430163, -44681.114814414366, -58532.17792894578, -38563.5541157191, -19708.27069381126, -64564.86905394424, -62824.2269544872, -74809.81347677868, -57606.50278407369, -56361.1529900018, -54391.09258545549, -53796.53618294432, 0.079, 0.9510000000000001, 0.14250000000000002, 192.0, 0.0, 0.0, 0.0, 0.0, 0.0, 0.0, 0.0, 0.0, 0.0, 1.6581653320517137E9, 0.0, 2022-07-18 13:28:52.051
0.0, -14601.455879384981, -15557.596451949652, -30259.143443005498, -29744.51687866651, -13688.498877107964, -22166.403790283657, -29064.643867569433, -19287.409697462284, -9839.148502248348, -32252.181440851862, -31386.87835775356, -37377.391740964864, -28776.105198395875, -28153.497356593296, -27168.075998792174, -26869.7919690361, 0.092, 0.966, 0.106, 192.0, 1.0, 112.0, 15.0, 24.0, 1.5, 40.0, 0.0, 0.0, 0.0, 1.6581653326289446E9, 0.0, 2022-07-18 13:28:52.628
2.0, -29186.21500566185, -31178.001305818714, -60472.30934766643, -59444.35262016686, -27343.425434044057, -44289.1546236461, -58099.85048769123, -38500.65630682186, -18999.541580622386, -64007.7071199068, -62435.84304283179, -74164.04922772042, -57230.010000468494, -55509.9538576548, -53654.69201263094, -53471.363004608516, 0.092, 0.966, 0.106, 192.0, 0.0, 0.0, 0.0, 0.0, 0.0, 0.0, 0.0, 0.0, 0.0, 1.658165332629017E9, 0.0, 2022-07-18 13:28:52.629
4.0, -29209.751392573286, -31100.150179880882, -60539.74456068809, -59496.74510917009, -27397.069620736795, -44311.66283031259, -58152.28768018338, -38497.86233876495, -18994.825362542317, -64016.334893266554, -62436.29007772089, -74162.59636433082, -57240.716486062585, -55505.05882561908, -53668.30422500423, -53458.555455035625, 0.092, 0.966, 0.106, 192.0, 0.0, 0.0, 0.0, 0.0, 0.0, 0.0, 0.0, 0.0, 0.0, 1.658165332629079E9, 0.0, 2022-07-18 13:28:52.629
6.0, -29166.992505430284, -31141.523258867655, -60474.946853512156, -59438.6305735863, -27346.152346867606, -44263.22660007794, -58077.23052230245, -38462.94891392576, -19003.27432194642, -64005.4048902279, -62438.413493444146, -74157.27664915046, -57256.00507927002, -55504.99177038572, -53676.19439079695, -53457.52727479068, 0.092, 0.966, 0.106, 192.0, 0.0, 0.0, 0.0, 0.0, 0.0, 0.0, 0.0, 0.0, 0.0, 1.6581653326290853E9, 0.0, 2022-07-18 13:28:52.629
8.0, -29192.987584231807, -31068.969496365728, -60547.09828461389, -59508.1444988423, -27413.162876744616, -44309.22649016696, -58148.06320048132, -38482.57374555752, -18987.605749083254, -63996.1065645345, -62422.36494092524, -74146.12312866726, -57244.1139512198, -55496.52045923716, -53665.19733252494, -53451.849931699035, 0.08600000000000001, 0.9560000000000001, 0.09, 192.0, 1.0, 88.0, 14.5, 112.0, 1.0, 104.0, 0.0, 0.0, 0.0, 1.6581653326290913E9, 0.0, 2022-07-18 13:28:52.629
10.0, -29146.58536274259, -31100.48545604771, -60467.72724005309, -59439.032904986496, -27347.806375957298, -44267.294617568805, -58080.94091188203, -38459.797317957564, -18995.920598020628, -64000.15223028091, -62430.25510671796, -74150.34760836931, -57262.44238167315, -55507.78573844263, -53678.96600710941, -53476.01216745522, 0.08600000000000001, 0.9560000000000001, 0.09, 192.0, 0.0, 0.0, 0.0, 0.0, 0.0, 0.0, 0.0, 0.0, 0.0, 1.6581653326290972E9, 0.0, 2022-07-18 13:28:52.629
12.0, -29183.041057949195, -31043.19793500876, -60520.81263313445, -59495.06872833595, -27395.728516069477, -44304.26440289788, -58145.51510161342, -38475.48824256519, -18966.684516273086, -63968.859788043475, -62391.65364404365, -74114.45070677409, -57225.38318936625, -55473.5428659371, -53638.218776967384, -53445.45733278481, 0.08600000000000001, 0.9560000000000001, 0.09, 192.0, 0.0, 0.0, 0.0, 0.0, 0.0, 0.0, 0.0, 0.0, 0.0, 1.658165332629103E9, 0.0, 2022-07-18 13:28:52.629
14.0, -29169.026514175715, -31096.752714723676, -60455.54553932495, -59439.032904986496, -27345.235925344936, -44277.151736873595, -58093.52494401037, -38454.29878882156, -19007.118821992735, -64013.83149788756, -62436.15596725416, -74158.50599509549, -57265.16929449669, -55520.548584526616, -53682.899914133544, -53495.65935083143, 0.08600000000000001, 0.9560000000000001, 0.09, 192.0, 0.0, 0.0, 0.0, 0.0, 0.0, 0.0, 0.0, 0.0, 0.0, 1.658165332629109E9, 0.0, 2022-07-18 13:28:52.629
16.0, -29187.91373824045, -31049.14349903387, -60497.56681890092, -59470.57121641293, -27385.84904502023, -44299.9058127291, -58118.6706565226, -38469.96736168473, -18957.766170235416, -63958.95796524978, -62380.321309604806, -74105.0853258473, -57206.674779257155, -55469.296034490595, -53625.67944832796, -53434.97436463528, 0.08600000000000001, 0.9560000000000001, 0.09, 192.0, 0.0, 0.0, 0.0, 0.0, 0.0, 0.0, 0.0, 0.0, 0.0, 1.6581653326291149E9, 0.0, 2022-07-18 13:28:52.629
18.0, -29175.10618866756, -31094.405781555866, -60460.52997833848, -59430.58394558239, -27359.496338307425, -44288.26055386788, -58091.42388003157, -38460.914905180325, -18995.987653253993, -64012.37863449796, -62426.812938071846, -74153.16392817067, -57261.682422361664, -55525.287154351136, -53683.19048681146, -53488.39503388346, 0.096, 0.9560000000000001, 0.08600000000000001, 192.0, 1.5, 0.0, 14.5, 112.0, 1.0, 88.0, 0.0, 0.0, 0.0, 1.6581653326291203E9, 0.0, 2022-07-18 13:28:52.629
20.0, -29179.82240674763, -31046.461289699233, -60491.9788827871, -59450.85697780335, -27386.18432118706, -44288.3052573568, -58135.79209277536, -38453.80705044354, -18959.219033625013, -63955.8957762594, -62373.23580661247, -74098.17863681063, -57207.83706996883, -55470.480676946725, -53636.542396133234, -53431.44278901134, 0.096, 0.9560000000000001, 0.08600000000000001, 192.0, 0.0, 0.0, 0.0, 0.0, 0.0, 0.0, 0.0, 0.0, 0.0, 1.6581653326291263E9, 0.0, 2022-07-18 13:28:52.629
22.0, -29164.846737962573, -31074.043342357083, -60463.21218767312, -59426.69474204716, -27368.951126212018, -44276.52588802885, -58093.92727541057, -38440.66422470382, -18996.971130010024, -64012.423337986875, -62423.59428687028, -74146.01136994497, -57263.85054157383, -55518.82750020355, -53690.36539678161, -53481.30953089113, 0.096, 0.9560000000000001, 0.08600000000000001, 192.0, 0.0, 0.0, 0.0, 0.0, 0.0, 0.0, 0.0, 0.0, 0.0, 1.658165332629132E9, 0.0, 2022-07-18 13:28:52.629
24.0, -29162.902136194964, -31045.120185031916, -60472.1752371997, -59439.45758813115, -27373.3097163808, -44274.514231027875, -58112.79214773085, -38439.83721015897, -18941.22587933849, -63942.37297086394, -62357.63428898267, -74081.37012498023, -57198.04700589741, -55449.06770575854, -53608.53566033074, -53403.99484682022, 0.096, 0.9560000000000001, 0.08600000000000001, 192.0, 0.0, 0.0, 0.0, 0.0, 0.0, 0.0, 0.0, 0.0, 0.0, 1.6581653326291375E9, 0.0, 2022-07-18 13:28:52.629
26.0, -29160.91283093844, -31073.082217345505, -60474.58922560087, -59450.275832447514, -27381.98219322946, -44292.77560624786, -58108.25474360642, -38473.85656521995, -18991.94198750758, -64022.19105031384, -62429.00340902846, -74157.79073927292, -57264.65520437422, -55522.24731710522, -53692.51116424932, -53486.71865304931, 0.096, 0.9560000000000001, 0.08600000000000001, 192.0, 0.0, 0.0, 0.0, 0.0, 0.0, 0.0, 0.0, 0.0, 0.0, 1.6581653326291437E9, 0.0, 2022-07-18 13:28:52.629
28.0, -29153.29088607918, -31062.733359662696, -60471.30351916594, -59449.515873136035, -27375.097855937227, -44274.53658277233, -58097.79412720134, -38436.171524068304, -18947.931402675084, -63943.64702029789, -62367.78198096538, -74096.50225597648, -57198.94107567562, -55461.249406486684, -53624.96419250539, -53417.98703884924, 0.1, 0.9500000000000001, 0.084, 192.0, 1.5, 16.0, 14.5, 88.0, 1.0, 80.0, 0.0, 0.0, 0.0, 1.6581653326291492E9, 0.0, 2022-07-18 13:28:52.629
30.0, -29167.886575208497, -31075.451502257765, -60489.45313566365, -59468.26898673404, -27396.600234103233, -44306.0078389654, -58139.1225026992, -38471.08494890749, -18994.937121264593, -64020.98405611325, -62432.49028116349, -74159.60123057381, -57258.620233371286, -55530.875090464964, -53702.30122832075, -53494.36294965303, 0.1, 0.9500000000000001, 0.084, 192.0, 0.0, 0.0, 0.0, 0.0, 0.0, 0.0, 0.0, 0.0, 0.0, 1.6581653326291547E9, 0.0, 2022-07-18 13:28:52.629
32.0, -29164.220889117827, -31082.24643257218, -60467.54842609745, -59445.26904168953, -27366.69360002203, -44286.98650443393, -58102.17506911458, -38451.03543413108, -18954.100484144747, -63953.66060181387, -62370.01715541091, -74095.94346236509, -57195.25303784049, -55469.45249670178, -53640.56571013519, -53435.73432394676, 0.1, 0.9500000000000001, 0.084, 192.0, 0.0, 0.0, 0.0, 0.0, 0.0, 0.0, 0.0, 0.0, 0.0, 1.658165332629161E9, 0.0, 2022-07-18 13:28:52.629
34.0, -29178.05661893566, -31060.520536961623, -60487.5755891294, -59453.561538882444, -27395.95203351403, -44307.34894363272, -58133.64632530765, -38476.27055362112, -18997.865199788237, -64018.23479154525, -62429.517499150934, -74151.48754733652, -57254.52986413597, -55531.61269803199, -53701.58597249818, -53498.05098748815, 0.1, 0.9500000000000001, 0.084, 192.0, 0.0, 0.0, 0.0, 0.0, 0.0, 0.0, 0.0, 0.0, 0.0, 1.6581653326291664E9, 0.0, 2022-07-18 13:28:52.629
36.0, -29143.187897585383, -31066.75667366465, -60436.18892862665, -59395.58111376538, -27351.852041703707, -44253.257722050876, -58077.476391491466, -38430.427125743285, -18939.147167104147, -63919.931819430814, -62351.6663732131, -74061.94645904857, -57172.700127685086, -55440.05995274305, -53619.197442435914, -53403.32429448656, 0.1, 0.9500000000000001, 0.084, 192.0, 0.0, 0.0, 0.0, 0.0, 0.0, 0.0, 0.0, 0.0, 0.0, 1.658165332629174E9, 0.0, 2022-07-18 13:28:52.629
38.0, -29180.783531759207, -31058.397121238366, -60490.70483335315, -59453.24861446007, -27414.86160932322, -44304.01853370888, -58147.794979547856, -38487.133501426404, -18988.119839205723, -63986.98705279673, -62411.79256579788, -74126.69946273559, -57243.801026797424, -55499.98497962773, -53680.57533271019, -53467.56320805111, 0.1, 0.96, 0.07200000000000001, 192.0, 1.5, 16.0, 15.0, 0.0, 1.0, 32.0, 0.0, 0.0, 0.0, 1.6581653326291797E9, 0.0, 2022-07-18 13:28:52.629
40.0, -29157.090682636583, -31100.127828136425, -60433.841995458846, -59408.36631159381, -27361.239774374935, -44254.48706799592, -58097.59296150124, -38427.431991986276, -18956.156844634635, -63928.738406746204, -62366.57498676479, -74087.91918610563, -57199.36575882027, -55451.615804626446, -53638.017611267285, -53415.01425683669, 0.1, 0.96, 0.07200000000000001, 192.0, 0.0, 0.0, 0.0, 0.0, 0.0, 0.0, 0.0, 0.0, 0.0, 1.658165332629186E9, 0.0, 2022-07-18 13:28:52.629
42.0, -29204.96811925985, -31093.601118755476, -60512.274266752516, -59496.834516147916, -27433.860592110228, -44334.08163000127, -58178.39451770717, -38519.76704833115, -18992.165504952136, -64004.9578553388, -62422.052016502865, -74156.74020728352, -57249.92540477817, -55516.86054669149, -53683.41400425602, -53479.56609482361, 0.1, 0.96, 0.07200000000000001, 192.0, 0.0, 0.0, 0.0, 0.0, 0.0, 0.0, 0.0, 0.0, 0.0, 1.658165332629193E9, 0.0, 2022-07-18 13:28:52.629
44.0, -29164.757330984754, -31146.194773458814, -60449.15294041073, -59439.14466370877, -27380.015239717395, -44296.12836791616, -58121.17405190159, -38486.150024670365, -18970.17138840811, -63980.77326783816, -62400.236713914484, -74137.22713437404, -57218.87883172975, -55496.45340400379, -53665.778477880776, -53462.64582427095, 0.1, 0.96, 0.07200000000000001, 192.0, 0.0, 0.0, 0.0, 0.0, 0.0, 0.0, 0.0, 0.0, 0.0, 1.6581653326291988E9, 0.0, 2022-07-18 13:28:52.629
46.0, -29202.48707562531, -31114.567055054555, -60526.668790181735, -59503.472984251144, -27441.28137126939, -44347.716194119006, -58215.56546873635, -38554.99339759271, -18985.527036848907, -64025.09677709303, -62432.62439163023, -74172.2523179355, -57247.75728556601, -55528.52815729716, -53701.273048075804, -53498.52037412171, 0.1, 0.96, 0.07200000000000001, 192.0, 0.0, 0.0, 0.0, 0.0, 0.0, 0.0, 0.0, 0.0, 0.0, 1.6581653326292052E9, 0.0, 2022-07-18 13:28:52.629
48.0, -29188.696049296388, -31200.308346785114, -60474.18689420068, -59460.08824826339, -27382.652745563122, -44311.10403670121, -58125.756159514924, -38479.82448098952, -18995.920598020628, -64018.838288645544, -62435.619525387236, -74172.09585572433, -57238.0119249835, -55526.87412820746, -53704.290533577274, -53487.54566759416, 0.10200000000000001, 0.96, 0.078, 192.0, 1.5, 24.0, 15.0, 0.0, 1.0, 56.0, 0.0, 0.0, 0.0, 1.6581653326292112E9, 0.0, 2022-07-18 13:28:52.629
50.0, -29222.82716307964, -31141.16563095637, -60549.22170033714, -59534.74307474412, -27448.97037136202, -44366.35754899473, -58215.5878204808, -38537.58138866203, -18997.261702687945, -64034.28334406416, -62444.64963014718, -74185.73041984206, -57236.62611682727, -55544.26378539369, -53703.5752777547, -53494.49706011976, 0.10200000000000001, 0.96, 0.078, 192.0, 0.0, 0.0, 0.0, 0.0, 0.0, 0.0, 0.0, 0.0, 0.0, 1.658165332629217E9, 0.0, 2022-07-18 13:28:52.629
52.0, -29203.090572725603, -31203.482294497764, -60491.442440920175, -59480.24952176208, -27399.66242309361, -44328.896025287635, -58179.42269795212, -38517.77774307463, -19008.99636852698, -64030.48354750676, -62457.3901244867, -74187.38444893176, -57254.2616432025, -55556.15491344392, -53732.25256589086, -53517.74287435328, 0.10200000000000001, 0.96, 0.078, 192.0, 0.0, 0.0, 0.0, 0.0, 0.0, 0.0, 0.0, 0.0, 0.0, 1.6581653326292229E9, 0.0, 2022-07-18 13:28:52.629
54.0, -29247.190564535926, -31145.21129670278, -60563.83974121091, -59541.225080636155, -27461.464996512535, -44369.59855194075, -58221.71219846156, -38569.4549762553, -19014.04786277388, -64029.254201561715, -62452.31627849535, -74181.19301571764, -57259.38019268277, -55553.83033202057, -53725.21176638744, -53516.1335487525, 0.10200000000000001, 0.96, 0.078, 192.0, 0.0, 0.0, 0.0, 0.0, 0.0, 0.0, 0.0, 0.0, 0.0, 1.6581653326292284E9, 0.0, 2022-07-18 13:28:52.629
56.0, -29219.183828733425, -31202.69998344183, -60487.240312962575, -59460.892911063784, -27403.75279232893, -44322.92810951807, -58146.83385453628, -38531.1440862589, -19040.15470029768, -64027.57782072757, -62463.91683386765, -74183.89757679672, -57279.29559699245, -55556.93722449985, -53738.35459212716, -53522.6826098779, 0.10200000000000001, 0.96, 0.078, 192.0, 0.0, 0.0, 0.0, 0.0, 0.0, 0.0, 0.0, 0.0, 0.0, 1.6581653326292343E9, 0.0, 2022-07-18 13:28:52.629
58.0, -29229.21976199386, -31119.953825468285, -60519.203307533666, -59485.8374578759, -27428.80909786333, -44328.49369388744, -58169.252654224954, -38516.23547270721, -19022.340359966798, -64005.561352439094, -62438.25703123296, -74157.4554631061, -57262.80000958443, -55521.62146826047, -53696.24390557336, -53482.62828381399, 0.10400000000000001, 0.9580000000000001, 0.082, 192.0, 1.5, 32.0, 14.5, 120.0, 1.0, 72.0, 0.0, 0.0, 0.0, 1.6581653326292403E9, 0.0, 2022-07-18 13:28:52.629
60.0, -29169.33943859809, -31147.960561270782, -60434.62430651478, -59402.55485803543, -27359.541041796332, -44270.736786214926, -58103.44911854853, -38466.65930350534, -19023.122671022735, -64001.53803843714, -62431.8867840632, -74150.0570356914, -57270.0643265324, -55515.47473853526, -53700.58014399769, -53478.560266323126, 0.10400000000000001, 0.9580000000000001, 0.082, 192.0, 0.0, 0.0, 0.0, 0.0, 0.0, 0.0, 0.0, 0.0, 0.0, 1.6581653326292462E9, 0.0, 2022-07-18 13:28:52.629
62.0, -29190.01480221925, -31084.034572128603, -60479.73012682559, -59444.91141377824, -27391.213463689503, -44280.795071219814, -58143.950479501545, -38473.72245475322, -18973.23357739849, -63937.70145627278, -62374.28633860187, -74089.99789833998, -57215.481366572545, -55449.581795881015, -53639.984564779355, -53408.509899200195, 0.10400000000000001, 0.9580000000000001, 0.082, 192.0, 0.0, 0.0, 0.0, 0.0, 0.0, 0.0, 0.0, 0.0, 0.0, 1.658165332629252E9, 0.0, 2022-07-18 13:28:52.629
64.0, -29172.87101422203, -31148.876982793452, -60441.57569904038, -59422.89494548976, -27367.207690144503, -44273.463699038475, -58112.211002375014, -38455.66224523333, -19015.366615696745, -63991.27858773215, -62428.01993227243, -74146.27959087845, -57261.36949793929, -55504.589438985524, -53690.946542137455, -53454.19686486684, 0.10400000000000001, 0.9580000000000001, 0.082, 192.0, 0.0, 0.0, 0.0, 0.0, 0.0, 0.0, 0.0, 0.0, 0.0, 1.6581653326292577E9, 0.0, 2022-07-18 13:28:52.629
66.0, -29183.622203305033, -31098.093819390993, -60474.70098432315, -59459.283585463, -27389.872359022185, -44292.73090275895, -58147.7726278034, -38501.28215566661, -18972.406562853645, -63944.98812496521, -62380.589530538266, -74104.72769793603, -57209.91578220318, -55458.00840354066, -53640.453951412914, -53405.42535846536, 0.10400000000000001, 0.9580000000000001, 0.082, 192.0, 0.0, 0.0, 0.0, 0.0, 0.0, 0.0, 0.0, 0.0, 0.0, 1.6581653326292636E9, 0.0, 2022-07-18 13:28:52.629
68.0, -29191.981755731318, -31163.092692267026, -60458.853597504334, -59446.431332401204, -27377.198919916027, -44289.51225155738, -58133.0204764629, -38471.93431519679, -19028.643551903195, -64012.065710075585, -62448.00239181548, -74170.5535853569, -57265.63868113026, -55520.34741882652, -53702.5247457653, -53473.26290288722, 0.101, 0.9530000000000001, 0.083, 192.0, 1.5, 8.0, 14.5, 80.0, 1.0, 80.0, 0.0, 0.0, 0.0, 1.658165332629272E9, 0.0, 2022-07-18 13:28:52.629
70.0, -29216.658081609978, -31144.49604088021, -60506.90984808325, -59480.87537060683, -27400.735306827464, -44307.14777793262, -58173.90181707166, -38477.85752747745, -18992.277263674412, -63960.50023561719, -62411.636103586694, -74126.23007610203, -57206.406558323695, -55472.78290662562, -53654.96023356441, -53425.31841103058, 0.101, 0.9530000000000001, 0.083, 192.0, 0.0, 0.0, 0.0, 0.0, 0.0, 0.0, 0.0, 0.0, 0.0, 1.6581653326292777E9, 0.0, 2022-07-18 13:28:52.629
72.0, -29221.35194794559, -31188.4619222238, -60508.31800798393, -59478.55078918348, -27401.919949283594, -44320.5588246058, -58178.57333166282, -38493.12376894042, -19051.330572525334, -64050.73422798327, -62488.90608416869, -74200.23670199355, -57278.826210358886, -55551.572805830576, -53742.71318229594, -53512.64667661747, 0.101, 0.9530000000000001, 0.083, 192.0, 0.0, 0.0, 0.0, 0.0, 0.0, 0.0, 0.0, 0.0, 0.0, 1.658165332629284E9, 0.0, 2022-07-18 13:28:52.629
74.0, -29193.322860398635, -31133.141354696916, -60497.18683924519, -59458.523626151524, -27383.03272521886, -44294.31787661528, -58139.3236683993, -38473.67775126431, -19001.19560971208, -63975.40884916888, -62419.97330426852, -74125.15719236818, -57215.23549738354, -55486.30571202108, -53678.3178065202, -53448.05013514163, 0.101, 0.9530000000000001, 0.083, 192.0, 0.0, 0.0, 0.0, 0.0, 0.0, 0.0, 0.0, 0.0, 0.0, 1.6581653326292896E9, 0.0, 2022-07-18 13:28:52.629
76.0, -29195.982717988816, -31139.668064077865, -60498.863220079336, -59457.87542556232, -27402.90342603963, -44313.76389429139, -58166.101058256754, -38526.561978645565, -19030.00700831497, -64020.5593729686, -62456.876034364235, -74159.40006487371, -57272.67948063368, -55533.691410266336, -53736.05236244826, -53508.66806610442, 0.101, 0.9530000000000001, 0.083, 192.0, 0.0, 0.0, 0.0, 0.0, 0.0, 0.0, 0.0, 0.0, 0.0, 1.658165332629295E9, 0.0, 2022-07-18 13:28:52.629
78.0, -29183.73396202731, -31128.11221219447, -60479.17133321421, -59433.981410739594, -27389.80530378882, -44289.8028242353, -58164.6258431227, -38469.05094016206, -18991.04791772937, -63949.32436338954, -62389.597283553754, -74090.84726462928, -57215.57077355037, -55469.67601414633, -53679.122469320595, -53442.03751588315, 0.1015, 0.9505000000000001, 0.0805, 192.0, 1.5, 24.0, 14.5, 80.0, 1.0, 56.0, 0.0, 0.0, 0.0, 1.6581653326293013E9, 0.0, 2022-07-18 13:28:52.629
80.0, -29189.456008607867, -31119.305624879078, -60479.886589036774, -59442.13979746578, -27395.348536413734, -44296.307181871794, -58140.798883533345, -38465.876992449404, -19028.084758291814, -64012.199820542315, -62439.64283938919, -74143.97736119955, -57278.468582447604, -55524.08016015055, -53724.18358614249, -53487.366853638516, 0.1015, 0.9505000000000001, 0.0805, 192.0, 0.0, 0.0, 0.0, 0.0, 0.0, 0.0, 0.0, 0.0, 0.0, 1.6581653326293068E9, 0.0, 2022-07-18 13:28:52.629
82.0, -29162.790377472687, -31124.848857503996, -60432.52324253598, -59405.952323192636, -27354.40014057161, -44261.12553609914, -58110.69108375205, -38433.377556011386, -18988.231597928, -63942.55178481958, -62384.88106547369, -74088.63444192821, -57210.63103802574, -55467.887874589906, -53655.85430334262, -53412.13088180195, 0.1015, 0.9505000000000001, 0.0805, 192.0, 0.0, 0.0, 0.0, 0.0, 0.0, 0.0, 0.0, 0.0, 0.0, 1.6581653326293132E9, 0.0, 2022-07-18 13:28:52.629
84.0, -29164.5338135402, -31088.48256927521, -60447.14128340975, -59427.11942519181, -27381.713972296, -44286.89709745611, -58149.24784293745, -38477.79047224408, -19002.179086468113, -63986.87529407445, -62412.731339065, -74120.97741615503, -57241.632907585255, -55500.7002354503, -53679.21187629842, -53439.35530654852, 0.1015, 0.9505000000000001, 0.0805, 192.0, 0.0, 0.0, 0.0, 0.0, 0.0, 0.0, 0.0, 0.0, 0.0, 1.6581653326293192E9, 0.0, 2022-07-18 13:28:52.629
86.0, -29142.80791792964, -31121.92077898035, -60415.73708245005, -59397.54806727744, -27352.299076592815, -44262.10901285517, -58125.30912462582, -38450.87897191989, -18968.830283740794, -63929.07368291303, -62360.76353320641, -74071.35654346425, -57188.771031948454, -55452.19694998228, -53636.58709962215, -53391.030835036145, 0.1015, 0.9505000000000001, 0.0805, 192.0, 0.0, 0.0, 0.0, 0.0, 0.0, 0.0, 0.0, 0.0, 0.0, 1.658165332629325E9, 0.0, 2022-07-18 13:28:52.629
88.0, -29177.877804980017, -31103.190017126803, -60478.65724309174, -59452.935690037695, -27402.165818472604, -44309.49471110043, -58182.887218342694, -38505.2384144352, -19007.029415014913, -64000.889837847935, -62420.375635668715, -74139.3505500973, -57242.43757038565, -55511.94316291132, -53697.80852768523, -53451.693469487844, 0.10275000000000001, 0.9492500000000001, 0.08225, 192.0, 1.5, 32.0, 14.5, 80.0, 1.0, 80.0, 0.0, 0.0, 0.0, 1.6581653326293309E9, 0.0, 2022-07-18 13:28:52.629
90.0, -29169.40649383146, -31175.855538351007, -60444.21320488611, -59418.44694834315, -27358.423454573567, -44286.51711780037, -58140.35184864424, -38480.830309490004, -18985.66114731564, -63969.86561654397, -62396.99571096846, -74116.3506050528, -57201.55622977689, -55487.93738936632, -53679.81537339871, -53425.00548660821, 0.10275000000000001, 0.9492500000000001, 0.08225, 192.0, 0.0, 0.0, 0.0, 0.0, 0.0, 0.0, 0.0, 0.0, 0.0, 1.6581653326293368E9, 0.0, 2022-07-18 13:28:52.629
92.0, -29219.630863622533, -31159.06937826507, -60513.30244699746, -59493.83938239091, -27419.913103570118, -44339.043717270346, -58208.79289016639, -38512.52508312763, -19003.90017079117, -64030.34943704003, -62438.055865532864, -74168.2066521891, -57220.5552125639, -55527.54468054113, -53716.40517907205, -53471.16183890842, 0.10275000000000001, 0.9492500000000001, 0.08225, 192.0, 0.0, 0.0, 0.0, 0.0, 0.0, 0.0, 0.0, 0.0, 0.0, 1.6581653326293426E9, 0.0, 2022-07-18 13:28:52.629
94.0, -29207.87384603904, -31227.823344209595, -60455.38907711376, -59448.39828591327, -27359.026951673863, -44298.341190617226, -58133.26634565191, -38468.1792221283, -19000.14507772268, -64013.65268393191, -62433.49610966398, -74166.59732658832, -57197.08588088583, -55515.89942167991, -53706.12337662261, -53462.6681760154, 0.10275000000000001, 0.9492500000000001, 0.08225, 192.0, 0.0, 0.0, 0.0, 0.0, 0.0, 0.0, 0.0, 0.0, 0.0, 1.6581653326293485E9, 0.0, 2022-07-18 13:28:52.629
96.0, -29257.964105363382, -31183.633945421454, -60536.660019953255, -59524.7518449726, -27425.14341177266, -44356.83570585677, -58216.168965836645, -38531.792286848104, -19025.268438490446, -64046.93443142586, -62468.56599671436, -74198.85089383733, -57229.71942779058, -55547.169512172884, -53728.85510073365, -53496.55342060965, 0.10275000000000001, 0.9492500000000001, 0.08225, 192.0, 0.0, 0.0, 0.0, 0.0, 0.0, 0.0, 0.0, 0.0, 0.0, 1.6581653326293545E9, 0.0, 2022-07-18 13:28:52.629
98.0, -29230.314997472167, -31243.201344394845, -60487.59794087386, -59468.9842425566, -27377.198919916027, -44323.41984789608, -58148.3761249037, -38505.90896676886, -19034.678522906128, -64030.036512617655, -62471.00233685999, -74184.94810878612, -57235.79910228242, -55542.18507315935, -53722.55190879726, -53494.005321741744, 0.100375, 0.950625, 0.08612500000000001, 192.0, 1.5, 8.0, 14.5, 96.0, 1.0, 104.0, 0.0, 0.0, 0.0, 1.65816533262936E9, 0.0, 2022-07-18 13:28:52.629
100.0, -29247.63759942503, -31164.389093445432, -60559.34704057539, -59510.71494945466, -27447.741025416974, -44357.8191826128, -58235.48087304603, -38529.73592635822, -19044.356828255277, -64041.570012756594, -62477.640804963215, -74184.94810878612, -57265.66103287471, -55557.093686711036, -53740.54506308378, -53502.07430149011, 0.100375, 0.950625, 0.08612500000000001, 192.0, 0.0, 0.0, 0.0, 0.0, 0.0, 0.0, 0.0, 0.0, 0.0, 1.6581653326293676E9, 0.0, 2022-07-18 13:28:52.629
102.0, -29200.654232579975, -31211.528922501675, -60486.39094667327, -59426.515928091525, -27389.5147311109, -44312.06516171279, -58177.63455839569, -38531.83699033702, -19046.72611316754, -64013.85384963201, -62463.26863327845, -74154.14740492671, -57264.498742163036, -55533.7584654997, -53752.92792951202, -53489.19969668385, 0.100375, 0.950625, 0.08612500000000001, 192.0, 0.0, 0.0, 0.0, 0.0, 0.0, 0.0, 0.0, 0.0, 0.0, 1.6581653326293733E9, 0.0, 2022-07-18 13:28:52.629
104.0, -29216.63572986552, -31133.16370644137, -60525.66296168125, -59457.31663195093, -27421.61183614872, -44333.72400208998, -58193.39253823669, -38499.1363881989, -19038.00893282997, -64005.02491057217, -62448.9411650826, -74135.86367796228, -57259.179026982674, -55516.972305413765, -53732.00669670185, -53468.412574340415, 0.100375, 0.950625, 0.08612500000000001, 192.0, 0.0, 0.0, 0.0, 0.0, 0.0, 0.0, 0.0, 0.0, 0.0, 1.6581653326293793E9, 0.0, 2022-07-18 13:28:52.629
106.0, -29186.662040550953, -31193.513416470698, -60454.047972446446, -59399.4703173006, -27360.99390518593, -44293.42380683706, -58120.74936875694, -38468.44744306176, -19038.120691552245, -64000.93454133684, -62444.44846444708, -74131.39332907122, -57256.40741067022, -55520.28036359315, -53725.547042554266, -53458.44369631335, 0.100375, 0.950625, 0.08612500000000001, 192.0, 0.0, 0.0, 0.0, 0.0, 0.0, 0.0, 0.0, 0.0, 0.0, 1.6581653326293848E9, 0.0, 2022-07-18 13:28:52.629
108.0, -29207.426811149933, -31131.44262211831, -60508.60858066185, -59463.53041690951, -27404.825676062785, -44318.23424318245, -58173.723003116014, -38486.17237641483, -19014.539601151897, -63980.192122482316, -62415.122975721715, -74109.86859916075, -57225.629058555256, -55496.18518307033, -53691.90766714903, -53424.60315520802, 0.09818750000000001, 0.9473125, 0.0870625, 192.0, 1.5, 0.0, 14.5, 64.0, 1.0, 96.0, 0.0, 0.0, 0.0, 1.6581653326293907E9, 0.0, 2022-07-18 13:28:52.629
110.0, -29176.737866012798, -31193.84869263753, -60451.20930090062, -59420.48095708859, -27359.65280051861, -44290.38396959114, -58134.96507823051, -38498.465835865245, -19053.47633999304, -64025.29794279313, -62457.278365764425, -74159.13184394024, -57266.175122997185, -55544.82257900508, -53748.055249220764, -53478.2249901563, 0.09818750000000001, 0.9473125, 0.0870625, 192.0, 0.0, 0.0, 0.0, 0.0, 0.0, 0.0, 0.0, 0.0, 0.0, 1.6581653326293964E9, 0.0, 2022-07-18 13:28:52.629
112.0, -29191.713534797855, -31134.571866342056, -60493.85642932134, -59458.05423951796, -27392.979251501474, -44301.1575104186, -58178.729793874, -38476.3823123434, -18985.147057193168, -63969.284471188126, -62395.11816443422, -74104.07949734683, -57204.39490132272, -55483.42233698635, -53685.984454868376, -53410.02981782315, 0.09818750000000001, 0.9473125, 0.0870625, 192.0, 0.0, 0.0, 0.0, 0.0, 0.0, 0.0, 0.0, 0.0, 0.0, 1.6581653326294024E9, 0.0, 2022-07-18 13:28:52.629
114.0, -29186.147950428483, -31201.3141752856, -60450.047010188944, -59423.96782922361, -27369.21934714548, -44285.95832418899, -58142.832892278784, -38462.524230781106, -19040.62408693124, -64037.85962317701, -62453.65738316267, -74169.07837022285, -57261.99534678404, -55543.28030863766, -53746.02124047533, -53468.18905689586, 0.09818750000000001, 0.9473125, 0.0870625, 192.0, 0.0, 0.0, 0.0, 0.0, 0.0, 0.0, 0.0, 0.0, 0.0, 1.658165332629408E9, 0.0, 2022-07-18 13:28:52.629
116.0, -29202.978814003327, -31165.01494229018, -60480.244216948064, -59457.5848528844, -27385.334954897757, -44300.48695808494, -58167.442162924075, -38482.05965543505, -18997.798144554872, -63984.12602950645, -62403.12008894922, -74118.45166903158, -57198.56109601988, -55482.34945325249, -53679.72596642089, -53401.782024119144, 0.09818750000000001, 0.9473125, 0.0870625, 192.0, 0.0, 0.0, 0.0, 0.0, 0.0, 0.0, 0.0, 0.0, 0.0, 1.658165332629414E9, 0.0, 2022-07-18 13:28:52.629
118.0, -29191.087685953105, -31200.956547374317, -60454.517359080004, -59437.22241368562, -27364.6595912766, -44298.09532142822, -58146.76679930292, -38488.47460609372, -19048.424845746144, -64044.87807093598, -62461.30167976638, -74174.48749238104, -57251.53473037896, -55547.92947148436, -53742.02027821783, -53474.291083132164, 0.09909375000000001, 0.9456562500000001, 0.08553125, 192.0, 1.5, 16.0, 14.5, 64.0, 1.0, 80.0, 0.0, 0.0, 0.0, 1.6581653326294198E9, 0.0, 2022-07-18 13:28:52.629
120.0, -29195.803904033175, -31162.064512022083, -60474.522170367505, -59442.586832354886, -27364.83840523224, -44292.57444054776, -58150.4771888825, -38495.09072245249, -18998.535752121898, -63969.53034037714, -62395.52049583441, -74103.05131710188, -57185.418270280155, -55480.44955497379, -53673.40042274004, -53412.04147482413, 0.09909375000000001, 0.9456562500000001, 0.08553125, 192.0, 0.0, 0.0, 0.0, 0.0, 0.0, 0.0, 0.0, 0.0, 0.0, 1.6581653331083567E9, 0.0, 2022-07-18 13:28:53.108
122.0, -29198.97785174583, -31188.976012346273, -60478.701946580644, -59432.662657816734, -27383.18918743005, -44311.0593332123, -58165.832837323294, -38507.18301620281, -19056.67263945015, -64043.0675796351, -62464.274461778936, -74164.31744865388, -57258.8661025603, -55549.44939010732, -53743.651955563066, -53490.25022867325, 0.09909375000000001, 0.9456562500000001, 0.08553125, 192.0, 0.0, 0.0, 0.0, 0.0, 0.0, 0.0, 0.0, 0.0, 0.0, 1.6581653331085308E9, 0.0, 2022-07-18 13:28:53.108
124.0, -29175.30735436766, -31146.93238102584, -60464.68740280717, -59403.0689481579, -27369.66638203459, -44276.01179790638, -58154.25463369544, -38469.922658195814, -19008.0352435154, -63956.633383826425, -62395.52049583441, -74086.10869480476, -57194.22485759555, -55481.455383474284, -53684.12926007858, -53410.72272190127, 0.09909375000000001, 0.9456562500000001, 0.08553125, 192.0, 0.0, 0.0, 0.0, 0.0, 0.0, 0.0, 0.0, 0.0, 0.0, 1.6581653331085496E9, 0.0, 2022-07-18 13:28:53.108
126.0, -29188.830159763118, -31154.196697973814, -60468.01781273101, -59409.930933705684, -27385.245547919938, -44294.921373715566, -58175.30997697234, -38502.444446378286, -19046.547299211896, -64019.754710168214, -62445.186072014105, -74137.51770705196, -57256.04978275893, -55534.69723876682, -53743.62960381861, -53456.09676314554, 0.09909375000000001, 0.9456562500000001, 0.08553125, 192.0, 0.0, 0.0, 0.0, 0.0, 0.0, 0.0, 0.0, 0.0, 0.0, 1.6581653331085567E9, 0.0, 2022-07-18 13:28:53.108
128.0, -29170.121749654027, -31148.765224071172, -60437.53003329397, -59384.65111072673, -27354.288381849336, -44262.44428902201, -58129.131272927676, -38484.831271747506, -18998.468696888533, -63943.80348250908, -62376.76738223641, -74067.46733992903, -57189.687453471124, -55465.04920304409, -53673.22160878439, -53381.240770964716, 0.10154687500000001, 0.953828125, 0.08576562500000001, 192.0, 1.5, 32.0, 15.0, 8.0, 1.0, 88.0, 0.0, 0.0, 0.0, 1.658165333108564E9, 0.0, 2022-07-18 13:28:53.108
130.0, -29203.179979703425, -31165.39492194592, -60474.63392908978, -59425.599506568855, -27393.068658479293, -44302.78918776383, -58170.97373854801, -38512.10039998298, -19052.045828347902, -64020.38055901296, -62443.710856880054, -74136.71304425158, -57257.6144048708, -55529.623392775466, -53736.32058338173, -53443.40097229493, 0.10154687500000001, 0.953828125, 0.08576562500000001, 192.0, 0.0, 0.0, 0.0, 0.0, 0.0, 0.0, 0.0, 0.0, 0.0, 1.658165333108572E9, 0.0, 2022-07-18 13:28:53.108
132.0, -29175.173243900925, -31176.50373894021, -60435.18310012616, -59385.61223573831, -27359.56339354079, -44267.36167280217, -58130.807653761825, -38480.67384727882, -19008.728147593516, -63956.11929370395, -62391.094850432266, -74083.87352035922, -57203.0537966554, -55473.11818279245, -53689.538382236766, -53383.92298029936, 0.10154687500000001, 0.953828125, 0.08576562500000001, 192.0, 0.0, 0.0, 0.0, 0.0, 0.0, 0.0, 0.0, 0.0, 0.0, 1.6581653331085923E9, 0.0, 2022-07-18 13:28:53.108
134.0, -29194.462799365858, -31156.16365148588, -60480.69125183717, -59424.28075364599, -27404.445696407045, -44307.48305409945, -58175.17586650561, -38528.797153091095, -19037.897174107693, -64023.62156195898, -62442.79443535739, -74136.22130587355, -57250.97593676757, -55529.46693056428, -53747.49645560938, -53449.8159229536, 0.10154687500000001, 0.953828125, 0.08576562500000001, 192.0, 0.0, 0.0, 0.0, 0.0, 0.0, 0.0, 0.0, 0.0, 0.0, 1.6581653331085997E9, 0.0, 2022-07-18 13:28:53.108
136.0, -29167.841871719585, -31185.243271022235, -60431.15978612421, -59381.72303220309, -27337.479870018946, -44262.824268677745, -58110.802842474324, -38492.69908579577, -18997.61933059923, -63957.08041871553, -62388.16677190862, -74079.06789530134, -57184.45714526858, -55475.107488048976, -53683.883390889576, -53393.22130599276, 0.10154687500000001, 0.953828125, 0.08576562500000001, 192.0, 0.0, 0.0, 0.0, 0.0, 0.0, 0.0, 0.0, 0.0, 0.0, 1.658165333108608E9, 0.0, 2022-07-18 13:28:53.108
138.0, -29207.270348938746, -31158.577639887055, -60500.316083468926, -59459.574158140924, -27390.475856122477, -44319.75416180542, -58166.86101756823, -38514.06735349505, -19026.631894902217, -64027.48841374975, -62437.854699832766, -74135.50605005099, -57227.08192194485, -55536.57478530107, -53724.854138476156, -53452.81105671061, 0.10154687500000001, 0.953828125, 0.08576562500000001, 192.0, 0.0, 0.0, 0.0, 0.0, 0.0, 0.0, 0.0, 0.0, 0.0, 1.6581653331086168E9, 0.0, 2022-07-18 13:28:53.108
140.0, -29184.315107383147, -31199.146056073438, -60445.59901304234, -59414.535393063474, -27335.848192673708, -44263.740690200415, -58113.060368664315, -38449.47081201921, -19016.28303721941, -63995.68188138985, -62422.29788569187, -74105.77822992543, -57202.18207862164, -55510.959686155285, -53705.05049288875, -53424.73726567475, 0.098, 0.9560000000000001, 0.08600000000000001, 192.0, 1.5, 8.0, 14.5, 112.0, 1.0, 88.0, 0.0, 0.0, 0.0, 1.6581653331086245E9, 0.0, 2022-07-18 13:28:53.108
142.0, -29227.051642781695, -31155.761320085687, -60526.75819715956, -59498.242676048605, -27402.858722550718, -44321.72111531748, -58190.732680646506, -38519.789400075606, -19029.20234551458, -64031.019989373686, -62450.75165638348, -74132.8461924608, -57222.14218642023, -55539.32404986907, -53729.391542600584, -53454.75565847822, 0.098, 0.9560000000000001, 0.08600000000000001, 192.0, 0.0, 0.0, 0.0, 0.0, 0.0, 0.0, 0.0, 0.0, 0.0, 1.6581653331086311E9, 0.0, 2022-07-18 13:28:53.108
144.0, -29198.664927323454, -31207.97499513328, -60477.49495238006, -59448.53239638, -27366.850062233218, -44290.96511494698, -58140.68712481107, -38453.024739387605, -19038.165395041156, -64024.7615009262, -62451.84689186179, -74126.20772435758, -57227.52895683396, -55540.57574755857, -53749.82103703273, -53463.36108009351, 0.098, 0.9560000000000001, 0.08600000000000001, 192.0, 0.0, 0.0, 0.0, 0.0, 0.0, 0.0, 0.0, 0.0, 0.0, 1.6581653331086397E9, 0.0, 2022-07-18 13:28:53.108
146.0, -29214.936997286917, -31137.477593121243, -60544.17020609024, -59503.54003948451, -27431.71482464252, -44336.40621142462, -58209.37403552223, -38476.20349838775, -19028.084758291814, -64028.71775969479, -62449.7905313719, -74110.87442766124, -57233.96625923709, -55541.62627954796, -53755.7889528023, -53473.4193650984, 0.098, 0.9560000000000001, 0.08600000000000001, 192.0, 0.0, 0.0, 0.0, 0.0, 0.0, 0.0, 0.0, 0.0, 0.0, 1.658165333108647E9, 0.0, 2022-07-18 13:28:53.108
148.0, -29191.78059003122, -31191.32294551408, -60474.63392908978, -59432.50619560554, -27378.137693183147, -44299.592888306724, -58140.06127596633, -38429.55540770953, -19032.19747927159, -64022.81689915859, -62451.891595350695, -74094.31178501985, -57239.889471517745, -55545.001392960716, -53770.18347623152, -53481.93537973588, 0.098, 0.9560000000000001, 0.08600000000000001, 192.0, 0.0, 0.0, 0.0, 0.0, 0.0, 0.0, 0.0, 0.0, 0.0, 1.6581653331086547E9, 0.0, 2022-07-18 13:28:53.108
150.0, -29217.86507581056, -31112.77891549813, -60529.90979312776, -59470.05712629046, -27414.951016301038, -44321.117618217184, -58205.01544535345, -38450.2754748196, -19025.827232101827, -64019.821765401575, -62441.43097894562, -74091.60722394077, -57228.624192312265, -55534.876052722466, -53752.90557776756, -53467.47380107329, 0.098, 0.9500000000000001, 0.09, 192.0, 1.5, 8.0, 14.5, 88.0, 1.0, 104.0, 0.0, 0.0, 0.0, 1.6581653331086626E9, 0.0, 2022-07-18 13:28:53.108
152.0, -29191.713534797855, -31176.906070340407, -60466.22967317459, -59404.99119818106, -27352.50024229291, -44273.26253333838, -58110.333455840766, -38377.18527045075, -19033.2927147499, -64016.603114200014, -62444.04613304688, -74091.94250010759, -57230.54644233542, -55525.287154351136, -53760.50517088237, -53457.214350368304, 0.098, 0.9500000000000001, 0.09, 192.0, 0.0, 0.0, 0.0, 0.0, 0.0, 0.0, 0.0, 0.0, 0.0, 1.6581653331086705E9, 0.0, 2022-07-18 13:28:53.108
154.0, -29217.127468243536, -31111.661328275364, -60512.54248768598, -59454.14268423828, -27387.74894329893, -44292.90971671459, -58143.63755507917, -38408.88004408837, -19011.119784250233, -63994.43018370035, -62417.291094933884, -74072.3847237092, -57205.84776471231, -55497.14630808191, -53723.021295430815, -53417.025913837664, 0.098, 0.9500000000000001, 0.09, 192.0, 0.0, 0.0, 0.0, 0.0, 0.0, 0.0, 0.0, 0.0, 0.0, 1.6581653331086783E9, 0.0, 2022-07-18 13:28:53.108
156.0, -29198.82138953464, -31186.472616967276, -60451.85750148982, -59410.17680289469, -27348.40987305759, -44270.91560017057, -58103.337359826255, -38381.87913678636, -19039.30533400838, -64021.94518112483, -62443.710856880054, -74105.06297410285, -57233.09454120333, -55530.94214569833, -53752.2350254339, -53448.854797942025, 0.098, 0.9500000000000001, 0.09, 192.0, 0.0, 0.0, 0.0, 0.0, 0.0, 0.0, 0.0, 0.0, 0.0, 1.658165333108687E9, 0.0, 2022-07-18 13:28:53.108
158.0, -29204.25286343728, -31120.22204640175, -60493.11882175432, -59445.96194576764, -27384.127960697173, -44290.786300991334, -58156.3780494187, -38401.99570679614, -19004.28015044691, -63992.93261682185, -62406.96458899553, -74075.24574699948, -57206.0042269235, -55498.107433093486, -53712.65008600356, -53411.61679167948, 0.098, 0.9500000000000001, 0.09, 192.0, 0.0, 0.0, 0.0, 0.0, 0.0, 0.0, 0.0, 0.0, 0.0, 1.6581653331086955E9, 0.0, 2022-07-18 13:28:53.108
160.0, -29163.57268852862, -31162.042160277626, -60422.710826720104, -59383.89115141525, -27324.895837890606, -44250.95549237198, -58078.63868220314, -38332.88411294033, -19031.392816471198, -64022.973361369775, -62430.724493351525, -74098.75978216645, -57240.783541295954, -55527.74584624122, -53740.05332470576, -53437.88009141447, 0.108, 0.9580000000000001, 0.088, 192.0, 1.5, 48.0, 14.5, 120.0, 1.0, 96.0, 0.0, 0.0, 0.0, 1.6581653331087039E9, 0.0, 2022-07-18 13:28:53.108
162.0, -29178.995392202785, -31107.570959040044, -60455.72435328059, -59416.81527099792, -27338.5527537528, -44259.695024454006, -58103.3150080818, -38342.47301131165, -18976.653394300152, -63954.97935473673, -62361.72465821799, -74034.49851685745, -57172.36485151826, -55472.20176126978, -53657.06129754321, -53365.862770779466, 0.108, 0.9580000000000001, 0.088, 192.0, 0.0, 0.0, 0.0, 0.0, 0.0, 0.0, 0.0, 0.0, 0.0, 1.658165333108712E9, 0.0, 2022-07-18 13:28:53.108
164.0, -29188.45018010738, -31180.683515153352, -60450.5163968225, -59408.50042206054, -27338.619808986165, -44267.652245480094, -58106.80188021683, -38381.700322830715, -19043.730979410528, -64037.39023654345, -62440.7380748675, -74111.1426485947, -57248.71841057759, -55545.40372436091, -53731.425551346016, -53444.13857986195, 0.108, 0.9580000000000001, 0.088, 192.0, 0.0, 0.0, 0.0, 0.0, 0.0, 0.0, 0.0, 0.0, 0.0, 1.6581653331087253E9, 0.0, 2022-07-18 13:28:53.108
166.0, -29196.854436022575, -31135.86826752046, -60483.86519954982, -59432.57325083891, -27353.528422537856, -44267.27226582435, -58129.17597641659, -38378.72754081816, -19007.498801648475, -63976.99582302521, -62397.46509760203, -74062.2817352154, -57191.96733140556, -55486.23865678772, -53684.017501356306, -53394.13772751543, 0.108, 0.9580000000000001, 0.088, 192.0, 0.0, 0.0, 0.0, 0.0, 0.0, 0.0, 0.0, 0.0, 0.0, 1.6581653331087332E9, 0.0, 2022-07-18 13:28:53.108
168.0, -29178.39189510249, -31162.5562504001, -60455.00909745802, -59399.62677951179, -27332.294265305314, -44254.174143573546, -58100.65515049162, -38349.64792128181, -19046.43554048962, -64030.2153265733, -62452.09276105079, -74112.41669802865, -57249.21014895561, -55538.31822136858, -53737.66168804905, -53452.118152632494, 0.108, 0.9580000000000001, 0.088, 192.0, 0.0, 0.0, 0.0, 0.0, 0.0, 0.0, 0.0, 0.0, 0.0, 1.6581653331087413E9, 0.0, 2022-07-18 13:28:53.108
170.0, -29176.179072401414, -31137.58935184352, -60468.48719936457, -59406.444061570655, -27340.117375864673, -44254.5988267182, -58102.62210400368, -38345.714014257675, -18991.249083429466, -63947.960906977765, -62378.220245626006, -74034.43146162409, -57177.103421342785, -55462.97049080974, -53662.559826679215, -53375.0493377506, 0.108, 0.9540000000000001, 0.09, 192.0, 1.5, 48.0, 14.5, 104.0, 1.0, 104.0, 0.0, 0.0, 0.0, 1.6581653331087492E9, 0.0, 2022-07-18 13:28:53.108
172.0, -29181.09645618158, -31161.662180621886, -60459.59120507136, -59402.68896850217, -27353.12609113766, -44262.15371634409, -58113.55210704233, -38381.90148853081, -19051.688200436616, -64031.62348647398, -62451.42220871714, -74108.21457007105, -57255.93802403665, -55541.04513419213, -53739.27101364983, -53458.75662073572, 0.108, 0.9540000000000001, 0.09, 192.0, 0.0, 0.0, 0.0, 0.0, 0.0, 0.0, 0.0, 0.0, 0.0, 1.6581653331087565E9, 0.0, 2022-07-18 13:28:53.108
174.0, -29172.49103456629, -31150.240439205223, -60447.476559576586, -59387.020395638996, -27335.93759965153, -44237.253873020876, -58104.18672611556, -38350.027900937544, -18994.534789864396, -63947.17859592183, -62368.25136759894, -74025.98250221998, -57180.29972079989, -55463.23871174321, -53660.70463188942, -53372.59064586052, 0.108, 0.9540000000000001, 0.09, 192.0, 0.0, 0.0, 0.0, 0.0, 0.0, 0.0, 0.0, 0.0, 0.0, 1.6581653331087663E9, 0.0, 2022-07-18 13:28:53.108
176.0, -29167.14896764147, -31143.110232723982, -60444.324963608386, -59386.439250283154, -27341.726701465454, -44247.98271035942, -58099.291694079846, -38368.848069768916, -19041.272287520445, -64011.797489142125, -62425.87416480472, -74085.81812212683, -57238.213090683596, -55525.04128516213, -53717.2768971058, -53429.8111116661, 0.108, 0.9540000000000001, 0.09, 192.0, 0.0, 0.0, 0.0, 0.0, 0.0, 0.0, 0.0, 0.0, 0.0, 1.6581653331087744E9, 0.0, 2022-07-18 13:28:53.108
178.0, -29172.312220610645, -31168.144186513924, -60425.080111632364, -59380.448982769136, -27320.93957912202, -44232.51530319635, -58064.82530412976, -38367.12698544586, -18991.360842151742, -63944.049351698086, -62365.16682686411, -74028.3741388767, -57171.53783697341, -55459.77419135263, -53646.48892241585, -53356.5420933416, 0.108, 0.9540000000000001, 0.09, 192.0, 0.0, 0.0, 0.0, 0.0, 0.0, 0.0, 0.0, 0.0, 0.0, 1.6581653331087816E9, 0.0, 2022-07-18 13:28:53.108
180.0, -29183.890424238496, -31161.773939344162, -60441.12866415128, -59415.608276797335, -27341.100852620704, -44266.04291987931, -58101.16924061409, -38429.823628643, -19033.873860105738, -64025.72262593778, -62424.62246711522, -74103.67716594663, -57229.42885511266, -55533.60200328851, -53695.17102183951, -53422.30092552912, 0.1, 0.9580000000000001, 0.09, 192.0, 1.5, 16.0, 14.5, 120.0, 1.0, 104.0, 0.0, 0.0, 0.0, 1.6581653331087875E9, 0.0, 2022-07-18 13:28:53.108
182.0, -29166.143139140982, -31194.429837993368, -60404.672968944666, -59386.88628517226, -27301.35945097917, -44240.00313758888, -58069.51917046538, -38407.02484929858, -19001.217961456536, -63971.78786656712, -62379.740164248964, -74063.08639801579, -57174.62237770825, -55494.91113363638, -53647.83002708317, -53379.65379710839, 0.1, 0.9580000000000001, 0.09, 192.0, 0.0, 0.0, 0.0, 0.0, 0.0, 0.0, 0.0, 0.0, 0.0, 1.6581653331087935E9, 0.0, 2022-07-18 13:28:53.108
184.0, -29188.338421385102, -31164.813776590083, -60448.370629354795, -59426.493576347064, -27340.251486331403, -44279.47631829695, -58107.539487783855, -38436.41739325731, -19030.00700831497, -64031.46702426279, -62428.57872588381, -74109.33215729381, -57219.72819801905, -55543.05679119311, -53691.348873537645, -53421.76448366219, 0.1, 0.9580000000000001, 0.09, 192.0, 0.0, 0.0, 0.0, 0.0, 0.0, 0.0, 0.0, 0.0, 0.0, 1.6581653331087997E9, 0.0, 2022-07-18 13:28:53.108
186.0, -29170.14410139848, -31207.08092535507, -60407.57869572386, -59383.9135031597, -27298.409020711068, -44235.73395439792, -58071.88845537764, -38393.12206424738, -18992.634891585694, -63960.410828639375, -62377.01325142542, -74050.39060716517, -57161.099572312785, -55489.99374985621, -53645.37133519308, -53369.30493942559, 0.1, 0.9580000000000001, 0.09, 192.0, 0.0, 0.0, 0.0, 0.0, 0.0, 0.0, 0.0, 0.0, 0.0, 1.6581653331088078E9, 0.0, 2022-07-18 13:28:53.108
188.0, -29205.30339542668, -31175.609669161997, -60475.773868057004, -59443.25738468855, -27358.244640617926, -44282.963190431976, -58152.73471507248, -38451.840096931475, -19034.29854325039, -64023.308637536604, -62433.31729570834, -74110.22622707204, -57218.96823870757, -55540.17341615837, -53708.64912374606, -53431.152216333416, 0.1, 0.9580000000000001, 0.09, 192.0, 0.0, 0.0, 0.0, 0.0, 0.0, 0.0, 0.0, 0.0, 0.0, 1.6581653331088157E9, 0.0, 2022-07-18 13:28:53.108
190.0, -29169.853528720563, -31216.021623137192, -60402.370739265774, -59369.69779368613, -27285.445008926992, -44225.47450369293, -58045.55810040928, -38395.78192183756, -19011.499763905977, -63975.83353231353, -62403.187144182586, -74071.11067427525, -57173.84006665231, -55501.84017441752, -53671.83580062816, -53391.924904814354, 0.10200000000000001, 0.968, 0.09, 192.0, 1.5, 24.0, 15.0, 32.0, 1.0, 104.0, 0.0, 0.0, 0.0, 1.6581653331088235E9, 0.0, 2022-07-18 13:28:53.108
192.0, -29200.229549435324, -31158.510584653686, -60469.560083098426, -59422.4255588562, -27345.884125934143, -44275.02832115034, -58109.349979084735, -38458.411509801335, -19024.419072201144, -63998.028814557656, -62425.3824264267, -74087.56155819436, -57195.32009307386, -55516.972305413765, -53682.09525133315, -53407.34760848852, 0.10200000000000001, 0.968, 0.09, 192.0, 0.0, 0.0, 0.0, 0.0, 0.0, 0.0, 0.0, 0.0, 0.0, 1.6581653331088314E9, 0.0, 2022-07-18 13:28:53.108
194.0, -29157.850641948062, -31205.583358476564, -60401.16374506518, -59347.301345741915, -27299.191331767004, -44230.66010840656, -58066.702850664005, -38400.60989863991, -19017.49003142, -63971.22907295574, -62407.32221690682, -74062.99699103797, -57185.55238074689, -55494.955837125286, -53676.52966696378, -53387.92394255685, 0.10200000000000001, 0.968, 0.09, 192.0, 0.0, 0.0, 0.0, 0.0, 0.0, 0.0, 0.0, 0.0, 0.0, 1.6581653331088376E9, 0.0, 2022-07-18 13:28:53.108
196.0, -29184.87390099453, -31136.2482471762, -60462.005193472534, -59399.78324172297, -27348.20870735749, -44268.702777469494, -58126.94080197106, -38450.96837889771, -19010.76215633895, -63973.397192167904, -62401.26489415943, -74058.30312470236, -57199.477517542546, -55496.74397668171, -53679.99418735435, -53388.88506756843, 0.10200000000000001, 0.968, 0.09, 192.0, 0.0, 0.0, 0.0, 0.0, 0.0, 0.0, 0.0, 0.0, 0.0, 1.658165333108846E9, 0.0, 2022-07-18 13:28:53.108
198.0, -29170.926412454417, -31219.173219105392, -60406.9081433902, -59352.15167428872, -27298.565482922255, -44231.71064039596, -58062.724240150965, -38413.864483101905, -19016.171278497135, -63964.34473566351, -62397.576856324304, -74054.32451418931, -57199.03048265344, -55495.11229933647, -53682.49758273335, -53385.308788455586, 0.10200000000000001, 0.968, 0.09, 192.0, 0.0, 0.0, 0.0, 0.0, 0.0, 0.0, 0.0, 0.0, 0.0, 1.6581653331088524E9, 0.0, 2022-07-18 13:28:53.108
200.0, -29195.848607522086, -31155.336636941036, -60466.140266196766, -59414.73655876357, -27351.65087600361, -44272.122594371154, -58131.81348226232, -38466.61460001643, -19015.523077907932, -63977.465209658774, -62401.17548718161, -74063.1311015047, -57200.68451174314, -55502.913058151375, -53679.18952455396, -53386.4487274228, 0.1, 0.9580000000000001, 0.094, 192.0, 1.5, 16.0, 14.5, 120.0, 1.0, 120.0, 0.0, 0.0, 0.0, 1.6581653331088583E9, 0.0, 2022-07-18 13:28:53.108
202.0, -29170.76995024323, -31227.979806420783, -60392.580675194346, -59364.73570641705, -27305.11454404766, -44237.20916953196, -58073.54248446733, -38409.72941037767, -19029.716435637052, -63995.30190173411, -62416.9334670226, -74084.61112792625, -57207.34533159081, -55530.875090464964, -53707.82210920121, -53412.1085300575, 0.1, 0.9580000000000001, 0.094, 192.0, 0.0, 0.0, 0.0, 0.0, 0.0, 0.0, 0.0, 0.0, 0.0, 1.6581653331088643E9, 0.0, 2022-07-18 13:28:53.108
204.0, -29179.19655790288, -31157.102424753004, -60450.5163968225, -59424.99600946856, -27346.442919545523, -44270.446213537005, -58129.44419735005, -38437.31146303552, -18994.266568930932, -63972.927805534346, -62376.70032700305, -74053.11751998872, -57164.78761014791, -55499.40383427189, -53662.09044004565, -53371.40600340438, 0.1, 0.9580000000000001, 0.094, 192.0, 0.0, 0.0, 0.0, 0.0, 0.0, 0.0, 0.0, 0.0, 0.0, 1.6581653331088705E9, 0.0, 2022-07-18 13:28:53.108
206.0, -29168.78064498671, -31239.312140859623, -60411.311437047894, -59397.972750422094, -27316.804506397788, -44262.623102977646, -58095.424842289074, -38435.90330313484, -19028.017703058445, -64020.179393312865, -62421.627333358214, -74100.72673567853, -57208.23940136903, -55554.165608187395, -53711.75601622534, -53431.86747215599, 0.1, 0.9580000000000001, 0.094, 192.0, 0.0, 0.0, 0.0, 0.0, 0.0, 0.0, 0.0, 0.0, 0.0, 1.6581653331088767E9, 0.0, 2022-07-18 13:28:53.108
208.0, -29188.718401040842, -31177.420160462876, -60457.043106203455, -59435.724846807105, -27342.017274143374, -44271.72026297096, -58128.03603744937, -38454.65641673284, -18993.41720264163, -63987.724660363754, -62386.19981839655, -74068.0261335404, -57168.31918577185, -55517.70991298079, -53669.667681416, -53393.198954248306, 0.1, 0.9580000000000001, 0.094, 192.0, 0.0, 0.0, 0.0, 0.0, 0.0, 0.0, 0.0, 0.0, 0.0, 1.658165333108883E9, 0.0, 2022-07-18 13:28:53.108
210.0, -29174.815615989643, -31232.941893689862, -60425.169518610186, -59391.64720674124, -27311.283625517324, -44257.68336745303, -58066.09935356371, -38431.768230410606, -19036.354903740277, -64031.019989373686, -62432.51263290795, -74111.67909046162, -57222.4551108426, -55561.7652013022, -53711.59955401416, -53439.08708561505, 0.097, 0.9570000000000001, 0.093, 192.0, 1.0, 120.0, 14.5, 112.0, 1.0, 112.0, 0.0, 0.0, 0.0, 1.6581653331088889E9, 0.0, 2022-07-18 13:28:53.108
212.0, -29190.215967919346, -31178.64950640792, -60466.94492899715, -59413.775433751995, -27340.430300287047, -44268.85923968068, -58104.097319137734, -38440.41835551481, -19002.827287057316, -63972.03373575613, -62388.88202773119, -74056.13500549018, -57182.04315686741, -55514.46891003477, -53662.38101272357, -53379.94436978631, 0.097, 0.9570000000000001, 0.093, 192.0, 0.0, 0.0, 0.0, 0.0, 0.0, 0.0, 0.0, 0.0, 0.0, 1.6581653331088948E9, 0.0, 2022-07-18 13:28:53.108
214.0, -29185.67856379492, -31231.354919833535, -60443.699114763636, -59384.60640723782, -27327.22041931396, -44257.661015708574, -58082.6619962051, -38421.86640761691, -19053.990430115515, -64031.154099840416, -62442.36975221274, -74104.86180840275, -57237.631945327754, -55566.19084670435, -53718.46153956193, -53432.11334134499, 0.097, 0.9570000000000001, 0.093, 192.0, 0.0, 0.0, 0.0, 0.0, 0.0, 0.0, 0.0, 0.0, 0.0, 1.6581653331089008E9, 0.0, 2022-07-18 13:28:53.108
216.0, -29195.625090077534, -31194.809817649108, -60461.73697253907, -59402.666616757706, -27338.17277409706, -44260.56674248776, -58106.466604049994, -38420.145323293844, -19018.004121542468, -63972.145494478405, -62392.45830684403, -74051.57524962131, -57185.1947528356, -55503.2483343182, -53666.538437192256, -53369.26023593667, 0.097, 0.9570000000000001, 0.093, 192.0, 0.0, 0.0, 0.0, 0.0, 0.0, 0.0, 0.0, 0.0, 0.0, 1.6581653331089067E9, 0.0, 2022-07-18 13:28:53.108
218.0, -29203.805828548175, -31239.334492604077, -60460.79819927194, -59405.460584814624, -27338.731567708444, -44273.62016124966, -58107.78535697286, -38458.7244342237, -19069.05550587839, -64041.838233690054, -62459.804112887876, -74119.79277369891, -57253.18875946865, -55569.32009092809, -53736.85702524865, -53444.362097306504, 0.097, 0.9570000000000001, 0.093, 192.0, 0.0, 0.0, 0.0, 0.0, 0.0, 0.0, 0.0, 0.0, 0.0, 1.6581653331089127E9, 0.0, 2022-07-18 13:28:53.108
220.0, -29195.893311010997, -31209.539617245155, -60467.593129586356, -59407.40518658223, -27336.675207218555, -44260.49968725439, -58101.45981329201, -38438.406698513834, -19027.615371658252, -63975.654718357895, -62403.27655116041, -74063.51108116044, -57194.24720934001, -55509.70798846579, -53680.70944317692, -53383.274779710155, 0.0995, 0.9565000000000001, 0.0905, 192.0, 1.5, 24.0, 14.5, 112.0, 1.0, 96.0, 0.0, 0.0, 0.0, 1.658165333108919E9, 0.0, 2022-07-18 13:28:53.108
222.0, -29183.599851560575, -31213.965262647303, -60462.20635917263, -59402.64426501325, -27348.543983524323, -44268.7474809584, -58119.1176914117, -38446.56508524002, -19059.041924362413, -64036.02678013167, -62456.518406452946, -74118.76459345396, -57248.09256173284, -55571.17528571788, -53748.50228410987, -53439.35530654852, 0.0995, 0.9565000000000001, 0.0905, 192.0, 0.0, 0.0, 0.0, 0.0, 0.0, 0.0, 0.0, 0.0, 0.0, 1.658165333108926E9, 0.0, 2022-07-18 13:28:53.108
224.0, -29181.029400948217, -31213.026489380183, -60453.600937557334, -59393.81532595341, -27336.74226245192, -44254.308254040276, -58121.82225249079, -38454.23173358819, -19003.319025435332, -63954.733485547724, -62387.13859166367, -74045.33911291827, -57177.952787632086, -55506.28817156413, -53688.57725722519, -53372.165962715866, 0.0995, 0.9565000000000001, 0.0905, 192.0, 0.0, 0.0, 0.0, 0.0, 0.0, 0.0, 0.0, 0.0, 0.0, 1.658165333108934E9, 0.0, 2022-07-18 13:28:53.108
226.0, -29207.96325301686, -31228.717413987808, -60480.8253623039, -59430.829814771394, -27366.157158155103, -44289.08756841273, -58146.76679930292, -38474.974152442715, -19061.0982848523, -64045.14629186944, -62456.7419238975, -74120.84330568831, -57247.33260242136, -55581.770012589695, -53761.66746159404, -53452.7663532217, 0.0995, 0.9565000000000001, 0.0905, 192.0, 0.0, 0.0, 0.0, 0.0, 0.0, 0.0, 0.0, 0.0, 0.0, 1.658165333108942E9, 0.0, 2022-07-18 13:28:53.108
228.0, -29189.5901190746, -31232.98659717877, -60438.55821353891, -59397.65982599972, -27320.31373027727, -44251.38017551663, -58099.001121401925, -38438.22788455819, -19028.978828070027, -63980.57210213806, -62404.75176629446, -74067.40028469566, -57175.22587480854, -55525.220099117774, -53702.36828355411, -53389.71208211328, 0.0995, 0.9565000000000001, 0.0905, 192.0, 0.0, 0.0, 0.0, 0.0, 0.0, 0.0, 0.0, 0.0, 0.0, 1.658165333108952E9, 0.0, 2022-07-18 13:28:53.108
230.0, -29190.97592723083, -31200.12953282947, -60464.59799582935, -59427.18648042518, -27347.962838168485, -44282.22558286495, -58111.47339480799, -38465.27349534911, -19061.970002886057, -64037.166719098896, -62452.31627849535, -74120.88800917722, -57236.3578958938, -55574.39393691945, -53744.50132185237, -53441.657536227416, 0.10175000000000001, 0.95425, 0.08925, 192.0, 1.5, 32.0, 14.5, 96.0, 1.0, 96.0, 0.0, 0.0, 0.0, 1.6581653331089602E9, 0.0, 2022-07-18 13:28:53.108
232.0, -29165.00320017376, -31223.80003020764, -60429.4610535456, -59394.28471258697, -27317.542113964813, -44258.353919786685, -58096.207153345014, -38445.80512592854, -19012.662054617653, -63964.18827345232, -62393.50883883343, -74058.34782819127, -57174.68943294161, -55515.05005539061, -53691.348873537645, -53390.71791061377, 0.10175000000000001, 0.95425, 0.08925, 192.0, 0.0, 0.0, 0.0, 0.0, 0.0, 0.0, 0.0, 0.0, 0.0, 1.658165333108968E9, 0.0, 2022-07-18 13:28:53.108
234.0, -29184.717438783344, -31186.249099522724, -60476.824400046404, -59432.439140372175, -27365.106626165703, -44298.140024917135, -58128.706589783025, -38485.94885897027, -19043.283944521423, -64015.910210121896, -62436.26772597644, -74099.09505833329, -57230.47938710206, -55563.106305969515, -53738.44399910498, -53447.089010130054, 0.10175000000000001, 0.95425, 0.08925, 192.0, 0.0, 0.0, 0.0, 0.0, 0.0, 0.0, 0.0, 0.0, 0.0, 1.658165333108974E9, 0.0, 2022-07-18 13:28:53.108
236.0, -29151.256877333748, -31222.525980773687, -60410.64088471424, -59365.1603895617, -27304.73456439192, -44240.181951544524, -58064.534731451844, -38434.204570556234, -19021.267476232944, -63962.89187227391, -62396.816897012824, -74054.32451418931, -57196.974122163556, -55519.140424625926, -53696.64623697355, -53399.502146184706, 0.10175000000000001, 0.95425, 0.08925, 192.0, 0.0, 0.0, 0.0, 0.0, 0.0, 0.0, 0.0, 0.0, 0.0, 1.658165333108983E9, 0.0, 2022-07-18 13:28:53.108
238.0, -29174.212118889347, -31179.565927930587, -60456.08198119188, -59404.29829410295, -27345.45944278949, -44267.62989373564, -58115.004970431924, -38450.163716097326, -19031.504575193474, -63994.83251510055, -62415.122975721715, -74078.37499122322, -57219.884660230244, -55529.556337542104, -53713.6782662485, -53413.76255914719, 0.10175000000000001, 0.95425, 0.08925, 192.0, 0.0, 0.0, 0.0, 0.0, 0.0, 0.0, 0.0, 0.0, 0.0, 1.6581653331089897E9, 0.0, 2022-07-18 13:28:53.108
240.0, -29119.070365318104, -31224.64939649694, -60367.278500470944, -59329.91168855569, -27266.133101717605, -44212.33167795321, -58026.42500715554, -38403.18034925227, -19013.2879034624, -63962.154264706885, -62378.26494911492, -74047.0825489858, -57179.830334166334, -55497.101604592994, -53665.845533114145, -53366.33215741303, 0.104875, 0.9541250000000001, 0.08762500000000001, 192.0, 1.5, 48.0, 14.5, 104.0, 1.0, 88.0, 0.0, 0.0, 0.0, 1.658165333593527E9, 0.0, 2022-07-18 13:28:53.593
242.0, -29165.226717618316, -31193.714582170796, -60459.72531553809, -59420.81623325542, -27336.049358373806, -44273.19547810501, -58107.42772906157, -38464.960570926734, -19021.490993677497, -63992.82085809957, -62399.901437747656, -74073.54701442087, -57192.25790408348, -55523.811939217085, -53670.7182134054, -53380.79373607561, 0.104875, 0.9541250000000001, 0.08762500000000001, 192.0, 0.0, 0.0, 0.0, 0.0, 0.0, 0.0, 0.0, 0.0, 0.0, 1.6581653335935621E9, 0.0, 2022-07-18 13:28:53.593
244.0, -29125.552371210146, -31248.90103923095, -60396.067547329374, -59361.628813937765, -27269.329401174713, -44228.04495430529, -58033.51051014788, -38397.4135991828, -19036.19844152909, -63984.68482311784, -62409.669150074624, -74077.6373836562, -57196.37062506326, -55531.81386373209, -53674.920341362995, -53372.88121853843, 0.104875, 0.9541250000000001, 0.08762500000000001, 192.0, 0.0, 0.0, 0.0, 0.0, 0.0, 0.0, 0.0, 0.0, 0.0, 1.6581653335936017E9, 0.0, 2022-07-18 13:28:53.593
246.0, -29150.765138955732, -31177.93425058535, -60467.48137086408, -59425.867727502315, -27335.244695573416, -44277.62112350716, -58119.609429789714, -38461.49605053617, -19029.559973425865, -63990.56333190958, -62409.22211518552, -74078.39734296767, -57195.56596226287, -55542.94503247083, -53671.008786083315, -53379.11735524146, 0.104875, 0.9541250000000001, 0.08762500000000001, 192.0, 0.0, 0.0, 0.0, 0.0, 0.0, 0.0, 0.0, 0.0, 0.0, 1.658165333593634E9, 0.0, 2022-07-18 13:28:53.593
248.0, -29109.727336135787, -31235.020605924205, -60389.294968759415, -59356.42085747968, -27271.7880930648, -44229.87779735062, -58062.03133607285, -38426.515570463605, -19043.708627666074, -63990.94331156532, -62412.55252510936, -74076.8327208558, -57201.33271233234, -55544.37554411597, -53684.4198327565, -53383.677111110344, 0.104875, 0.9541250000000001, 0.08762500000000001, 192.0, 0.0, 0.0, 0.0, 0.0, 0.0, 0.0, 0.0, 0.0, 0.0, 1.6581653335936766E9, 0.0, 2022-07-18 13:28:53.593
250.0, -29159.817595460132, -31188.372515245977, -60464.173312684696, -59432.170919438715, -27331.22138157146, -44281.46562355347, -58094.0613858773, -38469.34151283998, -19025.179031512624, -63982.71786960577, -62397.7780220244, -74065.41097943914, -57180.65734871118, -55520.63799150443, -53661.88927434555, -53376.79277381811, 0.10543749999999999, 0.9530625000000001, 0.08581250000000001, 192.0, 1.5, 40.0, 14.5, 96.0, 1.0, 80.0, 0.0, 0.0, 0.0, 1.6581653335937126E9, 0.0, 2022-07-18 13:28:53.593
252.0, -29118.80214438464, -31238.306312359135, -60371.61473889527, -59351.23525276605, -27252.789110277787, -44222.61348040265, -58011.829318026226, -38432.97522461119, -19044.915621866658, -63994.877218589456, -62422.052016502865, -74087.42744772762, -57196.30356982989, -55536.9100614679, -53677.60255069764, -53400.7538438742, 0.10543749999999999, 0.9530625000000001, 0.08581250000000001, 192.0, 0.0, 0.0, 0.0, 0.0, 0.0, 0.0, 0.0, 0.0, 0.0, 1.6581653335937216E9, 0.0, 2022-07-18 13:28:53.593
254.0, -29153.268534334726, -31186.494968711733, -60440.70398100663, -59404.18653538067, -27308.55671269378, -44256.118745341155, -58080.51622873738, -38464.133556381894, -19011.410356928154, -63957.28158441563, -62381.14832414965, -74050.43531065408, -57158.39501123369, -55496.16283132587, -53640.63276536856, -53362.73352655573, 0.10543749999999999, 0.9530625000000001, 0.08581250000000001, 192.0, 0.0, 0.0, 0.0, 0.0, 0.0, 0.0, 0.0, 0.0, 0.0, 1.6581653335937288E9, 0.0, 2022-07-18 13:28:53.593
0.0, -29126.692310177365, -31236.495821058255, -60390.703128660105, -59345.37909571876, -27271.653982598065, -44227.19558801599, -58039.00903928388, -38446.430974773284, -19057.365543528264, -63998.07351804656, -62417.26874318943, -74081.77245638042, -57214.90022121671, -55539.99460220273, -53697.56265849622, -53407.302904999604, 0.10543749999999999, 0.9530625000000001, 0.08581250000000001, 192.0, 0.0, 0.0, 0.0, 0.0, 0.0, 0.0, 0.0, 0.0, 0.0, 1.6581653335937357E9, 0.0, 2022-07-18 13:28:53.593
2.0, -29137.421147515914, -31168.2559452362, -60431.1150826353, -59378.213808323606, -27309.897817361096, -44237.07505906523, -58107.91946743959, -38467.5310215391, -19020.19459249909, -63943.42350285334, -62368.60899551022, -74024.68610104157, -57179.78563067742, -55496.22988655924, -53654.62495739758, -53354.239863662704, 0.10543749999999999, 0.9530625000000001, 0.08581250000000001, 192.0, 0.0, 0.0, 0.0, 0.0, 0.0, 0.0, 0.0, 0.0, 0.0, 1.658165333593743E9, 0.0, 2022-07-18 13:28:53.593
4.0, -29119.405641484936, -31216.714527215307, -60390.16668679318, -59341.422836950165, -27275.49848264438, -44221.96527981345, -58054.52114993586, -38443.90522764984, -19049.743598669007, -63988.39521269742, -62409.31152216334, -74064.4275026831, -57214.028503182955, -55535.27838412266, -53701.60832424263, -53389.823840835554, 0.10471875, 0.9575312500000001, 0.08890625, 192.0, 1.5, 32.0, 15.0, 8.0, 1.0, 112.0, 0.0, 0.0, 0.0, 1.6581653335937665E9, 0.0, 2022-07-18 13:28:53.593
6.0, -29129.642740445466, -31168.993552803226, -60422.084977875355, -59369.31781403039, -27284.662697871056, -44233.45407646347, -58066.63579543064, -38446.453326517745, -19013.734938351507, -63931.957057947766, -62362.57402450729, -74018.96405446102, -57156.271595510436, -55480.44955497379, -53640.34219269064, -53332.96100294126, 0.10471875, 0.9575312500000001, 0.08890625, 192.0, 0.0, 0.0, 0.0, 0.0, 0.0, 0.0, 0.0, 0.0, 0.0, 1.6581653335937743E9, 0.0, 2022-07-18 13:28:53.593
8.0, -29119.338586251568, -31209.78548643416, -60403.3095125329, -59354.45390396761, -27263.696761571977, -44231.95650958497, -58037.08678926073, -38444.218152072215, -19056.29265979441, -63996.03950930113, -62420.97913276901, -74077.74914237847, -57218.498852074015, -55540.84396849203, -53696.55682999574, -53396.77523336116, 0.10471875, 0.9575312500000001, 0.08890625, 192.0, 0.0, 0.0, 0.0, 0.0, 0.0, 0.0, 0.0, 0.0, 0.0, 1.6581653335937824E9, 0.0, 2022-07-18 13:28:53.593
10.0, -29118.779792640187, -31174.40267496141, -60419.82745168537, -59371.68709894265, -27283.187482737005, -44235.979823586924, -58067.99925184241, -38450.05195737505, -18992.61253984124, -63923.82102296603, -62349.18532957856, -74006.55883628831, -57147.93439482861, -55471.73237463622, -53633.99429726533, -53331.28462210711, 0.10471875, 0.9575312500000001, 0.08890625, 192.0, 0.0, 0.0, 0.0, 0.0, 0.0, 0.0, 0.0, 0.0, 0.0, 1.6581653335937903E9, 0.0, 2022-07-18 13:28:53.593
12.0, -29133.710757936333, -31217.36272780451, -60422.73317846456, -59382.79591593694, -27301.60532016818, -44262.04195762181, -58093.748461454925, -38476.33760885449, -19050.77177891395, -64007.41654722888, -62423.97426652602, -74083.35943023676, -57227.55130857841, -55552.7127447978, -53724.20593788695, -53422.14446331793, 0.10471875, 0.9575312500000001, 0.08890625, 192.0, 0.0, 0.0, 0.0, 0.0, 0.0, 0.0, 0.0, 0.0, 0.0, 1.6581653335937986E9, 0.0, 2022-07-18 13:28:53.593
14.0, -29135.72241493731, -31203.25877705321, -60423.64959998723, -59380.94072114715, -27301.046526556795, -44245.7922394028, -58089.99336838644, -38436.90913163533, -19008.61638887124, -63949.39141862291, -62369.79363796636, -74030.83283076678, -57167.76039216047, -55497.7498051822, -53672.23813202836, -53363.22526493374, 0.103359375, 0.961765625, 0.088453125, 192.0, 1.5, 24.0, 15.0, 24.0, 1.0, 96.0, 0.0, 0.0, 0.0, 1.6581653335938077E9, 0.0, 2022-07-18 13:28:53.593
16.0, -29150.183993599894, -31209.78548643416, -60440.21224262861, -59390.17199160719, -27312.93765460702, -44258.39862327559, -58094.73193821096, -38453.85175393245, -19053.92337488215, -64012.93742810934, -62428.31050495035, -74087.36039249426, -57228.28891614544, -55549.71761104079, -53733.168987413526, -53415.59540219253, 0.103359375, 0.961765625, 0.088453125, 192.0, 0.0, 0.0, 0.0, 0.0, 0.0, 0.0, 0.0, 0.0, 0.0, 1.6581653335938153E9, 0.0, 2022-07-18 13:28:53.593
18.0, -29143.90315340795, -31214.479352769777, -60434.42314081468, -59382.550046747936, -27293.60339565318, -44237.298576509784, -58068.178065798056, -38417.4184104703, -19028.218868758544, -63963.763590307666, -62388.45734458654, -74043.43921463957, -57181.75258418949, -55502.89070640692, -53688.91253339202, -53365.34868065699, 0.103359375, 0.961765625, 0.088453125, 192.0, 0.0, 0.0, 0.0, 0.0, 0.0, 0.0, 0.0, 0.0, 0.0, 1.6581653335938234E9, 0.0, 2022-07-18 13:28:53.593
20.0, -29176.469645079334, -31222.101297629037, -60475.19272270116, -59426.784149024985, -27333.903590906095, -44277.21879210696, -58117.30720011082, -38427.7225646642, -19064.54045349842, -64035.08800686456, -62445.3872377142, -74102.9395583796, -57235.79910228242, -55564.514465870205, -53750.715106810945, -53426.57010872008, 0.103359375, 0.961765625, 0.088453125, 192.0, 0.0, 0.0, 0.0, 0.0, 0.0, 0.0, 0.0, 0.0, 0.0, 1.6581653335938303E9, 0.0, 2022-07-18 13:28:53.593
22.0, -29184.225700405324, -31251.493841587766, -60447.029524687474, -59402.2195818686, -27291.05529678527, -44237.07505906523, -58088.87578116367, -38394.61963112588, -19047.039037589915, -63989.71396562028, -62410.16088845264, -74064.40515093865, -57193.263732583975, -55520.883860693444, -53709.96787666892, -53375.2505034507, 0.103359375, 0.961765625, 0.088453125, 192.0, 0.0, 0.0, 0.0, 0.0, 0.0, 0.0, 0.0, 0.0, 0.0, 1.6581653335938382E9, 0.0, 2022-07-18 13:28:53.593
24.0, -29232.997206806805, -31246.41999559641, -60491.46479266463, -59448.666506846734, -27334.59649498421, -44274.290713583316, -58124.03507519187, -38411.070515044994, -19093.038927678936, -64067.20746364683, -62467.426057747136, -74129.53813428142, -57242.43757038565, -55576.56205613161, -53766.20486571847, -53429.699352943826, 0.10467968750000001, 0.9588828125, 0.0882265625, 192.0, 1.5, 40.0, 14.5, 112.0, 1.0, 96.0, 0.0, 0.0, 0.0, 1.6581653335938456E9, 0.0, 2022-07-18 13:28:53.593
26.0, -29245.916515101973, -31304.24395850229, -60442.96150719661, -59409.26038137203, -27281.756971091865, -44240.249006777885, -58050.52018767836, -38339.58963627692, -19077.213892604577, -64025.94614338233, -62429.65160961767, -74092.09896231878, -57196.34827331881, -55535.54660505612, -53726.99990594386, -53384.459422166285, 0.10467968750000001, 0.9588828125, 0.0882265625, 192.0, 0.0, 0.0, 0.0, 0.0, 0.0, 0.0, 0.0, 0.0, 0.0, 1.6581653335938537E9, 0.0, 2022-07-18 13:28:53.593
28.0, -29316.771545025298, -31303.439295701897, -60509.50265044006, -59479.93659733971, -27343.336027066234, -44296.35188536071, -58124.19153740306, -38350.318473615465, -19120.39746289223, -64097.24820819476, -62479.63011021973, -74148.58182055735, -57238.213090683596, -55585.5698091471, -53774.38560418911, -53432.85094891202, 0.10467968750000001, 0.9588828125, 0.0882265625, 192.0, 0.0, 0.0, 0.0, 0.0, 0.0, 0.0, 0.0, 0.0, 0.0, 1.6581653335938623E9, 0.0, 2022-07-18 13:28:53.593
30.0, -29294.822131970184, -31352.903706181492, -60444.21320488611, -59418.871631487804, -27283.96979379294, -44244.56289345776, -58075.01769960138, -38312.3428597859, -19125.06897748339, -64077.48926609627, -62464.05094433438, -74133.22617211654, -57217.89535497372, -55567.017861249195, -53757.19711270298, -53416.37771324846, 0.10467968750000001, 0.9588828125, 0.0882265625, 192.0, 0.0, 0.0, 0.0, 0.0, 0.0, 0.0, 0.0, 0.0, 0.0, 1.6581653335938704E9, 0.0, 2022-07-18 13:28:53.593
30.0, -29331.009606243326, -31307.462609703853, -60503.668845137225, -59471.174713513225, -27340.542059009324, -44287.32178060076, -58108.925295940084, -38337.15329613129, -19125.06897748339, -64077.48926609627, -62464.05094433438, -74133.22617211654, -57217.89535497372, -55567.017861249195, -53757.19711270298, -53416.37771324846, 0.10467968750000001, 0.9588828125, 0.0882265625, 192.0, 0.0, 0.0, 0.0, 0.0, 0.0, 0.0, 0.0, 0.0, 0.0, 1.6581653335938742E9, 0.0, 2022-07-18 13:28:53.593
34.0, -29319.27494040429, -31383.615003063085, -60450.65050728923, -59426.359465880334, -27301.58296842372, -44265.9982163904, -58056.44339995902, -38328.860798938375, -19122.006788493014, -64079.29975739715, -62459.64765067669, -74134.65668376168, -57210.60868628129, -55566.21319844881, -53758.42645864803, -53428.87233839898, 0.10467968750000001, 0.9588828125, 0.0882265625, 192.0, 0.0, 0.0, 0.0, 0.0, 0.0, 0.0, 0.0, 0.0, 0.0, 1.6581653335938835E9, 0.0, 2022-07-18 13:28:53.593
36.0, -29376.785978887798, -31350.109738124578, -60533.46372049615, -59503.607094717874, -27372.70621928051, -44328.1137142317, -58154.0758197398, -38414.82560811348, -19154.97561156459, -64129.90410684396, -62499.03142440694, -74179.51663488349, -57247.13143672126, -55612.950696104854, -53792.26699975336, -53468.345519107046, 0.10200000000000001, 0.9520000000000001, 0.096, 192.0, 1.5, 24.0, 14.5, 96.0, 1.5, 0.0, 0.0, 0.0, 0.0, 1.6581653335938957E9, 0.0, 2022-07-18 13:28:53.593
38.0, -29327.120402708104, -31396.86958752508, -60451.87985323428, -59428.03584671448, -27296.106791032173, -44261.214943076964, -58073.22956004496, -38314.309813297965, -19158.70835288863, -64115.30841771465, -62494.98575866053, -74168.92190801167, -57240.80589304041, -55606.84866986855, -53792.95990383148, -53451.93933867686, 0.10200000000000001, 0.9520000000000001, 0.096, 192.0, 0.0, 0.0, 0.0, 0.0, 0.0, 0.0, 0.0, 0.0, 0.0, 1.6581653335939033E9, 0.0, 2022-07-18 13:28:53.593
40.0, -29355.596525144163, -31339.67147346395, -60530.15566231676, -59506.08813835242, -27358.535213295843, -44310.81346402329, -58138.47430211, -38380.04629374103, -19151.55579466293, -64111.37451069052, -62489.77780220244, -74164.11628295378, -57241.43174188516, -55597.371530219505, -53775.7937640898, -53437.8130361811, 0.10200000000000001, 0.9520000000000001, 0.096, 192.0, 0.0, 0.0, 0.0, 0.0, 0.0, 0.0, 0.0, 0.0, 0.0, 1.6581653335939112E9, 0.0, 2022-07-18 13:28:53.593
42.0, -29305.170989652994, -31382.31860188468, -60456.95369922563, -59432.50619560554, -27295.860921843163, -44261.773736688345, -58071.329661766256, -38342.629473522844, -19166.777332636993, -64116.1354322595, -62501.75833723049, -74171.09002722384, -57251.914710034696, -55609.08384431408, -53788.35544447368, -53448.854797942025, 0.10200000000000001, 0.9520000000000001, 0.096, 192.0, 0.0, 0.0, 0.0, 0.0, 0.0, 0.0, 0.0, 0.0, 0.0, 1.6581653335939193E9, 0.0, 2022-07-18 13:28:53.593
44.0, -29313.977576968384, -31293.00103104127, -60511.000217318564, -59472.29230073599, -27337.613980485676, -44284.59486777722, -58110.37815932967, -38355.63818879583, -19136.64718111124, -64070.6719840374, -62467.627223447234, -74134.2990558504, -57223.662105043186, -55573.34340493005, -53753.79964754578, -53412.60026843551, 0.10200000000000001, 0.9520000000000001, 0.096, 192.0, 0.0, 0.0, 0.0, 0.0, 0.0, 0.0, 0.0, 0.0, 0.0, 1.6581653335939271E9, 0.0, 2022-07-18 13:28:53.593
46.0, -29288.206015611413, -31357.619924261562, -60456.752533525534, -59420.16803266622, -27296.777343365833, -44268.501611769396, -58073.11780132268, -38378.906354773804, -19161.904652345736, -64082.09372545406, -62490.58246500284, -74153.18627991513, -57252.22763445707, -55591.0236347942, -53782.18636300402, -53440.7634664492, 0.106, 0.9500000000000001, 0.1, 192.0, 1.5, 40.0, 14.5, 88.0, 1.5, 16.0, 0.0, 0.0, 0.0, 1.6581653335939355E9, 0.0, 2022-07-18 13:28:53.593
48.0, -29288.451884800423, -31276.930126777905, -60484.73691758358, -59447.39245741278, -27320.93957912202, -44274.87185893916, -58111.719263996994, -38357.33692137443, -19127.102986228823, -64047.381466314975, -62450.41638021665, -74116.1494393527, -57216.28602937294, -55551.304584897116, -53743.02610671832, -53403.36899797547, 0.106, 0.9500000000000001, 0.1, 192.0, 0.0, 0.0, 0.0, 0.0, 0.0, 0.0, 0.0, 0.0, 0.0, 1.6581653335939438E9, 0.0, 2022-07-18 13:28:53.593
50.0, -29248.397558736513, -31327.065089591157, -60438.312344349906, -59408.70158776064, -27290.854131085176, -44256.811649419265, -58067.79808614231, -38346.07164216896, -19143.55387014793, -64077.31045214063, -62477.37258402975, -74144.8043757444, -57248.24902394403, -55582.73113760127, -53775.70435711198, -53437.96949839229, 0.106, 0.9500000000000001, 0.1, 192.0, 0.0, 0.0, 0.0, 0.0, 0.0, 0.0, 0.0, 0.0, 0.0, 1.658165333593952E9, 0.0, 2022-07-18 13:28:53.593
52.0, -29247.145861047014, -31260.546298092166, -60481.45121114865, -59442.452721888156, -27319.88904713262, -44268.12163211365, -58101.63862724765, -38360.82379350946, -19095.229398635554, -64022.123995080474, -62426.58942062729, -74094.9376338646, -57195.342444818314, -55533.13261665495, -53727.06696117723, -53395.2553147382, 0.106, 0.9500000000000001, 0.1, 192.0, 0.0, 0.0, 0.0, 0.0, 0.0, 0.0, 0.0, 0.0, 0.0, 1.65816533359396E9, 0.0, 2022-07-18 13:28:53.593
54.0, -29235.187677763424, -31316.53741795271, -60455.567891069404, -59423.54314607896, -27309.83076212773, -44262.91367565557, -58088.94283639704, -38366.65759881229, -19136.44601541114, -64071.67781253789, -62474.98094737303, -74142.5468495544, -57251.78059956797, -55591.96240806132, -53790.25534275238, -53450.33001307607, 0.106, 0.9500000000000001, 0.1, 192.0, 0.0, 0.0, 0.0, 0.0, 0.0, 0.0, 0.0, 0.0, 0.0, 1.6581653335939674E9, 0.0, 2022-07-18 13:28:53.593
56.0, -29255.393654751024, -31285.177920481914, -60483.26170244953, -59451.50517839255, -27332.070747860762, -44271.630855993135, -58117.955400700026, -38399.62642188388, -19103.92422722867, -64018.54771596762, -62424.82363281532, -74095.89875887618, -57202.6514652552, -55544.77787551616, -53740.03097296131, -53388.19216349032, 0.10200000000000001, 0.9480000000000001, 0.1, 192.0, 1.5, 24.0, 14.5, 80.0, 1.5, 16.0, 0.0, 0.0, 0.0, 1.658165333593975E9, 0.0, 2022-07-18 13:28:53.593
58.0, -29228.705671871387, -31305.607414914062, -60440.52516705098, -59408.56747729391, -27305.06984055875, -44254.934102885025, -58081.05267060432, -38383.19788970923, -19151.041704540457, -64077.93630098538, -62478.467819508056, -74150.03468394693, -57259.2684339605, -55600.14314653196, -53794.815098621264, -53438.640050725946, 0.10200000000000001, 0.9480000000000001, 0.1, 192.0, 0.0, 0.0, 0.0, 0.0, 0.0, 0.0, 0.0, 0.0, 0.0, 1.6581653335939825E9, 0.0, 2022-07-18 13:28:53.593
60.0, -29222.849514824095, -31271.76687380873, -60449.15294041073, -59408.34395984936, -27302.745259135398, -44251.17900981653, -58075.55414146831, -38412.813951112505, -19098.87273298177, -63987.590549897024, -62408.842135529776, -74069.6354591412, -57191.65440698319, -55521.42030256037, -53718.03685641728, -53355.98329973022, 0.10200000000000001, 0.9480000000000001, 0.1, 192.0, 0.0, 0.0, 0.0, 0.0, 0.0, 0.0, 0.0, 0.0, 0.0, 1.6581653335939903E9, 0.0, 2022-07-18 13:28:53.593
62.0, -29211.405421662977, -31281.691048346886, -60450.047010188944, -59406.511116804024, -27308.467305715956, -44261.41610877706, -58084.27132180588, -38429.89068387636, -19135.59664912184, -64057.39504783095, -62465.056772834876, -74122.67614873363, -57245.79033205394, -55581.88177131197, -53775.99492978989, -53414.88014636996, 0.10200000000000001, 0.9480000000000001, 0.1, 192.0, 0.0, 0.0, 0.0, 0.0, 0.0, 0.0, 0.0, 0.0, 0.0, 1.6581653335939984E9, 0.0, 2022-07-18 13:28:53.593
64.0, -29203.559959359165, -31267.073007473115, -60453.51153057951, -59406.13113714828, -27301.895892846096, -44242.12655331213, -58097.07887137877, -38411.69636388974, -19091.004918933504, -63986.31650046307, -62406.76342329544, -74061.00768578144, -57192.839049439324, -55519.699218237314, -53723.378923342105, -53363.09115446701, 0.10200000000000001, 0.9480000000000001, 0.1, 192.0, 0.0, 0.0, 0.0, 0.0, 0.0, 0.0, 0.0, 0.0, 0.0, 1.6581653335940087E9, 0.0, 2022-07-18 13:28:53.594
66.0, -29205.97394776034, -31267.38593189549, -60460.30646089393, -59427.56646008092, -27308.17673303804, -44267.160507102075, -58076.53761822434, -38452.98003589869, -19128.2652769405, -64044.87807093598, -62454.23852851851, -74115.90357016367, -57245.678573331665, -55575.53387588667, -53776.10668851217, -53433.454446012314, 0.1, 0.9520000000000001, 0.092, 192.0, 1.5, 16.0, 14.5, 96.0, 1.0, 112.0, 0.0, 0.0, 0.0, 1.6581653335940185E9, 0.0, 2022-07-18 13:28:53.594
68.0, -29180.24708989228, -31264.010818482737, -60420.475652274574, -59390.79784045194, -27269.86584304164, -44230.07896305072, -58040.93128930704, -38399.87229107288, -19085.55109328641, -63979.11923874846, -62399.052071458354, -74063.95811604954, -57187.34052030332, -55521.42030256037, -53713.14182438157, -53375.854000550986, 0.1, 0.9520000000000001, 0.092, 192.0, 0.0, 0.0, 0.0, 0.0, 0.0, 0.0, 0.0, 0.0, 0.0, 1.658165333594032E9, 0.0, 2022-07-18 13:28:53.594
70.0, -29195.960366244362, -31251.203268909845, -60451.81279800091, -59416.07766343089, -27309.07080281625, -44263.62893147814, -58089.278112563865, -38449.06848061901, -19113.3119598999, -64026.52728873817, -62436.44653993208, -74100.10088683378, -57226.545480077926, -55554.23266342076, -53751.81034228925, -53413.404931235906, 0.1, 0.9520000000000001, 0.092, 192.0, 0.0, 0.0, 0.0, 0.0, 0.0, 0.0, 0.0, 0.0, 0.0, 1.6581653335940423E9, 0.0, 2022-07-18 13:28:53.594
72.0, -29188.91956674094, -31286.317859449133, -60426.89060293324, -59384.762869449005, -27282.896910059084, -44245.12168706914, -58059.9526238385, -38440.35130028144, -19095.96700620258, -63971.162017722374, -62403.522420349414, -74056.49263340147, -57192.16849710566, -55517.01700890267, -53719.02033317332, -53379.631445363935, 0.1, 0.9520000000000001, 0.092, 192.0, 0.0, 0.0, 0.0, 0.0, 0.0, 0.0, 0.0, 0.0, 0.0, 1.6581653335940504E9, 0.0, 2022-07-18 13:28:53.594
74.0, -29206.01865124925, -31249.45983284233, -60469.15775169823, -59417.53052682049, -27322.50420123389, -44277.48701304043, -58105.281961593864, -38491.76031252865, -19128.68996008515, -64032.94223939684, -62451.757484883965, -74103.3418897798, -57241.47644537407, -55569.07422173909, -53773.558589644264, -53434.72849544627, 0.1, 0.9520000000000001, 0.092, 192.0, 0.0, 0.0, 0.0, 0.0, 0.0, 0.0, 0.0, 0.0, 0.0, 1.658165333594059E9, 0.0, 2022-07-18 13:28:53.594
76.0, -29175.30735436766, -31280.461702401844, -60419.20160284062, -59366.99323260704, -27271.72103783143, -44237.030355576324, -58052.73301037944, -38403.64973588583, -19096.414041091688, -63978.851017815, -62408.618618085224, -74053.54220313337, -57200.19277336512, -55527.49997705221, -53737.840502004685, -53384.101794254995, 0.098, 0.9480000000000001, 0.094, 192.0, 1.5, 8.0, 14.5, 80.0, 1.0, 120.0, 0.0, 0.0, 0.0, 1.658165333594067E9, 0.0, 2022-07-18 13:28:53.594
78.0, -29183.510444582756, -31222.99536740725, -60462.16165568372, -59411.29439011746, -27311.64125342861, -44263.38306228913, -58101.28099933636, -38439.50193399214, -19106.897009241227, -64009.1599832964, -62430.366865440235, -74082.39830522517, -57227.931288234155, -55552.980965731265, -53761.60040636068, -53405.24654450972, 0.098, 0.9480000000000001, 0.094, 192.0, 0.0, 0.0, 0.0, 0.0, 0.0, 0.0, 0.0, 0.0, 0.0, 1.658165333594076E9, 0.0, 2022-07-18 13:28:53.594
80.0, -29152.35211281206, -31270.403417396956, -60393.11711706127, -59354.83388362335, -27247.849374753165, -44215.52797741032, -58021.66408558656, -38396.43012242676, -19077.996203660514, -63959.293241416606, -62390.15607716514, -74043.21569719502, -57184.05481386839, -55513.44072978982, -53715.421702316016, -53361.50418061068, 0.098, 0.9480000000000001, 0.094, 192.0, 0.0, 0.0, 0.0, 0.0, 0.0, 0.0, 0.0, 0.0, 0.0, 1.6581653335940852E9, 0.0, 2022-07-18 13:28:53.594
82.0, -29174.4356363339, -31213.406469035923, -60449.354106110826, -59411.80848023993, -27305.27100625885, -44265.975864645945, -58096.274208578376, -38443.88287590538, -19091.362546844786, -64001.96272158179, -62413.178373954106, -74073.07762778731, -57206.47361355706, -55540.95572721431, -53727.44694083297, -53389.846192580015, 0.098, 0.9480000000000001, 0.094, 192.0, 0.0, 0.0, 0.0, 0.0, 0.0, 0.0, 0.0, 0.0, 0.0, 1.658165333594093E9, 0.0, 2022-07-18 13:28:53.594
84.0, -29149.848717433062, -31275.94665002187, -60384.31052974588, -59355.75030514602, -27256.54420334628, -44223.261680991855, -58056.19753077001, -38394.82079682598, -19085.618148519774, -63970.8490933, -62392.34654812176, -74048.26719144192, -57185.50767725798, -55520.325067082056, -53722.10487390815, -53380.838439564526, 0.098, 0.9480000000000001, 0.094, 192.0, 0.0, 0.0, 0.0, 0.0, 0.0, 0.0, 0.0, 0.0, 0.0, 1.6581653335941017E9, 0.0, 2022-07-18 13:28:53.594
86.0, -29184.717438783344, -31219.12851561648, -60451.231652645074, -59426.515928091525, -27305.807448125775, -44271.72026297096, -58109.46173780701, -38464.357073826446, -19096.369337602777, -64000.24163725873, -62409.82561228581, -74068.13789226269, -57200.7515669765, -55539.74873301372, -53743.227272418415, -53400.21740200727, 0.10200000000000001, 0.9460000000000001, 0.094, 192.0, 1.5, 24.0, 14.5, 72.0, 1.0, 120.0, 0.0, 0.0, 0.0, 1.6581653335941105E9, 0.0, 2022-07-18 13:28:53.594
88.0, -29139.633970216986, -31269.643458085473, -60370.787724350426, -59357.449037724626, -27236.360578103137, -44218.724276867426, -58030.984763024426, -38401.50396841812, -19085.01465141948, -63985.31067196259, -62402.337777893285, -74058.61604912473, -57191.07326162735, -55533.825520733066, -53738.131074682606, -53394.69652112681, 0.10200000000000001, 0.9460000000000001, 0.094, 192.0, 0.0, 0.0, 0.0, 0.0, 0.0, 0.0, 0.0, 0.0, 0.0, 1.6581653335941195E9, 0.0, 2022-07-18 13:28:53.594
90.0, -29176.179072401414, -31210.478390512275, -60448.88471947727, -59424.817195512915, -27290.63061364062, -44265.93116115704, -58115.58611578776, -38460.95960866924, -19072.005936146492, -63975.58766312453, -62390.4242980986, -74050.63647635418, -57173.03540385192, -55526.337686340536, -53724.38475184259, -53375.921055784354, 0.10200000000000001, 0.9460000000000001, 0.094, 192.0, 0.0, 0.0, 0.0, 0.0, 0.0, 0.0, 0.0, 0.0, 0.0, 1.6581653335941281E9, 0.0, 2022-07-18 13:28:53.594
92.0, -29156.330723325103, -31282.830987314104, -60394.48057347305, -59361.40529649321, -27246.217697407927, -44238.99730908839, -58031.43179791353, -38406.108427775915, -19101.845514994326, -64000.33104423655, -62423.169603725626, -74081.48188370251, -57205.93717169013, -55551.88573025295, -53756.928891769516, -53406.16296603239, 0.10200000000000001, 0.9460000000000001, 0.094, 192.0, 0.0, 0.0, 0.0, 0.0, 0.0, 0.0, 0.0, 0.0, 0.0, 1.6581653335941365E9, 0.0, 2022-07-18 13:28:53.594
94.0, -29195.02159297724, -31229.164448876913, -60466.766115041515, -59417.01643669802, -27305.74039289241, -44275.63181825064, -58094.039034132846, -38444.39696602785, -19081.974814173558, -63976.16880848036, -62399.0297197139, -74054.4809764005, -57185.06064236887, -55522.31437233858, -53720.27203086281, -53371.27189293765, 0.10200000000000001, 0.9460000000000001, 0.094, 192.0, 0.0, 0.0, 0.0, 0.0, 0.0, 0.0, 0.0, 0.0, 0.0, 1.658165333594145E9, 0.0, 2022-07-18 13:28:53.594
96.0, -29173.228642133316, -31295.459722931355, -60404.06947184438, -59360.84650288183, -27264.188499949993, -44241.165428300556, -58034.29282120381, -38417.73133489268, -19120.755090803515, -64008.020044329176, -62437.31825796584, -74089.75202915097, -57234.212128426094, -55564.782686803665, -53766.1378104851, -53411.370922490474, 0.108, 0.9480000000000001, 0.092, 192.0, 1.5, 48.0, 14.5, 80.0, 1.0, 112.0, 0.0, 0.0, 0.0, 1.6581653335941536E9, 0.0, 2022-07-18 13:28:53.594
98.0, -29172.91571771094, -31224.671748241395, -60428.656390745215, -59388.65207298423, -27290.608261896166, -44245.68048068052, -58067.08283031975, -38434.338681022964, -19080.34313682832, -63978.582796881536, -62388.412641097624, -74049.11655773122, -57180.29972079989, -55523.52136653917, -53717.25454536135, -53361.95121549979, 0.108, 0.9480000000000001, 0.092, 192.0, 0.0, 0.0, 0.0, 0.0, 0.0, 0.0, 0.0, 0.0, 0.0, 1.6581653335941615E9, 0.0, 2022-07-18 13:28:53.594
100.0, -29135.364787026025, -31264.167280693924, -60364.193959736105, -59340.439360194134, -27244.80953750724, -44213.15869249805, -58018.02075124035, -38414.08800054646, -19089.127372399256, -64010.165811796884, -62409.24446692997, -74077.07859004481, -57201.04213965442, -55552.66804130889, -53748.34582189868, -53391.41081469188, 0.108, 0.9480000000000001, 0.092, 192.0, 0.0, 0.0, 0.0, 0.0, 0.0, 0.0, 0.0, 0.0, 0.0, 1.658165333594175E9, 0.0, 2022-07-18 13:28:53.594
102.0, -29155.727226224808, -31221.229579595278, -60412.6078382263, -59391.73661371906, -27292.06112528576, -44242.46182947896, -58089.59103698624, -38428.951910609234, -19040.937011353613, -63954.37585763644, -62348.53712898936, -74023.34499637426, -57142.94995581508, -55501.437843017324, -53691.147707837554, -53329.719999995235, 0.108, 0.9480000000000001, 0.092, 192.0, 0.0, 0.0, 0.0, 0.0, 0.0, 0.0, 0.0, 0.0, 0.0, 1.6581653335941825E9, 0.0, 2022-07-18 13:28:53.594
104.0, -29153.62616224601, -31275.969001766327, -60400.068509586876, -59389.79201195145, -27277.890119301097, -44256.69989069699, -58084.07015610578, -38462.9265621813, -19105.041814451437, -64030.0141608732, -62424.421301415125, -74101.82197115684, -57221.18106140865, -55581.52414340069, -53775.90552281208, -53415.75186440371, 0.108, 0.9480000000000001, 0.092, 192.0, 0.0, 0.0, 0.0, 0.0, 0.0, 0.0, 0.0, 0.0, 0.0, 1.6581653335941913E9, 0.0, 2022-07-18 13:28:53.594
106.0, -29155.14608086897, -31231.824306467093, -60424.92364942118, -59405.84056447036, -27262.422712138025, -44248.02741384834, -58081.49970549342, -38442.65352996034, -19060.137159840724, -63958.80150303859, -62366.53028327588, -74040.9805227495, -57160.250206023484, -55516.614677502475, -53708.91734467952, -53354.03869796261, 0.10600000000000001, 0.9510000000000001, 0.094, 192.0, 1.5, 32.0, 14.5, 104.0, 1.5, 0.0, 0.0, 0.0, 0.0, 1.6581653340736537E9, 0.0, 2022-07-18 13:28:54.073
108.0, -29149.3793307995, -31255.763024778727, -60413.63601847125, -59390.59667475184, -27248.005836964352, -44246.66395743656, -58057.31511799277, -38429.08602107597, -19104.661834795694, -64026.43788176035, -62428.95870553955, -74099.83266590032, -57218.208279396094, -55577.299663698635, -53770.67521460953, -53419.685771427845, 0.10600000000000001, 0.9510000000000001, 0.094, 192.0, 0.0, 0.0, 0.0, 0.0, 0.0, 0.0, 0.0, 0.0, 0.0, 1.6581653340736897E9, 0.0, 2022-07-18 13:28:54.073
110.0, -29150.80984244464, -31237.54635304765, -60415.580620238856, -59390.306102073926, -27246.798842763765, -44233.252910763375, -58038.941984050514, -38412.41161971231, -19064.71926745406, -63956.52162510415, -62372.36408857872, -74033.4703366125, -57156.45040946608, -55517.17347111386, -53704.357588810635, -53356.16211368587, 0.10600000000000001, 0.9510000000000001, 0.094, 192.0, 0.0, 0.0, 0.0, 0.0, 0.0, 0.0, 0.0, 0.0, 0.0, 1.658165334073727E9, 0.0, 2022-07-18 13:28:54.073
112.0, -29159.4823192933, -31254.936010233883, -60417.011131884, -59388.1156311173, -27256.38774113509, -44238.10323931018, -58053.04593480181, -38425.80031464104, -19105.06416619589, -64018.54771596762, -62427.77406308342, -74089.21558728404, -57217.448320084615, -55569.58831186155, -53755.5877871022, -53406.43118696585, 0.10600000000000001, 0.9510000000000001, 0.094, 192.0, 0.0, 0.0, 0.0, 0.0, 0.0, 0.0, 0.0, 0.0, 0.0, 1.658165334073766E9, 0.0, 2022-07-18 13:28:54.073
114.0, -29137.28703704918, -31239.98269319328, -60396.067547329374, -59357.449037724626, -27231.890229212077, -44198.69711383547, -58017.99839949589, -38397.54770964953, -19068.00497388899, -63950.79957852359, -62369.59247226626, -74028.28473189888, -57163.15593280267, -55501.102566850495, -53699.84253643067, -53338.75010475518, 0.10600000000000001, 0.9510000000000001, 0.094, 192.0, 0.0, 0.0, 0.0, 0.0, 0.0, 0.0, 0.0, 0.0, 0.0, 1.6581653340737932E9, 0.0, 2022-07-18 13:28:54.073
116.0, -29154.56493551313, -31244.60950429553, -60423.850765687326, -59378.839657168355, -27266.289563928793, -44228.9390240835, -58048.91086207758, -38425.77796289659, -19102.20314290561, -63999.705195391805, -62414.94416176608, -74075.29045048839, -57223.863270743284, -55544.733172027256, -53751.609176589154, -53392.99778854821, 0.101, 0.9545000000000001, 0.095, 192.0, 1.5, 0.0, 14.5, 120.0, 1.5, 0.0, 0.0, 0.0, 0.0, 1.6581653340738344E9, 0.0, 2022-07-18 13:28:54.073
118.0, -29151.323932567113, -31270.202251696857, -60402.57190496587, -59359.34893600333, -27250.86686025463, -44219.75245711237, -58050.36372546718, -38415.898491847336, -19075.313994325876, -63941.389494107905, -62374.88983570217, -74030.45285111104, -57171.80605790688, -55499.40383427189, -53718.81916747322, -53348.47311359324, 0.101, 0.9545000000000001, 0.095, 192.0, 0.0, 0.0, 0.0, 0.0, 0.0, 0.0, 0.0, 0.0, 0.0, 1.6581653340738423E9, 0.0, 2022-07-18 13:28:54.073
120.0, -29165.85256646306, -31244.698911273354, -60421.28031507496, -59377.297386800936, -27259.516985358834, -44239.980785844426, -58079.66686244808, -38447.1238788514, -19109.579218575862, -64006.43307047285, -62429.22692647302, -74082.86769185873, -57218.90118347421, -55555.082029710065, -53770.7422698429, -53407.526422444156, 0.101, 0.9545000000000001, 0.095, 192.0, 0.0, 0.0, 0.0, 0.0, 0.0, 0.0, 0.0, 0.0, 0.0, 1.65816533407385E9, 0.0, 2022-07-18 13:28:54.073
