%OpenBCI Raw EEG Data
%Number of channels = 16
%Sample Rate = 125 Hz
%Board = OpenBCI_GUI$BoardCytonSerialDaisy
Sample Index, EXG Channel 0, EXG Channel 1, EXG Channel 2, EXG Channel 3, EXG Channel 4, EXG Channel 5, EXG Channel 6, EXG Channel 7, EXG Channel 8, EXG Channel 9, EXG Channel 10, EXG Channel 11, EXG Channel 12, EXG Channel 13, EXG Channel 14, EXG Channel 15, Accel Channel 0, Accel Channel 1, Accel Channel 2, Other, Other, Other, Other, Other, Other, Other, Analog Channel 0, Analog Channel 1, Analog Channel 2, Timestamp, Other, Timestamp (Formatted)
76.0, -9341.352801484205, -16492.41346030396, -4349.202436113648, -8172.669490894019, -30591.53623480037, -251.278311166562, -457.76372644468864, -14373.17751326293, 469.2972265836271, -23599.73175522468, -6744.348316710987, -31527.850810033182, -15693.852686149203, -11365.593834590178, -28156.537193839216, 3810.1007115960974, 0.0, 0.0, 0.0, 192.0, 0.0, 0.0, 0.0, 0.0, 0.0, 0.0, 0.0, 0.0, 0.0, 1.6583348254123611E9, 0.0, 2022-07-20 12:33:45.412
78.0, -10760.286242996008, -17932.60341079276, -5723.857071859488, -9618.894412385753, -32076.25086024414, -1527.0264776976678, -204.02672338804288, -15051.664716203775, -141.24067321308533, -24475.383696005785, -6985.590694617116, -31648.103195202733, -16248.712390507746, -11766.181798718191, -29063.32511464657, 4308.3881507382575, 0.0, 0.0, 0.0, 192.0, 0.0, 0.0, 0.0, 0.0, 0.0, 0.0, 0.0, 0.0, 0.0, 1.6583348254123669E9, 0.0, 2022-07-20 12:33:45.412
80.0, -9311.8484988032, -16424.195936226362, -4328.974107381596, -8090.07979513166, -30503.76093432438, -285.63294239436897, -695.161604304505, -14504.359901471127, 295.6688756548018, -23765.693457805333, -6905.660856444938, -31673.94181179307, -15862.541301553405, -11508.957923526517, -28340.00031232838, 3674.7385471747575, -0.038, 0.47700000000000004, 0.036000000000000004, 192.0, 126.5, 80.0, 14.5, 104.0, 1.0, 32.0, 0.0, 0.0, 0.0, 1.658334825412372E9, 0.0, 2022-07-20 12:33:45.412
82.0, -10734.469978150128, -17939.01836145143, -5714.93872582182, -9659.082848916394, -32136.35470108446, -1486.0333783666347, 14.796854829413276, -14973.098334443372, 53.53242797046042, -24269.769998761418, -6802.44050055033, -31462.807233668238, -16058.186120770708, -11590.139459388192, -28866.897984373332, 4416.861166579863, -0.038, 0.47700000000000004, 0.036000000000000004, 192.0, 0.0, 0.0, 0.0, 0.0, 0.0, 0.0, 0.0, 0.0, 0.0, 1.6583348254123769E9, 0.0, 2022-07-20 12:33:45.412
84.0, -9355.27793827986, -16439.261011989238, -4367.888494478285, -8078.099260103615, -30470.568593808246, -354.1186874054298, -917.4497029125337, -14604.763937564367, 100.18051864868626, -23976.850387674618, -7084.340701620663, -31837.95891260611, -16060.13072253832, -11707.776690456474, -28560.455567891073, 3568.5007057786834, -0.038, 0.47700000000000004, 0.036000000000000004, 192.0, 0.0, 0.0, 0.0, 0.0, 0.0, 0.0, 0.0, 0.0, 0.0, 1.6583348254123816E9, 0.0, 2022-07-20 12:33:45.412
86.0, -10673.673233231691, -17908.329416314296, -5668.156524676862, -9658.233482627093, -32145.988302944697, -1415.446569376775, 204.0714268769535, -14844.955783481097, 258.4755728811709, -24057.80840609174, -6631.762579889605, -31302.09819103458, -15868.308051622875, -11404.664683898054, -28657.81976673839, 4514.22536542718, -0.038, 0.47700000000000004, 0.036000000000000004, 192.0, 0.0, 0.0, 0.0, 0.0, 0.0, 0.0, 0.0, 0.0, 0.0, 1.6583348254123874E9, 0.0, 2022-07-20 12:33:45.412
88.0, -9434.671334585111, -16490.06652713615, -4433.5355679435215, -8104.496670305332, -30474.278983387827, -437.9824326017419, -1082.6514461817083, -14720.68008430959, -100.94047796016669, -24193.997585057925, -7253.185779236052, -31996.701001727703, -16262.592823814492, -11873.716041292673, -28781.246099620595, 3488.7273298176924, -0.038, 0.47700000000000004, 0.036000000000000004, 192.0, 0.0, 0.0, 0.0, 0.0, 0.0, 0.0, 0.0, 0.0, 0.0, 1.6583348254123924E9, 0.0, 2022-07-20 12:33:45.412
90.0, -10561.221606877043, -17833.942810767032, -5564.511485637604, -9587.646673637233, -32092.522930207604, -1281.3137509004773, 371.3295306360162, -14721.328284898793, 456.333214799549, -23838.649551707455, -6467.477258143099, -31153.25792470669, -15672.059735305278, -11215.79244325071, -28419.81839177828, 4600.167822857836, -0.057999999999999996, 0.7155, 0.056, 192.0, 126.5, 72.0, 14.5, 104.0, 1.0, 48.0, 0.0, 0.0, 0.0, 1.6583348254123971E9, 0.0, 2022-07-20 12:33:45.412
92.0, -9572.17926647416, -16617.04678738675, -4566.036709074582, -8197.614037706142, -30560.89199315214, -583.9616756393523, -1219.6452879482852, -14886.41826944569, -294.2607157541175, -24423.773518058482, -7408.9103828561765, -32142.680244765314, -16439.35041896706, -12066.477485475241, -28990.704296911277, 3440.358154816408, -0.057999999999999996, 0.7155, 0.056, 192.0, 0.0, 0.0, 0.0, 0.0, 0.0, 0.0, 0.0, 0.0, 0.0, 1.658334825412402E9, 0.0, 2022-07-20 12:33:45.412
94.0, -10415.711750472994, -17713.913943042033, -5443.879120812312, -9483.085213075306, -31999.204397106696, -1157.0604034734254, 475.75688073121086, -14603.489888130414, 608.9509259403856, -23636.232153920195, -6351.918739309161, -31055.737263648185, -15519.30791369771, -11084.05126143113, -28231.43788950895, 4606.068683394037, -0.057999999999999996, 0.7155, 0.056, 192.0, 0.0, 0.0, 0.0, 0.0, 0.0, 0.0, 0.0, 0.0, 0.0, 1.6583348254124067E9, 0.0, 2022-07-20 12:33:45.412
96.0, -9725.512233437566, -16770.536216561344, -4730.567900010097, -8345.627289489184, -30707.631195501235, -740.4015350820465, -1315.9589548062033, -14962.928290716207, -457.09317411102944, -24615.640892462838, -7525.921765079709, -32242.52548724717, -16598.874819144585, -12187.959216589836, -29198.97785174583, 3423.706105197204, -0.057999999999999996, 0.7155, 0.056, 192.0, 0.0, 0.0, 0.0, 0.0, 0.0, 0.0, 0.0, 0.0, 0.0, 1.6583348254124117E9, 0.0, 2022-07-20 12:33:45.412
98.0, -10232.896832573037, -17549.449807339886, -5277.068051942355, -9334.267298491872, -31847.547810977438, -984.437881045089, 520.3709626640037, -14468.261834175806, 756.2265701564038, -23472.818550207445, -6261.125953331703, -30985.75395175862, -15390.070127257124, -10975.868818267443, -28058.41303568042, 4586.130927339903, -0.057999999999999996, 0.7155, 0.056, 192.0, 0.0, 0.0, 0.0, 0.0, 0.0, 0.0, 0.0, 0.0, 0.0, 1.6583348254124165E9, 0.0, 2022-07-20 12:33:45.412
100.0, -9867.468162473222, -16915.241410165003, -4871.518000545264, -8486.353872579799, -30835.751394719053, -879.6305512941541, -1303.6431436113292, -15054.54809123851, -558.1007073045621, -24752.254754573674, -7579.320082583437, -32286.826644757588, -16702.45280295048, -12271.107705963577, -29329.735556809374, 3462.240512638153, -0.057999999999999996, 0.7155, 0.056, 192.0, 0.0, 0.0, 0.0, 0.0, 0.0, 0.0, 0.0, 0.0, 0.0, 1.6583348254124212E9, 0.0, 2022-07-20 12:33:45.412
102.0, -10027.014914395204, -17352.240366010712, -5086.050043827301, -9136.834339718145, -31650.427776626086, -818.6102889311659, 527.1211894895065, -14363.454504424872, 870.9357227010397, -23314.925827375155, -6193.199001932026, -30934.59080870042, -15292.571817943075, -10875.665947874302, -27892.674850544317, 4546.143656509359, -0.082, 0.9560000000000001, 0.07200000000000001, 192.0, 126.5, 56.0, 14.5, 112.0, 1.0, 32.0, 0.0, 0.0, 0.0, 1.658334825412426E9, 0.0, 2022-07-20 12:33:45.412
104.0, -10059.670813044408, -17113.367273016844, -5050.555473632273, -8676.187238238721, -31035.419527938313, -1054.3988411902, -1255.0504511654915, -15156.315583743524, -623.8595394920754, -24855.989200590757, -7597.447347336692, -32289.15122618094, -16769.776257249865, -12341.9627358869, -29424.417546322056, 3532.6932111612814, -0.082, 0.9560000000000001, 0.07200000000000001, 192.0, 0.0, 0.0, 0.0, 0.0, 0.0, 0.0, 0.0, 0.0, 0.0, 1.6583348254124308E9, 0.0, 2022-07-20 12:33:45.412
106.0, -9843.395333694856, -17155.5003113151, -4902.966904993881, -8931.555918640604, -31439.382605479077, -661.969263788374, 450.58881647453507, -14283.34585229705, 917.0250197678829, -23231.576172301313, -6188.751004785419, -30936.22248604566, -15261.011154772183, -10859.460933144204, -27799.98216628816, 4458.904797900295, -0.082, 0.9560000000000001, 0.07200000000000001, 192.0, 0.0, 0.0, 0.0, 0.0, 0.0, 0.0, 0.0, 0.0, 0.0, 1.6583348254124355E9, 0.0, 2022-07-20 12:33:45.412
108.0, -10232.136873261557, -17293.52233332662, -5222.954478616057, -8869.976862666234, -31240.295617615655, -1200.8921743502826, -1159.1167639633136, -15198.96271216425, -652.2015514614047, -24921.859791500545, -7580.415318061748, -32250.14743210643, -16805.36023442271, -12319.007494331301, -29495.518445434387, 3627.1293314849536, -0.082, 0.9560000000000001, 0.07200000000000001, 192.0, 0.0, 0.0, 0.0, 0.0, 0.0, 0.0, 0.0, 0.0, 0.0, 1.6583348254124432E9, 0.0, 2022-07-20 12:33:45.412
110.0, -9649.181026122693, -16950.91479431567, -4726.879862174972, -8716.934468380747, -31216.98274814877, -510.67030557040044, 323.94383239076524, -14221.699741089315, 921.0930372587487, -23207.145715611663, -6228.514758171411, -30983.585832546454, -15274.913939823384, -10867.686375103758, -27774.389418886833, 4346.184950612182, -0.082, 0.9560000000000001, 0.07200000000000001, 192.0, 0.0, 0.0, 0.0, 0.0, 0.0, 0.0, 0.0, 0.0, 0.0, 1.658334825412448E9, 0.0, 2022-07-20 12:33:45.412
112.0, -10376.640901165116, -17476.27019599321, -5382.9259136826895, -9064.235873727308, -31453.84418414166, -1319.35641996341, -985.8460409457733, -15188.524447503622, -601.8207194591427, -24904.44778256986, -7495.7692618095, -32154.414910604348, -16762.243719368427, -12260.624737814038, -29474.82073006877, 3775.075528034631, -0.082, 0.9540000000000001, 0.078, 192.0, 126.5, 56.0, 14.5, 104.0, 1.0, 56.0, 0.0, 0.0, 0.0, 1.6583348254124527E9, 0.0, 2022-07-20 12:33:45.412
114.0, -9500.854849917276, -16784.17078067908, -4591.920029153827, -8531.325582423877, -31020.935597531272, -400.72207459474504, 135.4962748880714, -14226.393607424929, 857.2564550943918, -23244.003742218465, -6332.092741977303, -31101.15600838137, -15356.117827429514, -10960.021431448631, -27810.68865188225, 4209.794605945898, -0.082, 0.9540000000000001, 0.078, 192.0, 0.0, 0.0, 0.0, 0.0, 0.0, 0.0, 0.0, 0.0, 0.0, 1.6583348254124577E9, 0.0, 2022-07-20 12:33:45.412
116.0, -10521.055522090855, -17654.167730113, -5532.861415488889, -9259.277195844317, -31661.40248315364, -1432.9703370297357, -798.1137392656493, -15194.62647373992, -537.5594541501349, -24849.0154563207, -7403.054225808886, -32061.409301925818, -16688.25944522136, -12161.248881965743, -29428.686729513018, 3920.786550138778, -0.082, 0.9540000000000001, 0.078, 192.0, 0.0, 0.0, 0.0, 0.0, 0.0, 0.0, 0.0, 0.0, 0.0, 1.6583348254124625E9, 0.0, 2022-07-20 12:33:45.412
118.0, -9368.577226230767, -16629.586116026177, -4457.0719548549605, -8349.60590000223, -30811.387993262768, -316.09837008695246, -64.48478275356088, -14257.328421751074, 756.1818666674932, -23323.24067631253, -6456.65901382673, -31237.300483858646, -15461.930985680938, -11091.092060934552, -27889.47855108721, 4054.7852581483435, -0.082, 0.9540000000000001, 0.078, 192.0, 0.0, 0.0, 0.0, 0.0, 0.0, 0.0, 0.0, 0.0, 0.0, 1.6583348254124672E9, 0.0, 2022-07-20 12:33:45.412
120.0, -10630.042628054933, -17797.62122602716, -5650.275129112617, -9432.793788050865, -31847.01136911051, -1511.1567391344, -579.5360302372015, -15164.630432680899, -416.4129992023706, -24753.908783663366, -7269.033166054865, -31929.109326494854, -16567.7611908628, -12042.471711930242, -29334.00474000034, 4042.6035574202015, -0.082, 0.9540000000000001, 0.078, 192.0, 0.0, 0.0, 0.0, 0.0, 0.0, 0.0, 0.0, 0.0, 0.0, 1.6583348254124722E9, 0.0, 2022-07-20 12:33:45.412
122.0, -9269.31312910475, -16498.850762707087, -4355.036241416484, -8189.254485279857, -30624.460354383034, -253.40172688981616, -277.0945760124417, -14299.707329238336, 616.4611120773687, -23453.39488427578, -6603.912306298293, -31384.97845947486, -15595.013272167835, -11204.5942192786, -28012.949587458326, 3903.2404307413617, -0.076, 0.9540000000000001, 0.084, 192.0, 126.5, 80.0, 14.5, 104.0, 1.0, 80.0, 0.0, 0.0, 0.0, 1.6583348254124773E9, 0.0, 2022-07-20 12:33:45.412
124.0, -10673.226198342587, -17875.852331620736, -5694.598638367491, -9523.519518794958, -31967.487271724618, -1519.1586636493998, -319.58524222198037, -15071.356603068902, -243.61166281839166, -24587.120066537867, -7086.30765513273, -31744.46156554956, -16395.876276001487, -11872.978433725648, -29159.571726271122, 4219.2270421060375, -0.076, 0.9540000000000001, 0.084, 192.0, 0.0, 0.0, 0.0, 0.0, 0.0, 0.0, 0.0, 0.0, 0.0, 1.658334825412482E9, 0.0, 2022-07-20 12:33:45.412
126.0, -9237.35013453366, -16426.54286939417, -4308.768130393998, -8078.121611848071, -30503.403306413093, -236.14618017031913, -518.2028434518389, -14372.708126629368, 434.11558081097377, -23628.945485227763, -6776.400718259897, -31552.86241207867, -15774.475428399495, -11370.421811392524, -28180.230042961844, 3777.9365513249104, -0.076, 0.9540000000000001, 0.084, 192.0, 0.0, 0.0, 0.0, 0.0, 0.0, 0.0, 0.0, 0.0, 0.0, 1.6583348254124868E9, 0.0, 2022-07-20 12:33:45.412
128.0, -10712.83348951739, -17955.737466304003, -5736.821083643566, -9623.94590663265, -32086.510310949125, -1519.315125860587, -96.62659128029243, -14971.667822798232, -63.255436808518986, -24408.35081438432, -6916.210879827843, -31585.071275838767, -16219.58806748248, -11691.437565259645, -28967.614944888945, 4357.271415862014, -0.076, 0.9540000000000001, 0.084, 192.0, 0.0, 0.0, 0.0, 0.0, 0.0, 0.0, 0.0, 0.0, 0.0, 1.6583348254124916E9, 0.0, 2022-07-20 12:33:45.412
130.0, -9234.466759498926, -16395.563351579112, -4301.928496590674, -8024.745646088797, -30417.773773404813, -273.25007596612886, -736.7358489913761, -14475.257930190317, 227.69722076621304, -23852.127653614003, -6975.398299145496, -31753.245801120498, -15974.456486041128, -11567.787714932885, -28390.62701351965, 3633.7454478437244, -0.076, 0.9540000000000001, 0.084, 192.0, 0.0, 0.0, 0.0, 0.0, 0.0, 0.0, 0.0, 0.0, 0.0, 1.6583348254124963E9, 0.0, 2022-07-20 12:33:45.412
132.0, -10623.113587273787, -17908.128250614198, -5667.93300723231, -9609.75254890353, -32091.24888077365, -1440.771095844638, 141.1065627463535, -14844.262879402982, 167.7498421370795, -24170.081218490748, -6704.271638902622, -31389.31469789919, -15990.21446588212, -11503.235876945959, -28727.24428501657, 4478.574333020965, -0.084, 0.9480000000000001, 0.08600000000000001, 192.0, 126.5, 48.0, 14.5, 80.0, 1.0, 88.0, 0.0, 0.0, 0.0, 1.658334825412501E9, 0.0, 2022-07-20 12:33:45.412
134.0, -9280.60076005468, -16425.648799615956, -4350.230616358593, -8018.844785552596, -30408.40839247804, -350.16242863684045, -938.2815287448799, -14591.799925780288, 54.739422171046996, -24037.71418782642, -7119.12001599312, -31887.579785296894, -16144.48620611265, -11762.918444027717, -28583.589623402313, 3547.51241773515, -0.084, 0.9480000000000001, 0.08600000000000001, 192.0, 0.0, 0.0, 0.0, 0.0, 0.0, 0.0, 0.0, 0.0, 0.0, 1.658334825412506E9, 0.0, 2022-07-20 12:33:45.412
136.0, -10563.52383655594, -17881.082639823275, -5619.16150083083, -9593.636941151255, -32105.464590247226, -1357.8237721709934, 301.2791635130839, -14738.673238596111, 350.9447396927762, -23963.26052704579, -6543.942575924704, -31237.255780369735, -15810.662902672639, -11317.805804944732, -28517.674329003614, 4556.023127558605, -0.084, 0.9480000000000001, 0.08600000000000001, 192.0, 0.0, 0.0, 0.0, 0.0, 0.0, 0.0, 0.0, 0.0, 0.0, 1.658334825412511E9, 0.0, 2022-07-20 12:33:45.412
138.0, -9401.121366157695, -16521.828356007143, -4463.576312491455, -8083.754251450808, -30465.159471650062, -477.09798539852926, -1113.5192052744871, -14729.777244302899, -163.72652813512423, -24284.969184991027, -7307.299352562351, -32058.92825829128, -16356.425447037871, -11936.345629256444, -28831.917504300774, 3457.0102044356117, -0.084, 0.9480000000000001, 0.08600000000000001, 192.0, 0.0, 0.0, 0.0, 0.0, 0.0, 0.0, 0.0, 0.0, 0.0, 1.658334825412516E9, 0.0, 2022-07-20 12:33:45.412
140.0, -10442.131512419166, -17787.250016599897, -5507.626295998847, -9509.147347110194, -32043.259685428107, -1231.268195065045, 436.2837000231386, -14618.063225515274, 547.8859600884867, -23748.169690152372, -6400.176155588169, -31109.426153829834, -15629.99375224039, -11142.232852248295, -28310.540713136284, 4602.514756025643, -0.084, 0.9480000000000001, 0.08600000000000001, 192.0, 0.0, 0.0, 0.0, 0.0, 0.0, 0.0, 0.0, 0.0, 0.0, 1.6583348254125218E9, 0.0, 2022-07-20 12:33:45.412
142.0, -9542.719667282065, -16649.792093013777, -4594.535183255099, -8188.829802135206, -30570.458539779014, -613.9800684428297, -1232.072857865436, -14863.977118012563, -334.8961871738657, -24486.09018159988, -7438.928775659654, -32177.03487599312, -16520.420196106457, -12092.2043433433, -29037.307684100593, 3435.6642884807934, -0.082, 0.9460000000000001, 0.088, 192.0, 126.5, 56.0, 14.5, 72.0, 1.0, 96.0, 0.0, 0.0, 0.0, 1.6583348254125268E9, 0.0, 2022-07-20 12:33:45.412
144.0, -10287.70330997745, -17659.26392784881, -5369.581922242871, -9392.09126139775, -31928.394070672286, -1089.9381148741384, 513.2407561827607, -14531.919602384522, 692.8593746256083, -23564.37129549638, -6299.548602050377, -31023.81897256601, -15478.963014955882, -11023.27686825715, -28126.295283591186, 4605.86751769394, -0.082, 0.9460000000000001, 0.088, 192.0, 0.0, 0.0, 0.0, 0.0, 0.0, 0.0, 0.0, 0.0, 0.0, 1.6583348254125316E9, 0.0, 2022-07-20 12:33:45.412
146.0, -9701.841736059396, -16818.99479854045, -4759.155781168435, -8340.88871966466, -30713.308538592883, -789.2400967168924, -1292.78019580605, -14997.685253344209, -494.7782152626771, -24655.628163293382, -7544.071381577419, -32273.460301573316, -16663.40430538706, -12226.89595543098, -29227.342215459612, 3423.348477285919, -0.082, 0.9460000000000001, 0.088, 192.0, 0.0, 0.0, 0.0, 0.0, 0.0, 0.0, 0.0, 0.0, 0.0, 1.6583348254125364E9, 0.0, 2022-07-20 12:33:45.412
148.0, -10101.42387168692, -17494.822143891113, -5208.31408599783, -9224.453177982949, -31771.708342040583, -938.7509153784413, 537.2912332166711, -14409.700263702902, 812.3294487392246, -23409.093726765364, -6213.18146147507, -30959.624762490366, -15358.509464086232, -10925.599744987458, -27966.793235158115, 4574.66448243433, -0.082, 0.9460000000000001, 0.088, 192.0, 0.0, 0.0, 0.0, 0.0, 0.0, 0.0, 0.0, 0.0, 0.0, 1.6583348254125412E9, 0.0, 2022-07-20 12:33:45.412
150.0, -9872.989043353682, -16994.232475070057, -4931.7112483634055, -8514.20414617111, -30893.396543669292, -948.7868486388742, -1283.7500910461058, -15087.360452098901, -598.8479374465868, -24811.9562640138, -7590.272437366538, -32305.6244618445, -16758.13099838865, -12309.373892471063, -29371.42156021852, 3473.2375709101643, -0.082, 0.9460000000000001, 0.088, 192.0, 0.0, 0.0, 0.0, 0.0, 0.0, 0.0, 0.0, 0.0, 0.0, 1.6583348254125457E9, 0.0, 2022-07-20 12:33:45.412
152.0, -9888.992892383683, -17279.351327341956, -5015.664400537539, -9023.846271496568, -31569.603868675695, -771.8280877862081, 505.55175609013514, -14316.426434090905, 899.7247695594752, -23279.118332757753, -6173.283597622347, -30937.988273857627, -15281.26183524869, -10874.369546695894, -27845.26680055461, 4509.062112458005, -0.088, 0.9540000000000001, 0.078, 192.0, 126.5, 32.0, 14.5, 104.0, 1.0, 56.0, 0.0, 0.0, 0.0, 1.6583348254125507E9, 0.0, 2022-07-20 12:33:45.412
154.0, -10059.13437117748, -17191.26310244359, -5119.801177954814, -8719.750788182115, -31110.990775941704, -1127.7572664925178, -1219.265308292545, -15184.590540479487, -638.5893390881228, -24884.085343371076, -7583.812783218955, -32290.224109914794, -16792.485629616454, -12336.173634072977, -29452.491337357922, 3555.603749227971, -0.088, 0.9540000000000001, 0.078, 192.0, 0.0, 0.0, 0.0, 0.0, 0.0, 0.0, 0.0, 0.0, 0.0, 1.6583348254125555E9, 0.0, 2022-07-20 12:33:45.412
156.0, -9706.312084950458, -17080.264339478534, -4829.474369224831, -8807.973123547212, -31346.041720633715, -608.1015596510839, 412.3002782225941, -14281.714174951814, 921.8306448257739, -23228.06694842183, -6193.914257754595, -30975.248631864626, -15272.321137466568, -10874.369546695894, -27780.334982911943, 4402.712512339654, -0.088, 0.9540000000000001, 0.078, 192.0, 0.0, 0.0, 0.0, 0.0, 0.0, 0.0, 0.0, 0.0, 0.0, 1.6583348254125605E9, 0.0, 2022-07-20 12:33:45.412
158.0, -10247.380762980076, -17394.887494431438, -5292.200182938598, -8915.261496932686, -31324.91932212345, -1267.388614104821, -1091.9944753640266, -15211.099709403481, -639.483408866335, -24921.97155022282, -7538.148169296762, -32231.059042341596, -16790.161048193106, -12320.147433298522, -29473.993715523928, 3691.1894310938637, -0.088, 0.9540000000000001, 0.078, 192.0, 0.0, 0.0, 0.0, 0.0, 0.0, 0.0, 0.0, 0.0, 0.0, 1.6583348254125652E9, 0.0, 2022-07-20 12:33:45.412
160.0, -9522.848966461297, -16878.80806670285, -4619.680895767319, -8589.395414518764, -31117.78570625612, -463.9104561698981, 272.8030410770227, -14237.748293608225, 881.6869117840424, -23229.564515300335, -6264.411659766634, -31051.51278394613, -15310.877896651971, -10911.182869813785, -27773.852977019906, 4290.394996451735, -0.088, 0.9540000000000001, 0.078, 192.0, 0.0, 0.0, 0.0, 0.0, 0.0, 0.0, 0.0, 0.0, 0.0, 1.65833482541257E9, 0.0, 2022-07-20 12:33:45.412
162.0, -10375.456258708986, -17548.0416474392, -5394.571172543904, -9092.13085080753, -31515.71381279395, -1371.9724264112028, -899.7024178150199, -15211.613799525954, -576.8985243914752, -24873.177692076886, -7437.878243670255, -32118.78622994259, -16715.64033217911, -12216.904725659459, -29428.709081257475, 3849.976223704365, -0.084, 0.9560000000000001, 0.084, 192.0, 126.5, 48.0, 14.5, 112.0, 1.0, 80.0, 0.0, 0.0, 0.0, 1.6583348254125748E9, 0.0, 2022-07-20 12:33:45.412
164.0, -9367.437287263547, -16706.029082063327, -4470.594760250421, -8398.80208954836, -30908.88630257682, -358.9690159522314, 89.09405339885396, -14270.605357957525, 821.024277332339, -23258.577079603325, -6356.076163777848, -31148.60876185999, -15375.94382476137, -11006.982446549231, -27806.710041369206, 4157.715041365032, -0.084, 0.9560000000000001, 0.084, 192.0, 0.0, 0.0, 0.0, 0.0, 0.0, 0.0, 0.0, 0.0, 0.0, 1.6583348254125795E9, 0.0, 2022-07-20 12:33:45.412
166.0, -10507.733882395492, -17718.160774488544, -5533.755485267101, -9288.22270491394, -31734.537391011407, -1467.190857790811, -707.8126916662087, -15193.553590006066, -489.0114651932079, -24818.795897817123, -7327.505329549948, -32008.18979837773, -16632.6259532721, -12139.053599721623, -29374.05906606425, 3970.586236785202, -0.084, 0.9560000000000001, 0.084, 192.0, 0.0, 0.0, 0.0, 0.0, 0.0, 0.0, 0.0, 0.0, 0.0, 1.6583348254125843E9, 0.0, 2022-07-20 12:33:45.412
168.0, -9273.135277406607, -16583.675632914976, -4378.170296927726, -8245.983212707426, -30745.785623286443, -288.24809649563986, -147.90149306076682, -14283.323500552595, 698.1790898059714, -23386.049078231943, -6498.054444557959, -31301.360583467555, -15515.30695144021, -11137.628392890501, -27922.983816025713, 3999.509394110369, -0.084, 0.9560000000000001, 0.084, 192.0, 0.0, 0.0, 0.0, 0.0, 0.0, 0.0, 0.0, 0.0, 0.0, 1.6583348254125893E9, 0.0, 2022-07-20 12:33:45.412
170.0, -10589.742432802013, -17842.078845748765, -5631.723181214712, -9424.881270513686, -31906.578768083906, -1515.0459426696234, -482.5965145345348, -15157.4778744552, -359.12547816341856, -24698.431753925295, -7186.75639471488, -31858.075482615888, -16503.991663931807, -11998.215257908734, -29263.105006588103, 4116.073741444796, -0.084, 0.9560000000000001, 0.084, 192.0, 0.0, 0.0, 0.0, 0.0, 0.0, 0.0, 0.0, 0.0, 0.0, 1.658334825412594E9, 0.0, 2022-07-20 12:33:45.412
172.0, -9191.014968277808, -16473.59329147259, -4307.807005382419, -8106.977713939872, -30598.554682559334, -248.23847392064025, -386.7522343101781, -14357.061905510654, 531.0327447691852, -23530.24018171313, -6668.3076820740325, -31460.773224922807, -15667.589386414218, -11269.861313088097, -28081.21181502483, 3843.1589416454963, -0.085, 0.9550000000000001, 0.083, 192.0, 126.5, 40.0, 14.5, 104.0, 1.0, 72.0, 0.0, 0.0, 0.0, 1.6583348254126E9, 0.0, 2022-07-20 12:33:45.412
174.0, -10621.101930272811, -17907.703567469547, -5685.07679522953, -9535.857681734286, -32032.39673762283, -1542.2256639272766, -244.9527674857101, -15093.909513224306, -180.088005076409, -24523.574057051428, -7008.5235844282615, -31687.621079399716, -16327.94932460181, -11806.61610443784, -29096.271585973693, 4262.70118507161, -0.085, 0.9550000000000001, 0.083, 192.0, 0.0, 0.0, 0.0, 0.0, 0.0, 0.0, 0.0, 0.0, 0.0, 1.6583348254126048E9, 0.0, 2022-07-20 12:33:45.412
176.0, -9161.980052230365, -16414.58468611058, -4278.74973759052, -8028.031352523727, -30484.784303281824, -279.68737836925726, -616.1034841660838, -14457.108313692608, 342.4510767997595, -23710.998739123195, -6845.1099807155115, -31640.436546854562, -15854.807597971869, -11464.008565426895, -28276.141378419565, 3683.925114145889, -0.085, 0.9550000000000001, 0.083, 192.0, 0.0, 0.0, 0.0, 0.0, 0.0, 0.0, 0.0, 0.0, 0.0, 1.6583348254126096E9, 0.0, 2022-07-20 12:33:45.412
178.0, -10593.318711914864, -17929.049483424365, -5670.5481613335805, -9584.539781157944, -32103.11765707942, -1512.0061054237015, -2.3916366567178557, -14970.81845650893, 29.057267791899182, -24306.1362869902, -6810.06244540959, -31499.2852806193, -16117.99938893311, -11625.276401671936, -28880.532548491068, 4393.816518046441, -0.085, 0.9550000000000001, 0.083, 192.0, 0.0, 0.0, 0.0, 0.0, 0.0, 0.0, 0.0, 0.0, 0.0, 1.6583348254126143E9, 0.0, 2022-07-20 12:33:45.412
180.0, -9190.7690990888, -16419.56912512411, -4301.0567785569165, -8005.858422024063, -30444.84173594019, -334.40444879584896, -838.5927484742103, -14567.414172579549, 153.1765047522193, -23933.55505866469, -7018.693628155426, -31813.975490805566, -16041.019981029032, -11670.605739427298, -28481.01746809691, 3570.7582319686694, -0.085, 0.9550000000000001, 0.083, 192.0, 0.0, 0.0, 0.0, 0.0, 0.0, 0.0, 0.0, 0.0, 0.0, 1.658334825412619E9, 0.0, 2022-07-20 12:33:45.412
182.0, -10556.214816119054, -17917.02424490741, -5638.540463273581, -9591.334711472358, -32129.917398681333, -1440.2346539777106, 190.861545903867, -14843.905251491697, 220.34349684041703, -24114.738299219407, -6645.93358587427, -31348.098081123604, -15933.128110543264, -11456.163103123083, -28675.29883090244, 4484.02815866806, -0.0835, 0.9535, 0.0845, 192.0, 126.5, 56.0, 14.5, 96.0, 1.0, 88.0, 0.0, 0.0, 0.0, 1.658334825412624E9, 0.0, 2022-07-20 12:33:45.412
184.0, -9278.343233864694, -16472.45335250537, -4377.410337616246, -8024.522128644244, -30455.54822153428, -426.9630225852755, -1024.3133931533569, -14685.52079028139, -60.439117007150294, -24161.20757594199, -7205.71067401298, -31982.060609109478, -16256.714315022746, -11842.91533743326, -28707.217121984617, 3482.468841370206, -0.0835, 0.9535, 0.0845, 192.0, 0.0, 0.0, 0.0, 0.0, 0.0, 0.0, 0.0, 0.0, 0.0, 1.6583348254126291E9, 0.0, 2022-07-20 12:33:45.412
186.0, -10433.324925103776, -17822.43166237255, -5537.823502757968, -9523.854794961786, -32078.553089923036, -1310.192204736734, 373.25178065917265, -14727.877346024197, 417.17295851385103, -23886.079953441615, -6486.006854296548, -31197.492026983742, -15745.954602474523, -11243.888586031031, -28446.26050546891, 4567.154296297347, -0.0835, 0.9535, 0.0845, 192.0, 0.0, 0.0, 0.0, 0.0, 0.0, 0.0, 0.0, 0.0, 0.0, 1.658334825412634E9, 0.0, 2022-07-20 12:33:45.412
188.0, -9380.535409514358, -16552.36083893309, -4483.64817901232, -8096.69591149043, -30514.601530385204, -532.4185529254142, -1160.3908133972661, -14805.616713239755, -234.8721307363666, -24351.86795614576, -7342.16807391263, -32105.665755947324, -16420.910229791432, -12003.04323471108, -28908.62869127139, 3451.0199369215893, -0.0835, 0.9535, 0.0845, 192.0, 0.0, 0.0, 0.0, 0.0, 0.0, 0.0, 0.0, 0.0, 0.0, 1.658334825412639E9, 0.0, 2022-07-20 12:33:45.412
190.0, -10294.453536802952, -17705.330873171195, -5410.709132040636, -9423.62957282419, -31993.102370870398, -1180.775604340506, 495.3146571296045, -14571.281024370317, 597.3727223125366, -23668.373962446924, -6343.425076416144, -31074.870356901927, -15567.766495676817, -11076.943406694343, -28238.25517156782, 4610.539032285098, -0.0835, 0.9535, 0.0845, 192.0, 0.0, 0.0, 0.0, 0.0, 0.0, 0.0, 0.0, 0.0, 0.0, 1.6583348254126437E9, 0.0, 2022-07-20 12:33:45.412
192.0, -9543.79255101592, -16702.989244817407, -4634.433047107822, -8225.173738619535, -30636.59735162227, -703.0294183527731, -1263.454707080687, -14924.349179786346, -408.142853753907, -24552.56426960996, -7468.455430085115, -32220.732536403244, -16576.120743289084, -12162.344117444054, -29116.38815598347, 3431.7750849455697, -0.08175, 0.95275, 0.08025, 192.0, 126.5, 64.0, 14.5, 96.0, 1.0, 48.0, 0.0, 0.0, 0.0, 1.6583348254126484E9, 0.0, 2022-07-20 12:33:45.412
194.0, -10144.249814063289, -17568.694659315905, -5275.145801919199, -9301.097309720197, -31869.564279265916, -1031.4883031235104, 545.0919920315733, -14476.621386602092, 717.1333691040718, -23519.08666122993, -6263.629348710698, -31008.776248547587, -15445.368343039554, -10997.102975499985, -28074.618050410518, 4586.130927339903, -0.08175, 0.95275, 0.08025, 192.0, 0.0, 0.0, 0.0, 0.0, 0.0, 0.0, 0.0, 0.0, 0.0, 1.658334825412653E9, 0.0, 2022-07-20 12:33:45.412
196.0, -9692.275189432525, -16858.087999592783, -4786.3131506816335, -8372.09175492427, -30783.671830138188, -843.0183938763612, -1285.1135474578796, -15030.855242115886, -537.9170820614198, -24734.440414242796, -7552.20741655915, -32285.44083660136, -16709.672416409543, -12244.84440622859, -29284.495626031832, 3442.1686461172876, -0.08175, 0.95275, 0.08025, 192.0, 0.0, 0.0, 0.0, 0.0, 0.0, 0.0, 0.0, 0.0, 0.0, 1.658334825412658E9, 0.0, 2022-07-20 12:33:45.412
0.0, -4524.015429498605, -8249.78300926483, -2254.6204632068234, -3867.7011570574236, -15235.038427715115, -366.8591817449548, -782.4898698913896, -7509.29206720496, 271.79721257653387, -11897.028910759558, -3154.9263781221366, -15505.718053068884, -7805.966771360251, -5558.856494290411, -14182.315967359064, 2388.015674116096, -0.082, 0.9520000000000001, 0.08600000000000001, 192.0, 126.5, 56.0, 14.5, 96.0, 1.0, 88.0, 0.0, 0.0, 0.0, 1.6583348255013013E9, 0.0, 2022-07-20 12:33:45.501
2.0, -9037.12320770302, -16767.138751404138, -4563.578017184498, -8244.195073151002, -31151.31332293908, -506.84815726854293, 352.5540652935583, -14194.296502387107, 921.473016914489, -23213.69477673707, -6179.005644202905, -31049.188202522782, -15296.483373222754, -10852.174264451774, -27670.453807169655, 4331.5222062495, -0.082, 0.9520000000000001, 0.08600000000000001, 192.0, 0.0, 0.0, 0.0, 0.0, 0.0, 0.0, 0.0, 0.0, 0.0, 1.6583348259761283E9, 0.0, 2022-07-20 12:33:45.976
4.0, -9829.42549341029, -17367.283090029134, -5274.318787374353, -8666.888912545313, -31459.677989444495, -1356.1697430813008, -897.7354643029529, -15143.955069059739, -577.3679110250367, -24890.29912832965, -7412.598420691303, -32172.206899190773, -16747.625678494656, -12219.318714060631, -29354.724807110408, 3817.0968076106083, -0.082, 0.9520000000000001, 0.08600000000000001, 192.0, 0.0, 0.0, 0.0, 0.0, 0.0, 0.0, 0.0, 0.0, 0.0, 1.6583348259762087E9, 0.0, 2022-07-20 12:33:45.976
6.0, -8880.303368604586, -16580.94872009143, -4396.3199134254355, -8036.21209099437, -30913.110782278873, -372.89415274788774, 194.6166389723586, -14157.438475780305, 853.9707486594616, -23235.174803158618, -6269.619616224721, -31146.418290903366, -15360.52112108721, -10891.334520737473, -27688.357554478356, 4205.748940199487, -0.082, 0.9520000000000001, 0.08600000000000001, 192.0, 0.0, 0.0, 0.0, 0.0, 0.0, 0.0, 0.0, 0.0, 0.0, 1.6583348259762201E9, 0.0, 2022-07-20 12:33:45.976
8.0, -9961.993689774716, -17526.069882639633, -5400.628495291293, -8838.12562681742, -31646.538573090864, -1446.6496046363836, -679.6271419080665, -15124.66551359481, -473.25348535221644, -24815.66665359338, -7287.562762208315, -32033.961359734698, -16642.63953478808, -12108.319951095576, -29261.808605409697, 3979.3704723561377, -0.084, 0.9560000000000001, 0.08600000000000001, 192.0, 126.5, 48.0, 14.5, 112.0, 1.0, 88.0, 0.0, 0.0, 0.0, 1.6583348259762251E9, 0.0, 2022-07-20 12:33:45.976
10.0, -8798.898315298356, -16457.812959887142, -4305.482423959068, -7890.5904758680435, -30753.541678612433, -331.20814933874004, -45.508151711005176, -14233.076779017065, 736.7582007358315, -23351.18035688166, -6415.978838918071, -31294.94563280888, -15492.3070063957, -11069.94731067983, -27790.12504698337, 4035.652164894601, -0.084, 0.9560000000000001, 0.08600000000000001, 192.0, 0.0, 0.0, 0.0, 0.0, 0.0, 0.0, 0.0, 0.0, 0.0, 1.65833482597623E9, 0.0, 2022-07-20 12:33:45.976
12.0, -10070.109077705036, -17657.475788292384, -5517.8186914704675, -9013.49741381376, -31839.45647948462, -1531.4968265887294, -471.7559184737109, -15118.362321658413, -365.04869044407496, -24708.40063195236, -7160.694260679992, -31902.533102337493, -16537.40752189249, -11979.70801349974, -29172.02164793273, 4107.848299485243, -0.084, 0.9560000000000001, 0.08600000000000001, 192.0, 0.0, 0.0, 0.0, 0.0, 0.0, 0.0, 0.0, 0.0, 0.0, 1.658334825976235E9, 0.0, 2022-07-20 12:33:45.976
14.0, -8697.197878026709, -16338.231127051251, -4221.685733996122, -7753.373116656914, -30587.937603943064, -275.1052707559193, -270.3443491869389, -14286.11746860951, 595.4057688004696, -23486.140189902806, -6564.595587801407, -31450.33496026218, -15641.035514001313, -11223.973181721352, -27935.81371734306, 3884.643779354546, -0.084, 0.9560000000000001, 0.08600000000000001, 192.0, 0.0, 0.0, 0.0, 0.0, 0.0, 0.0, 0.0, 0.0, 0.0, 1.6583348259762397E9, 0.0, 2022-07-20 12:33:45.976
16.0, -10135.62204070354, -17762.908966888066, -5595.267486008106, -9154.827494004667, -31999.360859317883, -1561.1799432253772, -248.439639620738, -15028.441253714713, -198.14821459629712, -24559.359199924376, -6993.346749943108, -31748.976617929533, -16374.820932724588, -11803.352749747366, -29033.93257068784, 4240.818827249865, -0.084, 0.9560000000000001, 0.08600000000000001, 192.0, 0.0, 0.0, 0.0, 0.0, 0.0, 0.0, 0.0, 0.0, 0.0, 1.6583348259762447E9, 0.0, 2022-07-20 12:33:45.976
18.0, -8685.61967439886, -16291.426574161838, -4193.701349938077, -7671.677490672767, -30491.690992318512, -278.94977080223214, -526.9200237894087, -14375.703260386379, 391.33434192351604, -23683.327279487527, -6764.934273354325, -31654.764015050416, -15843.609373999761, -11418.45571022698, -28149.585801313617, 3716.8045302396454, -0.078, 0.9480000000000001, 0.084, 192.0, 126.5, 72.0, 14.5, 80.0, 1.0, 80.0, 0.0, 0.0, 0.0, 1.6583348259762497E9, 0.0, 2022-07-20 12:33:45.976
20.0, -10110.09634853558, -17778.823408940247, -5570.948788040732, -9185.874067053088, -32063.555069393526, -1503.512442530685, -1.2069942005865815, -14939.593069504866, 3.4868721350279017, -24358.19349982661, -6798.73011097075, -31566.340513985222, -16173.096439015442, -11638.352172178289, -28828.251818210105, 4379.779622528508, -0.078, 0.9480000000000001, 0.084, 192.0, 0.0, 0.0, 0.0, 0.0, 0.0, 0.0, 0.0, 0.0, 0.0, 1.6583348259762547E9, 0.0, 2022-07-20 12:33:45.976
22.0, -8686.58079941044, -16268.158408183863, -4196.852945906276, -7616.066350467962, -30426.35684327565, -322.93800389027643, -742.8825787165855, -14485.115049495107, 220.5893660294254, -23876.78162774821, -6921.016504885734, -31802.732563344547, -16009.191096924675, -11579.00829064945, -28330.880800590614, 3609.5832120875375, -0.078, 0.9480000000000001, 0.084, 192.0, 0.0, 0.0, 0.0, 0.0, 0.0, 0.0, 0.0, 0.0, 0.0, 1.6583348259762597E9, 0.0, 2022-07-20 12:33:45.976
24.0, -10068.119772448514, -17769.927414647034, -5555.727250066669, -9204.850698095644, -32109.26438680463, -1474.8128026500706, 191.73326393762397, -14818.245448857004, 195.82363317294516, -24141.627447799143, -6627.225175765178, -31393.98621249035, -15987.174628636198, -11456.677193245554, -28620.20178082011, 4478.1496498763145, -0.078, 0.9480000000000001, 0.084, 192.0, 0.0, 0.0, 0.0, 0.0, 0.0, 0.0, 0.0, 0.0, 0.0, 1.6583348259762645E9, 0.0, 2022-07-20 12:33:45.976
26.0, -8743.39893381583, -16296.902751553387, -4256.085068712839, -7618.1674144467615, -30420.455982739448, -412.948478811798, -942.3942497246563, -14601.83585904072, -6.303191936396591, -24102.19897057998, -7114.180280468498, -31973.030504349532, -16230.45101528776, -11783.19147624868, -28564.054198748378, 3507.5922021379715, -0.078, 0.9480000000000001, 0.084, 192.0, 0.0, 0.0, 0.0, 0.0, 0.0, 0.0, 0.0, 0.0, 0.0, 1.6583348259762692E9, 0.0, 2022-07-20 12:33:45.976
28.0, -9975.717660870274, -17700.79346904677, -5472.981092093121, -9159.387249873549, -32086.666773160312, -1357.4884960041638, 378.1468126948849, -14686.772487970888, 404.723036852245, -23905.5930263511, -6446.936004988672, -31225.521114530697, -15785.561893649328, -11260.18300773895, -28380.367562814663, 4581.7499854266625, -0.07200000000000001, 0.9500000000000001, 0.088, 192.0, 126.5, 96.0, 14.5, 88.0, 1.0, 96.0, 0.0, 0.0, 0.0, 1.6583348259762743E9, 0.0, 2022-07-20 12:33:45.976
30.0, -8858.599824738481, -16391.87531374399, -4359.528942052, -7685.312054790504, -30471.529718819824, -522.0249917536964, -1086.5853532058422, -14728.927878013597, -193.0967203493977, -24315.702833617073, -7264.093430530243, -32108.526779237603, -16409.95787500833, -11958.630318478385, -28769.243212848094, 3467.6272830518824, -0.07200000000000001, 0.9500000000000001, 0.088, 192.0, 0.0, 0.0, 0.0, 0.0, 0.0, 0.0, 0.0, 0.0, 0.0, 1.6583348259762793E9, 0.0, 2022-07-20 12:33:45.976
32.0, -9850.525540176099, -17602.691662632427, -5355.120343580287, -9075.568208166147, -31999.182045362242, -1224.0932850948914, 513.4195701384032, -14555.50069278487, 570.9306086219083, -23718.151297348893, -6323.0402854729045, -31123.574808070043, -15628.339723150699, -11101.887953506464, -28176.43024640444, 4626.073494681536, -0.07200000000000001, 0.9500000000000001, 0.088, 192.0, 0.0, 0.0, 0.0, 0.0, 0.0, 0.0, 0.0, 0.0, 0.0, 1.658334825976284E9, 0.0, 2022-07-20 12:33:45.976
34.0, -8999.996960162754, -16514.94401871491, -4484.430490068256, -7800.7811666466205, -30564.222403075983, -666.3502057016142, -1180.6414938737744, -14863.328917423358, -364.0875654324967, -24528.13381292031, -7395.27581873844, -32234.344748776526, -16574.98080432186, -12105.213058616288, -28967.68200012231, 3448.4941897981394, -0.07200000000000001, 0.9500000000000001, 0.088, 192.0, 0.0, 0.0, 0.0, 0.0, 0.0, 0.0, 0.0, 0.0, 0.0, 1.6583348259762888E9, 0.0, 2022-07-20 12:33:45.976
36.0, -9666.235407142092, -17434.628896072973, -5178.943893783557, -8925.744465082225, -31849.894744145247, -1062.624283149753, 599.2055653578717, -14453.844959002134, 743.1060961611386, -23522.551181620503, -6192.79667053183, -31018.43220215228, -15462.690944992417, -10941.916518439832, -27967.620249702963, 4629.761532516663, -0.07200000000000001, 0.9500000000000001, 0.088, 192.0, 0.0, 0.0, 0.0, 0.0, 0.0, 0.0, 0.0, 0.0, 0.0, 1.6583348259762936E9, 0.0, 2022-07-20 12:33:45.976
38.0, -9153.508741081803, -16666.578253099713, -4635.77415177514, -7941.843025904063, -30702.55734950988, -815.5480999407888, -1210.8163488884388, -14934.072188624406, -474.61694176399016, -24674.001297235645, -7457.726592746568, -32278.020057442198, -16675.608357859655, -12203.381920263997, -29113.03539431517, 3474.5563238330274, -0.078, 0.9520000000000001, 0.082, 192.0, 126.5, 72.0, 14.5, 96.0, 1.0, 72.0, 0.0, 0.0, 0.0, 1.6583348259763E9, 0.0, 2022-07-20 12:33:45.976
40.0, -9493.702291691578, -17266.387315557877, -5020.5817843177065, -8758.575768300983, -31695.734762636992, -917.6508686126315, 610.3143823521593, -14333.950201743866, 847.0417078783164, -23369.821711757388, -6134.257451803381, -30970.37595157337, -15361.683411798886, -10869.519218149093, -27818.75763163062, 4581.884095893395, -0.078, 0.9520000000000001, 0.082, 192.0, 0.0, 0.0, 0.0, 0.0, 0.0, 0.0, 0.0, 0.0, 0.0, 1.6583348259763048E9, 0.0, 2022-07-20 12:33:45.976
42.0, -9349.310022510293, -16867.29691830837, -4831.620136692541, -8127.474263605388, -30904.25949147457, -994.4738143055218, -1205.1837092857015, -15045.003896356095, -589.7731291977321, -24816.71718558278, -7523.418369700715, -32320.980110285298, -16770.60327179471, -12275.779220554736, -29258.947582119417, 3511.8837370733904, -0.078, 0.9520000000000001, 0.082, 192.0, 0.0, 0.0, 0.0, 0.0, 0.0, 0.0, 0.0, 0.0, 0.0, 1.65833482597631E9, 0.0, 2022-07-20 12:33:45.976
44.0, -9293.36360613866, -17062.986441014582, -4830.52490121423, -8541.048591261935, -31483.61670775613, -730.5444157772561, 567.9354748648972, -14246.197253012331, 916.4215226675896, -23269.507082641972, -6115.906669605573, -30970.688875995744, -15294.82934413306, -10838.316182889484, -27705.23312154211, 4518.829824784973, -0.078, 0.9520000000000001, 0.082, 192.0, 0.0, 0.0, 0.0, 0.0, 0.0, 0.0, 0.0, 0.0, 0.0, 1.6583348259763157E9, 0.0, 2022-07-20 12:33:45.976
46.0, -9532.16964389916, -17064.484007893087, -5011.70814176895, -8324.639001445652, -31115.327014366034, -1152.4782958600874, -1129.2101298821128, -15123.23500194967, -621.1549784129833, -24887.9745469063, -7514.947058552153, -32298.471903618803, -16799.70524307552, -12282.104764235588, -29323.61117882862, 3621.8096163045907, -0.078, 0.9520000000000001, 0.082, 192.0, 0.0, 0.0, 0.0, 0.0, 0.0, 0.0, 0.0, 0.0, 0.0, 1.6583348259763207E9, 0.0, 2022-07-20 12:33:45.976
48.0, -9114.37083654056, -16879.299805080867, -4669.011195780182, -8352.310461081323, -31283.345077436577, -601.9548299258745, 449.4265257628591, -14223.063197501087, 924.2669849714024, -23226.301160609863, -6147.7132019654755, -31015.638234095364, -15292.97414934327, -10835.589270065937, -27657.981533763592, 4412.033189777517, -0.082, 0.9580000000000001, 0.078, 192.0, 126.5, 56.0, 14.5, 120.0, 1.0, 56.0, 0.0, 0.0, 0.0, 1.6583348259763255E9, 0.0, 2022-07-20 12:33:45.976
50.0, -9686.888419018796, -17238.000600099636, -5171.768983813404, -8514.405311871209, -31327.042737846703, -1285.6276375803516, -994.6302765167089, -15121.960952515718, -615.3211731101482, -24911.779154751202, -7467.583712051358, -32236.736385433243, -16799.012338997407, -12265.51976984975, -29357.29525772277, 3734.5741670816146, -0.082, 0.9580000000000001, 0.078, 192.0, 0.0, 0.0, 0.0, 0.0, 0.0, 0.0, 0.0, 0.0, 0.0, 1.6583348259763308E9, 0.0, 2022-07-20 12:33:45.976
52.0, -8926.638534860436, -16668.612261845145, -4487.917362203284, -8130.894080507051, -31054.99965608116, -452.01932811967475, 310.0410473395643, -14136.18196680331, 907.637287096654, -23216.891076194177, -6201.200926447025, -31073.708066190255, -15322.389045046455, -10864.53477913556, -27645.33044640189, 4296.921705832685, -0.082, 0.9580000000000001, 0.078, 192.0, 0.0, 0.0, 0.0, 0.0, 0.0, 0.0, 0.0, 0.0, 0.0, 1.6583348259763355E9, 0.0, 2022-07-20 12:33:45.976
54.0, -9844.110589517426, -17417.842735987037, -5339.116494550288, -8713.24643054562, -31544.458156163473, -1404.4718628492192, -811.0553993052721, -15111.61209483291, -551.4398874568806, -24873.624726965994, -7372.74526032749, -32122.78719220009, -16730.861870153174, -12178.571483918606, -29315.810420013717, 3878.787622307256, -0.082, 0.9580000000000001, 0.078, 192.0, 0.0, 0.0, 0.0, 0.0, 0.0, 0.0, 0.0, 0.0, 0.0, 1.6583348259763403E9, 0.0, 2022-07-20 12:33:45.976
56.0, -8794.78559431858, -16512.574733802645, -4378.505573094556, -7952.795380687164, -30859.176022908217, -351.3023676040611, 110.23880365357444, -14165.887435184412, 809.0660940487497, -23274.200948977585, -6326.325991907835, -31202.476465997275, -15426.302305019177, -10971.085544954009, -27714.35263327988, 4137.553767866346, -0.082, 0.9580000000000001, 0.078, 192.0, 0.0, 0.0, 0.0, 0.0, 0.0, 0.0, 0.0, 0.0, 0.0, 1.6583348259763455E9, 0.0, 2022-07-20 12:33:45.976
58.0, -9966.06170726558, -17569.208749438378, -5479.79837415199, -8901.8504502595, -31742.22639110403, -1499.2879628286319, -605.1064258940728, -15088.880370721863, -458.9707206452752, -24799.416935374375, -7265.613349153203, -32012.973071691165, -16642.907755721542, -12065.069325574557, -29250.945657604418, 4007.2430976919054, -0.084, 0.964, 0.08, 192.0, 126.5, 48.0, 15.0, 16.0, 1.0, 64.0, 0.0, 0.0, 0.0, 1.6583348259763503E9, 0.0, 2022-07-20 12:33:45.976
60.0, -8677.148363250299, -16363.019211652187, -4261.918874015674, -7788.107727540461, -30668.35918049326, -284.5600586605142, -104.04737043945438, -14185.33345286053, 688.7466536458319, -23392.620491101803, -6464.839752297373, -31356.412930060975, -15554.958946103925, -11116.662456591423, -27823.362090988412, 3975.2577513763613, -0.084, 0.964, 0.08, 192.0, 0.0, 0.0, 0.0, 0.0, 0.0, 0.0, 0.0, 0.0, 0.0, 1.6583348259763553E9, 0.0, 2022-07-20 12:33:45.976
62.0, -10047.13148440498, -17690.86929450861, -5559.415287901794, -9049.394315408983, -31908.50101810706, -1547.8583035300142, -372.22360041422854, -15023.92620133474, -300.5639076905141, -24656.745750516147, -7093.773137780802, -31852.755767435527, -16479.06946886414, -11922.487547694152, -29100.071382531096, 4152.507084906946, -0.084, 0.964, 0.08, 192.0, 0.0, 0.0, 0.0, 0.0, 0.0, 0.0, 0.0, 0.0, 0.0, 1.6583348259763603E9, 0.0, 2022-07-20 12:33:45.976
64.0, -8636.51289183055, -16299.94258879931, -4205.2572018214705, -7687.18960132475, -30542.831783632253, -278.92741905777683, -361.9865014536979, -14271.566482969105, 504.3671136340039, -23571.881481633365, -6649.331051031477, -31553.689426623518, -15731.716541256494, -11306.987560628362, -28000.700831496815, 3792.8004613876897, -0.084, 0.964, 0.08, 192.0, 0.0, 0.0, 0.0, 0.0, 0.0, 0.0, 0.0, 0.0, 0.0, 1.6583348259763658E9, 0.0, 2022-07-20 12:33:45.976
66.0, -10080.23441794329, -17761.9925453654, -5594.015788318609, -9145.283299122251, -32024.417164852282, -1558.4977338907402, -143.0735162584205, -14954.881662712296, -131.3388504193843, -24491.923986902715, -6926.917365421935, -31696.11474229273, -16309.866763337466, -11759.923310270706, -28936.747185796165, 4283.130679503761, -0.084, 0.964, 0.08, 192.0, 0.0, 0.0, 0.0, 0.0, 0.0, 0.0, 0.0, 0.0, 0.0, 1.6583348259763708E9, 0.0, 2022-07-20 12:33:45.976
68.0, -8629.94147896069, -16264.537425582103, -4190.1697743141385, -7614.568783589457, -30445.668750485034, -302.32969550248333, -597.2609635902601, -14392.265903027763, 316.7018671872458, -23759.18910016884, -6829.799035763626, -31724.769678684435, -15914.06207252289, -11452.653879243599, -28188.589595388126, 3676.1020035865313, -0.082, 0.956, 0.079, 192.0, 126.5, 64.0, 14.5, 80.0, 1.0, 56.0, 0.0, 0.0, 0.0, 1.6583348259763768E9, 0.0, 2022-07-20 12:33:45.976
70.0, -10059.626109555496, -17772.386106537117, -5572.692224108247, -9168.015023233298, -32068.517156662605, -1509.34624783352, 88.71407374311373, -14846.56510908188, 63.21073331960837, -24287.159655947646, -6754.406601715876, -31530.309501923264, -16121.307447112495, -11569.285281811392, -28734.26273277554, 4412.8155008334525, -0.082, 0.956, 0.079, 192.0, 0.0, 0.0, 0.0, 0.0, 0.0, 0.0, 0.0, 0.0, 0.0, 1.6583348259763837E9, 0.0, 2022-07-20 12:33:45.976
72.0, -8664.0949444884, -16256.870777233933, -4212.11918736925, -7570.424088290226, -30401.546406930258, -346.9437774352762, -805.4674631914453, -14471.01109874381, 134.62455685431445, -23951.59291644012, -6997.101843011599, -31879.64491601526, -16094.373595043851, -11655.518311919966, -28388.07891465174, 3589.153717655387, -0.082, 0.956, 0.079, 192.0, 0.0, 0.0, 0.0, 0.0, 0.0, 0.0, 0.0, 0.0, 0.0, 1.6583348259763887E9, 0.0, 2022-07-20 12:33:45.976
74.0, -9979.897437083417, -17720.46300416744, -5514.644743757814, -9139.248328119318, -32081.324706235497, -1411.5797175860068, 292.31611398650574, -14720.05423546484, 273.3171311994948, -24051.99695253336, -6559.812314487972, -31338.039796118715, -15914.15147950071, -11364.72211655642, -28506.565512009325, 4532.620851113898, -0.082, 0.956, 0.079, 192.0, 0.0, 0.0, 0.0, 0.0, 0.0, 0.0, 0.0, 0.0, 0.0, 1.6583348259763937E9, 0.0, 2022-07-20 12:33:45.976
76.0, -8739.040343647044, -16312.124289527452, -4296.675836643677, -7597.290885125504, -30429.061404354743, -443.9727001157642, -989.4223200586224, -14616.632713870134, -64.9094658982117, -24163.286288176336, -7157.632071689614, -32017.488124071137, -16293.505286396181, -11822.57524997893, -28613.272740038963, 3514.5882981524824, -0.082, 0.956, 0.079, 192.0, 0.0, 0.0, 0.0, 0.0, 0.0, 0.0, 0.0, 0.0, 0.0, 1.6583348259763992E9, 0.0, 2022-07-20 12:33:45.976
78.0, -9892.993854641183, -17656.715828980905, -5434.334925929896, -9095.215391542362, -32055.82136581199, -1316.584803650952, 440.26231053618324, -14610.351873678193, 453.1145635979848, -23848.372560545515, -6414.883603439761, -31208.51143700021, -15744.769960018393, -11210.405672836981, -28302.73995432138, 4592.970561143227, -0.08, 0.95, 0.0825, 192.0, 126.5, 72.0, 14.5, 64.0, 1.0, 88.0, 0.0, 0.0, 0.0, 1.658334825976404E9, 0.0, 2022-07-20 12:33:45.976
80.0, -8862.645490484892, -16411.678959331388, -4388.049767976972, -7671.990415095141, -30487.779437038833, -567.7119574203441, -1108.624173238775, -14736.795692061865, -261.20248570471836, -24393.55395955491, -7314.854242188245, -32165.389617131907, -16478.443620019392, -11990.213333393733, -28827.111879242886, 3468.387242363363, -0.08, 0.95, 0.0825, 192.0, 0.0, 0.0, 0.0, 0.0, 0.0, 0.0, 0.0, 0.0, 0.0, 1.6583348259764087E9, 0.0, 2022-07-20 12:33:45.976
82.0, -9706.602657628377, -17484.74150714177, -5247.0943626277885, -8937.456779176806, -31913.97719549861, -1130.819455482895, 587.8061756856652, -14458.225900915373, 655.6437201075221, -23615.690900765767, -6252.498179971955, -31062.934525362794, -15551.315611757711, -11004.032016281131, -28056.714303101817, 4650.749820560196, -0.08, 0.95, 0.0825, 192.0, 0.0, 0.0, 0.0, 0.0, 0.0, 0.0, 0.0, 0.0, 0.0, 1.6583348259764144E9, 0.0, 2022-07-20 12:33:45.976
84.0, -8990.855096680534, -16530.61259157808, -4511.945487492739, -7765.666576107333, -30584.96482193051, -680.1188802860833, -1161.1954761976572, -14799.268817814449, -376.4480801162816, -24531.754795522073, -7387.497411667992, -32215.412821222882, -16595.007967353817, -12110.35395984101, -28975.10277928147, 3503.3006672025526, -0.08, 0.95, 0.0825, 192.0, 0.0, 0.0, 0.0, 0.0, 0.0, 0.0, 0.0, 0.0, 0.0, 1.6583348259764197E9, 0.0, 2022-07-20 12:33:45.976
86.0, -9536.08119917884, -17332.1908512343, -5093.381416008641, -8781.978044745689, -31765.60631580428, -968.0987558482595, 647.4406298924243, -14320.248582392764, 812.4412074615011, -23423.01886356102, -6141.9017484070955, -30970.197137617724, -15402.251827985267, -10883.399651455838, -27859.102530372445, 4671.134611503436, -0.08, 0.95, 0.0825, 192.0, 0.0, 0.0, 0.0, 0.0, 0.0, 0.0, 0.0, 0.0, 0.0, 1.6583348259764245E9, 0.0, 2022-07-20 12:33:45.976
88.0, -9183.43772690746, -16722.83759389372, -4707.880879387961, -7958.71859296782, -30771.780702087966, -866.2865598543358, -1195.7959766144725, -14949.226671365104, -509.8879945144647, -24707.998300552168, -7477.619645311791, -32289.57590932559, -16711.102928054683, -12187.981568334291, -29144.57370574161, 3523.1713680233206, -0.08, 0.9470000000000001, 0.08524999999999999, 192.0, 126.5, 64.0, 14.5, 64.0, 1.0, 96.0, 0.0, 0.0, 0.0, 1.6583348259764295E9, 0.0, 2022-07-20 12:33:45.976
90.0, -9372.645243721634, -17175.97450923616, -4948.653870660529, -8637.295202886487, -31605.92545341557, -831.6413559486099, 610.7837689857208, -14280.484829006771, 883.6538652961094, -23318.971493121564, -6124.69090517651, -30971.60529751841, -15329.832175950072, -10846.854549271411, -27757.983238456636, 4576.653787690853, -0.08, 0.9470000000000001, 0.08524999999999999, 192.0, 0.0, 0.0, 0.0, 0.0, 0.0, 0.0, 0.0, 0.0, 0.0, 1.6583348259764345E9, 0.0, 2022-07-20 12:33:45.976
92.0, -9377.495572268435, -16923.265686424456, -4896.239029912834, -8161.694784366463, -30978.288469110546, -1050.5990446327978, -1172.5054588920425, -15049.943631880717, -606.1346061390169, -24838.331322471062, -7527.44168370267, -32321.807124830142, -16789.244626670436, -12254.85798774457, -29288.004849911315, 3555.961377139256, -0.08, 0.9470000000000001, 0.08524999999999999, 192.0, 0.0, 0.0, 0.0, 0.0, 0.0, 0.0, 0.0, 0.0, 0.0, 1.6583348259764392E9, 0.0, 2022-07-20 12:33:45.976
94.0, -9196.871125325099, -16997.942864649638, -4779.540572111675, -8442.879729614226, -31424.049308782734, -698.2908485282479, 519.7451138192552, -14229.791072582135, 924.8481303272404, -23237.946419471078, -6126.434341244023, -30992.07949543947, -15302.250123292224, -10810.66707499827, -27690.48097020161, 4472.852286440407, -0.08, 0.9470000000000001, 0.08524999999999999, 192.0, 0.0, 0.0, 0.0, 0.0, 0.0, 0.0, 0.0, 0.0, 0.0, 1.658334825976444E9, 0.0, 2022-07-20 12:33:45.976
96.0, -9544.194882416115, -17113.255514294568, -5061.306662715276, -8345.2696615779, -31191.45705598081, -1199.2604970050452, -1071.855553609795, -15098.871600493385, -625.9158999819637, -24890.67910798539, -7499.680817089179, -32283.362124367017, -16826.303818977336, -12268.201979184387, -29349.2262779744, 3658.1088493000093, -0.08, 0.9470000000000001, 0.08524999999999999, 192.0, 0.0, 0.0, 0.0, 0.0, 0.0, 0.0, 0.0, 0.0, 0.0, 1.6583348259764493E9, 0.0, 2022-07-20 12:33:45.976
98.0, -8979.455707008328, -16773.665460785087, -4571.5352382105875, -8205.526555243321, -31183.94686984383, -529.1328464904841, 414.06606603456333, -14156.94673740229, 940.5837584237765, -23183.9222531226, -6142.304079807292, -31021.18146672028, -15301.378405258467, -10835.09753168792, -27621.257617623523, 4394.598829102377, -0.083, 0.9475, 0.085625, 192.0, 126.5, 40.0, 14.5, 80.0, 1.0, 88.0, 0.0, 0.0, 0.0, 1.658334825976454E9, 0.0, 2022-07-20 12:33:45.976
100.0, -9685.994349240584, -17286.99562394567, -5219.020571591923, -8543.440227918652, -31405.519712629288, -1329.8170363684937, -916.8685575566957, -15132.220403220703, -587.9626378968522, -24877.469227012305, -7424.243679552517, -32200.70537337129, -16782.583806822757, -12223.1855658514, -29327.5227341083, 3801.4505864918933, -0.083, 0.9475, 0.085625, 192.0, 0.0, 0.0, 0.0, 0.0, 0.0, 0.0, 0.0, 0.0, 0.0, 1.6583348259764588E9, 0.0, 2022-07-20 12:33:45.976
102.0, -8790.35994891643, -16575.830170611163, -4410.982657788117, -7998.839974265096, -30966.330285826956, -391.5131558791585, 242.85170350691124, -14129.074112066523, 892.505156100411, -23211.03491914689, -6219.261135966914, -31117.58454055602, -15350.686353526873, -10897.883581862878, -27639.22842016559, 4261.717708315577, -0.083, 0.9475, 0.085625, 192.0, 0.0, 0.0, 0.0, 0.0, 0.0, 0.0, 0.0, 0.0, 0.0, 1.6583348259764652E9, 0.0, 2022-07-20 12:33:45.976
104.0, -9805.017388465094, -17448.084646235067, -5351.566416211894, -8725.428131273762, -31605.232549337456, -1422.5991276024733, -722.09545637315, -15107.99111223115, -490.8666599829984, -24824.62970311996, -7294.849430900745, -32069.925316563287, -16679.184636972506, -12118.53469831165, -29264.043779855227, 3958.158666868051, -0.083, 0.9475, 0.085625, 192.0, 0.0, 0.0, 0.0, 0.0, 0.0, 0.0, 0.0, 0.0, 0.0, 1.65833482597647E9, 0.0, 2022-07-20 12:33:45.976
106.0, -8657.791752552004, -16418.228020456794, -4265.852781039808, -7814.862765653464, -30750.926524511164, -297.21114602221803, 45.99989008902193, -14161.148865359888, 813.1564632840709, -23291.18827476362, -6327.488282619511, -31240.09445191556, -15436.24883130179, -11012.235106496228, -27709.94933962218, 4115.760817022421, -0.083, 0.9475, 0.085625, 192.0, 0.0, 0.0, 0.0, 0.0, 0.0, 0.0, 0.0, 0.0, 0.0, 1.658334825976475E9, 0.0, 2022-07-20 12:33:45.976
108.0, -9945.699268066797, -17608.838392357637, -5469.382461235817, -8906.052578217099, -31796.272909196963, -1518.2198903822768, -510.1338637034731, -15092.36724285689, -373.3858911259045, -24726.52789670562, -7166.148086327087, -31936.46305042065, -16551.042086010228, -12008.050025469069, -29155.123729124516, 4101.388645337659, -0.0835, 0.9517500000000001, 0.08581250000000001, 192.0, 126.5, 48.0, 14.5, 112.0, 1.0, 88.0, 0.0, 0.0, 0.0, 1.65833482597648E9, 0.0, 2022-07-20 12:33:45.976
110.0, -8614.965810175636, -16345.964830632787, -4209.1911088456045, -7700.019502642096, -30607.025993707895, -292.4502244532376, -210.70989498017968, -14261.843474131045, 636.0188884757624, -23459.027523878518, -6522.976639625626, -31432.02888155328, -15603.529286805307, -11178.956768388363, -27860.354228061944, 3932.4094572555373, -0.0835, 0.9517500000000001, 0.08581250000000001, 192.0, 0.0, 0.0, 0.0, 0.0, 0.0, 0.0, 0.0, 0.0, 0.0, 1.6583348259764848E9, 0.0, 2022-07-20 12:33:45.976
112.0, -10008.574725219576, -17721.155908245553, -5554.967290755188, -9036.229137924807, -31950.298780238485, -1559.503562391229, -284.06832028249744, -15035.45970147368, -225.6408602763248, -24593.311499751988, -7023.052218324211, -31795.82587430786, -16411.96953200931, -11842.91533743326, -29020.856800181486, 4227.541891043412, -0.0835, 0.9517500000000001, 0.08581250000000001, 192.0, 0.0, 0.0, 0.0, 0.0, 0.0, 0.0, 0.0, 0.0, 0.0, 1.6583348259764898E9, 0.0, 2022-07-20 12:33:45.976
114.0, -8567.580111930385, -16269.901844251377, -4174.389442728691, -7597.6932165257, -30501.257538945385, -278.5697911464919, -455.4391450213367, -14328.02698946321, 448.6218629624681, -23645.038741235585, -6704.808080769549, -31610.0605261398, -15794.569646664817, -11384.97279703293, -28051.46164315482, 3783.9938740722987, -0.0835, 0.9517500000000001, 0.08581250000000001, 192.0, 0.0, 0.0, 0.0, 0.0, 0.0, 0.0, 0.0, 0.0, 0.0, 1.6583348259764948E9, 0.0, 2022-07-20 12:33:45.976
116.0, -10004.976094362271, -17746.41337948005, -5561.784572814056, -9101.47387998985, -32041.806822038514, -1526.9370707198466, -43.49649471002754, -14936.553232258944, -28.923157325167338, -24404.30514863791, -6832.168320675889, -31609.792305206338, -16228.662875731336, -11672.527989450455, -28841.08171952745, 4372.045918946972, -0.0835, 0.9517500000000001, 0.08581250000000001, 192.0, 0.0, 0.0, 0.0, 0.0, 0.0, 0.0, 0.0, 0.0, 0.0, 1.6583348259764996E9, 0.0, 2022-07-20 12:33:45.976
118.0, -8578.152487057745, -16236.508338035148, -4173.048338061373, -7538.595204185868, -30422.937026373987, -300.6533146683353, -669.4794499253571, -14414.394130038516, 267.5280293855702, -23826.87018237951, -6874.234303740776, -31773.742350786015, -15977.898654687246, -11545.167749544114, -28254.661351998016, 3658.600587678026, -0.08475, 0.9548750000000001, 0.08690625, 192.0, 126.5, 40.0, 14.5, 120.0, 1.0, 96.0, 0.0, 0.0, 0.0, 1.6583348259765055E9, 0.0, 2022-07-20 12:33:45.976
120.0, -9972.789582346628, -17738.03147530931, -5530.648592787814, -9113.61087722908, -32074.127444520887, -1463.5028199556853, 190.1909935702078, -14805.795527195398, 165.76053688055717, -24179.3571924397, -6651.253301054633, -31430.84423909715, -16030.894640790779, -11450.910443176084, -28624.493315755528, 4497.260391385602, -0.08475, 0.9548750000000001, 0.08690625, 192.0, 0.0, 0.0, 0.0, 0.0, 0.0, 0.0, 0.0, 0.0, 0.0, 1.6583348259765103E9, 0.0, 2022-07-20 12:33:45.976
122.0, -8644.134836689811, -16280.585978101013, -4225.0384956644175, -7541.836207131888, -30407.939005844477, -381.74544355218933, -867.828830221752, -14543.654268223558, 54.672366937681076, -24048.912411798527, -7059.194989108442, -31940.061681277955, -16178.01382279561, -11731.84951923484, -28462.845499854746, 3555.335528294507, -0.08475, 0.9548750000000001, 0.08690625, 192.0, 0.0, 0.0, 0.0, 0.0, 0.0, 0.0, 0.0, 0.0, 0.0, 1.65833482645562E9, 0.0, 2022-07-20 12:33:46.455
124.0, -9915.971447941238, -17711.45525115195, -5479.150173562786, -9097.830545643634, -32077.100226533443, -1385.741100995672, 372.55887658105814, -14692.181610129073, 357.13617290689626, -23970.010753871295, -6486.230371741101, -31279.72409483482, -15832.791129683392, -11285.954569095918, -28384.256766349885, 4578.2854650360905, -0.08475, 0.9548750000000001, 0.08690625, 192.0, 0.0, 0.0, 0.0, 0.0, 0.0, 0.0, 0.0, 0.0, 0.0, 1.6583348264557092E9, 0.0, 2022-07-20 12:33:46.455
126.0, -8774.289044653064, -16380.475924071781, -4343.525093022, -7613.294734155505, -30461.940820448497, -522.3379161760707, -1047.693317853608, -14672.512075008402, -168.1074700483644, -24288.813685037338, -7243.105142486709, -32110.896064149867, -16386.175618907884, -11909.478832421164, -28691.280328187982, 3478.378472134885, -0.08475, 0.9548750000000001, 0.08690625, 192.0, 0.0, 0.0, 0.0, 0.0, 0.0, 0.0, 0.0, 0.0, 0.0, 1.6583348264557207E9, 0.0, 2022-07-20 12:33:46.455
128.0, -9799.585914562454, -17615.767433138783, -5363.614006473304, -9020.895841228466, -32004.211187864687, -1266.8968757268044, 505.1717764343949, -14558.205253863962, 515.0512474836406, -23779.19391145634, -6364.078088292848, -31176.146111028924, -15667.499979436396, -11144.82565460511, -28198.58082515965, 4611.477805552221, -0.083375, 0.9524375, 0.086453125, 192.0, 126.5, 56.0, 14.5, 88.0, 1.0, 88.0, 0.0, 0.0, 0.0, 1.6583348264557257E9, 0.0, 2022-07-20 12:33:46.455
130.0, -8884.460793073273, -16475.31437579565, -4436.30718425598, -7696.890258418353, -30522.201123500006, -638.0081937322848, -1140.9224439766938, -14784.516666473946, -317.1041985874413, -24473.08146632689, -7355.6685275636355, -32213.66938515537, -16514.60874254808, -12053.312307991066, -28879.549071735037, 3471.4717830981954, -0.083375, 0.9524375, 0.086453125, 192.0, 0.0, 0.0, 0.0, 0.0, 0.0, 0.0, 0.0, 0.0, 0.0, 1.6583348264557304E9, 0.0, 2022-07-20 12:33:46.455
132.0, -9619.050874596938, -17454.566652127105, -5201.206231261043, -8875.631854013427, -31861.428244284183, -1097.3812457777556, 609.6214782740449, -14428.833356956644, 706.739807932354, -23566.919394364286, -6223.016229035406, -31054.48556595869, -15486.227331903856, -10958.143884914385, -27980.31604055358, 4645.295994913101, -0.083375, 0.9524375, 0.086453125, 192.0, 0.0, 0.0, 0.0, 0.0, 0.0, 0.0, 0.0, 0.0, 0.0, 1.6583348264557352E9, 0.0, 2022-07-20 12:33:46.455
134.0, -9038.620774581525, -16632.491842805368, -4605.91222118285, -7841.528396788645, -30664.06764555784, -790.9164775510404, -1196.0865492923915, -14907.451260978134, -446.5431507281245, -24633.611695004904, -7444.561415262391, -32279.830548743077, -16635.934011451485, -12150.430637649375, -29049.243515639726, 3486.1568792053317, -0.083375, 0.9524375, 0.086453125, 192.0, 0.0, 0.0, 0.0, 0.0, 0.0, 0.0, 0.0, 0.0, 0.0, 1.6583348264557455E9, 0.0, 2022-07-20 12:33:46.455
136.0, -9436.05714274134, -17294.394051360377, -5057.395107435597, -8724.690523706737, -31714.957262868556, -945.56819743731, 633.2249204188491, -14334.64310582198, 829.2944227808026, -23410.457183177135, -6153.256434590392, -31004.46236186771, -15374.781534049695, -10884.047852045042, -27827.832439879472, 4598.044407134582, -0.083375, 0.9524375, 0.086453125, 192.0, 0.0, 0.0, 0.0, 0.0, 0.0, 0.0, 0.0, 0.0, 0.0, 1.6583348264557505E9, 0.0, 2022-07-20 12:33:46.455
138.0, -9223.335590760184, -16826.348522466247, -4789.196525716367, -8021.616401865054, -30853.521031561024, -961.3932325116674, -1193.9854853135926, -14994.645416098288, -551.2834252456934, -24795.37126962796, -7510.968448039109, -32334.055880791653, -16750.866681440675, -12253.293365632697, -29204.92341577094, 3512.7778068516027, -0.083375, 0.9524375, 0.086453125, 192.0, 0.0, 0.0, 0.0, 0.0, 0.0, 0.0, 0.0, 0.0, 0.0, 1.6583348264557552E9, 0.0, 2022-07-20 12:33:46.455
140.0, -9268.821390726733, -17137.842433195405, -4880.637512283029, -8548.82699833238, -31540.636007861616, -802.2488119898811, 591.9636001543522, -14252.969831582288, 919.0590285133158, -23315.66343494218, -6113.4926812044005, -30993.264137895603, -15302.294826781133, -10846.76514229359, -27708.80940065496, 4534.252528459136, -0.08, 0.96, 0.08, 192.0, 126.5, 64.0, 15.0, 0.0, 1.0, 64.0, 0.0, 0.0, 0.0, 1.6583348264557602E9, 0.0, 2022-07-20 12:33:46.455
142.0, -9420.455625111535, -17042.065208204414, -4970.826801160193, -8231.119302644647, -31069.99767661067, -1141.6600515437187, -1135.3568596073223, -15079.805562473008, -601.6419055035002, -24916.22715189781, -7520.758512110533, -32340.82845936161, -16798.677062830575, -12331.435064248451, -29300.588882039654, 3583.632836774926, -0.08, 0.96, 0.08, 192.0, 0.0, 0.0, 0.0, 0.0, 0.0, 0.0, 0.0, 0.0, 0.0, 1.6583348264557652E9, 0.0, 2022-07-20 12:33:46.455
144.0, -9101.65269394549, -16964.45995145559, -4722.7447894507395, -8356.13260938318, -31346.06407237817, -659.2199992203712, 479.86960171098735, -14210.613275839482, 931.5760054082878, -23278.336021701816, -6155.111629380182, -31051.3786734794, -15300.640797691442, -10854.163569708297, -27659.09912098636, 4421.465625937656, -0.08, 0.96, 0.08, 192.0, 0.0, 0.0, 0.0, 0.0, 0.0, 0.0, 0.0, 0.0, 0.0, 1.65833482645577E9, 0.0, 2022-07-20 12:33:46.455
146.0, -9588.60779864881, -17223.87429760388, -5145.885663734158, -8413.911868800149, -31273.979696509803, -1256.39155583281, -1009.337724368301, -15120.37397865939, -619.9926877013073, -24957.779044840223, -7503.346503179849, -32300.43885713087, -16803.549743121832, -12295.62756963105, -29347.169917484513, 3697.403216052439, -0.08, 0.96, 0.08, 192.0, 0.0, 0.0, 0.0, 0.0, 0.0, 0.0, 0.0, 0.0, 0.0, 1.6583348264557748E9, 0.0, 2022-07-20 12:33:46.455
148.0, -8907.326627651051, -16742.46242552548, -4542.701487863242, -8126.960173482916, -31109.448505574288, -493.59357280654586, 350.9894431816868, -14171.587130020516, 918.5002349019331, -23260.40992264866, -6199.502193868422, -31103.502941549177, -15309.514440240198, -10892.317997493506, -27629.259542138523, 4321.754493922531, -0.08, 0.96, 0.08, 192.0, 0.0, 0.0, 0.0, 0.0, 0.0, 0.0, 0.0, 0.0, 0.0, 1.6583348264557796E9, 0.0, 2022-07-20 12:33:46.455
150.0, -9734.519986453055, -17383.421049525863, -5300.023293497956, -8611.523641529518, -31483.214376355932, -1400.3367901249874, -839.2409490634143, -15150.906461585339, -560.4699922168246, -24927.671245058926, -7404.529440942936, -32192.681097111836, -16747.960954661485, -12221.665647228438, -29315.832771758174, 3843.650680023513, -0.08, 0.96, 0.078, 192.0, 126.5, 64.0, 15.0, 0.0, 1.0, 56.0, 0.0, 0.0, 0.0, 1.6583348264557846E9, 0.0, 2022-07-20 12:33:46.455
152.0, -8759.425134590285, -16568.18587400745, -4394.531773869011, -7947.989755629273, -30905.891168819806, -397.34696118199366, 157.84801934337847, -14176.504513800683, 842.347841542702, -23311.215437795574, -6297.469889816033, -31218.346204560545, -15395.90393255996, -10989.16810621835, -27682.970784064626, 4168.466230448035, -0.08, 0.96, 0.078, 192.0, 0.0, 0.0, 0.0, 0.0, 0.0, 0.0, 0.0, 0.0, 0.0, 1.6583348264557896E9, 0.0, 2022-07-20 12:33:46.455
154.0, -9858.102781546448, -17536.66460951145, -5420.186271689686, -8796.461975152728, -31677.27222171691, -1486.7262824447494, -636.8011995316982, -15124.12907172788, -464.6033602480126, -24857.866747125, -7286.020491840898, -32073.747464865148, -16653.413075615535, -12105.01189291619, -29235.947637074907, 3990.725158539434, -0.08, 0.96, 0.078, 192.0, 0.0, 0.0, 0.0, 0.0, 0.0, 0.0, 0.0, 0.0, 0.0, 1.6583348264557943E9, 0.0, 2022-07-20 12:33:46.455
156.0, -8626.65577252576, -16405.53222960618, -4265.0704699838725, -7759.899826037864, -30696.857654673775, -326.3578207919384, -50.24672153553028, -14226.259496958197, 735.9982414243509, -23403.952825540644, -6434.664897282708, -31356.412930060975, -15505.852163535616, -11111.230982688783, -27766.990991472125, 4020.698847854, -0.08, 0.96, 0.078, 192.0, 0.0, 0.0, 0.0, 0.0, 0.0, 0.0, 0.0, 0.0, 0.0, 1.658334826455799E9, 0.0, 2022-07-20 12:33:46.455
158.0, -9950.907224524883, -17667.77994248628, -5526.848796230412, -8945.0116688027, -31860.087139616866, -1566.991396783757, -417.30706898058287, -15088.07570792147, -324.03323936858646, -24715.530838433606, -7130.877033576612, -31910.9820617416, -16500.325977841138, -11976.824638465005, -29103.401792454933, 4147.634404615689, -0.08, 0.96, 0.078, 192.0, 0.0, 0.0, 0.0, 0.0, 0.0, 0.0, 0.0, 0.0, 0.0, 1.658334826455804E9, 0.0, 2022-07-20 12:33:46.455
160.0, -8564.473219451096, -16319.410958219882, -4208.229983834027, -7641.502635658102, -30556.75692042791, -305.90597461533247, -294.9759715766873, -14294.16409661342, 560.6488061724671, -23560.146815794327, -6608.874393567371, -31532.924656024537, -15678.921720853057, -11291.162525554006, -27929.33171145102, 3861.8673517545885, -0.08600000000000001, 0.9560000000000001, 0.08600000000000001, 192.0, 126.5, 40.0, 14.5, 112.0, 1.0, 88.0, 0.0, 0.0, 0.0, 1.658334826455809E9, 0.0, 2022-07-20 12:33:46.455
162.0, -9992.302655256111, -17749.184995792508, -5581.767032357101, -9058.379716680016, -31990.263699324576, -1584.1798882698881, -180.378577754328, -14993.326663175425, -155.18816175319694, -24575.18423499873, -6962.434287361418, -31752.083510408822, -16341.785054419644, -11799.284732256501, -28947.118395223428, 4279.08501375735, -0.08600000000000001, 0.9560000000000001, 0.08600000000000001, 192.0, 0.0, 0.0, 0.0, 0.0, 0.0, 0.0, 0.0, 0.0, 0.0, 1.658334826455814E9, 0.0, 2022-07-20 12:33:46.455
164.0, -8534.588937114351, -16264.112742437452, -4179.463288720046, -7557.147152083773, -30453.17893662202, -321.7533614341452, -530.2727854577048, -14347.763579817247, 382.5724580970357, -23754.249364644216, -6783.642683463417, -31700.98742258399, -15859.9932026855, -11456.319565334268, -28118.829800943113, 3718.369152351517, -0.08600000000000001, 0.9560000000000001, 0.08600000000000001, 192.0, 0.0, 0.0, 0.0, 0.0, 0.0, 0.0, 0.0, 0.0, 0.0, 1.658334826455819E9, 0.0, 2022-07-20 12:33:46.455
166.0, -9976.634082392942, -17778.130504862133, -5582.05760503502, -9113.56617374017, -32068.003066540132, -1552.3510041655309, 43.74236389903592, -14898.6670254072, 29.83957884783493, -24376.656040746697, -6787.442480020819, -31580.44446473652, -16158.523101630582, -11628.495052873499, -28765.242250590596, 4391.491936623089, -0.08600000000000001, 0.9560000000000001, 0.08600000000000001, 192.0, 0.0, 0.0, 0.0, 0.0, 0.0, 0.0, 0.0, 0.0, 0.0, 1.6583348264558249E9, 0.0, 2022-07-20 12:33:46.455
168.0, -8567.915388097214, -16270.684155307312, -4213.21442284756, -7528.268698247516, -30425.663939197537, -369.5860945685023, -760.67456730301, -14481.024680259787, 173.04720557298728, -23968.736704437342, -6968.737479297814, -31870.614811255316, -16065.785713885512, -11641.883747802229, -28348.40456824357, 3588.7066827662807, -0.08600000000000001, 0.9560000000000001, 0.08600000000000001, 192.0, 0.0, 0.0, 0.0, 0.0, 0.0, 0.0, 0.0, 0.0, 0.0, 1.6583348264558296E9, 0.0, 2022-07-20 12:33:46.455
170.0, -9920.173575898836, -17749.833196381715, -5546.138351695341, -9102.680874190435, -32106.805694914547, -1478.7467096742046, 242.7399447846347, -14793.569122978346, 219.09179915091983, -24156.334895650733, -6617.859794838405, -31408.045459752735, -15977.96570992061, -11427.821091153752, -28565.88704179371, 4495.27108612908, -0.088, 0.9520000000000001, 0.088, 192.0, 126.5, 32.0, 14.5, 96.0, 1.0, 96.0, 0.0, 0.0, 0.0, 1.6583348264558346E9, 0.0, 2022-07-20 12:33:46.455
172.0, -8619.883193955802, -16295.963978286265, -4273.251208454515, -7528.402808714249, -30427.809706665244, -453.02515662016356, -953.1901422965697, -14622.89120231762, -13.813378073379765, -24168.226023700958, -7131.949917310467, -32012.928368202254, -16263.419838359338, -11839.24965134259, -28561.55080336938, 3518.611612154438, -0.088, 0.9520000000000001, 0.088, 192.0, 0.0, 0.0, 0.0, 0.0, 0.0, 0.0, 0.0, 0.0, 0.0, 1.6583348264558394E9, 0.0, 2022-07-20 12:33:46.455
174.0, -9800.725853529675, -17668.137570397565, -5445.689612113191, -9044.186358950898, -32066.460796172716, -1370.452507788242, 411.5626706555689, -14665.448923760525, 427.79003713012185, -23927.11775626156, -6438.934080473671, -31242.575495550096, -15780.309233702332, -11250.75057157881, -28335.015873314846, 4580.677101692808, -0.088, 0.9520000000000001, 0.088, 192.0, 0.0, 0.0, 0.0, 0.0, 0.0, 0.0, 0.0, 0.0, 0.0, 1.658334826455845E9, 0.0, 2022-07-20 12:33:46.455
176.0, -8740.135579125355, -16397.8208777691, -4382.238314418592, -7614.680542311734, -30489.858149273176, -589.5719634976344, -1095.8613271547947, -14742.830663064799, -213.36975257036121, -24386.937843196138, -7281.77366039439, -32145.518916311135, -16448.134654537997, -11989.095746170968, -28773.422989061237, 3467.515524329606, -0.088, 0.9520000000000001, 0.088, 192.0, 0.0, 0.0, 0.0, 0.0, 0.0, 0.0, 0.0, 0.0, 0.0, 1.65833482645585E9, 0.0, 2022-07-20 12:33:46.455
178.0, -9663.732011763097, -17548.37692360603, -5313.009657026489, -8943.223529246276, -31976.495024740107, -1216.7395611690952, 538.6546896284449, -14542.53668100079, 602.3795130705254, -23725.952056163795, -6299.638009028198, -31124.4465261038, -15616.694464289483, -11096.456479603825, -28119.634463743507, 4618.071570166537, -0.088, 0.9520000000000001, 0.088, 192.0, 0.0, 0.0, 0.0, 0.0, 0.0, 0.0, 0.0, 0.0, 0.0, 1.658334826455855E9, 0.0, 2022-07-20 12:33:46.455
180.0, -8866.735859720215, -16517.98385596083, -4497.327446618968, -7709.608401013423, -30585.38950507516, -700.7271886738764, -1171.0972989913582, -14851.728362051055, -357.49380081818117, -24568.63517387333, -7383.027062776931, -32239.642112212434, -16586.581359694166, -12119.92050646788, -28950.02412200262, 3473.1258121878877, -0.082, 0.9380000000000001, 0.08600000000000001, 192.0, 126.5, 56.0, 14.5, 40.0, 1.0, 88.0, 0.0, 0.0, 0.0, 1.6583348264558597E9, 0.0, 2022-07-20 12:33:46.455
182.0, -9500.944256895096, -17406.756270737205, -5163.543541853851, -8814.768053861626, -31849.470061000597, -1081.6009141923087, 606.2240131168381, -14426.888755189033, 778.5783146117109, -23527.669731100767, -6176.301083123813, -31025.80827782253, -15454.040819888214, -10960.31200412655, -27916.680624089317, 4639.663355310364, -0.082, 0.9380000000000001, 0.08600000000000001, 192.0, 0.0, 0.0, 0.0, 0.0, 0.0, 0.0, 0.0, 0.0, 0.0, 1.6583348264558647E9, 0.0, 2022-07-20 12:33:46.455
184.0, -9034.26218441274, -16681.509218395855, -4665.25610271169, -7868.663414557388, -30743.572800585367, -877.3953768486234, -1208.2458982760786, -14969.410296608246, -492.61009605051237, -24741.168289323843, -7477.23966565605, -32315.01219451573, -16721.272971781847, -12237.580089280616, -29128.011063100228, 3485.575733849494, -0.082, 0.9380000000000001, 0.08600000000000001, 192.0, 0.0, 0.0, 0.0, 0.0, 0.0, 0.0, 0.0, 0.0, 0.0, 1.6583348264558697E9, 0.0, 2022-07-20 12:33:46.455
186.0, -9301.074957975741, -17205.612922383898, -4975.74418494036, -8610.69662698467, -31652.439433627063, -896.3720078911791, 618.5174725672571, -14332.653800565458, 883.4526995960116, -23387.323127665895, -6119.818224885253, -30979.920146455785, -15357.905966985938, -10888.205276513729, -27766.409846116287, 4601.799500203073, -0.082, 0.9380000000000001, 0.08600000000000001, 192.0, 0.0, 0.0, 0.0, 0.0, 0.0, 0.0, 0.0, 0.0, 0.0, 1.6583348264558744E9, 0.0, 2022-07-20 12:33:46.455
188.0, -9212.606753421636, -16868.90624390915, -4846.5958054775965, -8047.365611477568, -30936.669520934764, -1027.6661548216528, -1174.5394676374756, -15029.760006637574, -569.9247801214195, -24848.43431096486, -7506.855727059332, -32318.879046306498, -16781.779144022363, -12288.475011405351, -29234.53947717422, 3568.411298800862, -0.082, 0.9380000000000001, 0.08600000000000001, 192.0, 0.0, 0.0, 0.0, 0.0, 0.0, 0.0, 0.0, 0.0, 0.0, 1.6583348264558792E9, 0.0, 2022-07-20 12:33:46.455
190.0, -9098.523449721748, -17010.035158399958, -4799.724197354817, -8413.911868800149, -31459.163899322022, -729.0244971542952, 560.8499718725648, -14224.180784723852, 947.7586683939301, -23284.23688223802, -6099.96987580894, -30978.243765621635, -15288.88378010795, -10828.839043240434, -27665.961106534138, 4530.676249346287, -0.088, 0.9500000000000001, 0.09, 192.0, 126.5, 32.0, 14.5, 88.0, 1.0, 104.0, 0.0, 0.0, 0.0, 1.6583348264558842E9, 0.0, 2022-07-20 12:33:46.455
192.0, -9395.600485277235, -17067.03210676099, -5034.216348435444, -8261.115343703668, -31160.4551864213, -1193.8290231024055, -1101.6727807131745, -15110.025120976583, -608.5709462846454, -24926.374843880516, -7499.39024441126, -32302.71873506531, -16812.445737415044, -12303.875363335057, -29322.650053817044, 3647.827046850568, -0.088, 0.9500000000000001, 0.09, 192.0, 0.0, 0.0, 0.0, 0.0, 0.0, 0.0, 0.0, 0.0, 0.0, 1.6583348264558892E9, 0.0, 2022-07-20 12:33:46.455
194.0, -8913.249839931708, -16810.27761820288, -4626.587584804009, -8215.406026292567, -31251.13621367648, -579.8936581484865, 434.2720430221609, -14182.405374336884, 953.9501016080501, -23241.522698583925, -6133.519844236355, -31028.021100523605, -15293.443535976832, -10856.19757845373, -27633.52872532949, 4403.047788506483, -0.088, 0.9500000000000001, 0.09, 192.0, 0.0, 0.0, 0.0, 0.0, 0.0, 0.0, 0.0, 0.0, 0.0, 1.658334826455894E9, 0.0, 2022-07-20 12:33:46.455
196.0, -9553.493208109523, -17243.633239702373, -5198.948705071057, -8460.738773434017, -31371.16508140148, -1323.6479548988289, -960.2979970333573, -15139.954106802239, -587.8285274301204, -24927.55948633665, -7440.180473349152, -32223.861780626987, -16794.162010450604, -12251.259356887265, -29341.157298226037, 3757.0376702591984, -0.088, 0.9500000000000001, 0.09, 192.0, 0.0, 0.0, 0.0, 0.0, 0.0, 0.0, 0.0, 0.0, 0.0, 1.658334826455899E9, 0.0, 2022-07-20 12:33:46.455
198.0, -8745.008259416612, -16627.462700302924, -4468.180771849247, -8006.350160402079, -31030.01040578013, -459.9989008902194, 281.16259350330756, -14144.51916748514, 909.0454469973382, -23243.579059073814, -6213.203813219526, -31100.53015953662, -15349.591118048564, -10909.573544213003, -27646.2245161801, 4264.265807183481, -0.088, 0.9500000000000001, 0.09, 192.0, 0.0, 0.0, 0.0, 0.0, 0.0, 0.0, 0.0, 0.0, 0.0, 1.6583348264559047E9, 0.0, 2022-07-20 12:33:46.455
200.0, -9702.981675026616, -17429.130366936966, -5355.388564513751, -8647.867578013847, -31583.573708960263, -1448.0577645370681, -766.1060412056496, -15112.617923333399, -523.3437446765596, -24891.059087641133, -7348.7394867824905, -32110.136104838384, -16724.581029961235, -12167.574425646595, -29297.526693049276, 3909.7000848889456, -0.082, 0.96, 0.088, 192.0, 126.5, 56.0, 15.0, 0.0, 1.0, 96.0, 0.0, 0.0, 0.0, 1.6583348264559097E9, 0.0, 2022-07-20 12:33:46.455
202.0, -8618.653848010761, -16477.393088029992, -4343.48038953309, -7827.513853015167, -30831.19163885017, -368.6696730458347, 74.94539915864458, -14153.437513522806, 805.7133323804537, -23335.981170652052, -6346.889596806717, -31247.202306652347, -15454.845482688605, -11024.41680722437, -27719.00179612658, 4114.9785059664855, -0.082, 0.96, 0.088, 192.0, 0.0, 0.0, 0.0, 0.0, 0.0, 0.0, 0.0, 0.0, 0.0, 1.6583348264559147E9, 0.0, 2022-07-20 12:33:46.455
204.0, -9825.558641619522, -17586.263130457777, -5474.568065949448, -8831.12953080291, -31769.76374027297, -1533.5531870786176, -558.391279982481, -15074.262329848092, -433.2885662661274, -24828.273037466173, -7239.685325585047, -32011.162580390286, -16628.80380497024, -12082.749555438704, -29206.800962305184, 4046.068077810774, -0.082, 0.96, 0.088, 192.0, 0.0, 0.0, 0.0, 0.0, 0.0, 0.0, 0.0, 0.0, 0.0, 1.6583348264559195E9, 0.0, 2022-07-20 12:33:46.455
206.0, -8513.243021159533, -16350.681048712857, -4229.352382344292, -7671.431621483758, -30652.10946227425, -311.02452409559777, -147.54386514948192, -14199.236237911731, 669.904133070008, -23456.099445354874, -6488.934932820193, -31403.97744226187, -15583.65858598454, -11145.607965661045, -27817.908265341317, 3967.233475116906, -0.082, 0.96, 0.088, 192.0, 0.0, 0.0, 0.0, 0.0, 0.0, 0.0, 0.0, 0.0, 0.0, 1.6583348264559245E9, 0.0, 2022-07-20 12:33:46.455
208.0, -9866.775258395108, -17668.69636400895, -5524.8594909738895, -8940.586023400549, -31907.115209950833, -1560.4870391472625, -306.84474788245535, -14990.331529418414, -259.5931601039362, -24653.415340592306, -7053.741163461347, -31829.085270057356, -16451.286250506193, -11911.915172566793, -29036.950056189307, 4211.515690268957, -0.082, 0.96, 0.088, 192.0, 0.0, 0.0, 0.0, 0.0, 0.0, 0.0, 0.0, 0.0, 0.0, 1.6583348264559295E9, 0.0, 2022-07-20 12:33:46.455
210.0, -8426.115921272745, -16239.12349213642, -4151.322442450814, -7538.528148952502, -30490.37223939565, -267.8409538079445, -360.7124520197454, -14246.15254952342, 516.9958492512524, -23607.219589617205, -6639.272766026588, -31556.125766769146, -15732.431797079063, -11317.04584563325, -27968.4025607589, 3839.292089854728, -0.084, 0.9570000000000001, 0.088, 192.0, 126.5, 40.0, 14.5, 104.0, 1.0, 96.0, 0.0, 0.0, 0.0, 1.6583348264559343E9, 0.0, 2022-07-20 12:33:46.455
212.0, -9894.938456408794, -17740.66898115504, -5579.48715442266, -9054.646975355981, -32025.19947590822, -1554.250902444232, -71.12325085678707, -14923.633923963776, -61.55670422991565, -24463.4255127222, -6865.003033280735, -31647.276180657886, -16258.725972023723, -11711.643542247242, -28851.318818487984, 4357.137305395282, -0.084, 0.9570000000000001, 0.088, 192.0, 0.0, 0.0, 0.0, 0.0, 0.0, 0.0, 0.0, 0.0, 0.0, 1.6583348264559393E9, 0.0, 2022-07-20 12:33:46.455
214.0, -8413.308371699855, -16210.11092783343, -4161.693651878078, -7483.9228372481875, -30403.513360442324, -291.1314715303745, -595.5622310116566, -14356.145483987986, 315.9866113646759, -23813.14621128395, -6838.471512612286, -31749.960094685568, -15940.928869358168, -11523.08422602227, -28187.561415143184, 3681.175849577886, -0.084, 0.9570000000000001, 0.088, 192.0, 0.0, 0.0, 0.0, 0.0, 0.0, 0.0, 0.0, 0.0, 0.0, 1.658334826455944E9, 0.0, 2022-07-20 12:33:46.455
216.0, -9835.862795813418, -17727.41439669304, -5549.714630808191, -9063.967652793843, -32058.30240944653, -1487.7544626896934, 163.6594729017583, -14802.129841104728, 138.33494643389542, -24256.381303832688, -6682.724557247706, -31474.94423090747, -16060.08601904941, -11503.615856601698, -28644.587534020848, 4477.724966731664, -0.084, 0.9570000000000001, 0.088, 192.0, 0.0, 0.0, 0.0, 0.0, 0.0, 0.0, 0.0, 0.0, 0.0, 1.6583348264559488E9, 0.0, 2022-07-20 12:33:46.455
218.0, -8477.569637008863, -16253.160387654352, -4217.394199060703, -7490.874229773788, -30384.022639277297, -374.3917196263933, -813.3352772397134, -14494.636892633069, 107.31072512992921, -24032.81915579071, -7024.952116602912, -31925.287178192997, -16133.600906562915, -11698.433661274155, -28405.66973753807, 3583.56578154156, -0.084, 0.9570000000000001, 0.088, 192.0, 0.0, 0.0, 0.0, 0.0, 0.0, 0.0, 0.0, 0.0, 0.0, 1.6583348264559538E9, 0.0, 2022-07-20 12:33:46.455
220.0, -9747.483998237134, -17683.046183949256, -5466.856714112368, -9027.199033164863, -32032.977882978666, -1380.220220115211, 369.0273009571196, -14664.42074351558, 335.0973528739635, -24041.022246005803, -6520.71911343564, -31327.78034541373, -15869.984432457022, -11335.553090042245, -28424.71342381399, 4572.76458415563, -0.085, 0.9505000000000001, 0.08299999999999999, 192.0, 126.5, 40.0, 14.5, 64.0, 1.0, 56.0, 0.0, 0.0, 0.0, 1.6583348264559588E9, 0.0, 2022-07-20 12:33:46.455
222.0, -8552.112704767313, -16311.073757538052, -4285.298798715925, -7512.667180617712, -30401.613462163627, -468.6266742499679, -974.6254652292091, -14592.448126369492, -68.57515198888207, -24226.966408129505, -7168.249150305885, -32057.09541524594, -16299.853181821489, -11862.607224298386, -28597.537111942427, 3538.2587955306526, -0.085, 0.9505000000000001, 0.08299999999999999, 192.0, 0.0, 0.0, 0.0, 0.0, 0.0, 0.0, 0.0, 0.0, 0.0, 1.6583348264559636E9, 0.0, 2022-07-20 12:33:46.455
224.0, -9646.632927254788, -17605.843258600624, -5370.654805976726, -8961.239035277253, -31991.09071386942, -1284.9123817577818, 509.8879945144647, -14550.06921888223, 522.4943783872579, -23830.66997893691, -6366.805001116396, -31185.243271022235, -15683.503828466397, -11165.188093803894, -28207.119191541577, 4628.979221460727, -0.085, 0.9505000000000001, 0.08299999999999999, 192.0, 0.0, 0.0, 0.0, 0.0, 0.0, 0.0, 0.0, 0.0, 0.0, 1.6583348264559686E9, 0.0, 2022-07-20 12:33:46.455
226.0, -8694.180392525244, -16427.63810487248, -4395.805823302963, -7596.262704880561, -30484.02434397034, -604.0782456491287, -1103.8632516697946, -14738.606183362745, -252.28413966705082, -24450.64031489376, -7319.078721890298, -32186.243794708706, -16476.16374208495, -12023.338618676498, -28816.09246922642, 3484.1452222043545, -0.085, 0.9505000000000001, 0.08299999999999999, 192.0, 0.0, 0.0, 0.0, 0.0, 0.0, 0.0, 0.0, 0.0, 0.0, 1.6583348264559736E9, 0.0, 2022-07-20 12:33:46.455
228.0, -9520.278515848937, -17489.390669988476, -5230.866996153235, -8842.215996052742, -31894.240605144576, -1149.974900481093, 598.6244200020337, -14437.259964616296, 696.1227293160831, -23619.758918256633, -6234.795598363352, -31066.5331562201, -15507.908524025504, -10996.320664444049, -27997.72804948426, 4656.918902029861, -0.085, 0.9505000000000001, 0.08299999999999999, 192.0, 0.0, 0.0, 0.0, 0.0, 0.0, 0.0, 0.0, 0.0, 0.0, 1.6583348264559789E9, 0.0, 2022-07-20 12:33:46.455
230.0, -8862.556083507072, -16585.955510849417, -4545.9424908092615, -7724.226441887194, -30610.602272820746, -758.5958550686664, -1177.0652147609253, -14857.070428975872, -421.9115283383761, -24644.54169804355, -7439.107589615297, -32283.38447611147, -16632.737711994378, -12183.153591531944, -29007.199884319292, 3474.1316406883766, -0.0865, 0.9472500000000001, 0.08449999999999999, 192.0, 126.5, 32.0, 14.5, 64.0, 1.0, 88.0, 0.0, 0.0, 0.0, 1.6583348264559848E9, 0.0, 2022-07-20 12:33:46.455
232.0, -9341.933946840041, -17322.780766818614, -5069.57680816374, -8681.976340052646, -31746.182649872622, -990.2940380923794, 639.0140222327736, -14345.729571071814, 823.3488587556909, -23449.483328996103, -6149.45663803299, -30999.589681576454, -15391.455935413354, -10905.147898810852, -27819.74110838665, 4635.036544208115, -0.0865, 0.9472500000000001, 0.08449999999999999, 192.0, 0.0, 0.0, 0.0, 0.0, 0.0, 0.0, 0.0, 0.0, 0.0, 1.6583348264559896E9, 0.0, 2022-07-20 12:33:46.455
234.0, -9045.16983570693, -16760.455579812, -4723.907080162416, -7898.391234682947, -30796.702897155632, -926.6809733725755, -1192.9573050686486, -14977.501628101067, -536.911253560931, -24792.376135870953, -7505.849898558843, -32335.866372092532, -16739.757864446387, -12251.840502243103, -29161.516328038735, 3507.9051265603457, -0.0865, 0.9472500000000001, 0.08449999999999999, 192.0, 0.0, 0.0, 0.0, 0.0, 0.0, 0.0, 0.0, 0.0, 0.0, 1.6583348264559944E9, 0.0, 2022-07-20 12:33:46.455
236.0, -9156.637985305546, -17141.955154175183, -4904.956210250403, -8506.49279433403, -31569.223889019955, -824.6005564451882, 605.8216817166426, -14280.909512151422, 920.668354114098, -23308.332062760837, -6100.863945587153, -30973.125216141372, -15305.73699542725, -10833.734075276147, -27701.366269751343, 4572.496363222166, -0.0865, 0.9472500000000001, 0.08449999999999999, 192.0, 0.0, 0.0, 0.0, 0.0, 0.0, 0.0, 0.0, 0.0, 0.0, 1.6583348264559996E9, 0.0, 2022-07-20 12:33:46.455
238.0, -9239.920585146021, -16973.60181493781, -4933.231166986367, -8113.146795409536, -31023.41664116581, -1094.9002021432166, -1162.8048017984393, -15055.553919738999, -602.6030305150784, -24895.86471269902, -7535.510663451036, -32346.170526286427, -16813.026882770882, -12286.888037549024, -29286.350820821623, 3572.3675575694515, -0.0865, 0.9472500000000001, 0.08449999999999999, 192.0, 0.0, 0.0, 0.0, 0.0, 0.0, 0.0, 0.0, 0.0, 0.0, 1.6583348264560044E9, 0.0, 2022-07-20 12:33:46.456
240.0, -8969.330366770073, -16949.50663441499, -4729.629126742974, -8306.93641983705, -31364.548965042708, -664.4726591673683, 520.4156661529144, -14202.320778646563, 943.2659677584134, -23255.26902142394, -6131.664649446565, -31013.492466627657, -15298.606788946008, -10813.393987821817, -27643.18467893418, 4476.0932893864265, -0.08725, 0.948625, 0.08625, 192.0, 126.5, 32.0, 14.5, 88.0, 1.0, 96.0, 0.0, 0.0, 0.0, 1.6583348264560091E9, 0.0, 2022-07-20 12:33:46.456
242.0, -9412.118424429706, -17161.669392784763, -5100.466919000974, -8314.290143762844, -31225.387004063967, -1246.6685469947515, -1039.8031520608845, -15095.094155680437, -618.2045481448828, -24949.33008543612, -7508.912087549221, -32301.332926909083, -16822.19109799756, -12303.42832844595, -29322.985329983872, 3691.211782838319, -0.08725, 0.948625, 0.08625, 192.0, 0.0, 0.0, 0.0, 0.0, 0.0, 0.0, 0.0, 0.0, 0.0, 1.6583348269367163E9, 0.0, 2022-07-20 12:33:46.936
244.0, -8793.824469307003, -16758.51097804439, -4558.124191537403, -8106.754196495319, -31146.30653218109, -524.1484074769506, 388.33920816650493, -14133.455053979762, 931.9783368084833, -23247.289448653395, -6183.475993093967, -31080.435941271302, -15314.610637976008, -10877.610549641913, -27611.73577448556, 4364.423974087712, -0.08725, 0.948625, 0.08625, 192.0, 0.0, 0.0, 0.0, 0.0, 0.0, 0.0, 0.0, 0.0, 0.0, 1.6583348269367504E9, 0.0, 2022-07-20 12:33:46.936
246.0, -9580.784688089454, -17352.262717755166, -5273.067089684855, -8530.252698690021, -31455.45350974244, -1386.2328393736886, -887.8559932537072, -15131.974534031695, -582.6652744609445, -24943.295114433186, -7439.264051826483, -32227.572170206568, -16787.590597580744, -12258.501322090784, -29318.671443303996, 3815.3533715430945, -0.08725, 0.948625, 0.08625, 192.0, 0.0, 0.0, 0.0, 0.0, 0.0, 0.0, 0.0, 0.0, 0.0, 1.6583348269368155E9, 0.0, 2022-07-20 12:33:46.936
248.0, -8630.030885938511, -16574.93610083295, -4395.895230280785, -7902.056920773616, -30924.97955858464, -396.58700187051323, 213.6826769927355, -14155.80679843507, 865.794821476319, -23280.88412056972, -6275.542828505377, -31188.03723907915, -15385.3315574326, -10945.40339057486, -27645.88924001327, 4207.805300689376, -0.08725, 0.948625, 0.08625, 192.0, 0.0, 0.0, 0.0, 0.0, 0.0, 0.0, 0.0, 0.0, 0.0, 1.6583348269368215E9, 0.0, 2022-07-20 12:33:46.936
250.0, -9709.508384407567, -17507.51793474173, -5387.820945718401, -8693.53219193604, -31643.610494567216, -1472.443517737808, -675.3356069726476, -15139.28355446858, -490.8443082385431, -24857.26325002471, -7310.853279930745, -32084.63276441488, -16678.44702940548, -12133.152739185422, -29231.052605039193, 3969.200428628973, -0.090625, 0.9493125, 0.08612500000000001, 192.0, 126.5, 8.0, 14.5, 88.0, 1.0, 88.0, 0.0, 0.0, 0.0, 1.6583348269368277E9, 0.0, 2022-07-20 12:33:46.936
252.0, -8529.805663800915, -16442.725532379813, -4273.251208454515, -7723.444130831258, -30734.56504756988, -318.51235848812564, -2.3916366567178557, -14169.687231741815, 754.5948928111665, -23370.425208857683, -6409.630943492764, -31321.67831917743, -15492.016433717781, -11075.825819471576, -27726.355520052377, 4065.290578042338, -0.090625, 0.9493125, 0.08612500000000001, 192.0, 0.0, 0.0, 0.0, 0.0, 0.0, 0.0, 0.0, 0.0, 0.0, 1.658334826936834E9, 0.0, 2022-07-20 12:33:46.936
254.0, -9805.55383033202, -17647.193985842943, -5491.220115568652, -8842.595975708482, -31822.20093276512, -1529.9769079657685, -459.48481076774726, -15074.217626359181, -365.2498561441727, -24748.94669639429, -7169.612606717659, -31938.22883823262, -16548.203414464406, -11998.796403264572, -29112.43189721488, 4130.691782318567, -0.090625, 0.9493125, 0.08612500000000001, 192.0, 0.0, 0.0, 0.0, 0.0, 0.0, 0.0, 0.0, 0.0, 0.0, 1.6583348269368396E9, 0.0, 2022-07-20 12:33:46.936
0.0, -8427.14410151769, -16316.862859351977, -4189.5886289583, -7577.6884052382, -30574.30303982533, -276.8934103123439, -237.84491274892247, -14235.736636607247, 608.8838707070197, -23517.186762951227, -6560.102887165891, -31472.485539017387, -15636.945144765992, -11203.498983800291, -27864.42224555281, 3919.0207623268084, -0.090625, 0.9493125, 0.08612500000000001, 192.0, 0.0, 0.0, 0.0, 0.0, 0.0, 0.0, 0.0, 0.0, 0.0, 1.6583348269368446E9, 0.0, 2022-07-20 12:33:46.936
2.0, -9835.505167902133, -17711.678768596503, -5542.874997004867, -8949.616128160493, -31953.115100039853, -1546.5842540960616, -218.93533693973268, -15012.526811662534, -170.63321717181412, -24585.264871748077, -6981.589732359616, -31755.81625173286, -16371.244653611739, -11826.57621223643, -28954.36036042695, 4274.36879567728, -0.090625, 0.9493125, 0.08612500000000001, 192.0, 0.0, 0.0, 0.0, 0.0, 0.0, 0.0, 0.0, 0.0, 0.0, 1.6583348269368508E9, 0.0, 2022-07-20 12:33:46.936
4.0, -8410.290886198389, -16269.253643662172, -4168.734451381499, -7496.372758909793, -30477.005896211376, -286.0576255390198, -482.5965145345348, -14324.115434183532, 429.399362730904, -23697.92296861684, -6735.47467416223, -31645.845669012746, -15826.242068557987, -11404.955256575973, -28045.22550645179, 3773.9579408118657, -0.09031249999999999, 0.9496562500000001, 0.0880625, 192.0, 126.5, 24.0, 14.5, 88.0, 1.0, 104.0, 0.0, 0.0, 0.0, 1.658334826936857E9, 0.0, 2022-07-20 12:33:46.936
6.0, -9847.150426763348, -17754.37060050614, -5557.515389623093, -9009.585858534081, -32044.869011028888, -1527.607623053506, 14.975668785055731, -14898.711728896109, -5.073845991354704, -24407.74731728403, -6821.663000781894, -31600.069296368278, -16206.042910342565, -11654.467779930566, -28764.68345697921, 4403.271305951036, -0.09031249999999999, 0.9496562500000001, 0.0880625, 192.0, 0.0, 0.0, 0.0, 0.0, 0.0, 0.0, 0.0, 0.0, 0.0, 1.6583348269368682E9, 0.0, 2022-07-20 12:33:46.936
8.0, -8411.833156565805, -16236.709503735246, -4171.930750838608, -7431.597403478313, -30397.63485165058, -315.2043003087402, -691.7641391472982, -14421.658446986492, 231.78759000153423, -23898.284005914215, -6920.36830429653, -31815.62951989526, -16016.83539352839, -11587.189029120093, -28239.462165768407, 3659.24878826723, -0.09031249999999999, 0.9496562500000001, 0.0880625, 192.0, 0.0, 0.0, 0.0, 0.0, 0.0, 0.0, 0.0, 0.0, 0.0, 1.6583348269368732E9, 0.0, 2022-07-20 12:33:46.936
10.0, -9785.571370788977, -17731.817690350734, -5518.913926948778, -9009.809375978635, -32057.743615835145, -1442.4921801676967, 242.56113082899225, -14773.96664309104, 204.92079316625515, -24166.41553240008, -6630.510882200108, -31412.94049178845, -15995.64593978476, -11446.529501262845, -28531.21948614353, 4536.264185460113, -0.09031249999999999, 0.9496562500000001, 0.0880625, 192.0, 0.0, 0.0, 0.0, 0.0, 0.0, 0.0, 0.0, 0.0, 0.0, 1.658334826936878E9, 0.0, 2022-07-20 12:33:46.936
12.0, -8472.987529395525, -16267.197283172285, -4229.888824211219, -7437.297098314417, -30384.648488122046, -394.0836064915188, -878.1329844156486, -14537.999276876364, 35.49457019502761, -24107.719851460442, -7091.113280190621, -31974.013981105567, -16203.8747911304, -11740.924327483694, -28455.134148017663, 3575.4520983042835, -0.09031249999999999, 0.9496562500000001, 0.0880625, 192.0, 0.0, 0.0, 0.0, 0.0, 0.0, 0.0, 0.0, 0.0, 0.0, 1.6583348269368827E9, 0.0, 2022-07-20 12:33:46.936
14.0, -9699.338340680402, -17664.941270940457, -5446.069591768932, -8971.722003426792, -32043.751423806123, -1348.7266121776834, 418.335249225527, -14634.46940594547, 408.0981502649964, -23958.07492233216, -6464.951511019649, -31261.86505101503, -15792.334472219287, -11260.138304250038, -28314.631082371605, 4616.574003288031, -0.08815624999999999, 0.9508281250000001, 0.08703125, 192.0, 126.5, 40.0, 14.5, 96.0, 1.0, 88.0, 0.0, 0.0, 0.0, 1.6583348269368875E9, 0.0, 2022-07-20 12:33:46.936
16.0, -8601.510060013541, -16370.931729189364, -4349.493008791567, -7522.166672011218, -30446.20519235196, -532.5526633921461, -1048.788553331918, -14690.639339761656, -170.0073683270655, -24339.1945170396, -7266.149791020131, -32130.49854403717, -16396.993863224252, -11937.329106012477, -28690.900348532243, 3499.255001456142, -0.08815624999999999, 0.9508281250000001, 0.08703125, 192.0, 0.0, 0.0, 0.0, 0.0, 0.0, 0.0, 0.0, 0.0, 0.0, 1.658334826936893E9, 0.0, 2022-07-20 12:33:46.936
18.0, -9582.997510790528, -17569.365211649565, -5331.651011902215, -8898.922371735856, -31966.079111823932, -1230.9552706426705, 541.0910297740734, -14512.96532308642, 586.2415535737937, -23748.393207596924, -6334.663192589664, -31148.139375226427, -15614.928676477513, -11107.967627998309, -28111.699594461872, 4636.668221553352, -0.08815624999999999, 0.9508281250000001, 0.08703125, 192.0, 0.0, 0.0, 0.0, 0.0, 0.0, 0.0, 0.0, 0.0, 0.0, 1.6583348269368992E9, 0.0, 2022-07-20 12:33:46.936
20.0, -8736.715762223694, -16489.038346891208, -4466.414984037278, -7630.7290948306445, -30544.441109233037, -669.9711883033739, -1157.03805172897, -14793.50206774498, -331.87870167239925, -24547.937458507713, -7394.873487338244, -32250.70622571781, -16556.630022124056, -12096.518230023174, -28895.463513787214, 3463.089878927455, -0.08815624999999999, 0.9508281250000001, 0.08703125, 192.0, 0.0, 0.0, 0.0, 0.0, 0.0, 0.0, 0.0, 0.0, 0.0, 1.6583348269369051E9, 0.0, 2022-07-20 12:33:46.936
22.0, -9423.987200735475, -17420.882573232957, -5176.798126315847, -8771.78564927407, -31853.225154069085, -1097.0012661220153, 609.8673474630532, -14427.112272633585, 749.4316398419905, -23562.627859428867, -6210.253382951425, -31054.82084212552, -15467.608328772585, -10982.753155559678, -27925.733080593716, 4636.958794231271, -0.08815624999999999, 0.9508281250000001, 0.08703125, 192.0, 0.0, 0.0, 0.0, 0.0, 0.0, 0.0, 0.0, 0.0, 0.0, 1.658334826936911E9, 0.0, 2022-07-20 12:33:46.936
24.0, -8906.030226472643, -16643.82417724421, -4628.554538316076, -7781.916294326341, -30700.27747157544, -839.5538734857886, -1207.1730145422239, -14928.640714721765, -472.202953362817, -24725.45501297176, -7477.8208110118885, -32325.025776031707, -16694.272064479836, -12219.56458324964, -29077.674934586877, 3463.44750683874, -0.088078125, 0.9504140625000002, 0.089515625, 192.0, 126.5, 32.0, 14.5, 88.0, 1.0, 112.0, 0.0, 0.0, 0.0, 1.6583348269369173E9, 0.0, 2022-07-20 12:33:46.936
26.0, -9233.170358320518, -17231.27272501859, -5010.814071990737, -8595.005702377046, -31684.380076453697, -923.9987640379387, 622.8313592471313, -14293.0241576462, 868.6558447665984, -23408.646691876256, -6136.671440204554, -30999.723792043187, -15364.23151066679, -10880.87390433239, -27774.21060493119, 4603.609991503953, -0.088078125, 0.9504140625000002, 0.089515625, 192.0, 0.0, 0.0, 0.0, 0.0, 0.0, 0.0, 0.0, 0.0, 0.0, 1.658334826936924E9, 0.0, 2022-07-20 12:33:46.936
28.0, -9108.313513793173, -16839.13372029468, -4828.535595957708, -7977.695224010376, -30908.55102640999, -1011.3046778803681, -1200.7133603946402, -15014.918448319251, -566.6837771754, -24841.81819460609, -7529.386285470282, -32343.06363380714, -16779.923949232572, -12286.753927082293, -29209.840799551108, 3528.2005105257645, -0.088078125, 0.9504140625000002, 0.089515625, 192.0, 0.0, 0.0, 0.0, 0.0, 0.0, 0.0, 0.0, 0.0, 0.0, 1.65833482693693E9, 0.0, 2022-07-20 12:33:46.936
30.0, -9076.149353521985, -17058.963127012627, -4853.860122425571, -8417.868127568738, -31505.029678944313, -778.9359425229958, 559.4641637163357, -14245.43729370085, 909.5148336308997, -23323.777118179456, -6148.339050810225, -31015.3700131619, -15335.353056830534, -10851.079028973465, -27688.134037033804, 4511.833728770463, -0.088078125, 0.9504140625000002, 0.089515625, 192.0, 0.0, 0.0, 0.0, 0.0, 0.0, 0.0, 0.0, 0.0, 0.0, 1.6583348269369347E9, 0.0, 2022-07-20 12:33:46.936
32.0, -9280.377242610126, -17020.98751318306, -4995.793699716771, -8158.52083665381, -31093.087028633003, -1165.2411419440677, -1112.6027837518197, -15099.631559804864, -617.8916237225085, -24931.001654982767, -7540.048067575463, -32337.475697693313, -16831.75764462443, -12318.471052464372, -29290.865873201594, 3612.2207179332636, -0.088078125, 0.9504140625000002, 0.089515625, 192.0, 0.0, 0.0, 0.0, 0.0, 0.0, 0.0, 0.0, 0.0, 0.0, 1.6583348269369397E9, 0.0, 2022-07-20 12:33:46.936
34.0, -8858.979804394223, -16833.210508014025, -4641.987936733715, -8171.4624966934325, -31259.00402772475, -600.7254839808326, 489.39144484894814, -14159.09250487, 957.8616568877288, -23238.035826448897, -6130.882338390629, -31019.28156844158, -15281.708870137796, -10845.424037626271, -27580.666849692687, 4445.1584750602815, -0.088078125, 0.9504140625000002, 0.089515625, 192.0, 0.0, 0.0, 0.0, 0.0, 0.0, 0.0, 0.0, 0.0, 0.0, 1.6583348269369445E9, 0.0, 2022-07-20 12:33:46.936
36.0, -9457.894797074176, -17212.430204442764, -5165.376384899186, -8350.477618035986, -31314.369298740545, -1299.8209953094715, -979.0734623758152, -15127.839461307463, -605.7993299721874, -24952.12405349303, -7484.235761670561, -32270.53222304967, -16803.393280910645, -12284.33993868112, -29295.872663959584, 3753.1261149795196, -0.092, 0.9500000000000001, 0.092, 192.0, 126.5, 16.0, 14.5, 88.0, 1.0, 112.0, 0.0, 0.0, 0.0, 1.6583348269369495E9, 0.0, 2022-07-20 12:33:46.936
38.0, -8706.406796742296, -16654.083627949196, -4487.291513358536, -7972.5319710411995, -31051.490432201677, -453.4274880203591, 326.6036899809468, -14159.89716767039, 909.1348539751594, -23258.666486581147, -6225.5196244144, -31119.57384581254, -15332.55908877362, -10896.050738817543, -27593.742620199042, 4313.506700218523, -0.092, 0.9500000000000001, 0.092, 192.0, 0.0, 0.0, 0.0, 0.0, 0.0, 0.0, 0.0, 0.0, 0.0, 1.65833482693696E9, 0.0, 2022-07-20 12:33:46.936
40.0, -9604.209316278615, -17381.454096013797, -5300.962066765078, -8528.755131811517, -31514.260949404354, -1397.3863598568869, -791.9670095404398, -15113.534344856065, -543.4379629418806, -24917.165925164933, -7400.483775196526, -32169.74820730069, -16736.53921324482, -12183.1759432764, -29265.071960100173, 3900.290000473261, -0.092, 0.9500000000000001, 0.092, 192.0, 0.0, 0.0, 0.0, 0.0, 0.0, 0.0, 0.0, 0.0, 0.0, 1.6583348269369664E9, 0.0, 2022-07-20 12:33:46.936
42.0, -8559.354669970831, -16488.92658816893, -4328.705886448131, -7771.008643032151, -30843.57450527841, -366.1215741779297, 135.00453651005466, -14157.617289735948, 843.3760217876461, -23312.51183897398, -6323.509672106466, -31228.404489565433, -15399.010825039248, -10981.36734740345, -27641.217725422113, 4187.554620212868, -0.092, 0.9500000000000001, 0.092, 192.0, 0.0, 0.0, 0.0, 0.0, 0.0, 0.0, 0.0, 0.0, 0.0, 1.6583348269369729E9, 0.0, 2022-07-20 12:33:46.936
44.0, -9732.575384685444, -17542.140786903, -5421.7285420571025, -8717.20268931421, -31719.00292861497, -1502.6854279858385, -594.7352164668104, -15093.775402757574, -425.10782779548504, -24833.950380557824, -7257.633776382659, -32030.988577722143, -16617.560877509222, -12092.517267765674, -29173.183938644404, 4052.058345324796, -0.092, 0.9500000000000001, 0.092, 192.0, 0.0, 0.0, 0.0, 0.0, 0.0, 0.0, 0.0, 0.0, 0.0, 1.6583348269369788E9, 0.0, 2022-07-20 12:33:46.936
46.0, -8469.746526449506, -16364.315612830595, -4210.152233857183, -7624.492958127614, -30665.207584525062, -312.5891462074693, -99.44291108166112, -14206.56761009307, 695.4298252379687, -23451.427930763715, -6476.28384545849, -31397.383677647555, -15544.721847143395, -11163.422305991926, -27764.48759609313, 4008.8300715482324, -0.092, 0.9540000000000001, 0.082, 192.0, 126.5, 16.0, 14.5, 104.0, 1.0, 72.0, 0.0, 0.0, 0.0, 1.6583348269369848E9, 0.0, 2022-07-20 12:33:46.936
48.0, -9807.230211166168, -17649.1162358661, -5474.389251993805, -8850.620251967937, -31864.043398385456, -1550.9428442648464, -354.31985310552756, -15043.796902155507, -281.5649249035031, -24686.473570641705, -7099.092852961166, -31878.795549725957, -16464.7867041572, -11954.361135287421, -29030.289236341625, 4194.26014354946, -0.092, 0.9540000000000001, 0.082, 192.0, 0.0, 0.0, 0.0, 0.0, 0.0, 0.0, 0.0, 0.0, 0.0, 1.658334826936991E9, 0.0, 2022-07-20 12:33:46.936
50.0, -8411.184955976601, -16271.622928574436, -4149.377840683203, -7515.9752387970975, -30523.8551525897, -290.1926982632516, -340.5288267766031, -14290.45370703384, 540.2863669736823, -23594.702612722234, -6639.451579982231, -31559.702045881993, -15702.659273464595, -11290.491973220345, -27910.265673430644, 3859.453363353415, -0.092, 0.9540000000000001, 0.082, 192.0, 0.0, 0.0, 0.0, 0.0, 0.0, 0.0, 0.0, 0.0, 0.0, 1.6583348269369965E9, 0.0, 2022-07-20 12:33:46.936
52.0, -9834.678153357287, -17708.951855772957, -5523.361924095384, -8951.940709583845, -31991.001306891598, -1548.3947453969415, -127.58375735089271, -14973.970052477129, -107.40013210775044, -24522.121193661835, -6934.986345170301, -31709.861065132747, -16298.89205680991, -11767.791124318974, -28863.679333171767, 4323.967316623606, -0.092, 0.9540000000000001, 0.082, 192.0, 0.0, 0.0, 0.0, 0.0, 0.0, 0.0, 0.0, 0.0, 0.0, 1.6583348269370012E9, 0.0, 2022-07-20 12:33:46.937
54.0, -8383.245275407467, -16207.898105132355, -4119.627668813189, -7422.947278374109, -30426.803878164756, -278.68154986876846, -563.7333469072994, -14372.395202206995, 361.0700799310303, -23767.571004339577, -6815.091587912034, -31716.857161147258, -15893.00672924599, -11469.149466651616, -28098.377954766507, 3734.820036270623, -0.092, 0.9540000000000001, 0.082, 192.0, 0.0, 0.0, 0.0, 0.0, 0.0, 0.0, 0.0, 0.0, 0.0, 1.6583348269370062E9, 0.0, 2022-07-20 12:33:46.937
56.0, -9832.644144611853, -17736.198632263975, -5529.531005565048, -9005.11550964302, -32079.8718428459, -1505.0770646425565, 88.80348072093496, -14888.5640369134, 80.39922480573951, -24320.95549356407, -6752.327889481532, -31529.773060056337, -16115.652455765303, -11570.536979500888, -28659.987885950555, 4465.610321236887, -0.088, 0.9540000000000001, 0.088, 192.0, 126.5, 32.0, 14.5, 104.0, 1.0, 96.0, 0.0, 0.0, 0.0, 1.658334826937011E9, 0.0, 2022-07-20 12:33:46.937
58.0, -8429.781607363417, -16220.683302960791, -4156.463343675536, -7408.061016566875, -30400.004136562842, -349.0001379251645, -794.8503845751744, -14512.071253308208, 150.87427507332268, -23985.902844179018, -7004.232049492843, -31897.88393949079, -16100.945007913711, -11648.097532760803, -28328.355053467163, 3611.281944666141, -0.088, 0.9540000000000001, 0.088, 192.0, 0.0, 0.0, 0.0, 0.0, 0.0, 0.0, 0.0, 0.0, 0.0, 1.6583348269370158E9, 0.0, 2022-07-20 12:33:46.937
60.0, -9775.021347406071, -17710.36001567364, -5476.780888650524, -8995.548963016148, -32092.344116251963, -1444.1462092573893, 275.48525041165954, -14778.25817802646, 273.2947794550395, -24096.588682721696, -6586.522649112064, -31378.652915794006, -15931.652895409215, -11382.424698165023, -28458.95629631952, 4546.166008253814, -0.088, 0.9540000000000001, 0.088, 192.0, 0.0, 0.0, 0.0, 0.0, 0.0, 0.0, 0.0, 0.0, 0.0, 1.6583348269370208E9, 0.0, 2022-07-20 12:33:46.937
62.0, -8529.291573678443, -16294.242893963206, -4241.154103416694, -7449.769371720478, -30419.78543040579, -466.23503759325, -983.3649973112342, -14635.13995827913, -50.470238980083344, -24214.114155067702, -7181.771955701346, -32061.722226348193, -16296.7462893422, -11845.932822934727, -28553.75004455448, 3523.2384232566865, -0.088, 0.9540000000000001, 0.088, 192.0, 0.0, 0.0, 0.0, 0.0, 0.0, 0.0, 0.0, 0.0, 0.0, 1.6583348269370253E9, 0.0, 2022-07-20 12:33:46.937
64.0, -9664.62608154131, -17629.06672108969, -5373.024090888988, -8935.847453576023, -32036.375348135873, -1328.3641729788988, 434.8978918669095, -14641.621964171169, 478.03675866565214, -23884.515331329745, -6429.456940824622, -31234.774736735195, -15742.333619872765, -11218.251135140794, -28239.998607635334, 4604.638171748898, -0.088, 0.9540000000000001, 0.088, 192.0, 0.0, 0.0, 0.0, 0.0, 0.0, 0.0, 0.0, 0.0, 0.0, 1.658334826937032E9, 0.0, 2022-07-20 12:33:46.937
66.0, -8635.216490652143, -16382.57698805058, -4333.109180105827, -7514.544727151958, -30480.157492179573, -568.2707510317267, -1108.2888970719455, -14756.286413226893, -234.29098538052864, -24418.632616833762, -7321.604469013748, -32178.398332404893, -16474.64382346199, -12003.534973089096, -28757.977933642618, 3473.1258121878877, -0.08600000000000001, 0.9540000000000001, 0.084, 192.0, 126.5, 40.0, 14.5, 104.0, 1.0, 80.0, 0.0, 0.0, 0.0, 1.6583348269370365E9, 0.0, 2022-07-20 12:33:46.937
68.0, -9505.97339939754, -17496.096193325066, -5225.9049088841575, -8812.17525150481, -31939.234666733108, -1181.1108805073359, 562.4816492178022, -14495.15098275554, 662.3492434441142, -23665.937622301295, -6276.191029094581, -31091.365944309946, -15561.642117696061, -11048.71315344729, -28010.893226968437, 4656.4718671407545, -0.08600000000000001, 0.9540000000000001, 0.084, 192.0, 0.0, 0.0, 0.0, 0.0, 0.0, 0.0, 0.0, 0.0, 0.0, 1.6583348269370413E9, 0.0, 2022-07-20 12:33:46.937
70.0, -8780.50282961164, -16522.521260085257, -4486.777423236063, -7646.442371182725, -30611.362232132225, -731.9749274223957, -1183.7260346086068, -14857.495112120523, -390.2167547007507, -24600.017023088578, -7431.820920922866, -32267.112406148008, -16621.114804877616, -12124.346151870031, -28942.26806667663, 3483.988759993167, -0.08600000000000001, 0.9540000000000001, 0.084, 192.0, 0.0, 0.0, 0.0, 0.0, 0.0, 0.0, 0.0, 0.0, 0.0, 1.6583348269370492E9, 0.0, 2022-07-20 12:33:46.937
72.0, -9312.340237181215, -17313.61655159194, -5063.161857505066, -8659.088153730412, -31789.254461438, -1014.72449478203, 623.3454493696033, -14370.092972528098, 801.9582393119621, -23479.188797377206, -6182.939551227039, -31017.89576028535, -15429.029217842724, -10916.435529760782, -27835.74495741665, 4641.898529755894, -0.08600000000000001, 0.9540000000000001, 0.084, 192.0, 0.0, 0.0, 0.0, 0.0, 0.0, 0.0, 0.0, 0.0, 0.0, 1.658334826937054E9, 0.0, 2022-07-20 12:33:46.937
74.0, -8947.157436270409, -16686.5383608983, -4654.259044439679, -7813.096977841495, -30773.345324199836, -893.4215776230786, -1205.8095581304501, -14973.657128054754, -504.59063107855695, -24762.201280856287, -7501.647770601246, -32327.037433032685, -16731.532422486835, -12247.996002196789, -29104.161751766416, 3507.5922021379715, -0.08600000000000001, 0.9540000000000001, 0.084, 192.0, 0.0, 0.0, 0.0, 0.0, 0.0, 0.0, 0.0, 0.0, 0.0, 1.6583348269370587E9, 0.0, 2022-07-20 12:33:46.937
76.0, -9114.28142956274, -17126.420691778745, -4873.574361035152, -8475.24505558551, -31597.454142267008, -835.217635061459, 623.613670303067, -14292.48771577927, 921.6294791256761, -23339.84802244282, -6110.676361403032, -30977.349695843423, -15323.014893891204, -10842.808883525, -27676.48877817259, 4601.374817058422, -0.08600000000000001, 0.9560000000000001, 0.08, 192.0, 126.5, 40.0, 14.5, 112.0, 1.0, 64.0, 0.0, 0.0, 0.0, 1.6583348269370637E9, 0.0, 2022-07-20 12:33:46.937
78.0, -9117.120101108563, -16870.180293343103, -4823.9981918332805, -7997.387110875501, -30962.396378802823, -1049.727326599041, -1160.3908133972661, -15058.817274429473, -576.7644139247434, -24869.243785052753, -7522.747817367055, -32335.44168894788, -16798.677062830575, -12304.456508690895, -29208.231473950324, 3577.3519965829846, -0.08600000000000001, 0.9560000000000001, 0.08, 192.0, 0.0, 0.0, 0.0, 0.0, 0.0, 0.0, 0.0, 0.0, 0.0, 1.6583348269370682E9, 0.0, 2022-07-20 12:33:46.937
80.0, -8958.802695131624, -16958.603794408296, -4722.990658639748, -8302.242553501434, -31416.40501217902, -697.0167990942955, 532.843236070065, -14225.343075435529, 947.9151306051173, -23279.47596066904, -6125.652030188087, -31008.440972380755, -15311.213172818801, -10834.248165398618, -27609.992338418047, 4512.012542726105, -0.08600000000000001, 0.9560000000000001, 0.08, 192.0, 0.0, 0.0, 0.0, 0.0, 0.0, 0.0, 0.0, 0.0, 0.0, 1.658334826937073E9, 0.0, 2022-07-20 12:33:46.937
82.0, -9321.45974891898, -17078.90088306676, -5019.084217439201, -8215.406026292567, -31191.50175946972, -1210.0563895769585, -1073.0178443214709, -15118.697597825241, -620.1715016569498, -24949.50889939176, -7524.8935848347655, -32318.230845717295, -16835.915069093116, -12296.0522527757, -29284.51797777629, 3678.8959716434447, -0.08600000000000001, 0.9560000000000001, 0.08, 192.0, 0.0, 0.0, 0.0, 0.0, 0.0, 0.0, 0.0, 0.0, 0.0, 1.658334826937078E9, 0.0, 2022-07-20 12:33:46.937
84.0, -8759.648652034837, -16746.195166849517, -4535.370115681901, -8075.148829835514, -31184.72918089976, -540.3757739515036, 414.13312126792925, -14181.488952814218, 944.4729619589999, -23247.065931208843, -6177.418670346578, -31064.38738875239, -15315.951742643327, -10857.605738354414, -27582.18676831565, 4393.749462813075, -0.08600000000000001, 0.9560000000000001, 0.08, 192.0, 0.0, 0.0, 0.0, 0.0, 0.0, 0.0, 0.0, 0.0, 0.0, 1.6583348269370825E9, 0.0, 2022-07-20 12:33:46.937
86.0, -9484.962759609552, -17269.583615014984, -5187.146983998655, -8417.644610124184, -31415.913273801005, -1350.1347720783679, -924.2893367158576, -15154.169816275815, -588.6108384860562, -24946.066730745642, -7462.979252693564, -32239.150373834418, -16798.028862241372, -12258.166045923954, -29287.446056299934, 3804.6245342045468, -0.082, 0.9560000000000001, 0.082, 192.0, 126.5, 56.0, 14.5, 112.0, 1.0, 72.0, 0.0, 0.0, 0.0, 1.6583348269370873E9, 0.0, 2022-07-20 12:33:46.937
88.0, -8600.41482453523, -16574.243196754836, -4379.91373299524, -7879.928693762862, -30977.57321328798, -432.39449648791515, 235.25211039210683, -14189.669691284858, 884.5032315854111, -23292.887007342222, -6271.273645314413, -31173.46390169429, -15381.129429475002, -10940.441303305783, -27609.90293144023, 4248.463123853579, -0.082, 0.9560000000000001, 0.082, 192.0, 0.0, 0.0, 0.0, 0.0, 0.0, 0.0, 0.0, 0.0, 0.0, 1.658334826937092E9, 0.0, 2022-07-20 12:33:46.937
90.0, -9602.644694166744, -17424.05652094561, -5305.119491233765, -8580.946455114658, -31605.277252826367, -1455.5455989295958, -727.4375232979684, -15117.356493157924, -504.56827933410165, -24891.7743434637, -7346.124332681219, -32114.941729896276, -16710.432375721022, -12153.671640595394, -29216.747488587796, 3955.968195911431, -0.082, 0.9560000000000001, 0.082, 192.0, 0.0, 0.0, 0.0, 0.0, 0.0, 0.0, 0.0, 0.0, 0.0, 1.6583348269370968E9, 0.0, 2022-07-20 12:33:46.937
92.0, -8457.184846065622, -16398.8714097585, -4235.499112069501, -7678.718290176188, -30765.008123518008, -337.48898953068135, 41.26132026449684, -14185.355804604986, 793.3081142077583, -23351.58268828186, -6370.247169762513, -31278.695914589873, -15465.06022990468, -11049.160188336396, -27659.09912098636, 4118.0853984457735, -0.082, 0.9560000000000001, 0.082, 192.0, 0.0, 0.0, 0.0, 0.0, 0.0, 0.0, 0.0, 0.0, 0.0, 1.6583348269371016E9, 0.0, 2022-07-20 12:33:46.937
94.0, -9707.228506473126, -17552.467292841353, -5415.805329776446, -8748.562186785006, -31786.460493381084, -1527.1382364199444, -505.685866556867, -15103.766632529097, -370.74838528017824, -24773.041876917112, -7191.807888961779, -31953.338617484405, -16569.012888552297, -12030.535880391108, -29097.18800749636, 4108.071816929796, -0.082, 0.9560000000000001, 0.082, 192.0, 0.0, 0.0, 0.0, 0.0, 0.0, 0.0, 0.0, 0.0, 0.0, 1.6583348269371064E9, 0.0, 2022-07-20 12:33:46.937
96.0, -8372.98582470248, -16284.27401593614, -4156.642157631178, -7548.7875996574885, -30612.233950165984, -295.9594483327208, -198.48349076312672, -14242.352752966019, 646.9935950033182, -23483.726201501635, -6530.352715295878, -31441.014282824315, -15612.559391565252, -11201.420271565947, -27799.78100058806, 3944.099419605663, -0.08600000000000001, 0.9520000000000001, 0.08, 192.0, 126.5, 40.0, 14.5, 96.0, 1.0, 64.0, 0.0, 0.0, 0.0, 1.6583348269371111E9, 0.0, 2022-07-20 12:33:46.937
98.0, -9765.052469379005, -17646.411674787007, -5488.917885889756, -8872.9943481677, -31938.184134743708, -1551.2557686872208, -272.1995439767294, -15019.58996291041, -216.72251423865728, -24619.68655820925, -7026.717904414882, -31792.76368531748, -16417.222191956305, -11876.152381438302, -28962.183470986307, 4251.480609355046, -0.08600000000000001, 0.9520000000000001, 0.08, 192.0, 0.0, 0.0, 0.0, 0.0, 0.0, 0.0, 0.0, 0.0, 0.0, 1.658334826937116E9, 0.0, 2022-07-20 12:33:46.937
100.0, -8323.566117711796, -16200.767898651113, -4109.256459385927, -7430.122188344263, -30488.13706495012, -264.6223026063803, -432.1486272989068, -14297.11452688152, 472.98526441875276, -23657.06397975254, -6699.80129001156, -31606.461895282497, -15800.69402464557, -11359.49180835388, -27986.73099121225, 3805.429197004938, -0.08600000000000001, 0.9520000000000001, 0.08, 192.0, 0.0, 0.0, 0.0, 0.0, 0.0, 0.0, 0.0, 0.0, 0.0, 1.6583348269371204E9, 0.0, 2022-07-20 12:33:46.937
102.0, -9763.97958564515, -17686.22013166191, -5503.580630252437, -8935.266308220185, -32038.63287432586, -1517.5493380486178, -27.358535213295845, -14895.426022461179, -9.275973948952432, -24430.948428028638, -6832.235375909255, -31603.06443012529, -16236.575393268515, -11682.653329688708, -28768.282087836516, 4402.891326295296, -0.08600000000000001, 0.9520000000000001, 0.08, 192.0, 0.0, 0.0, 0.0, 0.0, 0.0, 0.0, 0.0, 0.0, 0.0, 1.6583348269371264E9, 0.0, 2022-07-20 12:33:46.937
104.0, -8326.158920068612, -16171.174188992285, -4092.4926510444466, -7362.21758868904, -30397.612499906125, -282.9730848041874, -641.3162519116703, -14376.262053997763, 293.88073609837727, -23857.96145891684, -6869.048699027146, -31768.89202223921, -15980.40205006624, -11548.90049086815, -28165.991981743813, 3697.962009663822, -0.08600000000000001, 0.9520000000000001, 0.08, 192.0, 0.0, 0.0, 0.0, 0.0, 0.0, 0.0, 0.0, 0.0, 0.0, 1.6583348269371312E9, 0.0, 2022-07-20 12:33:46.937
106.0, -9737.78334114353, -17684.0743641942, -5455.524379673527, -8940.250747233718, -32057.989485024154, -1448.7283168707272, 202.8197291874563, -14746.473997411013, 202.2385838316183, -24204.23468401846, -6639.2504142821335, -31417.612006379608, -16017.081262717398, -11459.202940369003, -28521.854105216757, 4539.773409339597, -0.083, 0.9550000000000001, 0.082, 192.0, 126.5, 64.0, 14.5, 120.0, 1.0, 80.0, 0.0, 0.0, 0.0, 1.6583348274175367E9, 0.0, 2022-07-20 12:33:47.417
108.0, -8414.828290322816, -16220.169212838318, -4146.24859645946, -7363.26812067844, -30379.26171770832, -365.4286700998152, -840.9843851309282, -14466.943081252943, 82.07560563988753, -24065.81033060674, -7049.181407592465, -31928.55053288347, -16167.776723835079, -11714.973952171082, -28356.250030547388, 3610.9690202437664, -0.083, 0.9550000000000001, 0.082, 192.0, 0.0, 0.0, 0.0, 0.0, 0.0, 0.0, 0.0, 0.0, 0.0, 1.6583348274175956E9, 0.0, 2022-07-20 12:33:47.417
110.0, -9705.596829127888, -17679.96164321442, -5415.447701865161, -8937.747351854725, -32067.891307817856, -1381.4048625713424, 362.7911642540889, -14655.52474922237, 358.9466642077761, -24012.099088680636, -6504.916430105738, -31290.81056008465, -15849.577289769328, -11306.361711783615, -28315.212227727443, 4606.538070027598, -0.083, 0.9550000000000001, 0.082, 192.0, 0.0, 0.0, 0.0, 0.0, 0.0, 0.0, 0.0, 0.0, 0.0, 1.6583348274176676E9, 0.0, 2022-07-20 12:33:47.417
112.0, -8542.993193029546, -16333.961943860288, -4253.469914611568, -7436.157159347196, -30430.871895655622, -483.8035087351214, -1029.856625778273, -14614.397539424604, -141.53124589100432, -24308.99731028048, -7238.8583110402005, -32106.001032114153, -16379.581854293569, -11913.54684991203, -28599.32525149885, 3514.901222574857, -0.083, 0.9550000000000001, 0.082, 192.0, 0.0, 0.0, 0.0, 0.0, 0.0, 0.0, 0.0, 0.0, 0.0, 1.6583348274176912E9, 0.0, 2022-07-20 12:33:47.417
114.0, -9591.200601005627, -17585.65963335748, -5296.916401018668, -8865.595920752994, -31994.219958093163, -1247.4508580506872, 500.74613103224414, -14515.803994632244, 534.6090238820343, -23820.566990443112, -6372.683509908141, -31187.992535590238, -15680.575749942751, -11141.674058636912, -28115.633501486005, 4638.255195409679, -0.083, 0.9550000000000001, 0.082, 192.0, 0.0, 0.0, 0.0, 0.0, 0.0, 0.0, 0.0, 0.0, 0.0, 1.6583348274176958E9, 0.0, 2022-07-20 12:33:47.417
116.0, -8691.565238423973, -16461.21042504435, -4385.635779575799, -7543.669050177223, -30524.27983573435, -635.3483361421032, -1142.330603877378, -14731.140700714674, -326.3131173030278, -24524.982216952114, -7386.402176189683, -32242.078452358062, -16547.018772008272, -12062.43181972883, -28808.42582087825, 3474.4222133662956, -0.0825, 0.9505000000000001, 0.083, 192.0, 126.5, 56.0, 14.5, 72.0, 1.0, 80.0, 0.0, 0.0, 0.0, 1.6583348274177003E9, 0.0, 2022-07-20 12:33:47.417
118.0, -9417.259325654428, -17423.92241047888, -5142.376439854675, -8714.967514868678, -31853.806299424923, -1095.2578300545015, 603.9441351823968, -14387.303815758683, 694.8486798821307, -23620.72004326821, -6258.421392252611, -31078.5360429926, -15526.59458239014, -10999.360501689971, -27919.988682268704, 4646.1453612024025, -0.0825, 0.9505000000000001, 0.083, 192.0, 0.0, 0.0, 0.0, 0.0, 0.0, 0.0, 0.0, 0.0, 0.0, 1.6583348274177058E9, 0.0, 2022-07-20 12:33:47.417
120.0, -8820.199527764265, -16563.313193716192, -4510.760845036608, -7646.911757816287, -30630.674139341612, -754.8407620001748, -1175.3441304378666, -14824.302771604393, -432.2156825322727, -24654.55527955953, -7451.490456043537, -32273.549708551134, -16663.15843619805, -12152.397591161442, -28966.184433243805, 3510.0285422836, -0.0825, 0.9505000000000001, 0.083, 192.0, 0.0, 0.0, 0.0, 0.0, 0.0, 0.0, 0.0, 0.0, 0.0, 1.6583348274177103E9, 0.0, 2022-07-20 12:33:47.417
122.0, -9229.974058863409, -17246.404856014833, -4977.599379730151, -8550.257509977522, -31693.611346913738, -928.312650717813, 630.3638971285698, -14281.870637163001, 837.8104374182747, -23421.007206560043, -6153.926986924051, -30988.860844237908, -15394.04873777017, -10887.735889880169, -27745.667427261764, 4640.020983221649, -0.0825, 0.9505000000000001, 0.083, 192.0, 0.0, 0.0, 0.0, 0.0, 0.0, 0.0, 0.0, 0.0, 0.0, 1.658334827417715E9, 0.0, 2022-07-20 12:33:47.417
124.0, -8997.940599672866, -16758.488626299935, -4702.002370596215, -7842.824797967053, -30827.324787059402, -942.081325302282, -1190.7668341120284, -14959.843749981375, -549.0258990557073, -24807.977653500755, -7514.254154474039, -32326.12101151002, -16777.04057419784, -12235.61313576855, -29131.073252090606, 3542.6173856994374, -0.0825, 0.9505000000000001, 0.083, 192.0, 0.0, 0.0, 0.0, 0.0, 0.0, 0.0, 0.0, 0.0, 0.0, 1.6583348274177196E9, 0.0, 2022-07-20 12:33:47.417
