%OpenBCI Raw EEG Data
%Number of channels = 16
%Sample Rate = 125 Hz
%Board = OpenBCI_GUI$BoardCytonSerialDaisy
Sample Index, EXG Channel 0, EXG Channel 1, EXG Channel 2, EXG Channel 3, EXG Channel 4, EXG Channel 5, EXG Channel 6, EXG Channel 7, EXG Channel 8, EXG Channel 9, EXG Channel 10, EXG Channel 11, EXG Channel 12, EXG Channel 13, EXG Channel 14, EXG Channel 15, Accel Channel 0, Accel Channel 1, Accel Channel 2, Other, Other, Other, Other, Other, Other, Other, Analog Channel 0, Analog Channel 1, Analog Channel 2, Timestamp, Other, Timestamp (Formatted)
0.0, -13437.80171129724, -383.2877139196055, -40572.70772131774, -40645.52970475313, -30430.871895655622, -33081.92289852177, -29194.127523199026, -12132.482186851763, 0.0, 0.0, 0.0, 0.0, 0.0, 0.0, 0.0, 0.0, 0.0, 0.0, 0.0, 192.0, 0.0, 0.0, 0.0, 0.0, 0.0, 0.0, 0.0, 0.0, 0.0, 1.6689765279229414E9, 0.0, 2022-11-20 15:35:27.922
182.0, -13443.926089277995, -440.35171751400446, -40532.85456095393, -40581.58136386649, -30385.944889300456, -33030.53623801902, -29152.218002345326, -12085.498820006707, -29704.462552602596, -7804.223335292738, -34001.42896192419, -38128.87974129674, -28835.6055421359, -16717.361416502168, -28292.70402106095, -39702.12962652798, 0.0, 0.0, 0.0, 192.0, 0.0, 0.0, 0.0, 0.0, 0.0, 0.0, 0.0, 0.0, 0.0, 1.668976527922948E9, 0.0, 2022-11-20 15:35:27.922
184.0, -13412.387777851556, -358.8349054854996, -40550.847715240445, -40620.629861429916, -30412.431706479994, -33061.11342443388, -29178.794226502687, -12116.500689566219, -29597.844731550784, -7699.3489503084365, -33899.974393841556, -38021.546664422356, -28731.468764718626, -16612.062348373216, -28194.04342103522, -39604.87718640294, 0.0, 0.0, 0.0, 192.0, 0.0, 0.0, 0.0, 0.0, 0.0, 0.0, 0.0, 0.0, 0.0, 1.668976527922953E9, 0.0, 2022-11-20 15:35:27.922
186.0, -13450.117522492113, -446.6325577059457, -40536.60965402242, -40583.41420691183, -30391.91280507002, -33039.320473589956, -29165.383179829503, -12098.529887024151, -29688.458703572596, -7789.627646163422, -33994.81284556542, -38114.95460450109, -28823.312082685483, -16704.844439607197, -28287.40665762504, -39695.71467586931, 0.0, 0.0, 0.0, 192.0, 0.0, 0.0, 0.0, 0.0, 0.0, 0.0, 0.0, 0.0, 0.0, 1.6689765279229577E9, 0.0, 2022-11-20 15:35:27.922
188.0, -13408.3644638496, -353.0905071604857, -40536.43084006677, -40603.24020424369, -30401.97109007491, -33053.089148174426, -29171.351095599068, -12109.146965640422, -29599.878740296215, -7698.18665959676, -33900.82376013086, -38019.512655676925, -28729.63592167329, -16608.70958670492, -28199.161970515488, -39606.665325959366, 0.0, 0.0, 0.0, 192.0, 0.0, 0.0, 0.0, 0.0, 0.0, 0.0, 0.0, 0.0, 0.0, 1.6689765279229624E9, 0.0, 2022-11-20 15:35:27.922
190.0, -13473.072764047714, -464.849229437021, -40552.72526177469, -40600.423884442316, -30407.089639555175, -33059.101767432905, -29182.951650971372, -12118.512346567197, -29695.11952342028, -7789.381776974414, -34001.8759968133, -38114.44051437861, -28831.112841500384, -16709.292436753803, -28291.787599538282, -39699.89445208245, 0.078, 0.96, -0.106, 192.0, 1.0, 56.0, 15.0, 0.0, 126.0, 88.0, 0.0, 0.0, 0.0, 1.6689765279229674E9, 0.0, 2022-11-20 15:35:27.922
192.0, -13404.005873680815, -350.83298097049965, -40519.9129009143, -40581.00021851066, -30380.960450286922, -33028.52458101804, -29149.20051684386, -12087.53282875214, -29601.04103100789, -7701.561773009512, -33901.60607118679, -38017.99273705396, -28729.97119784012, -16606.38500528157, -28193.082296023644, -39598.30577353308, 0.078, 0.96, -0.106, 192.0, 0.0, 0.0, 0.0, 0.0, 0.0, 0.0, 0.0, 0.0, 0.0, 1.6689765279229722E9, 0.0, 2022-11-20 15:35:27.922
194.0, -13484.785078142295, -469.6101510060014, -40565.398700880854, -40611.13037003641, -30418.332567016194, -33064.756758780095, -29189.657174307966, -12126.111939682001, -29691.856168729806, -7783.369157715936, -34004.267633470015, -38112.36180214427, -28824.876704797352, -16696.104907525172, -28277.25896564233, -39681.49896639573, 0.078, 0.96, -0.106, 192.0, 0.0, 0.0, 0.0, 0.0, 0.0, 0.0, 0.0, 0.0, 0.0, 1.6689765279229772E9, 0.0, 2022-11-20 15:35:27.922
196.0, -13403.357673091612, -353.4704868162259, -40514.59318573394, -40576.48516613068, -30377.495929896348, -33023.69660421569, -29146.071272620116, -12083.353052538998, -29614.876760825726, -7707.507337034624, -33916.09000159383, -38027.268711002915, -28736.54261070998, -16611.61531348411, -28198.267900737275, -39605.123055591954, 0.078, 0.96, -0.106, 192.0, 0.0, 0.0, 0.0, 0.0, 0.0, 0.0, 0.0, 0.0, 0.0, 1.668976527922982E9, 0.0, 2022-11-20 15:35:27.922
198.0, -13493.52461022432, -466.5926655045349, -40579.36854116542, -40627.11186732195, -30437.800936436768, -33081.744084566126, -29206.39863090499, -12139.92531775538, -29691.342078607333, -7770.896884309875, -34002.7253631026, -38106.93032824163, -28825.256684453096, -16697.960102314963, -28276.230785397387, -39687.0198472762, 0.078, 0.96, -0.106, 192.0, 0.0, 0.0, 0.0, 0.0, 0.0, 0.0, 0.0, 0.0, 0.0, 1.6689765279229867E9, 0.0, 2022-11-20 15:35:27.922
200.0, -13417.282809887269, -372.4694696032369, -40527.49014228465, -40587.12459649141, -30392.225729492395, -33040.81804046846, -29160.57755477161, -12097.568762012574, -29625.62794990873, -7722.058322675029, -33923.06374586389, -38039.38335649769, -28749.171346327228, -16627.283886347283, -28214.40586023401, -39625.01610815717, 0.084, 0.9560000000000001, -0.108, 192.0, 1.0, 80.0, 14.5, 112.0, 126.0, 80.0, 0.0, 0.0, 0.0, 1.6689765279229915E9, 0.0, 2022-11-20 15:35:27.922
202.0, -13503.739357440396, -481.56833428959067, -40600.289773975586, -40649.30714956608, -30458.476300057926, -33103.9617185547, -29228.258636982282, -12163.573463389095, -29705.334270636355, -7792.265152009149, -34014.124752774806, -38122.95652901608, -28842.892210828333, -16716.132070557127, -28292.771076294313, -39702.643716650455, 0.084, 0.9560000000000001, -0.108, 192.0, 0.0, 0.0, 0.0, 0.0, 0.0, 0.0, 0.0, 0.0, 0.0, 1.6689765279229963E9, 0.0, 2022-11-20 15:35:27.922
204.0, -13402.307141102212, -364.758117766156, -40514.704944456214, -40562.85060201295, -30374.43374090597, -33016.67815645673, -29140.23746731728, -12077.854523402993, -29640.91654311616, -7736.832825759987, -33935.200743103116, -38048.458164746546, -28762.515337767047, -16638.81738648622, -28230.00737786381, -39634.627358272955, 0.084, 0.9560000000000001, -0.108, 192.0, 0.0, 0.0, 0.0, 0.0, 0.0, 0.0, 0.0, 0.0, 0.0, 1.6689765279230013E9, 0.0, 2022-11-20 15:35:27.923
206.0, -13486.372051998622, -447.10194433950716, -40596.24410822918, -40637.885408149414, -30454.02830291132, -33094.97631728367, -29217.86507581056, -12153.425771406386, -29677.238127856035, -7753.037840490084, -33985.22394719409, -38084.0868454083, -28818.595864605413, -16684.906683553065, -28268.608840538127, -39670.74777731273, 0.084, 0.9560000000000001, -0.108, 192.0, 0.0, 0.0, 0.0, 0.0, 0.0, 0.0, 0.0, 0.0, 0.0, 1.6689765279230063E9, 0.0, 2022-11-20 15:35:27.923
208.0, -13392.785297964252, -360.01954794163083, -40499.55046171552, -40545.483296571176, -30359.368665143094, -33002.93183361671, -29125.507667721235, -12062.096543562002, -29644.58222920683, -7733.010677458129, -33933.099679124316, -38042.378490254705, -28768.863233192355, -16638.34799985266, -28227.995720862833, -39631.02872741565, 0.084, 0.9560000000000001, -0.108, 192.0, 0.0, 0.0, 0.0, 0.0, 0.0, 0.0, 0.0, 0.0, 0.0, 1.668976527923011E9, 0.0, 2022-11-20 15:35:27.923
210.0, -13493.05522359076, -454.4780200097585, -40600.289773975586, -40658.96310317077, -30461.382026837116, -33113.81883785949, -29225.64348288101, -12166.300376212643, -29664.229412583045, -7744.410067130336, -33969.75654003102, -38069.24528708998, -28804.201341176195, -16674.647232848078, -28245.69830247144, -39654.900390493916, 0.082, 0.9540000000000001, -0.108, 192.0, 1.0, 72.0, 14.5, 104.0, 126.0, 80.0, 0.0, 0.0, 0.0, 1.6689765279230158E9, 0.0, 2022-11-20 15:35:27.923
212.0, -13391.757117719308, -371.9106759918542, -40481.087920795435, -40537.39196507835, -30338.827411988666, -32995.399295735275, -29109.10148729104, -12050.943023078802, -29653.925258389147, -7752.747267812165, -33943.67205425168, -38050.33571128079, -28774.294707094996, -16657.01170647284, -28223.48066848286, -39642.02578568766, 0.082, 0.9540000000000001, -0.108, 192.0, 0.0, 0.0, 0.0, 0.0, 0.0, 0.0, 0.0, 0.0, 0.0, 1.6689765279230266E9, 0.0, 2022-11-20 15:35:27.923
214.0, -13470.748182624362, -434.9649471002754, -40573.35592190694, -40635.85139940398, -30431.743613689378, -33092.96466028269, -29202.48707562531, -12145.870881780493, -29641.005950093982, -7728.8756047338975, -33946.667188008694, -38043.94311236657, -28776.55223328498, -16653.39072387108, -28211.254264265808, -39629.88878844843, 0.082, 0.9540000000000001, -0.108, 192.0, 0.0, 0.0, 0.0, 0.0, 0.0, 0.0, 0.0, 0.0, 0.0, 1.6689765279230316E9, 0.0, 2022-11-20 15:35:27.923
216.0, -13410.554934806221, -396.3858361704155, -40485.62532491986, -40538.59895927894, -30334.62528403107, -32994.16994979024, -29110.219074513803, -12051.792389368104, -29659.848470669804, -7758.849294048464, -33950.33287409936, -38055.85659216125, -28773.154768127773, -16656.430561117002, -28224.911180128, -39643.143372910425, 0.082, 0.9540000000000001, -0.108, 192.0, 0.0, 0.0, 0.0, 0.0, 0.0, 0.0, 0.0, 0.0, 0.0, 1.6689765279230363E9, 0.0, 2022-11-20 15:35:27.923
218.0, -13475.106772793148, -429.0417348196191, -40581.491956888676, -40647.07197512055, -30431.78831717829, -33093.50110214962, -29200.229549435324, -12143.188672445855, -29636.245028525, -7720.761921496621, -33940.34164432784, -38034.08599306178, -28762.940020911698, -16639.219717886415, -28198.714935626384, -39622.69152673382, 0.082, 0.9540000000000001, -0.108, 192.0, 0.0, 0.0, 0.0, 0.0, 0.0, 0.0, 0.0, 0.0, 0.0, 1.668976527923041E9, 0.0, 2022-11-20 15:35:27.923
220.0, -13435.432426384978, -427.99120283021966, -40505.07134259598, -40558.0226252106, -30349.690359793945, -33009.70441218667, -29120.634987429978, -12058.967299338257, -29687.475226816565, -7785.067890294539, -33979.63601108027, -38082.52222329643, -28799.46277135167, -16682.470343407436, -28246.21239259391, -39668.49025112275, 0.084, 0.9550000000000001, -0.10500000000000001, 192.0, 1.0, 88.0, 14.5, 112.0, 126.0, 104.0, 0.0, 0.0, 0.0, 1.668976527923046E9, 0.0, 2022-11-20 15:35:27.923
222.0, -13468.691822134475, -415.45187419079235, -40581.51430863313, -40648.97187339925, -30433.0847183567, -33093.568157382986, -29200.073087224137, -12138.003067732225, -29633.763984890462, -7722.728875008688, -33939.98401641655, -38034.533027950885, -28763.431759289713, -16640.873746976107, -28201.754772872304, -39623.83146570104, 0.084, 0.9550000000000001, -0.10500000000000001, 192.0, 0.0, 0.0, 0.0, 0.0, 0.0, 0.0, 0.0, 0.0, 0.0, 1.6689765279230509E9, 0.0, 2022-11-20 15:35:27.923
224.0, -13446.585946868176, -435.1884645448285, -40518.840017180446, -40565.97984623669, -30363.950772756434, -33022.467258270655, -29137.376444027002, -12072.333642522532, -29693.93488096415, -7785.313759483548, -33989.023743751495, -38086.45613032057, -28812.337376157928, -16692.662738879055, -28264.898450958546, -39685.164652486405, 0.084, 0.9550000000000001, -0.10500000000000001, 192.0, 0.0, 0.0, 0.0, 0.0, 0.0, 0.0, 0.0, 0.0, 0.0, 1.6689765279230556E9, 0.0, 2022-11-20 15:35:27.923
226.0, -13450.18457772548, -397.99516177119756, -40571.12074746141, -40632.3421755245, -30430.715433444435, -33081.319401421475, -29194.552206343677, -12132.526890340674, -29627.3937377207, -7708.893145190853, -33932.898513424225, -38020.80905685533, -28759.989590643596, -16632.804767227743, -28204.459333951396, -39622.69152673382, 0.084, 0.9550000000000001, -0.10500000000000001, 192.0, 0.0, 0.0, 0.0, 0.0, 0.0, 0.0, 0.0, 0.0, 0.0, 1.668976527923061E9, 0.0, 2022-11-20 15:35:27.923
228.0, -13448.731714335885, -450.7452786857222, -40521.566930003995, -40563.163526435324, -30375.35016242864, -33022.82488618194, -29145.981865642294, -12079.1509245814, -29693.376087352764, -7776.663634379343, -33987.03443849498, -38079.01299941695, -28813.589073847423, -16689.175866744026, -28264.78669223627, -39678.727350083274, 0.084, 0.9550000000000001, -0.10500000000000001, 192.0, 0.0, 0.0, 0.0, 0.0, 0.0, 0.0, 0.0, 0.0, 0.0, 1.6689765279230657E9, 0.0, 2022-11-20 15:35:27.923
230.0, -13431.520871105298, -379.73378655121167, -40549.394851850855, -40610.057486302554, -30410.755325645845, -33060.44287210022, -29177.386066602, -12113.594962787029, -29613.37919394722, -7699.125432863883, -33913.76542017048, -38001.832425812776, -28741.527049723514, -16617.225601342394, -28188.96957504387, -39600.585651467525, 0.084, 0.9575, -0.10250000000000001, 192.0, 1.0, 80.0, 15.0, 0.0, 126.0, 112.0, 0.0, 0.0, 0.0, 1.6689765279230704E9, 0.0, 2022-11-20 15:35:27.923
232.0, -13462.768609853818, -461.3400055575378, -40529.09946788543, -40570.20432593874, -30381.25102296484, -33027.38464205082, -29153.045016890173, -12085.051785117601, -29695.566558309387, -7778.0047390466625, -33993.91877578721, -38081.449339562576, -28818.70762332769, -16694.38382320211, -28262.395055579553, -39671.75360581322, 0.084, 0.9575, -0.10250000000000001, 192.0, 0.0, 0.0, 0.0, 0.0, 0.0, 0.0, 0.0, 0.0, 0.0, 1.6689765279230752E9, 0.0, 2022-11-20 15:35:27.923
234.0, -13433.711342061919, -388.33920816650493, -40549.68542452877, -40615.600718927475, -30403.87098835361, -33058.610029054886, -29178.615412547042, -12119.093491923035, -29613.66976662514, -7700.421834042291, -33917.69932719461, -38006.07925725928, -28738.487212477594, -16614.29752281875, -28182.174644729454, -39591.26497402966, 0.084, 0.9575, -0.10250000000000001, 192.0, 0.0, 0.0, 0.0, 0.0, 0.0, 0.0, 0.0, 0.0, 0.0, 1.6689765279230802E9, 0.0, 2022-11-20 15:35:27.923
236.0, -13480.605301929154, -489.234982637761, -40550.288921629064, -40598.99337279718, -30403.558063931236, -33050.76456675107, -29176.648459034976, -12112.723244753272, -29707.412982870697, -7793.49449795419, -34009.83321783939, -38101.722371783544, -28831.64928336731, -16709.87358210964, -28273.34741036265, -39686.12577749798, 0.084, 0.9575, -0.10250000000000001, 192.0, 0.0, 0.0, 0.0, 0.0, 0.0, 0.0, 0.0, 0.0, 0.0, 1.668976527923085E9, 0.0, 2022-11-20 15:35:27.923
238.0, -13411.65017028453, -376.42572837182627, -40524.271491083084, -40588.89038430338, -30387.10718001213, -33034.22427585415, -29156.554240769656, -12093.701910221806, -29614.161505003158, -7700.734758464666, -33908.82568464585, -38004.6710973586, -28733.480421719603, -16612.352921051137, -28178.799531316705, -39588.11337806146, 0.084, 0.9575, -0.10250000000000001, 192.0, 0.0, 0.0, 0.0, 0.0, 0.0, 0.0, 0.0, 0.0, 0.0, 1.6689765279230897E9, 0.0, 2022-11-20 15:35:27.923
240.0, -13485.85796187615, -493.4371105953587, -40551.16063966282, -40594.2324512282, -30403.379249975595, -33048.50704056109, -29174.815615989643, -12107.358826083997, -29702.339136879342, -7781.156335014861, -33999.35024968985, -38090.07711292233, -28828.028300765553, -16700.463497693956, -28266.77599749279, -39671.28421917966, 0.082, 0.95675, -0.10325000000000001, 192.0, 1.0, 64.0, 14.5, 112.0, 126.0, 96.0, 0.0, 0.0, 0.0, 1.6689765279231188E9, 0.0, 2022-11-20 15:35:27.923
242.0, -13407.425690582479, -373.6541120593682, -40514.72729620067, -40571.344264905965, -30370.946868770945, -33017.3934122793, -29141.82444117361, -12077.049860602601, -29614.1391532587, -7699.460709030714, -33911.17261781366, -38001.47479790149, -28731.11113680734, -16606.496764003845, -28180.67707785095, -39586.48170071623, 0.082, 0.95675, -0.10325000000000001, 192.0, 0.0, 0.0, 0.0, 0.0, 0.0, 0.0, 0.0, 0.0, 0.0, 1.6689765279231253E9, 0.0, 2022-11-20 15:35:27.923
244.0, -13481.029985073805, -491.85013673903194, -40555.0721949425, -40593.27132621662, -30402.976918575398, -33046.16010739328, -29174.25682237826, -12109.01285517369, -29689.84451172883, -7765.82303831852, -33997.8750345558, -38080.6893802511, -28814.23727443663, -16681.844494562687, -28255.197793864943, -39657.336730639545, 0.082, 0.95675, -0.10325000000000001, 192.0, 0.0, 0.0, 0.0, 0.0, 0.0, 0.0, 0.0, 0.0, 0.0, 1.668976527923134E9, 0.0, 2022-11-20 15:35:27.923
246.0, -13406.196344637436, -384.3829493979156, -40509.899319398326, -40563.990540980165, -30360.77682504378, -33011.38079302082, -29134.135441080984, -12072.11012507798, -29620.598807406284, -7704.311037577515, -33917.654623705705, -38007.93445204907, -28734.46389847564, -16605.17801108098, -28178.508958638784, -39582.88306985892, 0.082, 0.95675, -0.10325000000000001, 192.0, 0.0, 0.0, 0.0, 0.0, 0.0, 0.0, 0.0, 0.0, 0.0, 1.6689765279231403E9, 0.0, 2022-11-20 15:35:27.923
248.0, -13481.320557751724, -486.4633663253029, -40558.84963975545, -40602.63670714339, -30407.11199129963, -33052.48565107413, -29176.179072401414, -12111.270381363676, -29691.386782096244, -7769.444020920279, -33999.171435734206, -38082.835147718804, -28815.913655270775, -16685.57723588672, -28247.97818040588, -39654.073375949076, 0.082, 0.95675, -0.10325000000000001, 192.0, 0.0, 0.0, 0.0, 0.0, 0.0, 0.0, 0.0, 0.0, 0.0, 1.6689765279231472E9, 0.0, 2022-11-20 15:35:27.923
250.0, -13404.631722525564, -386.90869652136524, -40502.0091536056, -40553.61933155291, -30352.8643075066, -32997.32154575844, -29119.562103696124, -12056.173331281345, -29615.368499203745, -7705.562735267012, -33909.272719534965, -38002.07829500178, -28729.390052484283, -16600.417089512004, -28172.76456031377, -39577.40689246737, 0.079, 0.9553750000000001, -0.104625, 192.0, 1.0, 48.0, 14.5, 104.0, 126.0, 88.0, 0.0, 0.0, 0.0, 1.668976527923154E9, 0.0, 2022-11-20 15:35:27.923
252.0, -13503.560543484753, -500.3437996320486, -40587.30341044705, -40626.217797543744, -30431.855372411654, -33075.239726929634, -29196.49680811129, -12131.252840906722, -29695.991241454038, -7771.858009321453, -34005.09464801486, -38085.427950075624, -28826.486030398137, -16691.88042782312, -28255.287200842766, -39659.41544287389, 0.079, 0.9553750000000001, -0.104625, 192.0, 0.0, 0.0, 0.0, 0.0, 0.0, 0.0, 0.0, 0.0, 0.0, 1.66897652792316E9, 0.0, 2022-11-20 15:35:27.923
254.0, -13406.285751615258, -397.7269408377339, -40501.24919429412, -40551.42886059629, -30346.985798714853, -32998.14856030328, -29113.48242920428, -12052.775866124139, -29642.078833827836, -7728.696790778255, -33934.016100646986, -38024.899426090655, -28754.580468485412, -16624.33345607918, -28195.429229191453, -39602.15027357939, 0.079, 0.9553750000000001, -0.104625, 192.0, 0.0, 0.0, 0.0, 0.0, 0.0, 0.0, 0.0, 0.0, 0.0, 1.6689765279231665E9, 0.0, 2022-11-20 15:35:27.923
0.0, -13496.586799214698, -493.59357280654586, -40586.52109939112, -40639.96412038376, -30432.525924745314, -33088.42725615826, -29197.77085754524, -12138.628916576972, -29680.881462202247, -7764.638395862388, -33992.734133331076, -38080.35410408427, -28813.432611636235, -16686.985395787407, -28239.73038670187, -39656.19679167233, 0.079, 0.9553750000000001, -0.104625, 192.0, 0.0, 0.0, 0.0, 0.0, 0.0, 0.0, 0.0, 0.0, 0.0, 1.6689765279231734E9, 0.0, 2022-11-20 15:35:27.923
2.0, -13398.708510244907, -399.1127489939629, -40478.986856816635, -40538.08486915647, -30336.256961376308, -32986.27978399751, -29101.61365289851, -12040.169482251345, -29643.01760709496, -7737.413971115825, -33934.99957740302, -38034.51067620643, -28756.860346419853, -16635.53168005129, -28197.9549763149, -39615.56132025258, 0.079, 0.9553750000000001, -0.104625, 192.0, 0.0, 0.0, 0.0, 0.0, 0.0, 0.0, 0.0, 0.0, 0.0, 1.6689765279231784E9, 0.0, 2022-11-20 15:35:27.923
4.0, -13474.302109992757, -462.0999648690182, -40564.57168633601, -40620.205178285265, -30421.081831584197, -33073.272773417564, -29183.91277598295, -12125.284925137154, -29645.722168174052, -7730.574337312501, -33952.94802820063, -38041.70793792104, -28776.686343751713, -16653.39072387108, -28203.11822928408, -39622.35625056699, 0.0795, 0.9546875000000001, -0.1043125, 192.0, 1.0, 64.0, 14.5, 104.0, 126.0, 96.0, 0.0, 0.0, 0.0, 1.6689765279231832E9, 0.0, 2022-11-20 15:35:27.923
6.0, -13401.815402724196, -410.109807265974, -40485.11123479739, -40528.607729507414, -30339.47561257787, -32986.70446714216, -29105.078173289083, -12041.510586918663, -29651.600676965798, -7741.929023495797, -33941.79450771744, -38033.99658608396, -28766.27043083554, -16643.15362491055, -28206.783915374748, -39622.825637200556, 0.0795, 0.9546875000000001, -0.1043125, 192.0, 0.0, 0.0, 0.0, 0.0, 0.0, 0.0, 0.0, 0.0, 0.0, 1.668976527923188E9, 0.0, 2022-11-20 15:35:27.923
8.0, -13475.531455937798, -461.8317439355545, -40579.63676209888, -40630.66579469035, -30436.660997469546, -33084.761570067596, -29199.290776168204, -12137.176053187377, -29641.989426850014, -7723.354723853437, -33950.98107468856, -38030.53206569339, -28780.530843798024, -16649.926203480507, -28207.990909575336, -39623.20561685629, 0.0795, 0.9546875000000001, -0.1043125, 192.0, 0.0, 0.0, 0.0, 0.0, 0.0, 0.0, 0.0, 0.0, 0.0, 1.6689765279231927E9, 0.0, 2022-11-20 15:35:27.923
10.0, -13406.531620804266, -420.8386446045214, -40481.26673475108, -40523.48918002715, -30327.450374060914, -32982.055304295456, -29098.90909181942, -12034.961525793258, -29658.97675263605, -7753.618985845922, -33951.629275277766, -38043.138449566184, -28778.250965863583, -16655.40238087206, -28214.987005589846, -39630.022898915166, 0.0795, 0.9546875000000001, -0.1043125, 192.0, 0.0, 0.0, 0.0, 0.0, 0.0, 0.0, 0.0, 0.0, 0.0, 1.6689765279231977E9, 0.0, 2022-11-20 15:35:27.923
12.0, -13460.645194130564, -442.94451987082005, -40570.494898616664, -40625.36843125444, -30424.45694499695, -33077.206680441705, -29187.846683007087, -12128.324762383076, -29627.237275509513, -7717.207994128227, -33935.066632636386, -38021.43490570008, -28762.247116833583, -16637.073950418708, -28186.130903498044, -39601.636183456925, 0.0795, 0.9546875000000001, -0.1043125, 192.0, 0.0, 0.0, 0.0, 0.0, 0.0, 0.0, 0.0, 0.0, 0.0, 1.6689765279232028E9, 0.0, 2022-11-20 15:35:27.923
14.0, -13428.123405948092, -450.14178158542893, -40507.440627508244, -40545.46094482672, -30350.740891783345, -33006.28459528501, -29121.439650230368, -12059.77196213865, -29676.858148200292, -7771.992119788185, -33969.26480165301, -38063.970275398526, -28794.478332338138, -16675.407192159557, -28233.74011918785, -39649.7594892692, 0.07875, 0.95634375, -0.10415625, 192.0, 1.0, 56.0, 14.5, 120.0, 126.0, 96.0, 0.0, 0.0, 0.0, 1.6689765279232075E9, 0.0, 2022-11-20 15:35:27.923
16.0, -13442.495577632855, -427.9017958523984, -40562.180049679286, -40619.37816374042, -30412.72227915791, -33070.702322805206, -29175.709685767855, -12122.088625680046, -29623.929217330126, -7713.7881772265655, -33929.188123844644, -38016.58457715328, -28757.955581898164, -16635.352866095647, -28190.62360413356, -39611.09097136152, 0.07875, 0.95634375, -0.10415625, 192.0, 0.0, 0.0, 0.0, 0.0, 0.0, 0.0, 0.0, 0.0, 0.0, 1.6689765279232128E9, 0.0, 2022-11-20 15:35:27.923
18.0, -13424.79299602425, -452.98045313125294, -40497.47174948118, -40541.839962224956, -30337.329845110162, -32995.198130035176, -29104.921711077895, -12048.596089910996, -29664.11765386077, -7764.8619133069415, -33959.3629788593, -38055.6330747167, -28785.939965956208, -16668.96988975643, -28227.056947595713, -39654.18513467135, 0.07875, 0.95634375, -0.10415625, 192.0, 0.0, 0.0, 0.0, 0.0, 0.0, 0.0, 0.0, 0.0, 0.0, 1.6689765279232175E9, 0.0, 2022-11-20 15:35:27.923
20.0, -13451.972717281906, -430.494598209214, -40569.377311393895, -40631.26929179064, -30416.8797036266, -33068.44479661522, -29175.91085146795, -12119.205250645311, -29617.178990504624, -7708.423758557291, -33922.95198714161, -38010.16962649461, -28743.471651491127, -16619.23725834337, -28176.921984782457, -39602.70906719078, 0.07875, 0.95634375, -0.10415625, 192.0, 0.0, 0.0, 0.0, 0.0, 0.0, 0.0, 0.0, 0.0, 0.0, 1.6689765279232247E9, 0.0, 2022-11-20 15:35:27.923
22.0, -13440.752141565341, -467.5984940050237, -40513.20737757771, -40555.29571238705, -30356.52999359727, -33001.81424639395, -29120.590283941066, -12056.24038651471, -29694.270157130977, -7785.626683905922, -33992.26474669752, -38080.488214551, -28814.259626181083, -16683.87850330812, -28255.868346198604, -39669.83135579006, 0.07875, 0.95634375, -0.10415625, 192.0, 0.0, 0.0, 0.0, 0.0, 0.0, 0.0, 0.0, 0.0, 0.0, 1.6689765279232297E9, 0.0, 2022-11-20 15:35:27.923
24.0, -13436.438254885466, -417.7094003807784, -40559.36372987792, -40618.64055617339, -30414.756287903347, -33059.21352615518, -29173.318049111134, -12110.06338716309, -29608.886493311704, -7699.483060775168, -33908.95979511259, -37995.35041992074, -28734.799174642467, -16602.42874651298, -28179.224214461356, -39586.90638386088, 0.082375, 0.958171875, -0.105078125, 192.0, 1.0, 88.0, 15.0, 0.0, 126.0, 88.0, 0.0, 0.0, 0.0, 1.6689765279232345E9, 0.0, 2022-11-20 15:35:27.923
26.0, -13446.116560234614, -483.0659011680962, -40524.852636438925, -40562.247104912654, -30374.25492695033, -33012.185455821214, -29134.560124225634, -12064.421124985352, -29698.27111938848, -7795.036768321606, -33994.43286590968, -38086.567889042846, -28818.238236694127, -16686.270139964836, -28272.945078962457, -39669.3619691565, 0.082375, 0.958171875, -0.105078125, 192.0, 0.0, 0.0, 0.0, 0.0, 0.0, 0.0, 0.0, 0.0, 0.0, 1.6689765279232392E9, 0.0, 2022-11-20 15:35:27.923
28.0, -13408.5656295497, -402.39845542889304, -40533.033374909566, -40599.79803559757, -30391.91280507002, -33037.1970578667, -29151.01100814474, -12085.990558384725, -29596.48127513901, -7698.85721193042, -33890.96664082607, -37989.89659427364, -28717.521276178515, -16588.078926572674, -28175.62558360405, -39575.68580814431, 0.082375, 0.958171875, -0.105078125, 192.0, 0.0, 0.0, 0.0, 0.0, 0.0, 0.0, 0.0, 0.0, 0.0, 1.6689765279232442E9, 0.0, 2022-11-20 15:35:27.923
30.0, -13457.404191184545, -494.50999432921344, -40531.915787686805, -40585.49291914617, -30382.72623809889, -33031.54206651951, -29148.14998485446, -12080.29086354862, -29700.97568046757, -7796.668445666844, -33994.38816242077, -38094.368647857744, -28818.41705064977, -16688.617073132646, -28269.525262060793, -39673.96642851429, 0.082375, 0.958171875, -0.105078125, 192.0, 0.0, 0.0, 0.0, 0.0, 0.0, 0.0, 0.0, 0.0, 0.0, 1.6689765279232492E9, 0.0, 2022-11-20 15:35:27.923
32.0, -13406.911600460006, -394.9553245252758, -40528.5183225296, -40605.29656473357, -30380.468711908903, -33033.26315084257, -29144.05961561914, -12079.597959470506, -29605.2878624544, -7703.484023032668, -33898.208606029584, -38002.592385124255, -28714.816715099423, -16590.403507996023, -28172.0493044912, -39584.62650592643, 0.082375, 0.958171875, -0.105078125, 192.0, 0.0, 0.0, 0.0, 0.0, 0.0, 0.0, 0.0, 0.0, 0.0, 1.668976527923254E9, 0.0, 2022-11-20 15:35:27.923
34.0, -13477.47605770541, -510.4467881258474, -40555.13925017587, -40609.588099668996, -30390.594052147157, -33047.45650857169, -29161.471624549824, -12094.618331744472, -29699.05343044441, -7796.757852644665, -34003.01593578052, -38108.6961160536, -28816.003062248597, -16690.06993652224, -28264.40671258053, -39685.52228039769, 0.0831875, 0.9580859375, -0.1045390625, 192.0, 1.0, 80.0, 14.5, 120.0, 126.0, 96.0, 0.0, 0.0, 0.0, 1.6689765279232588E9, 0.0, 2022-11-20 15:35:27.923
36.0, -13413.37125460759, -409.7521793546891, -40527.423087051284, -40597.048771029564, -30377.33946768516, -33030.75975546357, -29142.20442082935, -12078.256854803189, -29619.592978905795, -7719.174947640294, -33912.960757370085, -38023.60302491224, -28725.76906988252, -16600.19357206745, -28180.632374362038, -39601.7479421792, 0.0831875, 0.9580859375, -0.1045390625, 192.0, 0.0, 0.0, 0.0, 0.0, 0.0, 0.0, 0.0, 0.0, 0.0, 1.6689765279232647E9, 0.0, 2022-11-20 15:35:27.923
38.0, -13483.712194408441, -513.3525149050373, -40558.17908742179, -40617.38885848389, -30407.335508744185, -33059.59350581092, -29175.15089215647, -12107.06825340608, -29710.3634131388, -7801.585829447011, -34008.13448526079, -38118.1956074471, -28828.38592867684, -16693.489753423903, -28269.771131249803, -39690.23849847776, 0.0831875, 0.9580859375, -0.1045390625, 192.0, 0.0, 0.0, 0.0, 0.0, 0.0, 0.0, 0.0, 0.0, 0.0, 1.66897652792327E9, 0.0, 2022-11-20 15:35:27.923
40.0, -13388.761983962297, -389.8367750450105, -40494.34250525743, -40574.40645389634, -30351.500851094825, -33002.70831617216, -29117.684557161876, -12050.00424981168, -29612.99921429148, -7712.0894446479615, -33897.940385096124, -38019.4232486991, -28721.008148313544, -16585.195551537938, -28174.619755103562, -39589.253317028684, 0.0831875, 0.9580859375, -0.1045390625, 192.0, 0.0, 0.0, 0.0, 0.0, 0.0, 0.0, 0.0, 0.0, 0.0, 1.6689765279232748E9, 0.0, 2022-11-20 15:35:27.923
42.0, -13470.837589602184, -496.4545960968252, -40554.80397400904, -40622.730925408716, -30404.854465109645, -33057.85006974341, -29173.765084000242, -12104.453099304808, -29687.54228204993, -7778.228256491216, -33989.046095495956, -38101.67766829463, -28807.88937901132, -16674.289604936792, -28255.44366305395, -39665.584524343554, 0.0831875, 0.9580859375, -0.1045390625, 192.0, 0.0, 0.0, 0.0, 0.0, 0.0, 0.0, 0.0, 0.0, 0.0, 1.6689765279232795E9, 0.0, 2022-11-20 15:35:27.923
44.0, -13379.955396646905, -384.8076325425664, -40487.99460983212, -40562.515325846114, -30341.62138004558, -32995.891034113294, -29111.068440803105, -12044.125741019934, -29610.495818912488, -7706.702674234233, -33900.108504308286, -38019.512655676925, -28708.40176444075, -16584.547350948735, -28177.883109794035, -39588.135729805916, 0.0831875, 0.9580859375, -0.1045390625, 192.0, 0.0, 0.0, 0.0, 0.0, 0.0, 0.0, 0.0, 0.0, 0.0, 1.6689765279232845E9, 0.0, 2022-11-20 15:35:27.923
46.0, -13478.325423994713, -499.76265427621064, -40581.58136386649, -40640.23234131722, -30425.88745664209, -33084.31453517849, -29196.474456366836, -12127.92243098288, -29684.21187212609, -7766.58299763, -33987.704990828635, -38096.402656603175, -28795.797085260998, -16669.416924645535, -28250.63803799606, -39666.90327726642, 0.084, 0.9520000000000001, -0.106, 192.0, 1.0, 80.0, 14.5, 96.0, 126.0, 88.0, 0.0, 0.0, 0.0, 1.6689765279232912E9, 0.0, 2022-11-20 15:35:27.923
0.0, -6718.844976287482, -277.36279694590536, -20276.541444842987, -20299.787259076507, -15218.654599029374, -16540.447359138412, -14594.705652559478, -6068.118639960127, -14801.571047493346, -3847.6069387921025, -16943.91869830116, -19000.726223078516, -14351.7868938192, -8288.362120194688, -14084.750602811648, -19792.089735518664, 0.078, 0.9560000000000001, -0.108, 192.0, 1.0, 56.0, 14.5, 112.0, 126.0, 80.0, 0.0, 0.0, 0.0, 1.6689765284957652E9, 0.0, 2022-11-20 15:35:28.495
2.0, -13359.190626047925, -502.13193918847315, -40442.66527207676, -40486.92172609827, -30331.920722951978, -32981.697676384174, -29086.794446324642, -12033.888642059404, -29660.764892192474, -7754.110724223939, -33928.91990291118, -38041.23855128748, -28787.303422367982, -16619.39372055456, -28216.30575851271, -39632.660404760885, 0.078, 0.9560000000000001, -0.108, 192.0, 0.0, 0.0, 0.0, 0.0, 0.0, 0.0, 0.0, 0.0, 0.0, 1.6689765284957736E9, 0.0, 2022-11-20 15:35:28.495
4.0, -13379.396603035522, -482.395348834437, -40493.33667675694, -40560.88364850088, -30400.294709240763, -33056.97835170965, -29148.99935114376, -12103.380215570953, -29593.66495533764, -7682.227514055671, -33866.08914924731, -37977.24550691194, -28729.322997250918, -16565.70483037291, -28139.773385497738, -39573.85296509897, 0.078, 0.9560000000000001, -0.108, 192.0, 0.0, 0.0, 0.0, 0.0, 0.0, 0.0, 0.0, 0.0, 0.0, 1.668976528495787E9, 0.0, 2022-11-20 15:35:28.495
6.0, -13362.185759804936, -512.0114102377189, -40422.03461194451, -40472.214278246676, -30328.925589194965, -32978.210804249145, -29082.972298022785, -12031.89933680288, -29657.68035145764, -7755.273014935615, -33921.923806896666, -38039.27159777541, -28782.92248045474, -16622.746482222854, -28193.26110997929, -39632.19101812733, 0.078, 0.9560000000000001, -0.108, 192.0, 0.0, 0.0, 0.0, 0.0, 0.0, 0.0, 0.0, 0.0, 0.0, 1.6689765284957924E9, 0.0, 2022-11-20 15:35:28.495
8.0, -13365.35970751759, -464.8268776925657, -40479.85857485039, -40537.235502867166, -30391.73399111438, -33025.618854238855, -29143.634932474488, -12088.561008997085, -29584.56779534433, -7673.219761040183, -33861.03765500041, -37968.6624370411, -28716.35898546684, -16543.487196384336, -28127.010539413757, -39555.85981081246, 0.088, 0.9560000000000001, -0.112, 192.0, 1.0, 96.0, 14.5, 112.0, 126.0, 64.0, 0.0, 0.0, 0.0, 1.668976528495798E9, 0.0, 2022-11-20 15:35:28.495
10.0, -13368.287786041235, -518.9180992744087, -40450.06369949147, -40473.08599628043, -30339.028577688765, -32958.51891738402, -29094.550501650632, -12029.127720490424, -29651.891249643715, -7735.067037948017, -33932.02679539046, -38033.99658608396, -28778.049800163484, -16595.455002242925, -28198.670232137472, -39608.78874168262, 0.088, 0.9560000000000001, -0.112, 192.0, 0.0, 0.0, 0.0, 0.0, 0.0, 0.0, 0.0, 0.0, 0.0, 1.668976528495803E9, 0.0, 2022-11-20 15:35:28.495
12.0, -13357.916576613972, -462.7481654582221, -40499.30459252651, -40545.70681401573, -30375.97601127339, -32996.91921435824, -29130.492106734768, -12068.265625031665, -29581.639716820686, -7668.212970282194, -33871.40886442767, -37970.31646613079, -28711.083973775385, -16530.12085320006, -28134.408966828465, -39534.513894857635, 0.088, 0.9560000000000001, -0.112, 192.0, 0.0, 0.0, 0.0, 0.0, 0.0, 0.0, 0.0, 0.0, 0.0, 1.6689765284958088E9, 0.0, 2022-11-20 15:35:28.495
14.0, -13381.296501314224, -537.782971594688, -40489.11219705489, -40519.01883113609, -30348.349255126628, -32965.60442037635, -29104.944062822353, -12039.767150851148, -29668.543299262918, -7759.273977193115, -33957.17250790269, -38062.74092945349, -28792.22080614815, -16625.38398806858, -28223.413613249497, -39619.942262165816, 0.088, 0.9560000000000001, -0.112, 192.0, 0.0, 0.0, 0.0, 0.0, 0.0, 0.0, 0.0, 0.0, 0.0, 1.668976528495814E9, 0.0, 2022-11-20 15:35:28.495
16.0, -13351.747495144307, -458.50133401171377, -40512.894453155335, -40564.88461075838, -30378.926441541487, -33011.850179654386, -29131.43088000189, -12073.071250089557, -29583.070228465825, -7674.762031407599, -33871.87825106124, -37978.18428017906, -28710.01109004153, -16548.27046969777, -28152.08919669261, -39550.16011597635, 0.088, 0.9560000000000001, -0.112, 192.0, 0.0, 0.0, 0.0, 0.0, 0.0, 0.0, 0.0, 0.0, 0.0, 1.668976528495819E9, 0.0, 2022-11-20 15:35:28.495
18.0, -13391.801821208219, -547.975367066308, -40508.24529030863, -40542.890494214356, -30373.29380193875, -33013.95124363318, -29126.893475877463, -12067.259796531176, -29675.785264466438, -7769.399317431369, -33968.750711530534, -38076.57665927132, -28811.13038195734, -16652.027267459307, -28251.487404285363, -39652.39699511493, 0.084, 0.9540000000000001, -0.116, 192.0, 1.0, 80.0, 14.5, 104.0, 126.0, 48.0, 0.0, 0.0, 0.0, 1.6689765284958253E9, 0.0, 2022-11-20 15:35:28.495
20.0, -13336.30243972569, -448.4430490068256, -40490.2074325332, -40552.85937224142, -30371.05862749322, -33023.987176893614, -29123.51836246471, -12068.757363409683, -29573.90601323915, -7673.979720351663, -33860.188288711106, -37973.49041384344, -28704.02082252751, -16550.527995887758, -28155.37490312754, -39559.14551724739, 0.084, 0.9540000000000001, -0.116, 192.0, 0.0, 0.0, 0.0, 0.0, 0.0, 0.0, 0.0, 0.0, 0.0, 1.6689765284958308E9, 0.0, 2022-11-20 15:35:28.495
22.0, -13409.504402816821, -562.6604631734447, -40515.688421212246, -40567.008026481635, -30401.546406930258, -33053.26796213007, -29155.77192971372, -12095.959436411791, -29672.857185942794, -7768.460544164246, -33962.045188193944, -38075.61553425974, -28813.276149425048, -16657.123465195116, -28257.16474737701, -39661.80707953061, 0.084, 0.9540000000000001, -0.116, 192.0, 0.0, 0.0, 0.0, 0.0, 0.0, 0.0, 0.0, 0.0, 0.0, 1.668976528495836E9, 0.0, 2022-11-20 15:35:28.495
24.0, -13319.628038362032, -439.0329645911413, -40463.318283953464, -40532.40752606482, -30357.088787208653, -33007.849217396884, -29111.291958247657, -12052.038258557113, -29586.110065711746, -7692.375206038381, -33862.60227711228, -37985.5156523604, -28721.05285180245, -16562.575586149167, -28170.216461445867, -39571.30486623107, 0.084, 0.9540000000000001, -0.116, 192.0, 0.0, 0.0, 0.0, 0.0, 0.0, 0.0, 0.0, 0.0, 0.0, 1.6689765284958637E9, 0.0, 2022-11-20 15:35:28.495
26.0, -13406.643379526542, -558.1454107934727, -40517.07422936848, -40571.09839571696, -30406.262625010328, -33044.95311319269, -29158.364732070535, -12096.093546878523, -29652.83002291084, -7754.602462601956, -33943.69440599613, -38060.03636837439, -28797.808742261976, -16640.516119064825, -28245.608895493617, -39643.41159384389, 0.084, 0.9540000000000001, -0.116, 192.0, 0.0, 0.0, 0.0, 0.0, 0.0, 0.0, 0.0, 0.0, 0.0, 1.6689765284958692E9, 0.0, 2022-11-20 15:35:28.495
28.0, -13328.121701255048, -454.58977873203503, -40450.175458213744, -40519.84584568094, -30348.706883037914, -32990.168987532736, -29101.479542431778, -12044.90805207587, -29589.619289591228, -7699.6171712419, -33865.1950794691, -37990.12011171819, -28716.98483431159, -16562.530882660256, -28174.686810336927, -39570.00846505266, 0.08600000000000001, 0.9520000000000001, -0.114, 192.0, 1.0, 88.0, 14.5, 96.0, 126.0, 56.0, 0.0, 0.0, 0.0, 1.6689765284958744E9, 0.0, 2022-11-20 15:35:28.495
30.0, -13423.250725656835, -574.5739429681233, -40509.63109846486, -40575.65815158584, -30411.135305301585, -33057.85006974341, -29167.461892063846, -12112.052692419613, -29654.081720600334, -7754.267186435126, -33945.90722869721, -38061.51158350844, -28793.83013174893, -16637.409226585536, -28230.856744153112, -39638.65067227491, 0.08600000000000001, 0.9520000000000001, -0.114, 192.0, 0.0, 0.0, 0.0, 0.0, 0.0, 0.0, 0.0, 0.0, 0.0, 1.66897652849588E9, 0.0, 2022-11-20 15:35:28.495
32.0, -13327.115872754559, -463.6422352364344, -40423.77804801203, -40496.84590063643, -30325.215199615384, -32980.021295550025, -29088.336716692058, -12035.855595571471, -29598.627042606717, -7710.502470791635, -33874.91808830715, -38000.80424556783, -28720.091726790874, -16565.07898152816, -28162.125129953045, -39581.765482636154, 0.08600000000000001, 0.9520000000000001, -0.114, 192.0, 0.0, 0.0, 0.0, 0.0, 0.0, 0.0, 0.0, 0.0, 0.0, 1.6689765284958851E9, 0.0, 2022-11-20 15:35:28.495
34.0, -13410.912562717505, -555.9325880923973, -40509.72050544268, -40564.99636948066, -30402.127552286096, -33048.887020216825, -29159.929354182408, -12106.241238861232, -29638.63666518172, -7734.53059608109, -33930.931559912155, -38044.65836818914, -28775.30053559548, -16607.793165182255, -28195.004546046803, -39620.568111010565, 0.08600000000000001, 0.9520000000000001, -0.114, 192.0, 0.0, 0.0, 0.0, 0.0, 0.0, 0.0, 0.0, 0.0, 0.0, 1.6689765284958906E9, 0.0, 2022-11-20 15:35:28.495
36.0, -13330.468634422856, -470.54892427312427, -40438.66430981926, -40484.88771735284, -30321.19188561343, -32966.92317329922, -29082.637021855953, -12027.630153611917, -29604.259682209457, -7705.629790500378, -33881.60125989929, -37998.814940311306, -28722.997453570064, -16554.819530823177, -28153.631467060026, -39577.47394770074, 0.08600000000000001, 0.9520000000000001, -0.114, 192.0, 0.0, 0.0, 0.0, 0.0, 0.0, 0.0, 0.0, 0.0, 0.0, 1.6689765284958975E9, 0.0, 2022-11-20 15:35:28.495
38.0, -13424.256554157324, -562.7945736401765, -40538.80012497904, -40584.24122145668, -30415.20332279245, -33052.44094758522, -29173.87684272252, -12118.467643078286, -29648.49378448651, -7735.514072837123, -33940.363996072294, -38046.066528089825, -28787.50458806808, -16605.58034248118, -28202.96176707289, -39617.72943946475, 0.08600000000000001, 0.9500000000000001, -0.11, 192.0, 1.0, 88.0, 14.5, 88.0, 126.0, 72.0, 0.0, 0.0, 0.0, 1.668976528495903E9, 0.0, 2022-11-20 15:35:28.495
40.0, -13334.201375746892, -481.7024447563225, -40440.899484264795, -40490.185080788746, -30310.70891746389, -32949.73468181308, -29074.880966529963, -12016.588391850995, -29624.353900474776, -7725.656953532333, -33899.72852465254, -38016.45046668655, -28744.45512824716, -16565.794237350732, -28181.124112740054, -39589.521537962144, 0.08600000000000001, 0.9500000000000001, -0.11, 192.0, 0.0, 0.0, 0.0, 0.0, 0.0, 0.0, 0.0, 0.0, 0.0, 1.6689765284959085E9, 0.0, 2022-11-20 15:35:28.495
42.0, -13416.567554064699, -546.6566141434448, -40540.81178198002, -40606.07887578951, -30410.06242156773, -33055.77135750906, -29171.86518572154, -12118.311180867098, -29623.348071974287, -7711.374188825392, -33917.364051027784, -38025.36881272421, -28756.97210514213, -16583.742688148344, -28191.271804722765, -39601.52442473465, 0.08600000000000001, 0.9500000000000001, -0.11, 192.0, 0.0, 0.0, 0.0, 0.0, 0.0, 0.0, 0.0, 0.0, 0.0, 1.6689765284959135E9, 0.0, 2022-11-20 15:35:28.495
44.0, -13347.858291609085, -506.1105497015178, -40463.76531884257, -40526.372555061884, -30327.495077549826, -32981.921193828726, -29094.95283305083, -12041.018848540647, -29641.877668127738, -7751.696735822766, -33921.923806896666, -38043.563132710835, -28764.325829067926, -16605.736804692366, -28214.763488145294, -39629.19588437032, 0.08600000000000001, 0.9500000000000001, -0.11, 192.0, 0.0, 0.0, 0.0, 0.0, 0.0, 0.0, 0.0, 0.0, 0.0, 1.66897652849592E9, 0.0, 2022-11-20 15:35:28.495
46.0, -13407.760966749307, -539.4370006843807, -40546.04209018256, -40615.71247764975, -30420.701851928457, -33072.31164840599, -29179.889461980994, -12128.347114127531, -29621.470525440043, -7730.663744290322, -33919.64392896222, -38034.95771109554, -28766.44924479118, -16613.090528618162, -28210.851932865615, -39624.52436977916, 0.08600000000000001, 0.9500000000000001, -0.11, 192.0, 0.0, 0.0, 0.0, 0.0, 0.0, 0.0, 0.0, 0.0, 0.0, 1.6689765284959269E9, 0.0, 2022-11-20 15:35:28.495
48.0, -13345.041971807716, -508.97157299179713, -40445.794516300506, -40499.97514486017, -30320.25311234631, -32971.88526056829, -29082.592318367046, -12026.579621622519, -29631.081775555824, -7745.527654353101, -33911.61965270277, -38034.28715876188, -28761.710674966656, -16609.424842527493, -28213.35532824461, -39620.501055777204, 0.084, 0.9560000000000001, -0.11, 192.0, 1.0, 80.0, 14.5, 112.0, 126.0, 72.0, 0.0, 0.0, 0.0, 1.6689765284959338E9, 0.0, 2022-11-20 15:35:28.495
50.0, -13392.807649708708, -518.6051748520345, -40524.271491083084, -40591.90786980485, -30408.341337244674, -33062.99097096812, -29165.830214718608, -12115.1595848989, -29604.997289776482, -7704.288685833059, -33896.93455659563, -38008.58265263828, -28747.897296893276, -16589.80001089573, -28183.13576974103, -39590.75088390719, 0.084, 0.9560000000000001, -0.11, 192.0, 0.0, 0.0, 0.0, 0.0, 0.0, 0.0, 0.0, 0.0, 0.0, 1.6689765284959412E9, 0.0, 2022-11-20 15:35:28.495
52.0, -13360.867006882074, -525.489512144269, -40458.26678970656, -40502.18796756124, -30338.201563143917, -32986.27978399751, -29099.445533686347, -12044.885700331415, -29648.382025764233, -7752.143770711872, -33929.188123844644, -38043.11609782173, -28781.536672298513, -16621.450081044448, -28220.77610740377, -39626.6030820135, 0.084, 0.9560000000000001, -0.11, 192.0, 0.0, 0.0, 0.0, 0.0, 0.0, 0.0, 0.0, 0.0, 0.0, 1.6689765284959483E9, 0.0, 2022-11-20 15:35:28.495
54.0, -13373.69690819942, -495.3370088740598, -40513.54265374454, -40565.532811347584, -30398.417162706515, -33041.555648035486, -29156.24131634728, -12102.910828937393, -29591.921519270127, -7677.2207232976825, -33882.18240525513, -37985.89563201614, -28741.59410495688, -16566.464789684393, -28172.76456031377, -39572.06482554255, 0.084, 0.9560000000000001, -0.11, 192.0, 0.0, 0.0, 0.0, 0.0, 0.0, 0.0, 0.0, 0.0, 0.0, 1.6689765284959557E9, 0.0, 2022-11-20 15:35:28.495
56.0, -13376.803800678706, -546.5001519322577, -40456.9480367837, -40494.90129886881, -30344.52710682477, -32979.52955717201, -29104.38526921097, -12044.393961953398, -29662.284810815432, -7752.00966024514, -33941.48158329506, -38052.25796130395, -28799.194550418208, -16623.86406944562, -28234.34361628814, -39632.48159080525, 0.084, 0.9560000000000001, -0.11, 192.0, 0.0, 0.0, 0.0, 0.0, 0.0, 0.0, 0.0, 0.0, 0.0, 1.6689765284959624E9, 0.0, 2022-11-20 15:35:28.495
58.0, -13383.97871064886, -510.2456224257496, -40511.93332814376, -40570.74076780567, -30406.575549432702, -33041.22037186866, -29162.611563517043, -12105.771852227672, -29587.451170379067, -7673.42092674028, -33871.31945744985, -37980.17358543558, -28725.724366393613, -16550.617402865577, -28155.061978705166, -39555.65864511236, 0.08, 0.9520000000000001, -0.114, 192.0, 1.0, 64.0, 14.5, 96.0, 126.0, 56.0, 0.0, 0.0, 0.0, 1.668976528495969E9, 0.0, 2022-11-20 15:35:28.495
60.0, -13395.646321254531, -577.1667453249389, -40482.38432197384, -40516.44838052373, -30362.743778555847, -32991.62185092233, -29123.697176420355, -12061.537749950618, -29685.26240411549, -7781.312797226048, -33973.355170888324, -38084.10919715276, -28822.686233840734, -16652.04961920376, -28256.337732832162, -39656.26384690569, 0.08, 0.9520000000000001, -0.114, 192.0, 0.0, 0.0, 0.0, 0.0, 0.0, 0.0, 0.0, 0.0, 0.0, 1.6689765284959764E9, 0.0, 2022-11-20 15:35:28.495
62.0, -13375.596806478121, -507.8986892579424, -40510.30165079852, -40558.29084614407, -30391.06343878072, -33025.06006062747, -29146.875935420507, -12090.3044450646, -29589.060495979847, -7680.774650666077, -33880.17074825415, -37986.25325992743, -28725.63495941579, -16551.13149298805, -28154.61494381606, -39556.57506663502, 0.08, 0.9520000000000001, -0.114, 192.0, 0.0, 0.0, 0.0, 0.0, 0.0, 0.0, 0.0, 0.0, 0.0, 1.6689765284959953E9, 0.0, 2022-11-20 15:35:28.495
64.0, -13412.074853429182, -596.098672878584, -40497.49410122563, -40523.77975270507, -30359.122795954085, -32997.41095273625, -29122.624292686498, -12065.829284886036, -29693.823122241873, -7782.273922237626, -33984.262822182514, -38085.62911577572, -28821.546294873515, -16645.589965056177, -28244.82658443768, -39647.43490784585, 0.08, 0.9520000000000001, -0.114, 192.0, 0.0, 0.0, 0.0, 0.0, 0.0, 0.0, 0.0, 0.0, 0.0, 1.6689765284960036E9, 0.0, 2022-11-20 15:35:28.496
66.0, -13360.97876560435, -501.43903511035865, -40495.66125818029, -40555.42982285379, -30377.25006070734, -33015.6946797007, -29129.598036956555, -12079.776773426149, -29585.61832733373, -7681.579313466467, -33872.45939641707, -37981.89466975864, -28713.185037754185, -16549.74568483182, -28139.75103375328, -39551.32240668803, 0.08, 0.9520000000000001, -0.114, 192.0, 0.0, 0.0, 0.0, 0.0, 0.0, 0.0, 0.0, 0.0, 0.0, 1.6689765284960103E9, 0.0, 2022-11-20 15:35:28.496
68.0, -13406.196344637436, -593.3717600550366, -40487.81579587648, -40535.35795633292, -30363.615496589602, -33001.65778418276, -29118.600978684542, -12062.700040662294, -29680.54618603542, -7781.648073392877, -33967.87899349678, -38082.87985120772, -28814.952530259197, -16656.13998843908, -28235.97529363338, -39649.04423344663, 0.08, 0.956, -0.113, 192.0, 1.0, 64.0, 15.0, 0.0, 126.0, 64.0, 0.0, 0.0, 0.0, 1.6689765284960206E9, 0.0, 2022-11-20 15:35:28.496
70.0, -13347.321849742157, -491.7607297612107, -40465.68756886573, -40537.369613333896, -30350.360912127606, -32989.69960089918, -29101.121914520492, -12046.539729421107, -29579.359838886245, -7684.038005356551, -33862.73638757901, -37980.218288924494, -28706.25599697304, -16548.292821442225, -28135.593609284595, -39543.40988915085, 0.08, 0.956, -0.113, 192.0, 0.0, 0.0, 0.0, 0.0, 0.0, 0.0, 0.0, 0.0, 0.0, 1.6689765284960277E9, 0.0, 2022-11-20 15:35:28.496
72.0, -13414.89117323055, -601.3289810811259, -40493.96252560169, -40548.411375094816, -30371.8185868047, -33008.38565926381, -29121.66316767492, -12065.024622085646, -29664.92231666116, -7765.532465640601, -33960.927600971176, -38072.73215922501, -28803.396678375804, -16639.510290564336, -28219.59146494764, -39626.53602678014, 0.08, 0.956, -0.113, 192.0, 0.0, 0.0, 0.0, 0.0, 0.0, 0.0, 0.0, 0.0, 0.0, 1.668976528496034E9, 0.0, 2022-11-20 15:35:28.496
74.0, -13343.320887484657, -489.45850008231406, -40458.33384493993, -40524.74087771665, -30343.18600215745, -32980.04364729448, -29092.27062371619, -12039.342467706498, -29585.551272100365, -7692.28579906056, -33871.69943710559, -37983.54869884833, -28714.906122077242, -16551.623231366066, -28136.264161618255, -39547.6343688529, 0.08, 0.956, -0.113, 192.0, 0.0, 0.0, 0.0, 0.0, 0.0, 0.0, 0.0, 0.0, 0.0, 1.6689765284960392E9, 0.0, 2022-11-20 15:35:28.496
76.0, -13426.447025113945, -604.9499636828856, -40512.84974966643, -40563.25293341314, -30395.891415583064, -33038.0017206671, -29149.82636568861, -12095.847677689515, -29667.336305062334, -7764.951320284763, -33959.38533060376, -38063.52324050942, -28807.487047611125, -16645.612316800634, -28219.34559575863, -39632.83921871653, 0.08, 0.956, -0.113, 192.0, 0.0, 0.0, 0.0, 0.0, 0.0, 0.0, 0.0, 0.0, 0.0, 1.6689765284960446E9, 0.0, 2022-11-20 15:35:28.496
78.0, -13335.4977769253, -491.93954371685317, -40440.273635420046, -40498.34346751493, -30331.89837120752, -32979.9318885722, -29085.967431779794, -12036.973182794236, -29595.341336171787, -7698.566639252501, -33866.0444457584, -37980.88884125815, -28723.53389543699, -16567.247100740326, -28146.255391389775, -39561.62656088192, 0.079, 0.956, -0.1105, 192.0, 1.0, 56.0, 14.5, 112.0, 126.0, 80.0, 0.0, 0.0, 0.0, 1.66897652849605E9, 0.0, 2022-11-20 15:35:28.496
80.0, -13427.94459199245, -607.2074898728716, -40510.43576126525, -40558.35790137743, -30400.361764474128, -33046.49538356011, -29156.107205880548, -12105.324817338565, -29660.295505558912, -7756.77058181412, -33949.14823164323, -38052.70499619305, -28804.60367257639, -16641.09726442066, -28208.706165397904, -39627.161875624886, 0.079, 0.956, -0.1105, 192.0, 0.0, 0.0, 0.0, 0.0, 0.0, 0.0, 0.0, 0.0, 0.0, 1.6689765284960554E9, 0.0, 2022-11-20 15:35:28.496
82.0, -13339.141111271514, -501.6625525549117, -40434.48453360612, -40490.63211567785, -30330.423156073473, -32972.131129757305, -29086.07919050207, -12033.396903681387, -29596.72714432802, -7702.589953254456, -33872.12412025024, -37980.41945462459, -28724.696186148667, -16563.80493209421, -28141.963856454357, -39562.49827891568, 0.079, 0.956, -0.1105, 192.0, 0.0, 0.0, 0.0, 0.0, 0.0, 0.0, 0.0, 0.0, 0.0, 1.668976528496062E9, 0.0, 2022-11-20 15:35:28.496
84.0, -13443.859034044628, -614.9858969433185, -40542.48816281416, -40591.550241893565, -30430.73778518889, -33070.836433271936, -29184.516273083245, -12131.252840906722, -29664.475281772055, -7753.708392823743, -33956.25608638002, -38051.98974037048, -28808.872855767353, -16641.454892331945, -28211.187209032443, -39634.67206176186, 0.079, 0.956, -0.1105, 192.0, 0.0, 0.0, 0.0, 0.0, 0.0, 0.0, 0.0, 0.0, 0.0, 1.6689765284960673E9, 0.0, 2022-11-20 15:35:28.496
86.0, -13336.771826359252, -504.5012241007357, -40443.827562788436, -40490.47565346666, -30334.066490419686, -32967.012580277034, -29088.42612366988, -12032.569889136541, -29622.722223129538, -7716.626848772389, -33895.45934146158, -37997.831463555274, -28752.79232892899, -16583.519170703792, -28174.843272548114, -39591.93552636332, 0.079, 0.956, -0.1105, 192.0, 0.0, 0.0, 0.0, 0.0, 0.0, 0.0, 0.0, 0.0, 0.0, 1.6689765284960728E9, 0.0, 2022-11-20 15:35:28.496
88.0, -13428.302219903735, -595.3834170560142, -40534.46388655471, -40573.020645740115, -30423.853447896654, -33049.75873825058, -29172.759255499754, -12117.774739000171, -29644.40341525119, -7724.517014565113, -33933.300844824415, -38019.26678648791, -28798.16637017326, -16613.224639084892, -28201.643014150028, -39612.677945217845, 0.0795, 0.956, -0.11025, 192.0, 1.0, 64.0, 14.5, 112.0, 126.0, 72.0, 0.0, 0.0, 0.0, 1.668976528496078E9, 0.0, 2022-11-20 15:35:28.496
90.0, -13347.679477653443, -525.3777534219925, -40443.91696976626, -40475.79055735953, -30327.875057205565, -32951.299303924956, -29077.89845203143, -12021.349313419976, -29624.82328710834, -7715.6210202719, -33895.280527505936, -37992.39998965264, -28757.977933642618, -16573.416182209992, -28172.541042869216, -39580.02204656864, 0.0795, 0.956, -0.11025, 192.0, 0.0, 0.0, 0.0, 0.0, 0.0, 0.0, 0.0, 0.0, 0.0, 1.6689765284960833E9, 0.0, 2022-11-20 15:35:28.496
92.0, -13423.876574501584, -584.6098762285562, -40542.15288664733, -40581.693122588775, -30423.674633941013, -33046.2495143711, -29171.06052292115, -12113.416148831386, -29652.494746744007, -7728.629735544889, -33938.30763558241, -38026.39699296916, -28801.183855674728, -16610.922409405997, -28205.39810721852, -39609.816921927566, 0.0795, 0.956, -0.11025, 192.0, 0.0, 0.0, 0.0, 0.0, 0.0, 0.0, 0.0, 0.0, 0.0, 1.6689765284960885E9, 0.0, 2022-11-20 15:35:28.496
94.0, -13348.819416620663, -537.0453640276628, -40451.29304543651, -40490.27448776657, -30330.199638628917, -32959.43533890669, -29083.307574189614, -12024.791482066094, -29637.742595403506, -7733.323601880504, -33906.45639973359, -38011.04134452836, -28770.316096581948, -16591.454039985423, -28192.925833812456, -39598.81986365555, 0.0795, 0.956, -0.11025, 192.0, 0.0, 0.0, 0.0, 0.0, 0.0, 0.0, 0.0, 0.0, 0.0, 1.6689765284960935E9, 0.0, 2022-11-20 15:35:28.496
96.0, -13402.754175991318, -566.0579283306514, -40530.52997953058, -40582.386026666885, -30424.21107580794, -33050.8986772178, -29167.193671130382, -12113.68436976485, -29613.245083480488, -7706.993246912151, -33901.44960897561, -38001.45244615703, -28771.746608227088, -16595.879685387576, -28184.18630173043, -39592.58372695252, 0.0795, 0.956, -0.11025, 192.0, 0.0, 0.0, 0.0, 0.0, 0.0, 0.0, 0.0, 0.0, 0.0, 1.6689765284960988E9, 0.0, 2022-11-20 15:35:28.496
98.0, -13363.88449238354, -564.2697887742268, -40445.3474814114, -40495.43774073574, -30344.080071935663, -32984.715161885644, -29095.645737128943, -12043.164616008356, -29648.67259844215, -7756.323546925015, -33918.86161790629, -38029.5262371929, -28790.231500891627, -16625.473395046403, -28213.91412185599, -39624.636128501435, 0.07975, 0.952, -0.108125, 192.0, 1.0, 64.0, 14.5, 80.0, 126.0, 88.0, 0.0, 0.0, 0.0, 1.6689765284961042E9, 0.0, 2022-11-20 15:35:28.496
100.0, -13403.961170191906, -560.1123643055397, -40509.608746720405, -40572.327741662, -30415.091564070175, -33063.72857853515, -29164.086778651093, -12116.277172121665, -29608.66297586715, -7709.407235313325, -33886.94332682411, -37988.80135879533, -28756.949753397676, -16598.539542977756, -28168.674191078448, -39587.66634317236, 0.07975, 0.952, -0.108125, 192.0, 0.0, 0.0, 0.0, 0.0, 0.0, 0.0, 0.0, 0.0, 0.0, 1.668976528496112E9, 0.0, 2022-11-20 15:35:28.496
102.0, -13374.12159134407, -570.8859051329977, -40439.6477865753, -40467.9003915668, -30335.273484620273, -32972.64521987978, -29086.548577135633, -12033.039275770101, -29661.05546487039, -7758.446962648269, -33926.93059765465, -38028.386298225676, -28795.953547472185, -16631.35190383815, -28206.38158397455, -39620.858683688486, 0.07975, 0.952, -0.108125, 192.0, 0.0, 0.0, 0.0, 0.0, 0.0, 0.0, 0.0, 0.0, 0.0, 1.6689765284961174E9, 0.0, 2022-11-20 15:35:28.496
104.0, -13391.824172952674, -547.7071461328443, -40501.87504313887, -40534.30742434352, -30405.9273488435, -33025.68590947222, -29144.30548480815, -12090.77383169816, -29595.542501871885, -7682.875714644875, -33874.82868132933, -37967.36603586269, -28744.79040441399, -16560.072190770174, -28143.08144367712, -39546.56148511905, 0.07975, 0.952, -0.108125, 192.0, 0.0, 0.0, 0.0, 0.0, 0.0, 0.0, 0.0, 0.0, 0.0, 1.6689765284961228E9, 0.0, 2022-11-20 15:35:28.496
106.0, -13382.816419937184, -594.5787542556232, -40455.13754548282, -40472.77307185806, -30348.550420826727, -32961.33523718539, -29091.37655393798, -12031.608764124961, -29669.72794171905, -7761.956186527752, -33941.280417594964, -38040.74681290946, -28812.89616976931, -16624.042883401264, -28211.746002643828, -39612.61088998448, 0.07975, 0.952, -0.108125, 192.0, 0.0, 0.0, 0.0, 0.0, 0.0, 0.0, 0.0, 0.0, 0.0, 1.668976528496128E9, 0.0, 2022-11-20 15:35:28.496
108.0, -13370.92529188696, -538.3417652060706, -40497.85172913691, -40549.57366580649, -30397.076058039198, -33014.8900169003, -29140.729205695297, -12086.48229676274, -29586.221824434022, -7675.276121530071, -33866.200907969585, -37961.53223055985, -28737.861363632845, -16548.85161505361, -28138.029949430223, -39540.70532807175, 0.079875, 0.954, -0.1090625, 192.0, 1.0, 64.0, 14.5, 112.0, 126.0, 72.0, 0.0, 0.0, 0.0, 1.6689765284961333E9, 0.0, 2022-11-20 15:35:28.496
110.0, -13377.809629179195, -601.8207194591427, -40462.60302813089, -40507.9100141418, -30353.66897030699, -32977.3837897043, -29106.173408767394, -12051.233595756721, -29660.943706148115, -7763.9231400398185, -33936.318330325885, -38045.41832750062, -28813.678480825245, -16632.894174205565, -28219.993796347833, -39633.06273616108, 0.079875, 0.954, -0.1090625, 192.0, 0.0, 0.0, 0.0, 0.0, 0.0, 0.0, 0.0, 0.0, 0.0, 1.6689765284961388E9, 0.0, 2022-11-20 15:35:28.496
112.0, -13348.953527087395, -526.7859133226768, -40481.66906615127, -40552.255875141134, -30380.736932842367, -33010.71024068716, -29132.90609513594, -12082.749555438704, -29560.584373543785, -7668.257673771104, -33836.070756443834, -37951.04926241031, -28721.991625069575, -16545.297687685215, -28128.66456850345, -39545.95798801875, 0.079875, 0.954, -0.1090625, 192.0, 0.0, 0.0, 0.0, 0.0, 0.0, 0.0, 0.0, 0.0, 0.0, 1.668976528496144E9, 0.0, 2022-11-20 15:35:28.496
114.0, -13390.438364796444, -621.4008476019917, -40448.81200180197, -40517.431857279764, -30354.607743574114, -32989.610193921355, -29109.168542524403, -12059.682555160827, -29661.122520103756, -7766.694756352277, -33932.742051213034, -38048.6816821911, -28811.26449242407, -16647.065180190228, -28215.657557923503, -39637.37662284096, 0.079875, 0.954, -0.1090625, 192.0, 0.0, 0.0, 0.0, 0.0, 0.0, 0.0, 0.0, 0.0, 0.0, 1.6689765284961493E9, 0.0, 2022-11-20 15:35:28.496
116.0, -13361.761076660285, -541.6945268743667, -40459.00439727359, -40548.29961637254, -30369.58341235917, -33012.252511054576, -29119.38328974048, -12073.652395445395, -29572.18492891609, -7681.467554744191, -33845.52554434843, -37957.46421306899, -28711.173380753207, -16554.08192325615, -28113.13010610701, -39542.560522861546, 0.079875, 0.954, -0.1090625, 192.0, 0.0, 0.0, 0.0, 0.0, 0.0, 0.0, 0.0, 0.0, 0.0, 1.6689765284961555E9, 0.0, 2022-11-20 15:35:28.496
118.0, -13415.807594753218, -641.2268449338491, -40474.315342225476, -40532.98867142066, -30371.34920017114, -33009.90557788677, -29118.980958340286, -12067.259796531176, -29676.63463075574, -7783.3468059714805, -33959.98882770405, -38064.037330631894, -28821.635701851334, -16658.889253007084, -28219.703223669916, -39642.6069310435, 0.0809375, 0.9550000000000001, -0.10853125, 192.0, 1.0, 72.0, 14.5, 112.0, 126.0, 80.0, 0.0, 0.0, 0.0, 1.668976528496161E9, 0.0, 2022-11-20 15:35:28.496
120.0, -13357.178969046947, -545.8966548319644, -40466.64869387731, -40538.08486915647, -30365.62715359058, -33007.4915894856, -29113.28126350418, -12067.304500020087, -29584.81366453334, -7697.024368885085, -33860.07652998883, -37971.99284696494, -28727.981892583597, -16566.397734451024, -28135.750071495782, -39553.28936020009, 0.0809375, 0.9550000000000001, -0.10853125, 192.0, 0.0, 0.0, 0.0, 0.0, 0.0, 0.0, 0.0, 0.0, 0.0, 1.6689765289752233E9, 0.0, 2022-11-20 15:35:28.975
122.0, -13416.925181975983, -642.6126530900781, -40496.77884540306, -40543.2704738701, -30391.845749836655, -33023.2942728155, -29138.270513805215, -12086.996386885214, -29668.744464963016, -7771.790954088087, -33947.762423487, -38052.95086538206, -28826.776603076054, -16655.91647099453, -28221.06668008169, -39638.89654146392, 0.0809375, 0.9550000000000001, -0.10853125, 192.0, 0.0, 0.0, 0.0, 0.0, 0.0, 0.0, 0.0, 0.0, 0.0, 1.668976528975282E9, 0.0, 2022-11-20 15:35:28.975
124.0, -13341.73391362833, -533.4690849148137, -40458.11032749538, -40511.50864499911, -30355.09948195213, -32991.10776079986, -29100.652527886934, -12052.775866124139, -29583.919594755127, -7695.660912473311, -33855.20384969757, -37962.09102417124, -28737.10140432136, -16564.22961523886, -28136.420623829443, -39555.703348601266, 0.0809375, 0.9550000000000001, -0.10853125, 192.0, 0.0, 0.0, 0.0, 0.0, 0.0, 0.0, 0.0, 0.0, 0.0, 1.6689765289753532E9, 0.0, 2022-11-20 15:35:28.975
126.0, -13422.155490178526, -646.7253740698545, -40510.234595565154, -40538.911883701316, -30408.766020389325, -33044.01433992557, -29151.212173844837, -12102.039110903635, -29658.306200302388, -7762.358517927947, -33945.616656019294, -38041.953807110054, -28827.73772808763, -16652.787226770786, -28212.662424166494, -39632.61570127198, 0.0809375, 0.9550000000000001, -0.10853125, 192.0, 0.0, 0.0, 0.0, 0.0, 0.0, 0.0, 0.0, 0.0, 0.0, 1.6689765289753866E9, 0.0, 2022-11-20 15:35:28.975
128.0, -13330.53568965622, -526.3612301780261, -40435.17743768424, -40471.14139451282, -30343.43187134646, -32981.831786850904, -29086.839149813553, -12042.069380530045, -29581.46090286504, -7688.3742437808805, -33853.08043397432, -37947.83061120875, -28733.323959508416, -16561.502702415313, -28127.70344349187, -39549.04252875358, 0.08146875, 0.9555, -0.105265625, 192.0, 1.0, 72.0, 14.5, 112.0, 126.0, 104.0, 0.0, 0.0, 0.0, 1.6689765289754124E9, 0.0, 2022-11-20 15:35:28.975
130.0, -13422.55782157872, -636.7341442983322, -40498.25406053711, -40531.40169756433, -30404.340374987172, -33042.20384862469, -29151.72626396731, -12107.023549917169, -29654.43934851162, -7746.175854942305, -33937.994711160034, -38022.06075454483, -28816.42774539325, -16638.973848697406, -28195.786857102736, -39619.942262165816, 0.08146875, 0.9555, -0.105265625, 192.0, 0.0, 0.0, 0.0, 0.0, 0.0, 0.0, 0.0, 0.0, 0.0, 1.6689765289754484E9, 0.0, 2022-11-20 15:35:28.975
132.0, -13328.702846610886, -528.5740528791014, -40421.7887427555, -40459.47378390715, -30334.82644973117, -32960.3294086849, -29080.915937532896, -12031.631115869417, -29582.623193576717, -7688.240133314149, -33852.34282640729, -37948.16588737558, -28729.50181120656, -16552.673763355466, -28132.732585994316, -39548.66254909785, 0.08146875, 0.9555, -0.105265625, 192.0, 0.0, 0.0, 0.0, 0.0, 0.0, 0.0, 0.0, 0.0, 0.0, 1.6689765289754617E9, 0.0, 2022-11-20 15:35:28.975
134.0, -13429.285696659768, -638.097600710106, -40525.25496783912, -40560.50366884514, -30424.948683374965, -33045.310741103975, -29172.893365966484, -12119.205250645311, -29642.682330928128, -7734.083561191984, -33929.56810350038, -38015.84696958625, -28807.66586156677, -16619.95251416594, -28203.140581028532, -39610.33101205004, 0.08146875, 0.9555, -0.105265625, 192.0, 0.0, 0.0, 0.0, 0.0, 0.0, 0.0, 0.0, 0.0, 0.0, 1.6689765289754672E9, 0.0, 2022-11-20 15:35:28.975
136.0, -13352.663916666976, -561.3417102505816, -40452.12005998135, -40496.82354889197, -30339.52031606678, -32961.13407148529, -29092.29297546065, -12038.917784561847, -29621.24700799549, -7719.6219825294, -33892.486559449026, -37989.60602159572, -28764.705808723666, -16583.653281170522, -28174.373885914552, -39584.000657081684, 0.08146875, 0.9555, -0.105265625, 192.0, 0.0, 0.0, 0.0, 0.0, 0.0, 0.0, 0.0, 0.0, 0.0, 1.6689765289754725E9, 0.0, 2022-11-20 15:35:28.975
138.0, -13416.902830231527, -622.6748970359441, -40524.24913933863, -40578.13919522038, -30406.441438965972, -33037.130002633334, -29157.984752414795, -12111.672712763871, -29647.465604241563, -7735.424665859302, -33939.29111233844, -38027.134600536185, -28811.108030212883, -16628.557935781235, -28202.022993805767, -39619.40582029889, 0.08146875, 0.9555, -0.105265625, 192.0, 0.0, 0.0, 0.0, 0.0, 0.0, 0.0, 0.0, 0.0, 0.0, 1.6689765289754777E9, 0.0, 2022-11-20 15:35:28.975
140.0, -13338.202338004392, -557.4525067153581, -40428.38250736982, -40484.798310375016, -30321.214237357886, -32957.155460972244, -29069.360085649503, -12022.802176809571, -29607.590092133298, -7714.794005727054, -33882.40592269968, -37986.87910877218, -28757.977933642618, -16585.016737582297, -28159.398217129496, -39580.513784946656, 0.084, 0.9520000000000001, -0.108, 192.0, 1.0, 80.0, 14.5, 96.0, 126.0, 80.0, 0.0, 0.0, 0.0, 1.6689765289754832E9, 0.0, 2022-11-20 15:35:28.975
142.0, -13415.338208119656, -619.7691702567543, -40517.07422936848, -40578.675637087304, -30416.857351882143, -33062.76745352357, -29160.309333838148, -12120.076968679068, -29610.38406019021, -7716.582145283479, -33902.25427177599, -38003.55351013583, -28781.179044387227, -16611.7717756953, -28169.121225967556, -39593.88012813093, 0.084, 0.9520000000000001, -0.108, 192.0, 0.0, 0.0, 0.0, 0.0, 0.0, 0.0, 0.0, 0.0, 0.0, 1.6689765289754884E9, 0.0, 2022-11-20 15:35:28.975
144.0, -13353.69209691192, -579.424271514925, -40415.91023396376, -40468.45918517819, -30321.23658910234, -32968.778368089006, -29072.779902551163, -12029.57475537953, -29623.05749929637, -7733.770636769609, -33892.7994838714, -37999.84312055625, -28773.6912099947, -16606.67557795949, -28178.24073770532, -39599.62452645595, 0.084, 0.9520000000000001, -0.108, 192.0, 0.0, 0.0, 0.0, 0.0, 0.0, 0.0, 0.0, 0.0, 0.0, 1.6689765289754937E9, 0.0, 2022-11-20 15:35:28.975
146.0, -13423.764815779306, -621.9819929578297, -40516.1131043569, -40574.38410215189, -30424.00991010784, -33069.4059216268, -29172.69220026639, -12131.811634518104, -29612.060441024358, -7710.0330841580735, -33895.59345192831, -37984.621582582186, -28773.043009405497, -16601.199400567937, -28169.52355736775, -39590.77323565164, 0.084, 0.9520000000000001, -0.108, 192.0, 0.0, 0.0, 0.0, 0.0, 0.0, 0.0, 0.0, 0.0, 0.0, 1.668976528975499E9, 0.0, 2022-11-20 15:35:28.975
148.0, -13371.193512820426, -610.7390654968102, -40438.1949231857, -40477.82456610496, -30334.982911942356, -32973.62869663581, -29087.353239936027, -12041.354124707475, -29652.137118832725, -7758.20109345926, -33924.494257509024, -38021.390202211165, -28798.725163784646, -16622.500613033844, -28205.934549085447, -39619.249358087705, 0.084, 0.9520000000000001, -0.108, 192.0, 0.0, 0.0, 0.0, 0.0, 0.0, 0.0, 0.0, 0.0, 0.0, 1.6689765289755044E9, 0.0, 2022-11-20 15:35:28.975
150.0, -13393.232332853358, -596.9927426567963, -40509.117008342386, -40563.4764508577, -30409.369517489617, -33041.622703268855, -29152.218002345326, -12111.315084852587, -29600.705754841063, -7701.114738120406, -33888.284431491425, -37983.34753314823, -28762.35887555586, -16580.032298568764, -28162.460406119873, -39575.127014532925, 0.084, 0.9560000000000001, -0.12, 192.0, 1.0, 80.0, 14.5, 112.0, 126.0, 32.0, 0.0, 0.0, 0.0, 1.6689765289755096E9, 0.0, 2022-11-20 15:35:28.975
152.0, -13362.588091205133, -605.1511293829834, -40439.93835925321, -40474.583563158936, -30327.696243249924, -32955.30026618246, -29076.691457830842, -12029.105368745968, -29645.63276119623, -7752.38963990088, -33920.71681269608, -38025.12294353521, -28796.713506783668, -16618.58905775417, -28200.77129611627, -39613.97434639625, 0.084, 0.9560000000000001, -0.12, 192.0, 0.0, 0.0, 0.0, 0.0, 0.0, 0.0, 0.0, 0.0, 0.0, 1.668976528975515E9, 0.0, 2022-11-20 15:35:28.975
154.0, -13373.965129132883, -572.3611202670479, -40493.046104079025, -40545.90797971583, -30384.53672939977, -33017.05813611247, -29131.229714301793, -12086.929331651847, -29569.39096085918, -7667.6094731819, -33853.549820607885, -37951.11631764368, -28731.088785062886, -16552.56200463319, -28127.94931268088, -39538.17958094831, 0.084, 0.9560000000000001, -0.12, 192.0, 0.0, 0.0, 0.0, 0.0, 0.0, 0.0, 0.0, 0.0, 0.0, 1.6689765289755201E9, 0.0, 2022-11-20 15:35:28.975
156.0, -13370.992347120327, -617.1763678999387, -40439.223103430646, -40476.17053701526, -30323.829391459156, -32958.205992961644, -29077.607879353513, -12029.2394792127, -29648.136156575223, -7756.122381224916, -33928.71873721108, -38029.5262371929, -28797.11583818386, -16625.80867121323, -28196.010374547288, -39608.900500404896, 0.084, 0.9560000000000001, -0.12, 192.0, 0.0, 0.0, 0.0, 0.0, 0.0, 0.0, 0.0, 0.0, 0.0, 1.6689765289755254E9, 0.0, 2022-11-20 15:35:28.975
158.0, -13356.284899268736, -552.4904194462799, -40474.807080603496, -40526.394906806345, -30371.930345526976, -33008.18449356371, -29116.76813563921, -12070.478447732741, -29558.61742003172, -7667.318900503982, -33845.74906179298, -37942.77911696185, -28713.274444732007, -16537.36281840358, -28111.163152594945, -39524.947348230766, 0.084, 0.9560000000000001, -0.12, 192.0, 0.0, 0.0, 0.0, 0.0, 0.0, 0.0, 0.0, 0.0, 0.0, 1.6689765289755306E9, 0.0, 2022-11-20 15:35:28.975
160.0, -13370.344146531123, -617.3775336000364, -40447.67206283475, -40475.142356770324, -30340.637903289546, -32970.521804156524, -29088.94021379235, -12035.47561591573, -29649.54431647591, -7747.382849142891, -33929.94808315612, -38019.80322835484, -28798.948681229198, -16612.419976284502, -28207.968557830878, -39616.12011386396, 0.088, 0.9580000000000001, -0.11, 192.0, 1.0, 96.0, 14.5, 120.0, 126.0, 72.0, 0.0, 0.0, 0.0, 1.668976528975536E9, 0.0, 2022-11-20 15:35:28.975
162.0, -13333.575526902143, -526.4282854113919, -40461.84306881941, -40515.84488342344, -30360.195679687942, -32995.46635096864, -29106.46398144531, -12059.391982482908, -29559.93617295458, -7644.967156048675, -33836.16016342165, -37917.38753526063, -28705.11605800582, -16512.70884426938, -28125.17769636842, -39530.82585702251, 0.088, 0.9580000000000001, -0.11, 192.0, 0.0, 0.0, 0.0, 0.0, 0.0, 0.0, 0.0, 0.0, 0.0, 1.668976528975541E9, 0.0, 2022-11-20 15:35:28.975
164.0, -13380.357728047102, -629.4474756059022, -40471.364911957375, -40511.24042406564, -30354.875964507577, -32987.59853692038, -29106.66514714541, -12054.787523125116, -29651.064235098867, -7740.118532194917, -33930.640987234234, -38015.51169341942, -28796.780562017033, -16607.122612848594, -28222.02780509327, -39631.833390216045, 0.088, 0.9580000000000001, -0.11, 192.0, 0.0, 0.0, 0.0, 0.0, 0.0, 0.0, 0.0, 0.0, 0.0, 1.668976528975548E9, 0.0, 2022-11-20 15:35:28.975
166.0, -13330.602744889587, -540.5322361626907, -40476.63992364883, -40541.54938954704, -30367.549403613735, -33003.66944118374, -29117.058708317127, -12068.958529109781, -29573.593088816775, -7666.737755148144, -33849.88413451721, -37946.28834084134, -28712.738002865077, -16533.07128346816, -28150.681036791928, -39564.95697080576, 0.088, 0.9580000000000001, -0.11, 192.0, 0.0, 0.0, 0.0, 0.0, 0.0, 0.0, 0.0, 0.0, 0.0, 1.6689765289755533E9, 0.0, 2022-11-20 15:35:28.975
168.0, -13375.26153031129, -631.1685599289608, -40477.84691784941, -40521.45517128172, -30362.229688433374, -32991.86772011134, -29112.208379770327, -12057.91676734886, -29664.631743983242, -7758.8716457929195, -33947.650664764726, -38050.87215314772, -28812.404431391293, -16630.591944526666, -28240.31153205771, -39653.38047187096, 0.088, 0.9580000000000001, -0.11, 192.0, 0.0, 0.0, 0.0, 0.0, 0.0, 0.0, 0.0, 0.0, 0.0, 1.6689765289755585E9, 0.0, 2022-11-20 15:35:28.975
170.0, -13307.938076011906, -518.5157678742132, -40448.0967459794, -40516.940118901744, -30344.840031247146, -32979.79777810547, -29092.449437671836, -12040.370647951442, -29546.27925709239, -7651.404458451803, -33823.95611094905, -37937.34764305921, -28685.379467651783, -16508.260847122772, -28118.539228265196, -39525.1261621864, 0.08, 0.96, -0.1, 192.0, 1.0, 64.0, 15.0, 0.0, 126.0, 112.0, 0.0, 0.0, 0.0, 1.6689765289755638E9, 0.0, 2022-11-20 15:35:28.975
172.0, -13392.22650435287, -641.8526937785977, -40495.99653434713, -40552.41233735232, -30390.079962024687, -33022.42255478174, -29141.086833606583, -12085.76704094017, -29654.327589789344, -7763.364346428436, -33941.03454840595, -38059.00818812945, -28807.107067955385, -16635.844604473663, -28231.706110442414, -39635.83435247354, 0.08, 0.96, -0.1, 192.0, 0.0, 0.0, 0.0, 0.0, 0.0, 0.0, 0.0, 0.0, 0.0, 1.6689765289755692E9, 0.0, 2022-11-20 15:35:28.975
174.0, -13315.180041215426, -530.29513720216, -40450.30956868047, -40518.52709275807, -30351.657313306012, -32983.32935372941, -29103.938234321864, -12050.33952597851, -29572.05081844936, -7691.637598471356, -33844.56441933685, -37971.43405335356, -28715.084936032887, -16546.482330141345, -28149.406987357976, -39552.52940088861, 0.08, 0.96, -0.1, 192.0, 0.0, 0.0, 0.0, 0.0, 0.0, 0.0, 0.0, 0.0, 0.0, 1.6689765289755745E9, 0.0, 2022-11-20 15:35:28.975
176.0, -13390.818344452186, -632.9343477409301, -40495.95183085821, -40543.717508759204, -30390.05761028023, -33015.35940353387, -29142.316179551624, -12085.118840350968, -29651.421863010153, -7748.098104965461, -33935.267798336485, -38046.1782868121, -28808.55993134498, -16626.300409591247, -28228.487459240852, -39627.89948319191, 0.08, 0.96, -0.1, 192.0, 0.0, 0.0, 0.0, 0.0, 0.0, 0.0, 0.0, 0.0, 0.0, 1.6689765289755795E9, 0.0, 2022-11-20 15:35:28.975
178.0, -13305.948770755384, -520.9968115087523, -40435.73623129562, -40485.24534526412, -30320.074298390664, -32950.67345508021, -29075.506815374712, -12020.365836663943, -29578.577527830308, -7673.711499418199, -33847.87247751623, -37961.822803237774, -28716.090764533375, -16528.399768877003, -28146.121280923046, -39541.979377505704, 0.08, 0.96, -0.1, 192.0, 0.0, 0.0, 0.0, 0.0, 0.0, 0.0, 0.0, 0.0, 0.0, 1.6689765289755847E9, 0.0, 2022-11-20 15:35:28.975
180.0, -13403.55883879171, -640.3998303890027, -40516.940118901744, -40556.14507867635, -30394.237386493372, -33022.37785129283, -29145.065444119628, -12088.87393341946, -29642.458813483576, -7725.545194810056, -33931.15507735671, -38035.583559940285, -28796.46763759466, -16598.025452855283, -28208.19207527543, -39606.62062247046, 0.078, 0.9520000000000001, -0.106, 192.0, 1.0, 56.0, 14.5, 96.0, 126.0, 88.0, 0.0, 0.0, 0.0, 1.66897652897559E9, 0.0, 2022-11-20 15:35:28.975
182.0, -13317.079939494126, -543.7061838753443, -40440.877132520334, -40486.72056039817, -30316.90035067801, -32944.10204221035, -29068.66718157139, -12014.062644727546, -29590.848635536273, -7689.067147858996, -33865.485652147014, -37984.71098956001, -28726.81960187192, -16533.719484057365, -28152.357417626074, -39548.774307820124, 0.078, 0.9520000000000001, -0.106, 192.0, 0.0, 0.0, 0.0, 0.0, 0.0, 0.0, 0.0, 0.0, 0.0, 1.6689765289755955E9, 0.0, 2022-11-20 15:35:28.975
184.0, -13420.568516322199, -655.3754991740584, -40542.8681424699, -40585.42586391281, -30415.940930359477, -33042.98615968063, -29166.29960135217, -12110.756291241205, -29654.662865956172, -7746.891110764875, -33947.38244383126, -38057.93530439559, -28809.744573801112, -16612.263514073315, -28221.53606671525, -39617.014183642175, 0.078, 0.9520000000000001, -0.106, 192.0, 0.0, 0.0, 0.0, 0.0, 0.0, 0.0, 0.0, 0.0, 0.0, 1.6689765289756005E9, 0.0, 2022-11-20 15:35:28.975
186.0, -13330.938021056418, -569.2989312766709, -40453.28235069303, -40497.47174948118, -30321.258940846797, -32951.8804492808, -29075.350353163525, -12020.61170585295, -29623.61629290775, -7726.14869191035, -33898.23095777404, -38017.411591698125, -28759.54255575449, -16567.403562951513, -28184.923909297457, -39580.089101802005, 0.078, 0.9520000000000001, -0.106, 192.0, 0.0, 0.0, 0.0, 0.0, 0.0, 0.0, 0.0, 0.0, 0.0, 1.668976528975606E9, 0.0, 2022-11-20 15:35:28.975
188.0, -13411.471356328888, -644.6243100910557, -40537.48137205617, -40593.1819192388, -30407.380212233093, -33044.50607830359, -29158.655304748456, -12106.867087705981, -29642.39175825021, -7734.8658722479195, -33936.29597858143, -38045.77595541191, -28797.205245161684, -16604.507458747325, -28202.514732183783, -39604.74307593621, 0.078, 0.9520000000000001, -0.106, 192.0, 0.0, 0.0, 0.0, 0.0, 0.0, 0.0, 0.0, 0.0, 0.0, 1.6689765289756112E9, 0.0, 2022-11-20 15:35:28.975
190.0, -13322.645523863499, -569.9471318658748, -40429.969481226144, -40485.75943538659, -30304.80805692769, -32943.72206255461, -29058.832414011053, -12004.831374267504, -29625.87381909774, -7732.295421635559, -33899.192082785616, -38023.31245223433, -28756.92740165322, -16578.355917734614, -28176.81022606018, -39586.01231408266, 0.08600000000000001, 0.9500000000000001, -0.106, 192.0, 1.0, 88.0, 14.5, 88.0, 126.0, 88.0, 0.0, 0.0, 0.0, 1.6689765289756165E9, 0.0, 2022-11-20 15:35:28.975
192.0, -13391.466545041389, -621.6243650465448, -40517.49891251313, -40579.14502372086, -30398.93125282899, -33042.673235258255, -29148.19468834337, -12095.981788156247, -29622.364595218256, -7716.0233516720955, -33907.52928346745, -38021.5243126779, -28770.22668960413, -16587.967167850395, -28174.798569059203, -39584.984133837715, 0.08600000000000001, 0.9500000000000001, -0.106, 192.0, 0.0, 0.0, 0.0, 0.0, 0.0, 0.0, 0.0, 0.0, 0.0, 1.6689765289756217E9, 0.0, 2022-11-20 15:35:28.975
194.0, -13323.45018666389, -581.4582802603579, -40426.90729223577, -40479.612705661384, -30307.75848719579, -32950.248771935556, -29061.71578904579, -12005.792499279083, -29621.53758067341, -7729.8143780010205, -33888.23972800252, -38015.310527719324, -28755.966276641644, -16579.071173557186, -28174.060961492178, -39579.77617737963, 0.08600000000000001, 0.9500000000000001, -0.106, 192.0, 0.0, 0.0, 0.0, 0.0, 0.0, 0.0, 0.0, 0.0, 0.0, 1.668976528975627E9, 0.0, 2022-11-20 15:35:28.975
196.0, -13386.54916126122, -616.7516847552878, -40523.2656625826, -40585.112939490435, -30412.454058224448, -33051.9492092072, -29160.845775705075, -12109.661055762894, -29606.56191188835, -7701.114738120406, -33888.910280336175, -38006.74980959294, -28761.55421275547, -16574.265548499294, -28171.222289946356, -39571.68484588681, 0.08600000000000001, 0.9500000000000001, -0.106, 192.0, 0.0, 0.0, 0.0, 0.0, 0.0, 0.0, 0.0, 0.0, 0.0, 1.6689765289756336E9, 0.0, 2022-11-20 15:35:28.975
198.0, -13330.625096634043, -595.5398792672014, -40432.38346962732, -40471.96840905767, -30316.09568787762, -32950.2264201911, -29069.5612513496, -12014.979066250215, -29649.410206009175, -7746.332317153492, -33915.195931815615, -38036.94701635206, -28793.114875926363, -16600.439441256458, -28214.137639300545, -39611.38154403944, 0.08600000000000001, 0.9500000000000001, -0.106, 192.0, 0.0, 0.0, 0.0, 0.0, 0.0, 0.0, 0.0, 0.0, 0.0, 1.6689765289756389E9, 0.0, 2022-11-20 15:35:28.975
200.0, -13353.334469000634, -580.6312657155115, -40487.18994703173, -40538.80012497904, -30381.273374709297, -33015.96290063416, -29127.85460088904, -12077.206322813789, -29588.814626790838, -7673.644444184833, -33862.40111141218, -37974.339780132745, -28742.041139845987, -16544.716542329377, -28153.81028101567, -39549.9365985318, 0.08600000000000001, 0.962, -0.116, 192.0, 1.0, 88.0, 15.0, 8.0, 126.0, 48.0, 0.0, 0.0, 0.0, 1.668976528975644E9, 0.0, 2022-11-20 15:35:28.975
202.0, -13333.486119924322, -605.3522950830812, -40419.911196221256, -40454.15406872679, -30306.28327206174, -32940.61517007532, -29058.497137844224, -12004.160821933845, -29632.266418011957, -7731.423703601802, -33898.9015101077, -38018.171551009604, -28774.898204195288, -16581.79808638073, -28192.21057798989, -39587.576936194535, 0.08600000000000001, 0.962, -0.116, 192.0, 0.0, 0.0, 0.0, 0.0, 0.0, 0.0, 0.0, 0.0, 0.0, 1.6689765289756496E9, 0.0, 2022-11-20 15:35:28.975
204.0, -13353.848559123107, -582.5088122497574, -40491.2579645226, -40546.0197384381, -30380.960450286922, -33018.91333090226, -29131.632045701986, -12082.503686249696, -29575.76120802894, -7664.212008024694, -33855.002683997474, -37966.13668991765, -28726.953712338654, -16530.858460767085, -28139.86279247556, -39537.48667687019, 0.08600000000000001, 0.962, -0.116, 192.0, 0.0, 0.0, 0.0, 0.0, 0.0, 0.0, 0.0, 0.0, 0.0, 1.6689765289756548E9, 0.0, 2022-11-20 15:35:28.975
206.0, -13363.996251105817, -642.5455978567121, -40462.11128975288, -40501.67387743877, -30337.821583488178, -32976.57912690391, -29095.444571428845, -12042.71758111925, -29653.72409268905, -7746.645241575867, -33931.62446399027, -38047.608798457244, -28799.61923356286, -16606.697929703943, -28221.223142292874, -39619.42817204335, 0.08600000000000001, 0.962, -0.116, 192.0, 0.0, 0.0, 0.0, 0.0, 0.0, 0.0, 0.0, 0.0, 0.0, 1.66897652897566E9, 0.0, 2022-11-20 15:35:28.975
208.0, -13367.63958545203, -599.585545013612, -40503.30555478401, -40565.91279100333, -30393.477427181893, -33032.36908106435, -29144.216077830326, -12095.400642800409, -29601.37630717472, -7693.872772916887, -33881.40009419919, -37995.70804783202, -28751.339465539393, -16554.014868022787, -28165.90257476599, -39563.74997660518, 0.08600000000000001, 0.962, -0.116, 192.0, 0.0, 0.0, 0.0, 0.0, 0.0, 0.0, 0.0, 0.0, 0.0, 1.668976528975665E9, 0.0, 2022-11-20 15:35:28.975
210.0, -13385.208056593903, -669.32298771417, -40465.642865376816, -40508.9605461312, -30345.15295566952, -32979.19428100518, -29100.987804053762, -12046.271508487644, -29678.91450869018, -7777.602407646466, -33950.936371199656, -38070.34052256829, -28825.7037193422, -16627.82032821421, -28229.49328774134, -39626.33486108004, 0.087, 0.963, -0.118, 192.0, 1.0, 96.0, 15.0, 16.0, 126.0, 32.0, 0.0, 0.0, 0.0, 1.6689765289756703E9, 0.0, 2022-11-20 15:35:28.975
212.0, -13354.4520562234, -589.6613704754557, -40486.07235980897, -40550.95947396272, -30374.120816483595, -33007.06690634095, -29125.932350865885, -12074.501761734697, -29599.43170540711, -7695.973836895685, -33872.41469292816, -37991.01418149641, -28741.772918912524, -16551.08678949914, -28148.267048390753, -39550.093060742984, 0.087, 0.963, -0.118, 192.0, 0.0, 0.0, 0.0, 0.0, 0.0, 0.0, 0.0, 0.0, 0.0, 1.6689765289756758E9, 0.0, 2022-11-20 15:35:28.975
214.0, -13375.149771589015, -662.192781232927, -40467.56511539997, -40513.67676421127, -30344.214182402397, -32979.35074321637, -29100.987804053762, -12045.064514287056, -29665.458758528086, -7762.604387116956, -33944.09673739633, -38062.96444689804, -28815.287806426026, -16624.221697356905, -28217.73627015785, -39623.54089302312, 0.087, 0.963, -0.118, 192.0, 0.0, 0.0, 0.0, 0.0, 0.0, 0.0, 0.0, 0.0, 0.0, 1.6689765289756813E9, 0.0, 2022-11-20 15:35:28.975
216.0, -13330.06630302266, -573.7245766788217, -40471.2531532351, -40539.381270334874, -30356.507641852815, -32994.773446890526, -29105.368745967004, -12053.513473691162, -29573.4813300945, -7674.627920940867, -33850.30881766186, -37972.77515802088, -28720.6281686578, -16536.580507347644, -28131.726757493827, -39540.4818106272, 0.087, 0.963, -0.118, 192.0, 0.0, 0.0, 0.0, 0.0, 0.0, 0.0, 0.0, 0.0, 0.0, 1.6689765289756863E9, 0.0, 2022-11-20 15:35:28.975
218.0, -13391.712414230396, -685.9973890778291, -40490.67681916676, -40541.79525873605, -30369.76222631481, -33006.597519707386, -29121.506705463733, -12065.471656974752, -29670.085569630337, -7772.327395955014, -33955.20555439062, -38075.88375519321, -28826.016643764575, -16645.76877901182, -28232.153145331522, -39640.75173625371, 0.087, 0.963, -0.118, 192.0, 0.0, 0.0, 0.0, 0.0, 0.0, 0.0, 0.0, 0.0, 0.0, 1.6689765289756916E9, 0.0, 2022-11-20 15:35:28.975
220.0, -13301.5901805866, -558.7712596382213, -40435.60212082889, -40500.62334544937, -30315.71570822188, -32963.01161801954, -29068.17544319337, -12018.04125524059, -29564.942963712572, -7684.306226290015, -33837.970654722536, -37966.98605620695, -28711.44160168667, -16539.37447540456, -28123.054280645167, -39529.06006921054, 0.0865, 0.9605, -0.118, 192.0, 1.0, 88.0, 14.5, 120.0, 126.0, 40.0, 0.0, 0.0, 0.0, 1.668976528975697E9, 0.0, 2022-11-20 15:35:28.975
222.0, -13390.036033396249, -686.6008861781223, -40486.67585690926, -40531.625215008884, -30368.197604202942, -33010.218502309144, -29119.562103696124, -12067.080982575535, -29649.812537409372, -7768.415840675336, -33935.64777799223, -38058.024711373415, -28806.078887710442, -16631.73188349389, -28207.18624677494, -39610.91215740587, 0.0865, 0.9605, -0.118, 192.0, 0.0, 0.0, 0.0, 0.0, 0.0, 0.0, 0.0, 0.0, 0.0, 1.6689765289757023E9, 0.0, 2022-11-20 15:35:28.975
224.0, -13294.191753171892, -553.8762276025091, -40425.90146373528, -40486.83231912045, -30314.441658787928, -32956.44020514968, -29068.376608893468, -12020.052912241568, -29565.322943368312, -7683.166287322794, -33840.49640184598, -37966.69548352903, -28709.809924341433, -16533.183042190438, -28125.960007424357, -39531.40700237835, 0.0865, 0.9605, -0.118, 192.0, 0.0, 0.0, 0.0, 0.0, 0.0, 0.0, 0.0, 0.0, 0.0, 1.6689765289757075E9, 0.0, 2022-11-20 15:35:28.975
226.0, -13388.002024650816, -676.5202494287788, -40493.806063390504, -40546.64558728285, -30379.708752597424, -33020.00856638057, -29135.320083537114, -12084.694157206317, -29645.05161584039, -7753.1719509568165, -33935.24544659203, -38051.252132803456, -28806.302405154995, -16620.108976377127, -28212.237741021843, -39619.56228251008, 0.0865, 0.9605, -0.118, 192.0, 0.0, 0.0, 0.0, 0.0, 0.0, 0.0, 0.0, 0.0, 0.0, 1.6689765289757128E9, 0.0, 2022-11-20 15:35:28.975
228.0, -13293.409442115957, -559.3747567385145, -40420.42528634373, -40488.86632786588, -30315.156914610496, -32949.64527483526, -29070.410617638903, -12019.04708374108, -29564.965315457026, -7683.009825111607, -33837.322454133326, -37966.65078004012, -28712.6262441428, -16527.148071187505, -28129.737452237303, -39533.68688031279, 0.0865, 0.9605, -0.118, 192.0, 0.0, 0.0, 0.0, 0.0, 0.0, 0.0, 0.0, 0.0, 0.0, 1.6689765289757195E9, 0.0, 2022-11-20 15:35:28.975
230.0, -13387.26441708379, -669.3453394586253, -40502.56794721699, -40563.83407876898, -30386.280165467284, -33025.41768853876, -29143.076138863104, -12088.426898530353, -29639.86601112676, -7742.688982807277, -33924.226036575565, -38044.05487108885, -28803.910768498277, -16609.693063460956, -28200.100743782612, -39606.33004979254, 0.08224999999999999, 0.95925, -0.11699999999999999, 192.0, 1.0, 56.0, 14.5, 120.0, 126.0, 48.0, 0.0, 0.0, 0.0, 1.6689765289757247E9, 0.0, 2022-11-20 15:35:28.975
232.0, -13306.664026577953, -581.1900593268942, -40430.50592309307, -40497.27058378108, -30318.82260070117, -32956.28374293849, -29072.46697812879, -12018.734159318705, -29596.66008909465, -7707.887316690364, -33865.41859691365, -37993.5175768754, -28744.11985208033, -16554.998344778818, -28149.47404259134, -39557.647950368875, 0.08224999999999999, 0.95925, -0.11699999999999999, 192.0, 0.0, 0.0, 0.0, 0.0, 0.0, 0.0, 0.0, 0.0, 0.0, 1.66897652897573E9, 0.0, 2022-11-20 15:35:28.975
234.0, -13393.74642297583, -674.7768133612649, -40501.96445011669, -40572.64066608437, -30393.119799270607, -33031.67617698624, -29147.09945286506, -12093.031357888147, -29632.646397667697, -7745.170026441816, -33922.616710974784, -38043.563132710835, -28797.384059117325, -16611.972941395397, -28199.877226338056, -39607.20176782629, 0.08224999999999999, 0.95925, -0.11699999999999999, 192.0, 0.0, 0.0, 0.0, 0.0, 0.0, 0.0, 0.0, 0.0, 0.0, 1.6689765289757352E9, 0.0, 2022-11-20 15:35:28.975
236.0, -13297.879791007017, -581.0112453712518, -40401.82863495692, -40470.046159034515, -30296.269690545763, -32931.51801008201, -29050.539916818136, -11993.052004939558, -29596.637737350196, -7715.486909805169, -33865.1950794691, -37996.95974552152, -28737.280218277006, -16560.876853570564, -28160.62756307454, -39563.817031838546, 0.08224999999999999, 0.95925, -0.11699999999999999, 192.0, 0.0, 0.0, 0.0, 0.0, 0.0, 0.0, 0.0, 0.0, 0.0, 1.6689765289757404E9, 0.0, 2022-11-20 15:35:28.975
238.0, -13387.845562439628, -658.549446886712, -40511.12866534336, -40574.56291610753, -30401.88168309709, -33034.20192410969, -29151.77096745622, -12093.411337543886, -29617.089583526802, -7716.470386561202, -33898.32036475186, -38017.411591698125, -28774.205300117173, -16588.503609717325, -28180.92294703996, -39577.89863084539, 0.08224999999999999, 0.95925, -0.11699999999999999, 192.0, 0.0, 0.0, 0.0, 0.0, 0.0, 0.0, 0.0, 0.0, 0.0, 1.668976528975746E9, 0.0, 2022-11-20 15:35:28.975
240.0, -13304.406500387968, -590.8683646760422, -40415.61966128584, -40474.29299048102, -30297.275519046252, -32938.96114098563, -29052.685684285843, -11996.963560219236, -29618.00600504947, -7728.897956478353, -33884.84226284531, -38011.37662069519, -28758.44732027618, -16576.970109578386, -28174.642106848016, -39572.15423252037, 0.079125, 0.9606250000000001, -0.1185, 192.0, 1.0, 48.0, 15.0, 8.0, 126.0, 32.0, 0.0, 0.0, 0.0, 1.6689765294563763E9, 0.0, 2022-11-20 15:35:29.456
242.0, -13373.540445988232, -643.0149844902736, -40506.97124087468, -40569.13144220489, -30399.53474992928, -33034.49249678761, -29144.66311271943, -12090.796183442615, -29606.539560143898, -7705.965066667208, -33894.54291993892, -38010.773123594896, -28771.098407637885, -16584.122667804084, -28168.607135845083, -39570.05316854157, 0.079125, 0.9606250000000001, -0.1185, 192.0, 0.0, 0.0, 0.0, 0.0, 0.0, 0.0, 0.0, 0.0, 0.0, 1.66897652945642E9, 0.0, 2022-11-20 15:35:29.456
244.0, -13291.82246825963, -588.3873210415031, -40394.69842847567, -40454.22112396015, -30288.692449175414, -32924.92424546769, -29040.638094024434, -11983.619568779419, -29616.463734682053, -7730.172005912305, -33887.524472179946, -38014.975251552496, -28767.32096282494, -16580.501685202325, -28175.58088011514, -39578.43507271232, 0.079125, 0.9606250000000001, -0.1185, 192.0, 0.0, 0.0, 0.0, 0.0, 0.0, 0.0, 0.0, 0.0, 0.0, 1.6689765294564738E9, 0.0, 2022-11-20 15:35:29.456
246.0, -13351.12164629956, -619.45624583438, -40485.44651096422, -40563.163526435324, -30391.175197502995, -33032.25732234208, -29139.365749283523, -12087.19755258531, -29573.011943460937, -7684.99913036813, -33857.37196890974, -37980.218288924494, -28744.231610802606, -16558.37345819157, -28143.304961121677, -39552.194124721784, 0.079125, 0.9606250000000001, -0.1185, 192.0, 0.0, 0.0, 0.0, 0.0, 0.0, 0.0, 0.0, 0.0, 0.0, 1.6689765294565072E9, 0.0, 2022-11-20 15:35:29.456
248.0, -13305.635846333009, -609.3085538516706, -40404.957879180656, -40461.46308916368, -30304.875112161055, -32943.31973115441, -29058.340675633037, -12000.495135843175, -29622.58811266281, -7741.638450817878, -33886.78686461292, -38016.24930098645, -28778.60859377487, -16593.175124308484, -28186.153255242498, -39595.31063977607, 0.079125, 0.9606250000000001, -0.1185, 192.0, 0.0, 0.0, 0.0, 0.0, 0.0, 0.0, 0.0, 0.0, 0.0, 1.6689765294565403E9, 0.0, 2022-11-20 15:35:29.456
250.0, -13339.431683949433, -604.7711497272431, -40475.0529497925, -40542.48816281416, -30377.071246751697, -33016.07465935644, -29126.66995843291, -12075.217017557266, -29573.123702183213, -7676.259598286105, -33846.978407738025, -37966.091986428735, -28737.8837153773, -16544.783597562742, -28131.033853415713, -39539.967720504734, 0.08256250000000001, 0.9583125000000001, -0.11725, 192.0, 1.0, 88.0, 14.5, 112.0, 126.0, 48.0, 0.0, 0.0, 0.0, 1.668976529456578E9, 0.0, 2022-11-20 15:35:29.456
252.0, -13317.68343659442, -625.2229959038492, -40408.62356527133, -40458.62441761785, -30307.33380405114, -32934.89312349476, -29058.631248310954, -12000.785708521094, -29632.735804645516, -7736.251680404149, -33896.44281821761, -38020.80905685533, -28783.883605466322, -16589.15181030653, -28173.166891713965, -39584.40298848188, 0.08256250000000001, 0.9583125000000001, -0.11725, 192.0, 0.0, 0.0, 0.0, 0.0, 0.0, 0.0, 0.0, 0.0, 0.0, 1.6689765294566023E9, 0.0, 2022-11-20 15:35:29.456
254.0, -13353.110951556082, -615.45528357688, -40481.55730742899, -40551.56297106302, -30397.143113272563, -33017.147543090294, -29138.91871439442, -12084.090660106023, -29570.508548081943, -7667.453010970714, -33844.9891024815, -37963.90151547212, -28734.106270564353, -16534.188870690927, -28124.775364968227, -39524.81323776403, 0.08256250000000001, 0.9583125000000001, -0.11725, 192.0, 0.0, 0.0, 0.0, 0.0, 0.0, 0.0, 0.0, 0.0, 0.0, 1.6689765294566095E9, 0.0, 2022-11-20 15:35:29.456
0.0, -13351.21105327738, -667.4230894354689, -40422.45929508916, -40481.87023185137, -30331.38428108505, -32956.37314991631, -29077.920803775884, -12021.751644820171, -29659.602601480798, -7767.924102297319, -33930.10454536731, -38055.76718518343, -28816.159524459785, -16619.796051954752, -28211.54483694373, -39610.710991705775, 0.08256250000000001, 0.9583125000000001, -0.11725, 192.0, 0.0, 0.0, 0.0, 0.0, 0.0, 0.0, 0.0, 0.0, 0.0, 1.668976529456617E9, 0.0, 2022-11-20 15:35:29.456
2.0, -13351.456922466388, -619.970335956852, -40477.668103893775, -40556.83798275447, -30383.039162521265, -33022.109630359366, -29131.72145267981, -12080.492029248719, -29574.777731272905, -7685.110889090406, -33851.06877697334, -37974.965628977494, -28730.9323228517, -16543.7554173178, -28127.99401616979, -39534.87152276892, 0.08256250000000001, 0.9583125000000001, -0.11725, 192.0, 0.0, 0.0, 0.0, 0.0, 0.0, 0.0, 0.0, 0.0, 0.0, 1.6689765294566245E9, 0.0, 2022-11-20 15:35:29.456
4.0, -13355.033201579237, -671.7816796042538, -40443.536990110515, -40493.69430466823, -30329.506734550803, -32970.320638456426, -29084.67103060139, -12030.893508302392, -29670.77847370845, -7782.989178060196, -33945.013158919, -38066.45131903307, -28821.769812318067, -16640.76198825383, -28222.854819638113, -39634.694413506324, 0.08328125, 0.9571562500000002, -0.116625, 192.0, 1.0, 80.0, 14.5, 112.0, 126.0, 48.0, 0.0, 0.0, 0.0, 1.6689765294566386E9, 0.0, 2022-11-20 15:35:29.456
6.0, -13309.34623591259, -572.0481958446736, -40452.72355708165, -40519.24234858064, -30339.34150211114, -32987.39737122028, -29093.969356294794, -12046.115046276456, -29553.476518806998, -7657.126505032362, -33830.54987556337, -37943.67318674007, -28704.49020916107, -16520.286085639727, -28109.75499269426, -39520.85697899544, 0.08328125, 0.9571562500000002, -0.116625, 192.0, 0.0, 0.0, 0.0, 0.0, 0.0, 0.0, 0.0, 0.0, 0.0, 1.6689765294566455E9, 0.0, 2022-11-20 15:35:29.456
8.0, -13369.450076752912, -677.0343395512509, -40459.02674901805, -40505.205453062714, -30347.00815045931, -32986.05626655296, -29101.054859287127, -12047.456150943775, -29653.701740944594, -7752.166122456328, -33933.23378959105, -38043.11609782173, -28806.101239454896, -16623.05940664523, -28209.041441564732, -39616.56714875307, 0.08328125, 0.9571562500000002, -0.116625, 192.0, 0.0, 0.0, 0.0, 0.0, 0.0, 0.0, 0.0, 0.0, 0.0, 1.6689765294566526E9, 0.0, 2022-11-20 15:35:29.456
10.0, -13318.77867207273, -587.940286152397, -40449.39314715781, -40517.789485191046, -30355.546516841237, -32989.543138687986, -29098.082077274572, -12047.612613154963, -29572.721370783016, -7672.079822072962, -33839.64703555668, -37954.26791361188, -28725.746718138067, -16537.60868759259, -28123.411908556453, -39531.831685523, 0.08328125, 0.9571562500000002, -0.116625, 192.0, 0.0, 0.0, 0.0, 0.0, 0.0, 0.0, 0.0, 0.0, 0.0, 1.6689765294566605E9, 0.0, 2022-11-20 15:35:29.456
12.0, -13373.875722155062, -689.2383920238486, -40456.79157457252, -40507.95471763071, -30355.881793008066, -32983.463464196146, -29097.5679871521, -12043.81281659756, -29666.710456217585, -7762.403221416858, -33937.45826929311, -38050.7827461699, -28826.307216442492, -16638.929145208498, -28209.28731075374, -39622.08802963353, 0.08328125, 0.9571562500000002, -0.116625, 192.0, 0.0, 0.0, 0.0, 0.0, 0.0, 0.0, 0.0, 0.0, 0.0, 1.668976529456668E9, 0.0, 2022-11-20 15:35:29.456
14.0, -13314.241267948302, -593.0588356326623, -40435.73623129562, -40502.2103193057, -30336.90516196551, -32965.96204828764, -29075.41740839689, -12025.462034399752, -29564.495928823464, -7673.018595340085, -33830.57222730783, -37951.87627695516, -28716.850723844855, -16534.568850346666, -28107.206893826355, -39519.18059816129, 0.082640625, 0.9565781250000001, -0.11531250000000001, 192.0, 1.0, 72.0, 14.5, 112.0, 126.0, 56.0, 0.0, 0.0, 0.0, 1.6689765294566753E9, 0.0, 2022-11-20 15:35:29.456
16.0, -13405.928123703972, -721.8272354396863, -40492.420255234276, -40542.06347966951, -30382.54742414325, -33020.27678731403, -29127.76519391122, -12076.334604780031, -29668.38683705173, -7775.993082045685, -33948.65649326521, -38065.378435299215, -28831.85044906741, -16650.037962202783, -28213.690604411437, -39622.669174989365, 0.082640625, 0.9565781250000001, -0.11531250000000001, 192.0, 0.0, 0.0, 0.0, 0.0, 0.0, 0.0, 0.0, 0.0, 0.0, 1.668976529456682E9, 0.0, 2022-11-20 15:35:29.456
18.0, -13308.742738812298, -591.1365856095059, -40426.482609091116, -40492.9566971012, -30326.15397288251, -32971.95231580166, -29073.919841518386, -12028.1889472233, -29580.924460998114, -7696.040892129051, -33848.1406984497, -37968.90830623011, -28727.937189094686, -16554.21603372288, -28126.00471091327, -39534.40213613536, 0.082640625, 0.9565781250000001, -0.11531250000000001, 192.0, 0.0, 0.0, 0.0, 0.0, 0.0, 0.0, 0.0, 0.0, 0.0, 1.6689765294566905E9, 0.0, 2022-11-20 15:35:29.456
20.0, -13392.114745630592, -700.481319484868, -40492.263793023085, -40546.667939027306, -30389.811741091224, -33036.12417413285, -29139.72337719481, -12092.651378232405, -29652.96413337757, -7758.089334736984, -33933.166734357685, -38043.138449566184, -28819.51228612808, -16639.130310908593, -28202.11240078359, -39616.231872586235, 0.082640625, 0.9565781250000001, -0.11531250000000001, 192.0, 0.0, 0.0, 0.0, 0.0, 0.0, 0.0, 0.0, 0.0, 0.0, 1.6689765294566972E9, 0.0, 2022-11-20 15:35:29.456
22.0, -13278.947863453373, -566.8849428754977, -40387.30000106097, -40457.1492024838, -30304.271615060763, -32945.01846373302, -29053.624457552967, -12005.725444045716, -29577.705809796553, -7679.858229143409, -33834.34967212077, -37951.98803567744, -28730.708805407146, -16544.537728373736, -28120.126202121523, -39532.32342390101, 0.082640625, 0.9565781250000001, -0.11531250000000001, 192.0, 0.0, 0.0, 0.0, 0.0, 0.0, 0.0, 0.0, 0.0, 0.0, 1.6689765294567044E9, 0.0, 2022-11-20 15:35:29.456
24.0, -13387.040899639238, -688.3890257345469, -40468.794461345016, -40536.520247044595, -30387.8224358347, -33016.20876982317, -29135.633007959488, -12084.850619417504, -29631.372348233745, -7722.952392453241, -33903.30480376539, -38013.94707130755, -28802.971995231153, -16606.876743659584, -28174.932679525937, -39582.50309020318, 0.0833203125, 0.9552890625000001, -0.11365625000000001, 192.0, 1.0, 80.0, 14.5, 104.0, 126.0, 64.0, 0.0, 0.0, 0.0, 1.6689765294567115E9, 0.0, 2022-11-20 15:35:29.456
26.0, -13305.121756210538, -602.7594927262655, -40401.448655301174, -40469.420310189766, -30313.257016331794, -32938.89408575226, -29067.124911203973, -12015.001417994668, -29592.882644281704, -7700.041854386552, -33852.96867525204, -37972.93162023206, -28744.32101778043, -16552.025562766263, -28129.826859215125, -39536.92788325881, 0.0833203125, 0.9552890625000001, -0.11365625000000001, 192.0, 0.0, 0.0, 0.0, 0.0, 0.0, 0.0, 0.0, 0.0, 0.0, 1.6689765294567187E9, 0.0, 2022-11-20 15:35:29.456
28.0, -13401.569533535187, -698.9166973729965, -40502.43383675025, -40560.88364850088, -30407.290805255274, -33027.65286298429, -29155.503708780256, -12101.703834736805, -29641.631798938728, -7739.470331605713, -33922.72846969706, -38030.844990115766, -28809.07402146745, -16615.19159259696, -28182.554624385193, -39590.68382867382, 0.0833203125, 0.9552890625000001, -0.11365625000000001, 192.0, 0.0, 0.0, 0.0, 0.0, 0.0, 0.0, 0.0, 0.0, 0.0, 1.6689765294567268E9, 0.0, 2022-11-20 15:35:29.456
30.0, -13313.928343525928, -611.5884317861119, -40412.780989740015, -40466.559286899486, -30311.67004247547, -32941.10690845334, -29062.65456231291, -12013.481499371708, -29611.658109624164, -7726.774540755098, -33877.801463341886, -37993.60698385322, -28760.88366042181, -16576.120743289084, -28148.356455368576, -39557.715005602244, 0.0833203125, 0.9552890625000001, -0.11365625000000001, 192.0, 0.0, 0.0, 0.0, 0.0, 0.0, 0.0, 0.0, 0.0, 0.0, 1.6689765294567337E9, 0.0, 2022-11-20 15:35:29.456
32.0, -13374.21099832189, -664.4279556784577, -40489.1569005438, -40542.8681424699, -30391.57752890319, -33029.70922347417, -29139.05282486115, -12092.807840443593, -29616.977824804526, -7718.504395306635, -33904.936481110635, -38005.16283573661, -28787.88456772382, -16597.71252843291, -28161.901612508493, -39576.535174433615, 0.0833203125, 0.9552890625000001, -0.11365625000000001, 192.0, 0.0, 0.0, 0.0, 0.0, 0.0, 0.0, 0.0, 0.0, 0.0, 1.6689765294567406E9, 0.0, 2022-11-20 15:35:29.456
34.0, -13308.563924856655, -615.4776353213352, -40403.549719279974, -40455.11519373837, -30312.56411225368, -32951.38871090278, -29062.22987916826, -12014.062644727546, -29603.969109531536, -7712.044741159051, -33869.79953882689, -37978.85483251272, -28761.017770888542, -16573.170313020983, -28150.43516760292, -39564.0405492831, 0.0833203125, 0.9552890625000001, -0.11365625000000001, 192.0, 0.0, 0.0, 0.0, 0.0, 0.0, 0.0, 0.0, 0.0, 0.0, 1.6689765294567475E9, 0.0, 2022-11-20 15:35:29.456
36.0, -13372.422858765467, -655.9566445298964, -40490.83328137795, -40556.92738973229, -30396.673726639, -33044.148450392306, -29144.30548480815, -12098.641645746427, -29607.00894677746, -7703.148746865839, -33877.667352875156, -37982.29700115883, -28782.98953568811, -16590.716432418398, -28156.827766517137, -39567.996808051685, 0.084, 0.9480000000000001, -0.112, 192.0, 1.0, 80.0, 14.5, 80.0, 126.0, 64.0, 0.0, 0.0, 0.0, 1.6689765294567578E9, 0.0, 2022-11-20 15:35:29.456
38.0, -13310.285009179714, -621.0432196907068, -40401.94039367919, -40454.377586171344, -30302.595234226614, -32940.30224565294, -29048.41650109488, -11997.99174046418, -29626.67848189813, -7737.570433327011, -33880.818948843356, -37998.412608911116, -28789.158617157773, -16601.53467673477, -28167.042513733213, -39578.636238412415, 0.084, 0.9480000000000001, -0.112, 192.0, 0.0, 0.0, 0.0, 0.0, 0.0, 0.0, 0.0, 0.0, 0.0, 1.6689765294567652E9, 0.0, 2022-11-20 15:35:29.456
40.0, -13373.004004121305, -655.8001823187092, -40495.2589267801, -40554.625160053394, -30394.68442138248, -33033.88899968732, -29137.309388793637, -12091.176163098355, -29590.870987280727, -7696.309113062515, -33868.48078590403, -37976.03851271135, -28771.41133206026, -16580.76990613579, -28134.297208106185, -39542.627578094914, 0.084, 0.9480000000000001, -0.112, 192.0, 0.0, 0.0, 0.0, 0.0, 0.0, 0.0, 0.0, 0.0, 0.0, 1.668976529456772E9, 0.0, 2022-11-20 15:35:29.456
42.0, -13319.739797084309, -643.484371123835, -40400.9345651787, -40445.19101920021, -30299.33187953614, -32930.243960648055, -29046.069567927072, -11998.818755009026, -29634.43453722412, -7746.3099654090365, -33899.32619325235, -38013.03064978489, -28798.255777151084, -16606.720281448397, -28165.34378115461, -39571.52838367562, 0.084, 0.9480000000000001, -0.112, 192.0, 0.0, 0.0, 0.0, 0.0, 0.0, 0.0, 0.0, 0.0, 0.0, 1.66897652945678E9, 0.0, 2022-11-20 15:35:29.456
44.0, -13345.198434018903, -622.6301935470335, -40460.05492926299, -40520.73991545915, -30362.9672960004, -32996.7851038915, -29109.548522180146, -12066.298671519598, -29573.190757416578, -7673.666795929289, -33849.280637416916, -37953.373843833666, -28746.667950948235, -16548.806911564698, -28105.195236825377, -39508.027077678096, 0.084, 0.9480000000000001, -0.112, 192.0, 0.0, 0.0, 0.0, 0.0, 0.0, 0.0, 0.0, 0.0, 0.0, 1.6689765294567876E9, 0.0, 2022-11-20 15:35:29.456
46.0, -13327.58525938812, -647.0606502366842, -40398.63233549981, -40440.22893193113, -30287.08312357463, -32927.02530944649, -29045.84605048252, -11998.61758930893, -29632.28876975641, -7731.267241390615, -33896.956908340086, -38003.12882699118, -28791.192625903208, -16594.069194086696, -28159.308810151677, -39564.35347370547, 0.09, 0.9520000000000001, -0.108, 192.0, 1.0, 104.0, 14.5, 96.0, 126.0, 80.0, 0.0, 0.0, 0.0, 1.6689765294567947E9, 0.0, 2022-11-20 15:35:29.456
48.0, -13354.899091112506, -628.0393157052179, -40479.2550777501, -40533.70392724323, -30375.081941495177, -33009.458542997665, -29124.74770840975, -12081.363747282476, -29569.167443414623, -7661.820371367976, -33843.55859083636, -37941.88504718364, -28734.35213975336, -16536.08876896963, -28106.111658348043, -39510.172845145804, 0.09, 0.9520000000000001, -0.108, 192.0, 0.0, 0.0, 0.0, 0.0, 0.0, 0.0, 0.0, 0.0, 0.0, 1.6689765294568014E9, 0.0, 2022-11-20 15:35:29.456
50.0, -13347.321849742157, -672.5863424046448, -40431.802324271484, -40463.58650488693, -30321.840086202636, -32947.70067306765, -29074.4115798964, -12024.81383381055, -29657.702703202096, -7746.0193927311175, -33928.629330233256, -38026.776972624895, -28818.394698905315, -16615.61627574161, -28193.931662312945, -39597.59051771051, 0.09, 0.9520000000000001, -0.108, 192.0, 0.0, 0.0, 0.0, 0.0, 0.0, 0.0, 0.0, 0.0, 0.0, 1.6689765294568088E9, 0.0, 2022-11-20 15:35:29.456
52.0, -13328.747550099797, -609.1744433849387, -40457.48447865063, -40516.76130494611, -30367.504700124828, -32993.81232187895, -29115.605844927533, -12068.757363409683, -29564.27241137891, -7656.187731765239, -33837.814192511345, -37935.961834902984, -28734.173325797718, -16530.880812511543, -28112.2360363288, -39514.10675216994, 0.09, 0.9520000000000001, -0.108, 192.0, 0.0, 0.0, 0.0, 0.0, 0.0, 0.0, 0.0, 0.0, 0.0, 1.668976529456816E9, 0.0, 2022-11-20 15:35:29.456
54.0, -13350.652259665998, -683.8292698656643, -40421.9899084556, -40464.726443854146, -30330.57961828466, -32956.820184805416, -29082.27939394467, -12033.396903681387, -29655.95926713458, -7752.7696195566205, -33921.14149584073, -38027.112248791724, -28822.686233840734, -16622.791185711765, -28196.010374547288, -39602.194977068306, 0.09, 0.9520000000000001, -0.108, 192.0, 0.0, 0.0, 0.0, 0.0, 0.0, 0.0, 0.0, 0.0, 0.0, 1.668976529456823E9, 0.0, 2022-11-20 15:35:29.456
56.0, -13331.4968146678, -618.4951208228017, -40455.47282164965, -40518.10240961342, -30366.655333835526, -33000.361383004354, -29112.23073151478, -12067.840941887014, -29558.550364798353, -7666.111906303395, -33826.81713423933, -37936.90060817011, -28728.74185189508, -16536.6028590921, -28103.004765868758, -39511.60335679095, 0.088, 0.9560000000000001, -0.108, 192.0, 1.0, 96.0, 14.5, 112.0, 126.0, 80.0, 0.0, 0.0, 0.0, 1.6689765294568305E9, 0.0, 2022-11-20 15:35:29.456
58.0, -13366.611405207088, -698.8496421396306, -40448.20850470168, -40495.92947911376, -30344.124775424574, -32982.79291186248, -29095.466923173302, -12050.205415511778, -29662.374217793255, -7772.148581999372, -33936.586551259345, -38042.646711188165, -28835.694949113724, -16649.367409869126, -28204.436982206942, -39619.13759936543, 0.088, 0.9560000000000001, -0.108, 192.0, 0.0, 0.0, 0.0, 0.0, 0.0, 0.0, 0.0, 0.0, 0.0, 1.6689765294568384E9, 0.0, 2022-11-20 15:35:29.456
60.0, -13289.900218236473, -579.5583819816568, -40419.642975287796, -40491.32501975597, -30323.04708040322, -32963.726873842104, -29068.555422849113, -12027.965429778747, -29545.94398092556, -7658.51231318859, -33819.68692775809, -37926.43999176502, -28712.06745053142, -16534.74766430231, -28091.046582585168, -39507.44593232226, 0.088, 0.9560000000000001, -0.108, 192.0, 0.0, 0.0, 0.0, 0.0, 0.0, 0.0, 0.0, 0.0, 0.0, 1.668976529456844E9, 0.0, 2022-11-20 15:35:29.456
62.0, -13376.98261463435, -711.3219155456919, -40461.57484788595, -40519.7117352142, -30359.368665143094, -33003.13299931681, -29111.023737314194, -12065.851636630492, -29651.15364207669, -7755.697698080266, -33929.679862222656, -38033.46014421703, -28820.98750126213, -16642.907755721542, -28191.137694256035, -39606.665325959366, 0.088, 0.9560000000000001, -0.108, 192.0, 0.0, 0.0, 0.0, 0.0, 0.0, 0.0, 0.0, 0.0, 0.0, 1.6689765294568496E9, 0.0, 2022-11-20 15:35:29.456
64.0, -13294.191753171892, -589.1696320974389, -40413.74211475159, -40491.19090928923, -30325.75164148231, -32975.059208280945, -29079.55248112112, -12038.426046183831, -29562.66308577813, -7675.477287230169, -33831.9356837196, -37942.64500649512, -28725.34438673787, -16551.153844732507, -28104.345870536075, -39518.845321994464, 0.088, 0.9560000000000001, -0.108, 192.0, 0.0, 0.0, 0.0, 0.0, 0.0, 0.0, 0.0, 0.0, 0.0, 1.6689765294568572E9, 0.0, 2022-11-20 15:35:29.456
66.0, -13382.12351585907, -711.2548603123261, -40473.93536256973, -40529.14417137434, -30377.25006070734, -33022.15433384828, -29130.112127079028, -12085.744689195715, -29642.81644139486, -7749.372154399414, -33919.956853384596, -38026.26288250242, -28820.875742539854, -16642.01368594333, -28189.237795977333, -39604.74307593621, 0.082, 0.9520000000000001, -0.106, 192.0, 1.0, 72.0, 14.5, 96.0, 126.0, 88.0, 0.0, 0.0, 0.0, 1.6689765294568627E9, 0.0, 2022-11-20 15:35:29.456
68.0, -13300.271427663736, -606.0228474167404, -40415.642013030294, -40479.903278339305, -30323.605874014604, -32969.91830705623, -29072.064646728595, -12031.362894935954, -29578.532824341397, -7695.5938572399455, -33843.625646069726, -37957.710082257996, -28746.60089571487, -16565.235443739348, -28121.75787946676, -39537.57608384801, 0.082, 0.9520000000000001, -0.106, 192.0, 0.0, 0.0, 0.0, 0.0, 0.0, 0.0, 0.0, 0.0, 0.0, 1.6689765294568703E9, 0.0, 2022-11-20 15:35:29.456
70.0, -13380.827114680662, -708.7291131888763, -40467.11808051087, -40511.843921165935, -30377.78650257427, -33014.30887154447, -29116.924597850397, -12075.887569890925, -29641.989426850014, -7748.969822999218, -33920.582702229345, -38022.038402800375, -28825.636664108835, -16634.727017250898, -28175.446769648406, -39596.98702061022, 0.082, 0.9520000000000001, -0.106, 192.0, 0.0, 0.0, 0.0, 0.0, 0.0, 0.0, 0.0, 0.0, 0.0, 1.6689765294568756E9, 0.0, 2022-11-20 15:35:29.456
72.0, -13290.459011847855, -596.6127630010561, -40393.200861597164, -40446.64388258981, -30305.702126705903, -32938.84938226335, -29043.901448714907, -12003.020882966624, -29564.339466612277, -7676.013729097096, -33831.108669174755, -37934.66543372458, -28733.16749729723, -16543.107216728597, -28094.734620420295, -39514.91141497033, 0.082, 0.9520000000000001, -0.106, 192.0, 0.0, 0.0, 0.0, 0.0, 0.0, 0.0, 0.0, 0.0, 0.0, 1.6689765294568813E9, 0.0, 2022-11-20 15:35:29.456
74.0, -13385.141001360536, -702.6717904414882, -40469.71088286768, -40517.87889216887, -30379.105255497132, -33008.564473219456, -29116.209342027825, -12073.741802423216, -29629.67361565514, -7729.702619278743, -33911.28437653594, -38005.453408414534, -28813.454963380693, -16616.890325175562, -28160.56050784117, -39580.223212268735, 0.082, 0.9520000000000001, -0.106, 192.0, 0.0, 0.0, 0.0, 0.0, 0.0, 0.0, 0.0, 0.0, 0.0, 1.6689765294568868E9, 0.0, 2022-11-20 15:35:29.456
76.0, -13295.331692139112, -609.2862021072152, -40387.32235280542, -40439.8936557643, -30299.66715570297, -32923.35962335582, -29038.961713190285, -11996.85180149696, -29579.80687377535, -7690.452956015224, -33842.6868728026, -37949.97637867646, -28744.768052669533, -16550.684458098945, -28111.297263061675, -39524.38855461938, 0.09, 0.9520000000000001, -0.11, 192.0, 1.0, 104.0, 14.5, 96.0, 126.0, 72.0, 0.0, 0.0, 0.0, 1.6689765294568925E9, 0.0, 2022-11-20 15:35:29.456
78.0, -13407.492745815844, -720.4414272834572, -40499.326944270964, -40545.79622099355, -30406.620252921613, -33030.11155487437, -29146.54065925368, -12105.056596405102, -29624.309196985865, -7722.684171519777, -33906.85873113379, -38003.88878630266, -28810.70569881269, -16606.720281448397, -28165.790816043715, -39574.32235173254, 0.09, 0.9520000000000001, -0.11, 192.0, 0.0, 0.0, 0.0, 0.0, 0.0, 0.0, 0.0, 0.0, 0.0, 1.668976529456898E9, 0.0, 2022-11-20 15:35:29.456
80.0, -13300.293779408192, -620.6408882905112, -40388.32818130591, -40432.47287660514, -30288.04424858621, -32923.56078905592, -29035.22897186625, -11994.102536928956, -29604.304385698368, -7721.030142430084, -33874.78397784042, -37979.97241973548, -28772.4395123052, -16575.94192933344, -28141.89680122099, -39548.37197641993, 0.09, 0.9520000000000001, -0.11, 192.0, 0.0, 0.0, 0.0, 0.0, 0.0, 0.0, 0.0, 0.0, 0.0, 1.6689765294569037E9, 0.0, 2022-11-20 15:35:29.456
82.0, -13380.536542002743, -689.6407234240442, -40484.77595863056, -40540.320043602, -30392.40454344804, -33027.854028684385, -29133.040205602672, -12092.293750321121, -29597.598862361774, -7707.641447501355, -33886.51864367946, -37981.5146901029, -28784.487102566614, -16590.67172892949, -28142.924981465934, -39552.283531699606, 0.09, 0.9520000000000001, -0.11, 192.0, 0.0, 0.0, 0.0, 0.0, 0.0, 0.0, 0.0, 0.0, 0.0, 1.6689765294569092E9, 0.0, 2022-11-20 15:35:29.456
84.0, -13299.802041030174, -623.4348563474246, -40385.51186150454, -40441.3465191539, -30292.313431777173, -32932.94852172715, -29036.771242233666, -11996.85180149696, -29598.71644958454, -7719.733741251677, -33864.032788757424, -37971.92579173158, -28771.63484950481, -16585.32966200467, -28141.516821565252, -39555.79275557909, 0.09, 0.9520000000000001, -0.11, 192.0, 0.0, 0.0, 0.0, 0.0, 0.0, 0.0, 0.0, 0.0, 0.0, 1.6689765294569147E9, 0.0, 2022-11-20 15:35:29.456
86.0, -13366.007908106794, -665.031452778751, -40468.705054367194, -40533.43570630976, -30384.58143288868, -33021.37202279235, -29124.3230252651, -12084.336529295031, -29586.60180408976, -7695.504450262124, -33865.95503878058, -37965.197916650526, -28778.943869941697, -16587.363670750103, -28134.90070520648, -39553.378767177914, 0.088, 0.9520000000000001, -0.11, 192.0, 1.0, 96.0, 14.5, 96.0, 126.0, 72.0, 0.0, 0.0, 0.0, 1.6689765294569201E9, 0.0, 2022-11-20 15:35:29.456
88.0, -13305.814660288652, -632.9119959964748, -40377.59934396736, -40427.22021665814, -30288.625393942046, -32923.20316114464, -29032.7032247428, -11989.453374082254, -29604.77377233193, -7718.213822628716, -33872.45939641707, -37978.5642598348, -28780.486140309113, -16589.777659151277, -28147.842365246102, -39558.74318584719, 0.088, 0.9520000000000001, -0.11, 192.0, 0.0, 0.0, 0.0, 0.0, 0.0, 0.0, 0.0, 0.0, 0.0, 1.6689765294569256E9, 0.0, 2022-11-20 15:35:29.456
90.0, -13364.26447203928, -658.9741300313628, -40470.4037869458, -40527.60190100693, -30379.39582817505, -33016.67815645673, -29119.71856590731, -12082.794258927615, -29575.671801051118, -7674.0467755850295, -33854.868573530744, -37947.89766644212, -28759.587259243403, -16561.480350670856, -28115.119411363532, -39522.89098774087, 0.088, 0.9520000000000001, -0.11, 192.0, 0.0, 0.0, 0.0, 0.0, 0.0, 0.0, 0.0, 0.0, 0.0, 1.668976529456931E9, 0.0, 2022-11-20 15:35:29.456
92.0, -13319.53863138421, -653.2967869397148, -40383.12022484782, -40426.52731258003, -30287.93248986393, -32921.07974542138, -29032.367948575968, -11992.739080517184, -29626.5443714314, -7734.2176716587155, -33891.48073094854, -37992.33293441927, -28792.39962010379, -16597.57841796618, -28156.939525239413, -39567.54977316258, 0.088, 0.9520000000000001, -0.11, 192.0, 0.0, 0.0, 0.0, 0.0, 0.0, 0.0, 0.0, 0.0, 0.0, 1.6689765294569368E9, 0.0, 2022-11-20 15:35:29.456
94.0, -13358.363611503079, -649.5193421267679, -40466.38047294384, -40524.49500852764, -30380.69222935346, -33011.89488314329, -29120.120897307504, -12084.828267673049, -29570.24032714848, -7675.9913773526405, -33847.64896007168, -37945.14840187412, -28749.0372358605, -16554.104275000605, -28108.592701982583, -39516.8783684824, 0.088, 0.9520000000000001, -0.11, 192.0, 0.0, 0.0, 0.0, 0.0, 0.0, 0.0, 0.0, 0.0, 0.0, 1.6689765294569423E9, 0.0, 2022-11-20 15:35:29.456
96.0, -13333.910803068973, -670.5076301703012, -40399.41464655574, -40435.937396995716, -30310.641862230525, -32937.240056662566, -29051.478690085256, -12011.872173770926, -29634.009854079468, -7748.8357125324865, -33902.38838224273, -38008.29207996036, -28809.40929763428, -16613.224639084892, -28174.57505161465, -39580.31261924656, 0.09, 0.9560000000000001, -0.112, 192.0, 1.0, 104.0, 14.5, 112.0, 126.0, 64.0, 0.0, 0.0, 0.0, 1.668976529456948E9, 0.0, 2022-11-20 15:35:29.456
98.0, -13345.198434018903, -637.9411384989189, -40454.48934489362, -40509.07230485348, -30371.528014126783, -32997.96974634764, -29107.201589012337, -12073.71945067876, -29559.489138065477, -7664.212008024694, -33834.79670700988, -37934.62073023566, -28743.538706724492, -16541.386132405536, -28099.27202454472, -39505.791903232566, 0.09, 0.9560000000000001, -0.112, 192.0, 0.0, 0.0, 0.0, 0.0, 0.0, 0.0, 0.0, 0.0, 0.0, 1.6689765294569535E9, 0.0, 2022-11-20 15:35:29.456
100.0, -13355.234367279336, -698.9837526063625, -40420.84996948838, -40453.21529545967, -30320.163705368486, -32943.23032417659, -29060.66525705639, -12021.908107031359, -29651.086586843325, -7754.311889924037, -33921.007385373996, -38022.61954815621, -28823.08856524093, -16625.071063646206, -28181.437037162428, -39588.71687516176, 0.09, 0.9560000000000001, -0.112, 192.0, 0.0, 0.0, 0.0, 0.0, 0.0, 0.0, 0.0, 0.0, 0.0, 1.6689765294569607E9, 0.0, 2022-11-20 15:35:29.456
102.0, -13345.98074507484, -640.5339408557345, -40464.592333387416, -40523.19860734923, -30368.398769903037, -32992.44886546718, -29105.502856433734, -12067.975052353746, -29563.154824156147, -7669.03998482704, -33839.82584951232, -37942.3544338172, -28738.286046777495, -16539.955620760396, -28099.629652456006, -39504.04846716505, 0.09, 0.9560000000000001, -0.112, 192.0, 0.0, 0.0, 0.0, 0.0, 0.0, 0.0, 0.0, 0.0, 0.0, 1.6689765294569662E9, 0.0, 2022-11-20 15:35:29.456
104.0, -13364.733858672842, -711.5230812457897, -40434.55158883949, -40480.88675509534, -30338.492135821838, -32955.56848711592, -29075.909146774906, -12032.14520599189, -29666.59869749531, -7780.955169314763, -33941.638045506246, -38050.201600814056, -28838.511268915092, -16643.779473755298, -28206.515694441285, -39609.83927367202, 0.09, 0.9560000000000001, -0.112, 192.0, 0.0, 0.0, 0.0, 0.0, 0.0, 0.0, 0.0, 0.0, 0.0, 1.6689765299368837E9, 0.0, 2022-11-20 15:35:29.936
106.0, -13311.939038269406, -604.4805770493242, -40430.48357134862, -40498.32111577048, -30339.676778277968, -32967.39255993278, -29076.333829919557, -12036.995534538692, -29549.386149571677, -7667.095383059429, -33824.604311538256, -37933.83841917973, -28721.231665758096, -16530.61259157808, -28098.64617569997, -39501.56742353051, 0.089, 0.9560000000000001, -0.111, 192.0, 1.0, 96.0, 14.5, 112.0, 126.0, 72.0, 0.0, 0.0, 0.0, 1.6689765299369335E9, 0.0, 2022-11-20 15:35:29.936
108.0, -13368.220730807869, -703.8787846420747, -40438.66430981926, -40485.82649061996, -30335.452298575914, -32963.10102499736, -29074.635097340954, -12031.407598424865, -29652.15947057718, -7756.72587832521, -33926.37180404327, -38027.402821469645, -28818.41705064977, -16624.15464212354, -28189.70718261089, -39596.27176478765, 0.089, 0.9560000000000001, -0.111, 192.0, 0.0, 0.0, 0.0, 0.0, 0.0, 0.0, 0.0, 0.0, 0.0, 1.668976529937009E9, 0.0, 2022-11-20 15:35:29.937
110.0, -13312.028445247228, -605.3299433386259, -40434.57394058394, -40499.50575822661, -30340.81671724519, -32970.25358322306, -29074.500986874224, -12036.101464760479, -29559.019751431915, -7663.273234757571, -33827.62179703973, -37928.74222144392, -28717.63303490079, -16518.02855944974, -28093.907605875447, -39503.556728787036, 0.089, 0.9560000000000001, -0.111, 192.0, 0.0, 0.0, 0.0, 0.0, 0.0, 0.0, 0.0, 0.0, 0.0, 1.6689765299370208E9, 0.0, 2022-11-20 15:35:29.937
112.0, -13370.590015720132, -707.9915056218512, -40456.0986704944, -40505.85365365192, -30354.048949962733, -32986.34683923088, -29093.254100472226, -12053.312307991066, -29667.939802162626, -7767.767640086132, -33944.94610368563, -38044.63601644469, -28837.952475303708, -16632.178918382993, -28210.986043332345, -39616.79066619762, 0.089, 0.9560000000000001, -0.111, 192.0, 0.0, 0.0, 0.0, 0.0, 0.0, 0.0, 0.0, 0.0, 0.0, 1.6689765299370265E9, 0.0, 2022-11-20 15:35:29.937
114.0, -13273.494037806278, -576.5185447357351, -40400.91221343425, -40472.7507201136, -30311.42417328646, -32939.78815553047, -29046.136623160437, -12010.285199914599, -29550.48138504999, -7661.663909156789, -33817.02707016791, -37930.12802960015, -28709.496999919058, -16511.25598087978, -28096.343946021076, -39500.58394677448, 0.089, 0.9560000000000001, -0.111, 192.0, 0.0, 0.0, 0.0, 0.0, 0.0, 0.0, 0.0, 0.0, 0.0, 1.6689765299370315E9, 0.0, 2022-11-20 15:35:29.937
116.0, -13351.412218977479, -681.9517233314185, -40449.32609192444, -40507.082999596954, -30346.605819059114, -32975.46153968114, -29084.827492812576, -12046.249156743188, -29635.1944965356, -7740.744381039665, -33912.31255678088, -38023.08893478977, -28801.139152185817, -16605.848563414642, -28180.632374362038, -39590.81793914055, 0.0885, 0.9570000000000001, -0.10750000000000001, 192.0, 1.0, 96.0, 14.5, 120.0, 126.0, 96.0, 0.0, 0.0, 0.0, 1.6689765299370382E9, 0.0, 2022-11-20 15:35:29.937
118.0, -13270.320090093624, -566.4379079863916, -40400.59928901187, -40467.185135744236, -30299.868321403068, -32929.03696644747, -29039.632265523946, -12000.226914909712, -29552.94007694007, -7661.730964390155, -33817.76467773494, -37936.63238723664, -28707.55239815145, -16510.808945990677, -28099.383783266996, -39503.66848750931, 0.0885, 0.9570000000000001, -0.10750000000000001, 192.0, 0.0, 0.0, 0.0, 0.0, 0.0, 0.0, 0.0, 0.0, 0.0, 1.6689765299370437E9, 0.0, 2022-11-20 15:35:29.937
120.0, -13363.795085405718, -686.2656100112928, -40471.20844974619, -40526.819589950996, -30364.286048923263, -32995.04166782399, -29106.732202378775, -12065.71752616376, -29627.661958654164, -7727.57920355549, -33911.59730095832, -38025.033536557385, -28797.27230039505, -16600.10416508963, -28183.29223195222, -39582.950125092284, 0.0885, 0.9570000000000001, -0.10750000000000001, 192.0, 0.0, 0.0, 0.0, 0.0, 0.0, 0.0, 0.0, 0.0, 0.0, 1.6689765299370492E9, 0.0, 2022-11-20 15:35:29.937
122.0, -13276.891502963485, -582.8887919054976, -40397.693562232686, -40464.01118803158, -30298.70603069139, -32934.602550816846, -29040.906314957898, -12000.785708521094, -29571.357914371245, -7682.339272777948, -33839.26705590094, -37964.92969571706, -28720.6281686578, -16530.634943322533, -28120.41677479944, -39520.96873771772, 0.0885, 0.9570000000000001, -0.10750000000000001, 192.0, 0.0, 0.0, 0.0, 0.0, 0.0, 0.0, 0.0, 0.0, 0.0, 1.6689765299370549E9, 0.0, 2022-11-20 15:35:29.937
