%OpenBCI Raw EEG Data
%Number of channels = 16
%Sample Rate = 125 Hz
%Board = OpenBCI_GUI$BoardCytonSerialDaisy
Sample Index, EXG Channel 0, EXG Channel 1, EXG Channel 2, EXG Channel 3, EXG Channel 4, EXG Channel 5, EXG Channel 6, EXG Channel 7, EXG Channel 8, EXG Channel 9, EXG Channel 10, EXG Channel 11, EXG Channel 12, EXG Channel 13, EXG Channel 14, EXG Channel 15, Accel Channel 0, Accel Channel 1, Accel Channel 2, Other, Other, Other, Other, Other, Other, Other, Analog Channel 0, Analog Channel 1, Analog Channel 2, Timestamp, Other, Timestamp (Formatted)
0.0, -21328.816870309936, -20804.377890155065, -29952.656323034327, -17163.345773618912, -11901.4098526728, -15196.682834229809, 26533.129994050265, -14907.540667955956, 0.0, 0.0, 0.0, 0.0, 0.0, 0.0, 0.0, 0.0, 0.0, 0.0, 0.0, 192.0, 0.0, 0.0, 0.0, 0.0, 0.0, 0.0, 0.0, 0.0, 0.0, 1.662064995418852E9, 0.0, 2022-09-01 16:43:15.418
46.0, -21412.345339339416, -20893.382536576097, -30020.873847111925, -17257.401914286842, -11965.31349007052, -15287.475620207266, 26888.768600078656, -14989.236293940103, -25343.54780239437, -2357.0585080454957, -28197.239720492333, -26857.006771207663, -8500.748396009016, 7158.36967925664, -9000.064015396121, -21548.042779927586, 0.178, 0.8160000000000001, -0.492, 192.0, 2.5, 72.0, 12.5, 64.0, 120.0, 80.0, 0.0, 0.0, 0.0, 1.6620649954188583E9, 0.0, 2022-09-01 16:43:15.418
48.0, -21325.329998174908, -20792.509113849297, -29947.426014831784, -17161.11059917338, -11891.306864179, -15188.725613203718, 26563.170738598197, -14895.180153272171, -25389.63709946121, -2358.2878539905378, -28231.549648231226, -26878.240928440206, -8544.580166885873, 7182.621321990648, -9042.040591483188, -21567.64525981489, 0.178, 0.8160000000000001, -0.492, 192.0, 0.0, 0.0, 0.0, 0.0, 0.0, 0.0, 0.0, 0.0, 0.0, 1.6620649954188628E9, 0.0, 2022-09-01 16:43:15.418
50.0, -21407.852638703902, -20887.14639987307, -30020.002129078166, -17259.167702098814, -11951.500111997142, -15286.536846940142, 26862.013561965654, -14983.44719212618, -25322.648921328655, -2338.5736153809567, -28179.179510972444, -26838.186602376296, -8481.615302755274, 7176.6981097099915, -8982.786116932168, -21527.188602350787, 0.178, 0.8160000000000001, -0.492, 192.0, 0.0, 0.0, 0.0, 0.0, 0.0, 0.0, 0.0, 0.0, 0.0, 1.6620649954188683E9, 0.0, 2022-09-01 16:43:15.418
52.0, -21349.201661253173, -20819.0629862622, -29976.639744834873, -17187.68682333074, -11913.055111534013, -15220.06275893006, 26585.63424177578, -14919.543554728456, -25404.009271145973, -2389.200316572227, -28257.83529971067, -26902.738440363224, -8563.623853161795, 7162.70591768097, -9066.292234217195, -21596.41195492887, 0.178, 0.8160000000000001, -0.492, 192.0, 0.0, 0.0, 0.0, 0.0, 0.0, 0.0, 0.0, 0.0, 0.0, 1.6620649954188745E9, 0.0, 2022-09-01 16:43:15.418
54.0, -21392.31817630746, -20876.685783467983, -30005.76406786014, -17243.677943191284, -11937.55262345703, -15277.909073580395, 26824.909666169842, -14970.237311153092, -25325.576999852303, -2331.264594944071, -28178.687772594425, -26836.35375933096, -8481.592951010818, 7180.766127200857, -8992.218553092307, -21531.72600647521, 0.178, 0.8160000000000001, -0.492, 192.0, 0.0, 0.0, 0.0, 0.0, 0.0, 0.0, 0.0, 0.0, 0.0, 1.6620649954188805E9, 0.0, 2022-09-01 16:43:15.418
56.0, -21357.04712355699, -20836.854974848626, -29981.60183210395, -17201.25433221511, -11921.54877442703, -15224.4437008433, 26631.343559186884, -14928.014865877018, -25407.74201247001, -2386.696921193233, -28253.58846826416, -26905.577111909046, -8560.606367660328, 7145.830350617212, -9065.040536527698, -21601.5975596425, 0.17, 0.8200000000000001, -0.496, 192.0, 2.5, 40.0, 12.5, 80.0, 120.0, 64.0, 0.0, 0.0, 0.0, 1.6620649954188867E9, 0.0, 2022-09-01 16:43:15.418
58.0, -21387.870179160855, -20878.496274768862, -29990.810750819535, -17246.94129788176, -11926.019123318092, -15265.34739319651, 26778.708610380723, -14962.302441871458, -25330.092052232274, -2327.8000745534987, -28172.138711469022, -26838.633637265404, -8483.49284928952, 7188.835106949224, -8993.961989159821, -21527.0321401396, 0.17, 0.8200000000000001, -0.496, 192.0, 0.0, 0.0, 0.0, 0.0, 0.0, 0.0, 0.0, 0.0, 0.0, 1.6620649954188921E9, 0.0, 2022-09-01 16:43:15.418
60.0, -21377.454266244684, -20855.60808844663, -29995.817541577526, -17218.621637656885, -11937.55262345703, -15239.73229405073, 26674.303612029984, -14945.248060852058, -25410.670090993655, -2407.2828778365706, -28262.842090468657, -26922.966769095277, -8566.1719520297, 7141.717629637436, -9066.180475494919, -21608.057213790085, 0.17, 0.8200000000000001, -0.496, 192.0, 0.0, 0.0, 0.0, 0.0, 0.0, 0.0, 0.0, 0.0, 0.0, 1.662064995418897E9, 0.0, 2022-09-01 16:43:15.418
62.0, -21388.876007661343, -20873.98122238889, -29990.050791508056, -17231.093911062948, -11925.773254129082, -15270.39888744341, 26724.14800216532, -14966.236348895593, -25332.997779011464, -2329.051772242996, -28173.85979579208, -26831.8834104399, -8496.00982618449, 7188.522182526849, -8999.795794462658, -21520.81835518102, 0.17, 0.8200000000000001, -0.496, 192.0, 0.0, 0.0, 0.0, 0.0, 0.0, 0.0, 0.0, 0.0, 0.0, 1.6620649954189014E9, 0.0, 2022-09-01 16:43:15.418
64.0, -21376.18021681073, -20847.0697220647, -29987.994431018167, -17196.046375757025, -11937.329106012477, -15237.161843438369, 26725.958493466198, -14955.328697601402, -25408.68078573713, -2404.1536336128274, -28256.896526443546, -26905.51005667568, -8567.73657414157, 7107.720626320914, -9062.51478940425, -21599.94353055281, 0.17, 0.8200000000000001, -0.496, 192.0, 0.0, 0.0, 0.0, 0.0, 0.0, 0.0, 0.0, 0.0, 0.0, 1.662064995418906E9, 0.0, 2022-09-01 16:43:15.418
66.0, -21345.379512951316, -20827.154317755023, -29934.730223981172, -17177.941462748226, -11888.468192633176, -15233.987895725715, 26677.835187653924, -14939.23544159358, -25317.664482315122, -2288.7962804789877, -28145.070748933646, -26792.991375087666, -8478.486058531531, 7223.368552132672, -8981.959102387322, -21491.44816296675, 0.168, 0.8240000000000001, -0.496, 192.0, 2.5, 32.0, 12.5, 96.0, 120.0, 64.0, 0.0, 0.0, 0.0, 1.6620649954189131E9, 0.0, 2022-09-01 16:43:15.418
68.0, -21370.435818485716, -20847.874384865092, -29979.299602425053, -17201.097870003923, -11934.378675744376, -15238.882927761428, 26775.35584871243, -14960.223729637115, -25380.942270868098, -2383.4559182472135, -28219.658520181005, -26881.012544752666, -8533.40429465822, 7118.158890981543, -9023.73451277429, -21569.45575111577, 0.168, 0.8240000000000001, -0.496, 192.0, 0.0, 0.0, 0.0, 0.0, 0.0, 0.0, 0.0, 0.0, 0.0, 1.66206499541892E9, 0.0, 2022-09-01 16:43:15.418
70.0, -21355.773074123037, -20843.448739462943, -29953.55039281254, -17197.521590891076, -11901.4098526728, -15236.670105060353, 26627.096727740376, -14944.309287584936, -25332.081357488794, -2301.0897399294067, -28157.52067059525, -26812.83972416398, -8490.354834837299, 7221.848633509712, -8989.670454224402, -21489.72707864369, 0.168, 0.8240000000000001, -0.496, 192.0, 0.0, 0.0, 0.0, 0.0, 0.0, 0.0, 0.0, 0.0, 0.0, 1.6620649954189425E9, 0.0, 2022-09-01 16:43:15.418
72.0, -21392.295824563007, -20872.237786321377, -30002.187788747287, -17221.236791758158, -11953.109437597925, -15256.026715758648, 26809.174038073306, -14979.267415913037, -25394.040393118907, -2409.7415697266542, -28241.607933236115, -26906.47118168726, -8550.682193122173, 7106.983018753889, -9042.800550794667, -21579.067001231553, 0.168, 0.8240000000000001, -0.496, 192.0, 0.0, 0.0, 0.0, 0.0, 0.0, 0.0, 0.0, 0.0, 0.0, 1.6620649954189484E9, 0.0, 2022-09-01 16:43:15.418
74.0, -21314.712919558635, -20799.527561608265, -29921.520343008084, -17150.06883741246, -11875.191256426724, -15199.901485431372, 26590.819846489412, -14910.982836602074, -25319.452621871547, -2275.9663791616417, -28150.166946669455, -26792.723154154202, -8490.265427859476, 7242.903976786612, -8991.123317613998, -21479.825255849988, 0.168, 0.8240000000000001, -0.496, 192.0, 0.0, 0.0, 0.0, 0.0, 0.0, 0.0, 0.0, 0.0, 0.0, 1.6620649954189548E9, 0.0, 2022-09-01 16:43:15.418
76.0, -21387.512551249572, -20868.572100230707, -29993.64942236536, -17220.58859116895, -11952.774161431094, -15254.126817479948, 26852.9387537168, -14978.373346134824, -25353.986067054997, -2360.0983452914174, -28203.207636261897, -26860.203070664775, -8520.127358451768, 7133.000449299866, -9008.937657944878, -21547.50633806066, 0.168, 0.8220000000000001, -0.498, 192.0, 2.5, 32.0, 12.5, 88.0, 120.0, 56.0, 0.0, 0.0, 0.0, 1.6620649954189665E9, 0.0, 2022-09-01 16:43:15.418
78.0, -21312.433041624194, -20798.052346474215, -29908.28811029054, -17155.522663059553, -11869.53626507953, -15197.979235408216, 26557.426340273185, -14907.272447022493, -25327.879229531198, -2286.114071144351, -28155.598420572096, -26802.40145950335, -8496.72508200706, 7252.694040858036, -8992.978512403788, -21491.24699726665, 0.168, 0.8220000000000001, -0.498, 192.0, 0.0, 0.0, 0.0, 0.0, 0.0, 0.0, 0.0, 0.0, 0.0, 1.6620649954189732E9, 0.0, 2022-09-01 16:43:15.418
80.0, -21394.486295519626, -20874.38355378909, -29993.314146198532, -17244.907289136325, -11957.959766144726, -15277.707907880296, 26871.73657080371, -14993.371366664334, -25352.44379668758, -2371.654197174811, -28193.81990359067, -26867.84736726849, -8510.046721702423, 7130.251184731864, -8992.173849603398, -21550.03208518411, 0.168, 0.8220000000000001, -0.498, 192.0, 0.0, 0.0, 0.0, 0.0, 0.0, 0.0, 0.0, 0.0, 0.0, 1.6620649954189792E9, 0.0, 2022-09-01 16:43:15.418
82.0, -21314.578809091905, -20800.667500575484, -29923.241427331144, -17172.599395823407, -11880.73448905164, -15208.372796579933, 26522.043528800434, -14919.320037283904, -25345.894735562175, -2311.818577267954, -28175.2009004594, -26826.384881303893, -8522.742512553039, 7220.641639309125, -9003.483832297783, -21519.074919113507, 0.168, 0.8220000000000001, -0.498, 192.0, 0.0, 0.0, 0.0, 0.0, 0.0, 0.0, 0.0, 0.0, 0.0, 1.662064995418986E9, 0.0, 2022-09-01 16:43:15.418
84.0, -21386.19379832671, -20870.85197816515, -30003.03715503659, -17252.26101306212, -11954.31643179851, -15281.395945715421, 26877.9950592512, -14995.897113787785, -25346.00649428445, -2375.4092902433026, -28195.317470469174, -26864.27108815564, -8511.25371590301, 7110.626353100104, -8991.950332158844, -21558.391637610395, 0.168, 0.8220000000000001, -0.498, 192.0, 0.0, 0.0, 0.0, 0.0, 0.0, 0.0, 0.0, 0.0, 0.0, 1.6620649954189923E9, 0.0, 2022-09-01 16:43:15.418
86.0, -21303.894675242267, -20783.657823044996, -29931.466869290696, -17163.591642807918, -11882.522628608063, -15204.036558155603, 26507.38078443775, -14916.23549654907, -25348.621648385724, -2299.212193395161, -28174.820920803657, -26817.31007305504, -8520.909669507702, 7220.418121864573, -9010.569335290114, -21526.8309744395, 0.17200000000000001, 0.8200000000000001, -0.504, 192.0, 2.5, 48.0, 12.5, 80.0, 120.0, 32.0, 0.0, 0.0, 0.0, 1.6620649954189987E9, 0.0, 2022-09-01 16:43:15.418
88.0, -21392.832266429934, -20877.870425924117, -30011.03907955159, -17250.159949083325, -11961.580748746484, -15288.570855685575, 26881.303117430583, -15001.373291179336, -25340.038578514886, -2360.858304602898, -28188.92487155496, -26853.27402988363, -8505.419910600176, 7129.379466698107, -9002.50035554175, -21557.497567832183, 0.17200000000000001, 0.8200000000000001, -0.504, 192.0, 0.0, 0.0, 0.0, 0.0, 0.0, 0.0, 0.0, 0.0, 0.0, 1.6620649954190052E9, 0.0, 2022-09-01 16:43:15.419
90.0, -21295.870398982814, -20777.10876191959, -29920.425107529773, -17142.402189064287, -11882.2544076746, -15185.864589913439, 26516.299130475418, -14901.840973119854, -25359.21637525754, -2312.332667390426, -28190.422438433463, -26833.671549996325, -8525.201204443121, 7221.7145230429805, -9030.97647797781, -21532.821241953523, 0.17200000000000001, 0.8200000000000001, -0.504, 192.0, 0.0, 0.0, 0.0, 0.0, 0.0, 0.0, 0.0, 0.0, 0.0, 1.6620649954190116E9, 0.0, 2022-09-01 16:43:15.419
92.0, -21376.76136216657, -20863.542957728263, -29988.977907774202, -17236.07835007648, -11955.65753646583, -15273.371669455966, 26879.93966101881, -14990.242122440592, -25307.069755443306, -2333.6562316007894, -28153.407949615474, -26824.35087255846, -8468.852456671293, 7152.804094887269, -8973.040756349654, -21509.150744575352, 0.17200000000000001, 0.8200000000000001, -0.504, 192.0, 0.0, 0.0, 0.0, 0.0, 0.0, 0.0, 0.0, 0.0, 0.0, 1.662064995419018E9, 0.0, 2022-09-01 16:43:15.419
94.0, -21299.625492051306, -20777.44403808642, -29925.186029098753, -17156.23791888212, -11895.821916558973, -15186.021052124626, 26539.58964819785, -14911.698092424644, -25372.247442274984, -2331.979850766641, -28198.24554899282, -26845.763843746645, -8536.779408070972, 7198.6475227651035, -9034.373943135017, -21540.890221701888, 0.17200000000000001, 0.8200000000000001, -0.504, 192.0, 0.0, 0.0, 0.0, 0.0, 0.0, 0.0, 0.0, 0.0, 0.0, 1.6620649954190242E9, 0.0, 2022-09-01 16:43:15.419
96.0, -21353.89552758879, -20842.2193935179, -29962.334628383476, -17225.662437160307, -11930.221251275689, -15250.505834878188, 26868.89789925789, -14966.035183195494, -25299.067830928307, -2312.734998790622, -28134.587780784106, -26804.83779964898, -8462.52691299044, 7174.060603864265, -8959.763820143202, -21497.907817114334, 0.17300000000000001, 0.8200000000000001, -0.504, 192.0, 2.5, 56.0, 12.5, 80.0, 120.0, 32.0, 0.0, 0.0, 0.0, 1.6620649954190536E9, 0.0, 2022-09-01 16:43:15.419
98.0, -21324.391224907784, -20808.624721601573, -29945.839040975457, -17179.1037534599, -11908.182431242756, -15204.72946223372, 26573.385485814273, -14921.599915218345, -25362.144453781184, -2329.409400154281, -28199.497246682316, -26851.50824207166, -8538.098160993834, 7191.159688372575, -9023.712161029836, -21546.32169560453, 0.17300000000000001, 0.8200000000000001, -0.504, 192.0, 0.0, 0.0, 0.0, 0.0, 0.0, 0.0, 0.0, 0.0, 0.0, 1.6620649954190638E9, 0.0, 2022-09-01 16:43:15.419
100.0, -21397.883760676832, -20893.874274954116, -29996.801018333557, -17262.967498656213, -11949.846082907448, -15298.65149243492, 26828.530648771604, -15002.088547001906, -25320.816078283322, -2340.138237492828, -28165.455539876886, -26836.666683753334, -8486.577390024351, 7164.1364293261095, -8980.930922142377, -21521.623017981412, 0.17300000000000001, 0.8200000000000001, -0.504, 192.0, 0.0, 0.0, 0.0, 0.0, 0.0, 0.0, 0.0, 0.0, 0.0, 1.662064995419069E9, 0.0, 2022-09-01 16:43:15.419
102.0, -21339.07632101492, -20822.303989208223, -29954.444462590753, -17184.557579106997, -11905.790794586039, -15216.53118330612, 26606.510771097037, -14931.43468277868, -25397.482561765024, -2381.6454269463334, -28234.1648023325, -26892.009603024675, -8555.890149580258, 7150.859493119657, -9043.672268828424, -21573.926100006833, 0.17300000000000001, 0.8200000000000001, -0.504, 192.0, 0.0, 0.0, 0.0, 0.0, 0.0, 0.0, 0.0, 0.0, 0.0, 1.6620649954190748E9, 0.0, 2022-09-01 16:43:15.419
104.0, -21368.55827195147, -20863.87823389509, -29964.614506317917, -17235.810129143018, -11914.172698756778, -15271.225901988257, 26796.96998560071, -14972.96422397664, -25304.47695308649, -2317.272402915049, -28144.780176255725, -26818.78528818909, -8469.232436327033, 7177.413365532561, -8956.72398289728, -21495.35971824643, 0.17300000000000001, 0.8200000000000001, -0.504, 192.0, 0.0, 0.0, 0.0, 0.0, 0.0, 0.0, 0.0, 0.0, 0.0, 1.6620649954190807E9, 0.0, 2022-09-01 16:43:15.419
106.0, -21343.166690250244, -20828.294256722245, -29954.77973875758, -17196.046375757025, -11912.921001067281, -15218.498136818187, 26655.259925754064, -14937.492005526068, -25384.40679125867, -2383.0982903359286, -28219.077374825167, -26886.60048086649, -8544.200187230133, 7145.137446539098, -9020.247640639263, -21564.761884780157, 0.17250000000000001, 0.8180000000000001, -0.499, 192.0, 2.5, 48.0, 12.5, 64.0, 120.0, 72.0, 0.0, 0.0, 0.0, 1.6620649954190867E9, 0.0, 2022-09-01 16:43:15.419
108.0, -21350.542765920494, -20847.31559125371, -29946.666055520305, -17215.715910877694, -11896.850096803915, -15245.655506331386, 26759.53081363807, -14950.813645221431, -25294.642185526158, -2304.7107225311665, -28129.245713859287, -26801.44033449177, -8459.040040855412, 7200.256848365885, -8946.352773470018, -21474.840816836455, 0.17250000000000001, 0.8180000000000001, -0.499, 192.0, 0.0, 0.0, 0.0, 0.0, 0.0, 0.0, 0.0, 0.0, 0.0, 1.6620649954190958E9, 0.0, 2022-09-01 16:43:15.419
110.0, -21367.060705072967, -20846.51092845332, -29977.690276824273, -17209.904457319317, -11936.367981000898, -15230.433968357322, 26706.53482753454, -14955.283994112491, -25387.468980249047, -2390.183793328261, -28234.075395354677, -26898.93864380582, -8555.197245502144, 7128.910080064546, -9031.714085544836, -21571.13213194992, 0.17250000000000001, 0.8180000000000001, -0.499, 192.0, 0.0, 0.0, 0.0, 0.0, 0.0, 0.0, 0.0, 0.0, 0.0, 1.662064995419102E9, 0.0, 2022-09-01 16:43:15.419
112.0, -21362.903280604278, -20855.250460535342, -29956.38906435836, -17217.660512645307, -11903.868544562882, -15252.383381412434, 26707.652414757304, -14960.380191848302, -25316.569246836814, -2304.6883707867114, -28146.724778023337, -26811.610378218935, -8483.425794056153, 7198.267543109363, -8970.358547015017, -21479.44527619425, 0.17250000000000001, 0.8180000000000001, -0.499, 192.0, 0.0, 0.0, 0.0, 0.0, 0.0, 0.0, 0.0, 0.0, 0.0, 1.6620649954191077E9, 0.0, 2022-09-01 16:43:15.419
114.0, -21361.830396870424, -20841.21356501741, -29969.151910442342, -17206.238771228644, -11928.008428574614, -15233.227936414236, 26755.149871724832, -14958.413238336236, -25379.77998015642, -2390.51906949509, -28222.63130219356, -26888.120399489453, -8546.345954697843, 7109.151137966053, -9025.701466286358, -21561.49853008968, 0.17250000000000001, 0.8180000000000001, -0.499, 192.0, 0.0, 0.0, 0.0, 0.0, 0.0, 0.0, 0.0, 0.0, 0.0, 1.6620649954191132E9, 0.0, 2022-09-01 16:43:15.419
116.0, -21347.458225185663, -20835.849146348137, -29940.653436261826, -17201.276683959568, -11901.901591050815, -15249.723523822251, 26659.551460689483, -14955.663973768233, -25309.64020605567, -2283.8118414654546, -28133.134917394513, -26793.952500099243, -8481.771764966461, 7211.611534549182, -8971.453782493327, -21475.57842440348, 0.17225000000000001, 0.8160000000000001, -0.4965, 192.0, 2.5, 48.0, 12.5, 56.0, 120.0, 72.0, 0.0, 0.0, 0.0, 1.6620649954191198E9, 0.0, 2022-09-01 16:43:15.419
118.0, -21381.70109769119, -20858.13383557008, -29987.748561829158, -17212.854887587415, -11946.180396816779, -15254.551500624599, 26800.121581568907, -14977.993366479084, -25377.70126792208, -2392.9777613851743, -28223.279502782763, -26887.002812266688, -8553.900844323736, 7109.419358899518, -9026.193204664374, -21568.427570870826, 0.17225000000000001, 0.8160000000000001, -0.4965, 192.0, 0.0, 0.0, 0.0, 0.0, 0.0, 0.0, 0.0, 0.0, 0.0, 1.6620649954191244E9, 0.0, 2022-09-01 16:43:15.419
120.0, -21350.743931620593, -20833.099881780134, -29947.001331687134, -17182.076535472457, -11897.87827704886, -15239.240555672714, 26618.334843913897, -14948.377305075803, -25329.7791278099, -2287.1198996448397, -28155.978400227836, -26798.266386779116, -8501.709521020593, 7229.627040580159, -8978.002843618733, -21483.0215553071, 0.17225000000000001, 0.8160000000000001, -0.4965, 192.0, 0.0, 0.0, 0.0, 0.0, 0.0, 0.0, 0.0, 0.0, 0.0, 1.662064995419129E9, 0.0, 2022-09-01 16:43:15.419
122.0, -21401.81766770097, -20870.114370598123, -30002.61247189194, -17220.700349891227, -11962.251301080145, -15257.524282637154, 26842.321675100528, -14993.594884108888, -25390.59822447279, -2384.618208958889, -28229.06860459669, -26876.49749237269, -8550.704544866627, 7098.019969227311, -9010.748149245757, -21554.345971863982, 0.17225000000000001, 0.8160000000000001, -0.4965, 192.0, 0.0, 0.0, 0.0, 0.0, 0.0, 0.0, 0.0, 0.0, 0.0, 1.6620649954191337E9, 0.0, 2022-09-01 16:43:15.419
124.0, -21321.64196033978, -20795.68306156195, -29921.69915696373, -17162.988145707626, -11879.371032639865, -15201.577866265521, 26581.36505858482, -14925.399711775746, -25337.758700580445, -2290.3609025908595, -28162.61686833106, -26797.059392578532, -8516.551079338918, 7216.953601474, -8986.496506511749, -21478.8194273495, 0.17225000000000001, 0.8160000000000001, -0.4965, 192.0, 0.0, 0.0, 0.0, 0.0, 0.0, 0.0, 0.0, 0.0, 0.0, 1.662064995419138E9, 0.0, 2022-09-01 16:43:15.419
126.0, -21389.211283828176, -20865.644021707063, -29993.895291554367, -17238.201765799735, -11954.852873665437, -15251.69047733432, 26872.7423993042, -14990.800916051974, -25339.81506107033, -2356.052679545007, -28188.67900236595, -26847.328465858518, -8516.953410739114, 7109.441710643972, -8987.927018156888, -21521.19833483676, 0.174125, 0.8170000000000001, -0.49324999999999997, 192.0, 2.5, 64.0, 12.5, 72.0, 120.0, 88.0, 0.0, 0.0, 0.0, 1.6620649954191427E9, 0.0, 2022-09-01 16:43:15.419
128.0, -21342.31732396094, -20818.50419265082, -29936.987750171156, -17190.525494876565, -11893.944370024727, -15204.10361338897, 26543.031816843966, -14940.598898005355, -25354.477805433013, -2303.5484318194904, -28176.094970237613, -26820.59577948997, -8529.291573678443, 7218.026485207854, -9016.112567915032, -21492.722212400702, 0.174125, 0.8170000000000001, -0.49324999999999997, 192.0, 0.0, 0.0, 0.0, 0.0, 0.0, 0.0, 0.0, 0.0, 0.0, 1.6620649954191473E9, 0.0, 2022-09-01 16:43:15.419
130.0, -21419.453194076206, -20891.683803997494, -30018.124582543922, -17268.533083025584, -11979.685661755284, -15274.086925278536, 26877.838597040012, -15017.39949195379, -25379.243538289495, -2387.3227700379816, -28222.653653938014, -26885.12526573244, -8540.109817994811, 7086.106489432632, -9026.439073853382, -21549.719160761735, 0.174125, 0.8170000000000001, -0.49324999999999997, 192.0, 0.0, 0.0, 0.0, 0.0, 0.0, 0.0, 0.0, 0.0, 0.0, 1.6620649954191515E9, 0.0, 2022-09-01 16:43:15.419
132.0, -21327.1851929647, -20798.566436596684, -29926.325968065976, -17173.001727223604, -11884.3554716534, -15188.367985292434, 26526.022139313478, -14924.349179786346, -25355.707151378054, -2289.0868531569067, -28181.414685417974, -26822.607436490947, -8529.380980656264, 7234.47736912696, -9022.415759851428, -21496.38789849137, 0.174125, 0.8170000000000001, -0.49324999999999997, 192.0, 0.0, 0.0, 0.0, 0.0, 0.0, 0.0, 0.0, 0.0, 0.0, 1.6620649954191563E9, 0.0, 2022-09-01 16:43:15.419
134.0, -21417.03920567503, -20890.40975456354, -30010.100306284465, -17268.354269069943, -11963.525350514097, -15280.658338148396, 26895.496475159704, -15016.01368379756, -25355.34952346677, -2367.4520692172136, -28197.9549763149, -26864.092274199997, -8523.301306164421, 7113.152100223554, -8995.772480460702, -21528.77557620711, 0.174125, 0.8170000000000001, -0.49324999999999997, 192.0, 0.0, 0.0, 0.0, 0.0, 0.0, 0.0, 0.0, 0.0, 0.0, 1.6620649954191608E9, 0.0, 2022-09-01 16:43:15.419
136.0, -21327.386358664797, -20796.577131340164, -29923.9119796648, -17176.913282503283, -11879.661605317784, -15191.541933005088, 26527.25148525852, -14922.583391974378, -25372.940346353098, -2305.180109164728, -28187.986098287834, -26832.285741840096, -8546.748286098038, 7210.516299070871, -9011.262239368229, -21504.568636962016, 0.1750625, 0.8175000000000001, -0.488625, 192.0, 2.5, 64.0, 12.5, 72.0, 120.0, 112.0, 0.0, 0.0, 0.0, 1.6620649954191651E9, 0.0, 2022-09-01 16:43:15.419
138.0, -21417.977978942155, -20888.956891173948, -30005.048812037567, -17271.9752516717, -11950.360173029921, -15277.68555613584, 26899.251568228196, -15007.743538349097, -25356.221241500527, -2350.442391686725, -28179.49243539482, -26847.73079725871, -8518.585088084352, 7109.21819319942, -8971.878465637978, -21508.54724747506, 0.1750625, 0.8175000000000001, -0.488625, 192.0, 0.0, 0.0, 0.0, 0.0, 0.0, 0.0, 0.0, 0.0, 0.0, 1.6620649954191697E9, 0.0, 2022-09-01 16:43:15.419
140.0, -21338.964562292644, -20802.947378509925, -29934.84198270345, -17179.617843582375, -11875.057145959992, -15181.550703233564, 26547.502165735026, -14914.76028141502, -25396.499085008993, -2323.7097053181774, -28209.399069476018, -26850.860041482454, -8564.920254340203, 7191.7855372173235, -9015.710236514835, -21507.519067230114, 0.1750625, 0.8175000000000001, -0.488625, 192.0, 0.0, 0.0, 0.0, 0.0, 0.0, 0.0, 0.0, 0.0, 0.0, 1.6620649954191751E9, 0.0, 2022-09-01 16:43:15.419
142.0, -21408.746708482115, -20873.489484010875, -29992.196558975764, -17258.966536398715, -11929.17071928629, -15267.895492064417, 26895.78704783762, -14995.941817276696, -25342.09493900477, -2337.3889729248253, -28170.395275401508, -26833.69390174078, -8501.217782642578, 7145.740943639392, -8948.856168849012, -21480.58521516147, 0.1750625, 0.8175000000000001, -0.488625, 192.0, 0.0, 0.0, 0.0, 0.0, 0.0, 0.0, 0.0, 0.0, 0.0, 1.66206499541918E9, 0.0, 2022-09-01 16:43:15.419
144.0, -21333.533088390006, -20790.16218068149, -29933.277360591575, -17167.905529487794, -11885.897742020816, -15189.642034726387, 26572.06673289141, -14927.500775754545, -25397.03552687592, -2317.7194378041554, -28211.075450310167, -26850.278896126616, -8564.227350262088, 7182.531915012827, -9003.93086718689, -21510.40244226485, 0.1750625, 0.8175000000000001, -0.488625, 192.0, 0.0, 0.0, 0.0, 0.0, 0.0, 0.0, 0.0, 0.0, 0.0, 1.6620649954191847E9, 0.0, 2022-09-01 16:43:15.419
146.0, -21389.010118128077, -20856.300992524742, -29968.637820319873, -17232.74794015264, -11936.792664145549, -15274.06457353408, 26872.31771615955, -15002.334416190914, -25318.759717793433, -2289.1092049013623, -28141.24860063179, -26795.15949429983, -8487.314997591377, 7164.963443870955, -8937.76970359918, -21468.135293499865, 0.17553125, 0.8187500000000001, -0.4863125, 192.0, 2.5, 64.0, 12.5, 80.0, 120.0, 112.0, 0.0, 0.0, 0.0, 1.66206499541919E9, 0.0, 2022-09-01 16:43:15.419
148.0, -21340.350370448872, -20802.679157576462, -29928.047052389033, -17164.552767819496, -11908.338893453943, -15200.169706364835, 26603.873265251314, -14942.834072450885, -25398.22016933205, -2322.9944494956076, -28205.01812756278, -26843.59572453448, -8565.747268885048, 7170.327862540229, -9012.312771357629, -21527.188602350787, 0.17553125, 0.8187500000000001, -0.4863125, 192.0, 0.0, 0.0, 0.0, 0.0, 0.0, 0.0, 0.0, 0.0, 0.0, 1.662064995419196E9, 0.0, 2022-09-01 16:43:15.419
150.0, -21381.745801180103, -20854.669315179508, -29955.472642835695, -17223.203745270224, -11931.40589373182, -15255.356163424989, 26834.386805818893, -14989.660977084754, -25325.420537641116, -2290.182088635217, -28135.057167417668, -26789.370392485907, -8488.67845400315, 7193.506621540382, -8942.329459468063, -21461.563880630005, 0.17553125, 0.8187500000000001, -0.4863125, 192.0, 0.0, 0.0, 0.0, 0.0, 0.0, 0.0, 0.0, 0.0, 0.0, 1.662064995419202E9, 0.0, 2022-09-01 16:43:15.419
152.0, -21345.580678651415, -20806.97069251188, -29939.848773461435, -17178.097924959413, -11917.50310868062, -15194.849991184474, 26649.80610010697, -14944.041066651473, -25396.186160586618, -2337.724249091655, -28207.074488052665, -26851.17296590483, -8561.098106038346, 7170.931359640523, -9007.775367233202, -21519.79017493608, 0.17553125, 0.8187500000000001, -0.4863125, 192.0, 0.0, 0.0, 0.0, 0.0, 0.0, 0.0, 0.0, 0.0, 0.0, 1.6620649954192076E9, 0.0, 2022-09-01 16:43:15.419
154.0, -21382.03637385802, -20856.904489625038, -29965.419169118308, -17238.09000707746, -11925.437977962254, -15251.377552911945, 26796.880578622888, -14986.956416005662, -25317.373909637205, -2288.9974461790857, -28135.683016262417, -26791.44910472025, -8482.710538233583, 7192.5454965288045, -8944.497578680228, -21454.836005548957, 0.17553125, 0.8187500000000001, -0.4863125, 192.0, 0.0, 0.0, 0.0, 0.0, 0.0, 0.0, 0.0, 0.0, 0.0, 1.6620649954192126E9, 0.0, 2022-09-01 16:43:15.419
156.0, -21366.434856228218, -20826.2155444879, -29966.000314474146, -17211.15615500881, -11928.41075997481, -15205.668235500842, 26700.835132698434, -14956.24511912407, -25401.93055891163, -2356.924397578764, -28226.006415606313, -26872.7423993042, -8565.635510162772, 7142.187016270997, -9017.632486537992, -21534.229401854205, 0.174765625, 0.8193750000000001, -0.48815624999999996, 192.0, 2.5, 56.0, 12.5, 80.0, 120.0, 88.0, 0.0, 0.0, 0.0, 1.6620649954192326E9, 0.0, 2022-09-01 16:43:15.419
158.0, -21379.42121975675, -20850.80246338874, -29965.150948184844, -17249.198824071744, -11913.725663867674, -15247.890680776916, 26754.233450202162, -14979.893264757786, -25334.428290656604, -2288.639818267801, -28153.676170548937, -26806.536532227583, -8499.183773897144, 7193.596028518204, -8956.388706730451, -21469.29758421154, 0.174765625, 0.8193750000000001, -0.48815624999999996, 192.0, 0.0, 0.0, 0.0, 0.0, 0.0, 0.0, 0.0, 0.0, 0.0, 1.6620649954192371E9, 0.0, 2022-09-01 16:43:15.419
160.0, -21371.17342605274, -20829.74712011184, -29972.817596533016, -17230.64687617384, -11925.795605873538, -15220.129814163425, 26752.735883323658, -14966.459866340145, -25398.801314687887, -2355.627996400356, -28224.48649698335, -26877.659783084368, -8557.49947518104, 7138.677792391514, -8999.30405608464, -21545.762901993145, 0.174765625, 0.8193750000000001, -0.48815624999999996, 192.0, 0.0, 0.0, 0.0, 0.0, 0.0, 0.0, 0.0, 0.0, 0.0, 1.662064995419242E9, 0.0, 2022-09-01 16:43:15.419
162.0, -21360.802216625478, -20830.46237593441, -29938.999407172134, -17226.467099960697, -11895.374881669866, -15241.475730118244, 26708.725298491157, -14968.985613463596, -25328.90740977614, -2266.6233499793234, -28137.918190707947, -26791.06912506451, -8487.851439458304, 7230.923441758567, -8936.316840209585, -21464.559014387014, 0.174765625, 0.8193750000000001, -0.48815624999999996, 192.0, 0.0, 0.0, 0.0, 0.0, 0.0, 0.0, 0.0, 0.0, 0.0, 1.662064995419247E9, 0.0, 2022-09-01 16:43:15.419
164.0, -21384.33860353692, -20837.50317543783, -29969.151910442342, -17229.775158140084, -11949.93548988527, -15248.963564510772, 26796.053564078044, -14991.404413152268, -25395.895587908697, -2362.0429470590293, -28219.502057969818, -26875.111684216463, -8558.147675770244, 7119.365885182129, -8997.270047339207, -21555.240041642195, 0.174765625, 0.8193750000000001, -0.48815624999999996, 192.0, 0.0, 0.0, 0.0, 0.0, 0.0, 0.0, 0.0, 0.0, 0.0, 1.6620649954192529E9, 0.0, 2022-09-01 16:43:15.419
166.0, -21337.9363820477, -20798.007642985303, -29914.144267337833, -17190.123163476368, -11892.335044423944, -15226.835337500017, 26663.61947818035, -14956.53569180199, -25328.236857442484, -2253.793448661977, -28132.531420294217, -26776.40638070183, -8496.501564562508, 7235.058514482798, -8950.756067127713, -21464.73782834266, 0.174765625, 0.8193750000000001, -0.48815624999999996, 192.0, 0.0, 0.0, 0.0, 0.0, 0.0, 0.0, 0.0, 0.0, 0.0, 1.6620649954192593E9, 0.0, 2022-09-01 16:43:15.419
0.0, -10710.240687160574, -10439.270489128887, -15003.407299924767, -8619.458510811151, -5980.388042973047, -7635.087684999429, 13485.992072342882, -7491.947113507643, -12709.917153110166, -1176.6628833607297, -14116.64654214937, -13437.824063041695, -4286.0811097718615, 3569.931217423823, -4508.950353735728, -10777.966472860155, 0.17200000000000001, 0.8240000000000001, -0.502, 192.0, 2.5, 48.0, 12.5, 96.0, 120.0, 40.0, 0.0, 0.0, 0.0, 1.662064995993556E9, 0.0, 2022-09-01 16:43:15.993
2.0, -21326.9840272646, -20784.618948056574, -29929.11993612289, -17142.49159604211, -11883.595512341919, -15169.994851350171, 26596.83246574789, -14890.32982472537, -25393.21337857406, -2322.6368215843227, -28205.44281070743, -26842.79106173409, -8543.239062218556, 7215.813662506779, -9015.777291748202, -21549.562698550548, 0.17200000000000001, 0.8240000000000001, -0.502, 192.0, 0.0, 0.0, 0.0, 0.0, 0.0, 0.0, 0.0, 0.0, 0.0, 1.662064995993611E9, 0.0, 2022-09-01 16:43:15.993
4.0, -21378.638908700814, -20852.501195967343, -29970.202442431742, -17215.671207388783, -11922.2640302496, -15234.546689337098, 26859.376056119927, -14952.691191755677, -25312.54593283486, -2284.5494490324795, -28130.050376659678, -26789.504502952637, -8461.856360656782, 7233.985630748944, -8943.871729835479, -21480.428752950284, 0.17200000000000001, 0.8240000000000001, -0.502, 192.0, 0.0, 0.0, 0.0, 0.0, 0.0, 0.0, 0.0, 0.0, 0.0, 1.6620649959936213E9, 0.0, 2022-09-01 16:43:15.993
6.0, -21336.930553547212, -20797.605311585106, -29934.171430369788, -17154.49448281461, -11901.990998028637, -15173.168799062825, 26638.09378601239, -14902.220952775593, -25390.330003539326, -2333.835045556432, -28206.76156363029, -26856.962067718756, -8543.328469196376, 7210.337485115228, -9018.705370271846, -21543.997114181177, 0.17200000000000001, 0.8240000000000001, -0.502, 192.0, 0.0, 0.0, 0.0, 0.0, 0.0, 0.0, 0.0, 0.0, 0.0, 1.6620649959936256E9, 0.0, 2022-09-01 16:43:15.993
8.0, -21366.725428906135, -20838.732521382874, -29945.101433408432, -17203.48950666064, -11909.12120450988, -15229.763416023663, 26818.78528818909, -14946.991496919572, -25306.019223453906, -2266.2657220680385, -28121.981396911313, -26782.21783426021, -8457.184846065622, 7251.397639679628, -8936.71917160978, -21469.118770255896, 0.17, 0.8260000000000001, -0.494, 192.0, 2.5, 40.0, 12.5, 104.0, 120.0, 72.0, 0.0, 0.0, 0.0, 1.6620649959936302E9, 0.0, 2022-09-01 16:43:15.993
10.0, -21342.719655361136, -20799.616968586084, -29937.97122692719, -17169.380744621845, -11901.990998028637, -15189.887903915394, 26685.99357438011, -14916.906048882729, -25381.523416223936, -2337.456028158191, -28202.693546139428, -26854.481024084216, -8531.213823701599, 7201.374435588651, -8998.946428173354, -21546.724027004722, 0.17, 0.8260000000000001, -0.494, 192.0, 0.0, 0.0, 0.0, 0.0, 0.0, 0.0, 0.0, 0.0, 0.0, 1.6620649959936345E9, 0.0, 2022-09-01 16:43:15.993
12.0, -21366.83718762841, -20832.809309102217, -29948.476546821184, -17207.937503807247, -11907.578934142462, -15232.847956758495, 26770.77374109909, -14944.91278468523, -25314.714052047024, -2258.889646397787, -28127.792850469694, -26780.96613657071, -8459.688241444617, 7251.755267590913, -8939.356677455507, -21470.884558067868, 0.17, 0.8260000000000001, -0.494, 192.0, 0.0, 0.0, 0.0, 0.0, 0.0, 0.0, 0.0, 0.0, 0.0, 1.6620649959936388E9, 0.0, 2022-09-01 16:43:15.993
14.0, -21361.18219628122, -20813.74327108184, -29964.83802376247, -17188.133858219848, -11929.081312308468, -15203.500116288677, 26730.317083634985, -14935.726217714098, -25399.8965501662, -2342.1722462382613, -28220.843162637135, -26865.098102700485, -8541.003887773024, 7189.885638938623, -9023.935678474389, -21557.251698643173, 0.17, 0.8260000000000001, -0.494, 192.0, 0.0, 0.0, 0.0, 0.0, 0.0, 0.0, 0.0, 0.0, 0.0, 1.6620649959936433E9, 0.0, 2022-09-01 16:43:15.993
16.0, -21338.115196003342, -20806.233084944855, -29931.802145457525, -17187.01627099708, -11891.262160690088, -15208.573962280032, 26716.86133347289, -14924.259772808526, -25305.72865077599, -2245.5233032135134, -28119.545056765684, -26765.25286021863, -8462.549264734896, 7279.024395826387, -8953.68414565136, -21460.222775962684, 0.17, 0.8260000000000001, -0.494, 192.0, 0.0, 0.0, 0.0, 0.0, 0.0, 0.0, 0.0, 0.0, 0.0, 1.662064995993648E9, 0.0, 2022-09-01 16:43:15.993
18.0, -21366.501911461582, -20827.13196601057, -29973.398741888854, -17209.010387541104, -11930.131844297868, -15217.380549595422, 26778.552148169536, -14942.588203261877, -25380.450532490082, -2348.788362597032, -28208.549703186716, -26864.449902111282, -8535.50535863702, 7167.399784016584, -9010.770500990213, -21558.101064932474, 0.17400000000000002, 0.8300000000000001, -0.502, 192.0, 2.5, 56.0, 12.5, 120.0, 120.0, 40.0, 0.0, 0.0, 0.0, 1.6620649959936523E9, 0.0, 2022-09-01 16:43:15.993
20.0, -21355.594260167392, -20826.103785765623, -29946.576648542483, -17206.529343906564, -11889.87635253386, -15218.20756414027, 26670.257946283575, -14928.707769955132, -25324.86174402973, -2270.7360709591, -28142.65676053247, -26791.180883786787, -8479.000148654002, 7263.6910991300465, -8963.362451000507, -21478.39474420485, 0.17400000000000002, 0.8300000000000001, -0.502, 192.0, 0.0, 0.0, 0.0, 0.0, 0.0, 0.0, 0.0, 0.0, 0.0, 1.6620649959936569E9, 0.0, 2022-09-01 16:43:15.993
22.0, -21387.736068694125, -20843.918126096505, -29987.748561829158, -17222.555544681018, -11933.328143754978, -15233.540860836609, 26830.609361005947, -14952.91470920023, -25400.008308888475, -2369.0613948179957, -28228.21923830739, -26880.65491684138, -8538.276974949476, 7156.089801322199, -9009.474099811805, -21567.26528015915, 0.17400000000000002, 0.8300000000000001, -0.502, 192.0, 0.0, 0.0, 0.0, 0.0, 0.0, 0.0, 0.0, 0.0, 0.0, 1.6620649959936612E9, 0.0, 2022-09-01 16:43:15.993
24.0, -21330.672065099727, -20788.73166903635, -29916.71471795019, -17164.48571258613, -11859.299166119, -15184.724650946218, 26637.199716234176, -14892.341481726347, -25324.86174402973, -2243.958681101642, -28136.644141273995, -26772.49482542215, -8470.215913083066, 7274.576398679781, -8942.351811212518, -21472.046848779544, 0.17400000000000002, 0.8300000000000001, -0.502, 192.0, 0.0, 0.0, 0.0, 0.0, 0.0, 0.0, 0.0, 0.0, 0.0, 1.6620649959936657E9, 0.0, 2022-09-01 16:43:15.993
26.0, -21395.67093797576, -20849.237841276867, -29988.486169396183, -17224.32133249299, -11938.960783357714, -15234.926668992839, 26876.966879006253, -14957.988555191585, -25378.48357897801, -2345.4579526731914, -28207.2085985194, -26856.872660740933, -8518.54038459544, 7172.898313152589, -8977.242884307252, -21556.000000953674, 0.17400000000000002, 0.8300000000000001, -0.502, 192.0, 0.0, 0.0, 0.0, 0.0, 0.0, 0.0, 0.0, 0.0, 0.0, 1.66206499599367E9, 0.0, 2022-09-01 16:43:15.993
28.0, -21325.486460386095, -20788.418744613977, -29915.53007549406, -17161.669392784763, -11865.177674910747, -15179.42728751031, 26602.1298291838, -14892.47559219308, -25331.522563877414, -2257.369727774826, -28145.450728589385, -26786.73288664018, -8486.465631302075, 7282.466564472505, -8961.127276554977, -21487.29073849806, 0.176, 0.8220000000000001, -0.496, 192.0, 2.5, 64.0, 12.5, 88.0, 120.0, 64.0, 0.0, 0.0, 0.0, 1.6620649959936745E9, 0.0, 2022-09-01 16:43:15.993
30.0, -21391.021775129055, -20850.31072501072, -29983.658192593837, -17221.482660947164, -11943.095856081945, -15239.262907417167, 26911.433268956338, -14959.173197647715, -25364.87136660473, -2337.2325107136385, -28189.014278532777, -26845.137994901896, -8505.934000722647, 7174.932321898023, -8978.047547107642, -21535.0340646546, 0.176, 0.8220000000000001, -0.496, 192.0, 0.0, 0.0, 0.0, 0.0, 0.0, 0.0, 0.0, 0.0, 0.0, 1.6620649959936788E9, 0.0, 2022-09-01 16:43:15.993
32.0, -21325.039425496987, -20783.97074746737, -29915.842999916436, -17154.2486136256, -11872.956081981192, -15179.62845321041, 26566.1211688663, -14896.923589339685, -25356.601221156267, -2267.9197511577313, -28161.745150297305, -26796.500598967148, -8508.30328563491, 7269.681366644069, -8989.066957124109, -21494.91268335732, 0.176, 0.8220000000000001, -0.496, 192.0, 0.0, 0.0, 0.0, 0.0, 0.0, 0.0, 0.0, 0.0, 0.0, 1.662064995993683E9, 0.0, 2022-09-01 16:43:15.993
34.0, -21412.613560272883, -20871.813103176726, -30005.49584692667, -17249.042361860556, -11956.529254499586, -15257.054896003592, 26918.161144037385, -14983.178971192716, -25361.11627353624, -2332.560996122479, -28189.215444232876, -26842.16521288934, -8500.68134077565, 7170.841952662701, -8976.840552907057, -21528.619113995926, 0.176, 0.8220000000000001, -0.496, 192.0, 0.0, 0.0, 0.0, 0.0, 0.0, 0.0, 0.0, 0.0, 0.0, 1.6620649959936876E9, 0.0, 2022-09-01 16:43:15.993
36.0, -21327.766338320536, -20790.49745684832, -29923.93433140926, -17165.603299808896, -11873.090192447924, -15180.611929966442, 26547.144537823744, -14900.768089385998, -25369.609936429257, -2285.7787949775216, -28184.231005219342, -26823.30034056906, -8524.843576531837, 7259.399564194628, -9000.891029940967, -21514.515163244625, 0.176, 0.8220000000000001, -0.496, 192.0, 0.0, 0.0, 0.0, 0.0, 0.0, 0.0, 0.0, 0.0, 0.0, 1.6620649959936929E9, 0.0, 2022-09-01 16:43:15.993
38.0, -21410.66895850527, -20877.60220499065, -29996.51044565564, -17251.188129328268, -11946.292155539055, -15264.609785629485, 26924.464335973782, -14984.609482837855, -25347.839337329788, -2330.594042610412, -28179.71595283937, -26845.51797455764, -8491.740642993527, 7174.194714330997, -8959.674413165381, -21523.724081960212, 0.176, 0.8220000000000001, -0.496, 192.0, 2.5, 64.0, 12.5, 88.0, 120.0, 64.0, 0.0, 0.0, 0.0, 1.6620649959936972E9, 0.0, 2022-09-01 16:43:15.993
40.0, -21317.59629459337, -20781.959090466393, -29903.549540466018, -17144.212680365166, -11865.468247588666, -15167.960842604738, 26550.094968091842, -14886.775897356976, -25364.69255264909, -2288.148079889784, -28171.579917857638, -26819.075860867008, -8514.606477571306, 7250.9506047905215, -8986.45180302284, -21502.936959616778, 0.176, 0.8220000000000001, -0.496, 192.0, 0.0, 0.0, 0.0, 0.0, 0.0, 0.0, 0.0, 0.0, 0.0, 1.6620649959937017E9, 0.0, 2022-09-01 16:43:15.993
42.0, -21420.19080164323, -20888.80042896276, -29988.70968684074, -17244.683771691773, -11951.142484085856, -15263.268680962168, 26927.884152875442, -14984.140096204294, -25346.051197773362, -2323.799112295999, -28164.315600909664, -26826.02725339261, -8481.883523688737, 7183.068356879754, -8950.48784619425, -21491.895197855854, 0.176, 0.8220000000000001, -0.496, 192.0, 0.0, 0.0, 0.0, 0.0, 0.0, 0.0, 0.0, 0.0, 0.0, 1.662064995993706E9, 0.0, 2022-09-01 16:43:15.993
44.0, -21328.928629032212, -20793.20201792741, -29914.0101568711, -17145.419674565754, -11873.87250350386, -15168.072601327016, 26568.892785178756, -14892.721461382087, -25383.31155578036, -2310.4551208561807, -28190.33303145564, -26830.430547050306, -8525.78234979896, 7240.7358575744465, -8993.224381592796, -21495.11384905742, 0.176, 0.8220000000000001, -0.496, 192.0, 0.0, 0.0, 0.0, 0.0, 0.0, 0.0, 0.0, 0.0, 0.0, 1.6620649959937105E9, 0.0, 2022-09-01 16:43:15.993
46.0, -21402.17529561225, -20871.813103176726, -29983.9264135273, -17238.581745455474, -11936.010353089614, -15254.417390157867, 26911.634434656436, -14978.261587412548, -25339.412729670137, -2319.7534465495883, -28161.678095063937, -26819.36643354493, -8478.374299809253, 7186.532877270327, -8950.085514794055, -21479.35586921643, 0.176, 0.8220000000000001, -0.496, 192.0, 0.0, 0.0, 0.0, 0.0, 0.0, 0.0, 0.0, 0.0, 0.0, 1.6620649959937148E9, 0.0, 2022-09-01 16:43:15.993
48.0, -21335.79061457999, -20794.610177828097, -29930.841020445947, -17161.44587534021, -11888.378785655355, -15169.324299016513, 26586.014221431524, -14907.831240633875, -25382.529244724425, -2317.898251759798, -28199.38548796004, -26841.919343700334, -8533.873681291781, 7218.674685797058, -9006.50131779925, -21512.704671943746, 0.176, 0.8240000000000001, -0.492, 192.0, 2.5, 64.0, 12.5, 96.0, 120.0, 80.0, 0.0, 0.0, 0.0, 1.662064995993719E9, 0.0, 2022-09-01 16:43:15.993
50.0, -21393.81574318597, -20864.1241030841, -29976.684448323784, -17227.16000403881, -11924.543908184041, -15238.97233473925, 26882.398352908895, -14968.784447763497, -25322.44775562856, -2294.6524375262784, -28145.629542545026, -26800.948596113754, -8467.086668859323, 7214.293743883818, -8948.766761871191, -21468.291755711052, 0.176, 0.8240000000000001, -0.492, 192.0, 0.0, 0.0, 0.0, 0.0, 0.0, 0.0, 0.0, 0.0, 0.0, 1.6620649959937236E9, 0.0, 2022-09-01 16:43:15.993
52.0, -21326.469937142127, -20781.221482899367, -29932.472697791185, -17152.058142668982, -11879.348680895411, -15163.602252435954, 26622.51462012704, -14900.723385897087, -25384.11621858075, -2316.825368025943, -28204.705203140406, -26840.9358669443, -8536.086503992856, 7213.243211894419, -9014.771463247713, -21517.286779557086, 0.176, 0.8240000000000001, -0.492, 192.0, 0.0, 0.0, 0.0, 0.0, 0.0, 0.0, 0.0, 0.0, 0.0, 1.662064995993728E9, 0.0, 2022-09-01 16:43:15.993
54.0, -21375.33085052143, -20840.341846983654, -29951.49403232265, -17213.748957365628, -11896.961855526193, -15226.008322955171, 26850.54711706008, -14956.468636568623, -25300.14071466216, -2259.381384775804, -28120.46147828835, -26774.39472370085, -8448.132389561224, 7246.949642533022, -8933.612279130493, -21446.699970567224, 0.176, 0.8240000000000001, -0.492, 192.0, 0.0, 0.0, 0.0, 0.0, 0.0, 0.0, 0.0, 0.0, 0.0, 1.6620649959937325E9, 0.0, 2022-09-01 16:43:15.993
56.0, -21339.299838459476, -20802.366233154087, -29913.049031859522, -17159.38951485032, -11872.441991858721, -15166.23975828168, 26675.778827164035, -14904.322016754391, -25378.148302811183, -2327.353039664393, -28195.183360002444, -26843.953352445766, -8522.675457319672, 7213.220860149963, -8986.764727445214, -21507.0273288521, 0.176, 0.8240000000000001, -0.492, 192.0, 0.0, 0.0, 0.0, 0.0, 0.0, 0.0, 0.0, 0.0, 0.0, 1.6620649959937367E9, 0.0, 2022-09-01 16:43:15.993
58.0, -21371.55340570848, -20848.947268598946, -29929.611674500906, -17216.565277166996, -11882.96966349717, -15220.219221141246, 26810.11281134043, -14945.493930041068, -25291.33412734677, -2273.597094249379, -28113.644196229485, -26777.21104350222, -8437.627069667229, 7251.755267590913, -8908.488918362727, -21429.109147680898, 0.17200000000000001, 0.8240000000000001, -0.494, 192.0, 2.5, 48.0, 12.5, 96.0, 120.0, 72.0, 0.0, 0.0, 0.0, 1.6620649959937413E9, 0.0, 2022-09-01 16:43:15.993
60.0, -21365.451379472182, -20832.40697770202, -29951.158756155823, -17203.869486316384, -11899.755823583106, -15197.889828430394, 26710.513438047583, -14938.743703215565, -25378.014192344453, -2372.5482669530234, -28213.489438711338, -26872.42947488183, -8529.358628911808, 7163.935263626011, -8990.653930980436, -21529.31201807404, 0.17200000000000001, 0.8240000000000001, -0.494, 192.0, 0.0, 0.0, 0.0, 0.0, 0.0, 0.0, 0.0, 0.0, 0.0, 1.6620649959937456E9, 0.0, 2022-09-01 16:43:15.993
62.0, -21364.75847539407, -20844.633381919073, -29941.100471150934, -17217.772271367583, -11877.985224483637, -15223.124947920436, 26747.48322337666, -14952.266508611025, -25299.604272795234, -2293.5795537924237, -28132.62082727204, -26792.25376752064, -8462.213988568066, 7239.171235462575, -8931.511215151693, -21455.73007532717, 0.17200000000000001, 0.8240000000000001, -0.494, 192.0, 0.0, 0.0, 0.0, 0.0, 0.0, 0.0, 0.0, 0.0, 0.0, 1.66206499599375E9, 0.0, 2022-09-01 16:43:15.993
64.0, -21368.379457995827, -20833.859841091617, -29970.917698254314, -17213.748957365628, -11917.257239491611, -15210.76443323665, 26750.92539202278, -14956.62509877981, -25367.464168961546, -2376.795098399532, -28213.712956155894, -26872.69769581529, -8536.511187137507, 7142.656402904559, -8995.995997905255, -21542.320733347027, 0.17200000000000001, 0.8240000000000001, -0.494, 192.0, 0.0, 0.0, 0.0, 0.0, 0.0, 0.0, 0.0, 0.0, 0.0, 1.6620649959937544E9, 0.0, 2022-09-01 16:43:15.993
66.0, -21355.907184589767, -20830.328265467677, -29944.69910200824, -17218.17460276778, -11886.143611209824, -15228.265849145157, 26690.776847693545, -14959.061438925439, -25300.364232106716, -2285.1305943883176, -28130.787984226703, -26788.901005852345, -8468.450125271098, 7230.632869080648, -8950.15257002742, -21466.369505687893, 0.17200000000000001, 0.8240000000000001, -0.494, 192.0, 0.0, 0.0, 0.0, 0.0, 0.0, 0.0, 0.0, 0.0, 0.0, 1.662064995993759E9, 0.0, 2022-09-01 16:43:15.993
68.0, -21386.37261228235, -20857.642097192063, -29983.30056468255, -17242.98503911317, -11941.151254314334, -15250.68464883383, 26791.15853204233, -14995.941817276696, -25365.631325916213, -2383.433566502758, -28211.09780205462, -26879.023239496142, -8526.49760562153, 7126.764312596836, -9004.981399176288, -21560.626812055925, 0.17300000000000001, 0.8220000000000001, -0.491, 192.0, 2.5, 56.0, 12.5, 80.0, 120.0, 96.0, 0.0, 0.0, 0.0, 1.6620649959937649E9, 0.0, 2022-09-01 16:43:15.993
70.0, -21343.61372513935, -20829.54595441174, -29921.54269475254, -17206.127012506367, -11879.125163450857, -15220.06275893006, 26644.016998293046, -14952.400619077758, -25305.30396763134, -2297.960495705664, -28136.197106384887, -26797.797000145558, -8472.875770673249, 7234.81264529379, -8960.322613754584, -21481.63574715087, 0.17300000000000001, 0.8220000000000001, -0.491, 192.0, 0.0, 0.0, 0.0, 0.0, 0.0, 0.0, 0.0, 0.0, 0.0, 1.6620649959937694E9, 0.0, 2022-09-01 16:43:15.993
72.0, -21393.256949574585, -20865.711076940428, -29979.970154758714, -17250.897556650347, -11939.810149647015, -15253.478616890743, 26840.533535544102, -14994.399546909279, -25350.767415853432, -2395.458805019713, -28201.62066240557, -26877.100989472987, -8514.852346760315, 7144.712763394447, -8986.9211896564, -21546.29934386007, 0.17300000000000001, 0.8220000000000001, -0.491, 192.0, 0.0, 0.0, 0.0, 0.0, 0.0, 0.0, 0.0, 0.0, 0.0, 1.6620649959937737E9, 0.0, 2022-09-01 16:43:15.993
74.0, -21343.189041994698, -20823.287465964255, -29930.461040790207, -17215.425338199777, -11884.176657697757, -15222.052064186582, 26604.700279796158, -14947.617345764322, -25321.44192712807, -2306.3871033653145, -28151.619810059048, -26816.147782343363, -8493.037044171935, 7224.508491099893, -8964.815314390102, -21487.603662920435, 0.17300000000000001, 0.8220000000000001, -0.491, 192.0, 0.0, 0.0, 0.0, 0.0, 0.0, 0.0, 0.0, 0.0, 0.0, 1.662064995993778E9, 0.0, 2022-09-01 16:43:15.993
76.0, -21393.055783874486, -20870.404943276044, -29995.12463749941, -17272.62345226091, -11950.717800941205, -15263.648660617908, 26881.45957964177, -15003.988445280605, -25345.000665783962, -2383.634732202856, -28195.853912336104, -26877.011582495164, -8514.002980471014, 7123.009219528344, -8979.232189563774, -21548.892146216887, 0.17300000000000001, 0.8220000000000001, -0.491, 192.0, 0.0, 0.0, 0.0, 0.0, 0.0, 0.0, 0.0, 0.0, 0.0, 1.6620649959937823E9, 0.0, 2022-09-01 16:43:15.993
78.0, -21328.45924239865, -20808.870590790582, -29926.884761677356, -17205.344701450435, -11881.44974487421, -15202.941322677294, 26571.038552646467, -14940.554194516444, -25313.998796224452, -2300.1509666622837, -28145.271914633744, -26814.180828831297, -8497.842669229825, 7235.617308094181, -8974.761840672712, -21491.20229377774, 0.1745, 0.8200000000000001, -0.4885, 192.0, 2.5, 64.0, 12.5, 72.0, 120.0, 104.0, 0.0, 0.0, 0.0, 1.6620649959937868E9, 0.0, 2022-09-01 16:43:15.993
80.0, -21399.649548488804, -20874.36120204463, -29992.55418688705, -17265.292080079565, -11944.816940405004, -15260.564119883076, 26901.889074073923, -15004.72605284763, -25341.87142156022, -2388.9991508721296, -28194.155179757498, -26868.98730623571, -8512.103082192312, 7126.160815496542, -8986.764727445214, -21541.35960833545, 0.1745, 0.8200000000000001, -0.4885, 192.0, 0.0, 0.0, 0.0, 0.0, 0.0, 0.0, 0.0, 0.0, 0.0, 1.662064995993791E9, 0.0, 2022-09-01 16:43:15.993
82.0, -21325.642922597282, -20797.24768367382, -29905.717659678183, -17187.5080093751, -11863.478942332142, -15189.10559285946, 26559.370942040798, -14923.566868730411, -25317.798592781855, -2299.793338750999, -28148.222344901842, -26803.139067070373, -8487.046776657913, 7255.86798857069, -8971.856113893524, -21480.696973883747, 0.1745, 0.8200000000000001, -0.4885, 192.0, 0.0, 0.0, 0.0, 0.0, 0.0, 0.0, 0.0, 0.0, 0.0, 1.6620649959937956E9, 0.0, 2022-09-01 16:43:15.993
84.0, -21411.384214327838, -20886.028812650304, -29988.46381765173, -17276.55735928504, -11951.723629441694, -15275.718602623774, 26922.340920250528, -15018.271209987548, -25329.555610365347, -2368.4578977177025, -28178.106627238587, -26855.285686884607, -8486.085651646335, 7133.849815589168, -8965.351756257029, -21521.46655577023, 0.1745, 0.8200000000000001, -0.4885, 192.0, 0.0, 0.0, 0.0, 0.0, 0.0, 0.0, 0.0, 0.0, 0.0, 1.6620649959938E9, 0.0, 2022-09-01 16:43:15.993
86.0, -21320.21144869464, -20793.805515027707, -29909.629214957862, -17182.63532908384, -11872.73256453664, -15188.680909714809, 26546.988075612557, -14932.529918256989, -25333.891848789677, -2314.657248813778, -28169.791778301216, -26827.323654571017, -8508.035064701446, 7227.8836045126445, -8986.474154767295, -21505.708575929235, 0.1745, 0.8200000000000001, -0.4885, 192.0, 0.0, 0.0, 0.0, 0.0, 0.0, 0.0, 0.0, 0.0, 0.0, 1.6620649959938045E9, 0.0, 2022-09-01 16:43:15.993
88.0, -21396.497952520604, -20872.282489810288, -29993.872939809913, -17268.242510347667, -11954.361135287421, -15266.889663563928, 26923.704376662303, -15019.277038488037, -25307.941473477065, -2349.503618419602, -28160.918135752458, -26836.420814564328, -8478.910741676182, 7157.587368200704, -8952.052468306121, -21513.7775556776, 0.17825, 0.8240000000000001, -0.48724999999999996, 192.0, 2.5, 88.0, 12.5, 112.0, 120.0, 104.0, 0.0, 0.0, 0.0, 1.6620649959938087E9, 0.0, 2022-09-01 16:43:15.993
90.0, -21309.75083228956, -20779.053363687202, -29923.129668608868, -17173.694631301718, -11883.439050130732, -15178.153238076358, 26550.027912858477, -14931.926421156697, -25339.479784903502, -2311.706818545678, -28176.96668827137, -26825.647273736868, -8526.1623294547, 7229.112950457687, -9001.963913674821, -21512.056471354543, 0.17825, 0.8240000000000001, -0.48724999999999996, 192.0, 0.0, 0.0, 0.0, 0.0, 0.0, 0.0, 0.0, 0.0, 0.0, 1.6620649959938133E9, 0.0, 2022-09-01 16:43:15.993
92.0, -21394.03926063052, -20868.683858952983, -29989.715515341228, -17262.073428878, -11953.51176899812, -15270.823570588062, 26915.881266102944, -15019.679369888232, -25298.19611289455, -2320.535757605524, -28140.62275178704, -26802.78143915909, -8472.875770673249, 7190.220915105452, -8950.264328749696, -21487.78247687608, 0.17825, 0.8240000000000001, -0.48724999999999996, 192.0, 0.0, 0.0, 0.0, 0.0, 0.0, 0.0, 0.0, 0.0, 0.0, 1.6620649959938176E9, 0.0, 2022-09-01 16:43:15.993
94.0, -21341.669123371736, -20811.821021058684, -29941.480450806674, -17195.152305978812, -11916.765501113594, -15204.617703511442, 26563.08133162038, -14958.077962169406, -25373.230919031015, -2356.7679353675767, -28205.845142107624, -26853.184622905806, -8556.515998425008, 7184.8564964361785, -9028.808358765646, -21536.68809374429, 0.17825, 0.8240000000000001, -0.48724999999999996, 192.0, 0.0, 0.0, 0.0, 0.0, 0.0, 0.0, 0.0, 0.0, 0.0, 1.6620649959938219E9, 0.0, 2022-09-01 16:43:15.993
96.0, -21385.679708204236, -20867.119236841114, -29971.65530582134, -17253.46800726271, -11948.214405562212, -15264.676840862852, 26894.714164103767, -15013.890268074307, -25299.53721756187, -2337.8360078139317, -28146.9929989568, -26814.314939298027, -8481.39178531072, 7171.400746274084, -8957.43923871985, -21487.514255942617, 0.17825, 0.8240000000000001, -0.48724999999999996, 192.0, 0.0, 0.0, 0.0, 0.0, 0.0, 0.0, 0.0, 0.0, 0.0, 1.6620649959938262E9, 0.0, 2022-09-01 16:43:15.993
98.0, -21314.89173351428, -20780.88620673254, -29916.06651736099, -17172.97937547915, -11898.258256704601, -15176.186284564292, 26608.365965886827, -14935.994438647562, -25343.72661635001, -2330.3258216769486, -28181.928775540448, -26835.526744786115, -8529.962126012102, 7203.587258289726, -8997.650026994948, -21507.07203234101, 0.18112499999999998, 0.8230000000000001, -0.487625, 192.0, 2.5, 96.0, 12.5, 88.0, 120.0, 96.0, 0.0, 0.0, 0.0, 1.6620649959938304E9, 0.0, 2022-09-01 16:43:15.993
100.0, -21379.152998823287, -20860.16784431551, -29971.856471521434, -17259.257109076632, -11944.07933283798, -15256.138474480926, 26864.941640489298, -15010.06811977245, -25282.751057475933, -2304.3530946198816, -28121.824934700126, -26792.142008798364, -8463.018651368458, 7192.523144784349, -8934.506348908704, -21458.993430017643, 0.18112499999999998, 0.8230000000000001, -0.487625, 192.0, 0.0, 0.0, 0.0, 0.0, 0.0, 0.0, 0.0, 0.0, 0.0, 1.6620649959938357E9, 0.0, 2022-09-01 16:43:15.993
102.0, -21341.17738499372, -20808.423555901474, -29947.448366576242, -17205.344701450435, -11923.761597128105, -15191.631339982909, 26637.04325402299, -14962.43655233819, -25365.810139871854, -2357.4608394456914, -28202.894711839523, -26860.426588109327, -8547.441190176152, 7186.823449948246, -9015.240849881275, -21529.35672156295, 0.18112499999999998, 0.8230000000000001, -0.487625, 192.0, 0.0, 0.0, 0.0, 0.0, 0.0, 0.0, 0.0, 0.0, 0.0, 1.6620649959938402E9, 0.0, 2022-09-01 16:43:15.993
104.0, -21376.85076914439, -20853.3729140011, -29968.54841334205, -17259.88295792138, -11931.316486754, -15248.740047066218, 26821.26633182363, -15009.531677905523, -25293.971633192497, -2301.6485335407897, -28130.363301082052, -26797.59583444546, -8471.802886939393, 7203.631961778637, -8946.285718236652, -21461.608584118912, 0.18112499999999998, 0.8230000000000001, -0.487625, 192.0, 0.0, 0.0, 0.0, 0.0, 0.0, 0.0, 0.0, 0.0, 0.0, 1.6620649959938445E9, 0.0, 2022-09-01 16:43:15.993
106.0, -21369.452341729684, -20831.669370134994, -29973.041113977568, -17235.944239609747, -11932.322315254489, -15213.15606989337, 26680.13741733282, -14989.035128240006, -25378.528282466923, -2381.019578101585, -28222.318377771186, -26883.046553498098, -8553.498512923541, 7149.116057052142, -9021.097006928565, -21544.46650081474, 0.18112499999999998, 0.8230000000000001, -0.487625, 192.0, 0.0, 0.0, 0.0, 0.0, 0.0, 0.0, 0.0, 0.0, 0.0, 1.6620649959938488E9, 0.0, 2022-09-01 16:43:15.993
108.0, -21377.878949389335, -20854.244632034857, -29961.440558605264, -17257.536024753575, -11916.564335413497, -15241.319267907056, 26779.177997014285, -14997.774660322031, -25301.325357118294, -2312.734998790622, -28140.086309920112, -26806.424773505303, -8481.63765449973, 7201.195621633008, -8947.872692092978, -21466.10128475443, 0.17956249999999999, 0.8235000000000001, -0.4898125, 192.0, 2.5, 72.0, 12.5, 96.0, 120.0, 80.0, 0.0, 0.0, 0.0, 1.662064995993853E9, 0.0, 2022-09-01 16:43:15.993
110.0, -21361.249251514586, -20828.69658812244, -29964.145119684355, -17228.925791850783, -11930.422416975787, -15208.01516866865, 26740.084795961953, -14978.462753112646, -25371.711000408057, -2393.1565753408167, -28219.055023080713, -26882.823036053545, -8550.637489633262, 7144.757466883358, -9006.143689887964, -21540.331428090507, 0.17956249999999999, 0.8235000000000001, -0.4898125, 192.0, 0.0, 0.0, 0.0, 0.0, 0.0, 0.0, 0.0, 0.0, 0.0, 1.6620649959938576E9, 0.0, 2022-09-01 16:43:15.993
112.0, -21349.827510097923, -20832.74225386885, -29940.295808350544, -17225.997713327135, -11895.240771203134, -15221.113290919458, 26742.275266918572, -14979.759154291054, -25290.015374423907, -2288.662170012256, -28125.24475160179, -26784.296546494552, -8467.667814215161, 7239.014773251388, -8936.652116376414, -21443.324857154472, 0.17956249999999999, 0.8235000000000001, -0.4898125, 192.0, 0.0, 0.0, 0.0, 0.0, 0.0, 0.0, 0.0, 0.0, 0.0, 1.662064995993862E9, 0.0, 2022-09-01 16:43:15.993
114.0, -21368.401809740284, -20836.56440217071, -29976.907965768336, -17230.333951751465, -11929.282478008567, -15221.828546742028, 26799.361622257427, -14990.264474185047, -25365.72073289403, -2380.170211812283, -28215.34463350113, -26874.88816677191, -8536.444131904142, 7142.924623838023, -8996.755957216736, -21528.373244806917, 0.17956249999999999, 0.8235000000000001, -0.4898125, 192.0, 0.0, 0.0, 0.0, 0.0, 0.0, 0.0, 0.0, 0.0, 0.0, 1.6620649959938664E9, 0.0, 2022-09-01 16:43:15.993
116.0, -21359.08113230242, -20832.965771313404, -29956.21025040272, -17240.45929198972, -11898.459422404698, -15237.094788205004, 26693.079077372444, -14986.621139838833, -25297.48085707198, -2282.0013501645744, -28134.81129822866, -26787.001107573644, -8474.77566895195, 7250.235348967952, -8947.850340348523, -21447.19170894524, 0.17956249999999999, 0.8235000000000001, -0.4898125, 192.0, 0.0, 0.0, 0.0, 0.0, 0.0, 0.0, 0.0, 0.0, 0.0, 1.6620649959938717E9, 0.0, 2022-09-01 16:43:15.993
118.0, -21392.273472818553, -20861.576004216196, -30002.120733513922, -17271.952899927248, -11955.255205065634, -15262.821646073062, 26831.369320317426, -15029.491785704111, -25370.526357951923, -2400.2197265886934, -28225.469973739386, -26892.7472105917, -8550.749248355538, 7120.6399346160815, -9013.028027180198, -21560.9397364783, 0.17778125, 0.8227500000000001, -0.48890625, 192.0, 2.5, 64.0, 12.5, 88.0, 120.0, 96.0, 0.0, 0.0, 0.0, 1.6620649959938757E9, 0.0, 2022-09-01 16:43:15.993
120.0, -21337.46699541414, -20815.35259668262, -29940.385215328362, -17237.486509977163, -11894.547867125018, -15233.742026536707, 26637.579695889915, -14988.744555562087, -25311.785973523376, -2298.4969375725914, -28146.36715011205, -26808.01174736163, -8504.324675121865, 7227.302459156806, -8982.115564598509, -21493.63863392337, 0.17778125, 0.8227500000000001, -0.48890625, 192.0, 0.0, 0.0, 0.0, 0.0, 0.0, 0.0, 0.0, 0.0, 0.0, 1.66206499599388E9, 0.0, 2022-09-01 16:43:15.993
122.0, -21363.104446304376, -20835.64798064804, -29977.35500065744, -17258.564204998518, -11935.295097267044, -15244.06853247506, 26874.485835371714, -15013.01855004055, -25339.166860481128, -2382.5171449800905, -28189.640127377526, -26866.975649234733, -8523.435416631153, 7137.895481335579, -8992.419718792406, -21548.333352605507, 0.17778125, 0.8227500000000001, -0.48890625, 192.0, 0.0, 0.0, 0.0, 0.0, 0.0, 0.0, 0.0, 0.0, 0.0, 1.662064996473807E9, 0.0, 2022-09-01 16:43:16.473
124.0, -21302.911198486236, -20779.232177642843, -29906.72348817867, -17194.749974578615, -11860.819084741961, -15188.81502018154, 26613.17159094472, -14948.62317426481, -25286.103819144228, -2275.11701287234, -28118.583931754107, -26773.455950433727, -8475.826200941348, 7269.703718388524, -8953.05829680661, -21457.026476505576, 0.17778125, 0.8227500000000001, -0.48890625, 192.0, 0.0, 0.0, 0.0, 0.0, 0.0, 0.0, 0.0, 0.0, 0.0, 1.662064996473875E9, 0.0, 2022-09-01 16:43:16.473
126.0, -21384.09273434791, -20853.66348667902, -29989.55905313004, -17272.109362138435, -11945.88982413886, -15256.54080588112, 26907.76758286567, -15027.077797302938, -25323.83356378479, -2362.4229267147693, -28173.14453996951, -26843.282800112105, -8504.570544310875, 7145.159798283554, -8965.463514979305, -21517.219724323717, 0.17778125, 0.8227500000000001, -0.48890625, 192.0, 0.0, 0.0, 0.0, 0.0, 0.0, 0.0, 0.0, 0.0, 0.0, 1.6620649964739275E9, 0.0, 2022-09-01 16:43:16.473
128.0, -21292.987023948077, -20767.139883892523, -29896.709906662694, -17184.177599451257, -11855.097038161402, -15181.550703233564, 26585.187206886676, -14941.940002672674, -25303.20290365254, -2285.5329257885132, -28131.905571449468, -26790.487979708672, -8497.552096551908, 7253.185779236052, -8963.898892867433, -21461.072142251985, 0.179890625, 0.8223750000000001, -0.490453125, 192.0, 2.5, 88.0, 12.5, 88.0, 120.0, 80.0, 0.0, 0.0, 0.0, 1.6620649964739344E9, 0.0, 2022-09-01 16:43:16.473
130.0, -21372.38042025333, -20845.728617397384, -29966.31323889652, -17256.59725148645, -11934.64689667784, -15251.757532567684, 26934.768490167677, -15021.959247822673, -25298.509037316926, -2348.3636794523813, -28142.321484365642, -26824.753203958655, -8484.275160345454, 7147.707897151458, -8946.643346147937, -21489.436505965772, 0.179890625, 0.8223750000000001, -0.490453125, 192.0, 0.0, 0.0, 0.0, 0.0, 0.0, 0.0, 0.0, 0.0, 0.0, 1.6620649964739509E9, 0.0, 2022-09-01 16:43:16.473
132.0, -21296.652710038747, -20768.59274728212, -29885.645793157317, -17173.560520834984, -11860.68497427523, -15177.840313653984, 26570.144482868254, -14942.297630583958, -25302.733517018976, -2282.5601437759574, -28123.12133587853, -26786.598776173447, -8499.407291341699, 7269.6143114107035, -8963.876541122978, -21456.020648005087, 0.179890625, 0.8223750000000001, -0.490453125, 192.0, 0.0, 0.0, 0.0, 0.0, 0.0, 0.0, 0.0, 0.0, 0.0, 1.6620649964739609E9, 0.0, 2022-09-01 16:43:16.473
134.0, -21394.910978664277, -20871.187254331977, -29982.339439670974, -17276.46795230722, -11952.282423053077, -15275.182160756847, 26937.13777507994, -15047.686105690731, -25305.30396763134, -2356.4997144341132, -28145.540135567207, -26833.49273604068, -8495.808660484394, 7139.41539995854, -8952.96888982879, -21496.231436280184, 0.179890625, 0.8223750000000001, -0.490453125, 192.0, 0.0, 0.0, 0.0, 0.0, 0.0, 0.0, 0.0, 0.0, 0.0, 1.6620649964739664E9, 0.0, 2022-09-01 16:43:16.473
136.0, -21301.011300207534, -20774.31479386268, -29900.66616543128, -17177.0026894811, -11874.118372692868, -15173.57113046302, 26566.948183411147, -14954.188758634182, -25324.213543440528, -2311.6174115678564, -28149.67520829144, -26810.805715418544, -8523.413064886698, 7238.500683128916, -8980.550942486638, -21478.86413083841, 0.179890625, 0.8223750000000001, -0.490453125, 192.0, 0.0, 0.0, 0.0, 0.0, 0.0, 0.0, 0.0, 0.0, 0.0, 1.6620649964739716E9, 0.0, 2022-09-01 16:43:16.473
138.0, -21381.61169071337, -20853.194100045457, -29975.343343656463, -17262.028725389093, -11944.056981093525, -15256.317288436567, 26940.065853603584, -15038.901870119797, -25285.09799064374, -2341.635804371334, -28130.9891499268, -26812.41504101933, -8477.122602119756, 7173.7029759529805, -8938.52966291066, -21473.991450547153, 0.179890625, 0.8223750000000001, -0.490453125, 192.0, 0.0, 0.0, 0.0, 0.0, 0.0, 0.0, 0.0, 0.0, 0.0, 1.662064996473976E9, 0.0, 2022-09-01 16:43:16.473
140.0, -21309.50496310055, -20774.851235729606, -29913.049031859522, -17181.093058716426, -11880.130991951346, -15172.252377540157, 26579.040477161467, -14954.255813867549, -25325.711110319033, -2298.8769172283314, -28155.352551383086, -26810.626901462903, -8517.087521205845, 7244.043915753832, -8980.930922142377, -21480.048773294544, 0.17200000000000001, 0.8220000000000001, -0.494, 192.0, 2.5, 48.0, 12.5, 88.0, 120.0, 72.0, 0.0, 0.0, 0.0, 1.6620649964739804E9, 0.0, 2022-09-01 16:43:16.473
142.0, -21385.344432037407, -20857.1727105585, -29969.30837265353, -17271.57292027151, -11936.077408322979, -15261.189968727824, 26920.128097549452, -15026.563707180467, -25299.894845473154, -2335.6678886017667, -28136.688844762906, -26817.667700966325, -8477.793154453415, 7174.708804453469, -8941.413037945395, -21482.328651228985, 0.17200000000000001, 0.8220000000000001, -0.494, 192.0, 0.0, 0.0, 0.0, 0.0, 0.0, 0.0, 0.0, 0.0, 0.0, 1.6620649964739847E9, 0.0, 2022-09-01 16:43:16.473
144.0, -21323.295989429473, -20784.440134100932, -29915.619482471884, -17195.219361212177, -11890.524553123065, -15175.180456063803, 26599.045288448968, -14945.046895151962, -25350.074511775318, -2325.6990105747, -28169.232984689832, -26829.46942203873, -8525.290611420944, 7225.939002745034, -8986.675320467391, -21502.825200894502, 0.17200000000000001, 0.8220000000000001, -0.494, 192.0, 0.0, 0.0, 0.0, 0.0, 0.0, 0.0, 0.0, 0.0, 0.0, 1.6620649964739904E9, 0.0, 2022-09-01 16:43:16.473
146.0, -21382.03637385802, -20853.66348667902, -29971.565898843517, -17276.602062773953, -11937.753789157128, -15262.575776884054, 26886.689887844313, -15014.046730285494, -25286.170874377596, -2321.407475639281, -28125.892952190992, -26802.960253114732, -8463.175113579646, 7194.244229107408, -8935.020439031177, -21478.417095949306, 0.17200000000000001, 0.8220000000000001, -0.494, 192.0, 0.0, 0.0, 0.0, 0.0, 0.0, 0.0, 0.0, 0.0, 0.0, 1.6620649964739945E9, 0.0, 2022-09-01 16:43:16.473
148.0, -21321.329035917406, -20784.462485845386, -29932.763270469102, -17203.73537584965, -11899.01821601608, -15186.803363180563, 26625.040367250487, -14939.168386360216, -25353.24845948797, -2361.595912169923, -28192.881130323545, -26852.737588016702, -8534.633640603262, 7203.788423989824, -9006.21074512133, -21537.31394258904, 0.17200000000000001, 0.8220000000000001, -0.494, 192.0, 0.0, 0.0, 0.0, 0.0, 0.0, 0.0, 0.0, 0.0, 0.0, 1.662064996473999E9, 0.0, 2022-09-01 16:43:16.473
150.0, -21371.531053964027, -20840.87828885058, -29968.660172064327, -17268.823655703505, -11928.991905330648, -15252.58454711253, 26842.16521288934, -14992.052613741473, -25280.9182144306, -2319.50757736058, -28125.80354521317, -26798.176979801297, -8452.356869263276, 7209.9798572039435, -8938.216738488287, -21480.898139583845, 0.182, 0.8300000000000001, -0.486, 192.0, 2.5, 88.0, 12.5, 120.0, 120.0, 104.0, 0.0, 0.0, 0.0, 1.6620649964740036E9, 0.0, 2022-09-01 16:43:16.474
152.0, -21329.442719154682, -20788.5081515918, -29951.87401197839, -17207.512820662596, -11912.138690011347, -15185.708127702252, 26656.869251354845, -14934.541575257967, -25358.12113977923, -2353.2810632325486, -28199.899578082513, -26858.45963459726, -8529.850367289826, 7210.762168259879, -9011.64221902397, -21547.059303171554, 0.182, 0.8300000000000001, -0.486, 192.0, 0.0, 0.0, 0.0, 0.0, 0.0, 0.0, 0.0, 0.0, 0.0, 1.6620649964740078E9, 0.0, 2022-09-01 16:43:16.474
154.0, -21362.07626605943, -20831.088224779156, -29968.838986019968, -17246.963649626214, -11913.613905145396, -15234.166709681358, 26794.131314054885, -14963.442380838678, -25288.7189732455, -2291.0761584134293, -28119.790925954694, -26786.039982562066, -8452.423924496643, 7234.38796214914, -8949.102038038021, -21478.68531688277, 0.182, 0.8300000000000001, -0.486, 192.0, 0.0, 0.0, 0.0, 0.0, 0.0, 0.0, 0.0, 0.0, 0.0, 1.662064996474012E9, 0.0, 2022-09-01 16:43:16.474
156.0, -21350.453358942672, -20807.194209956433, -29962.960477228222, -17213.145460265336, -11910.372902199377, -15187.272749814125, 26700.410449553783, -14927.299610054448, -25361.786825869898, -2357.8184673569763, -28202.090049039132, -26864.762826533657, -8523.16719569769, 7197.395825075606, -9017.207803393341, -21552.401370096373, 0.182, 0.8300000000000001, -0.486, 192.0, 0.0, 0.0, 0.0, 0.0, 0.0, 0.0, 0.0, 0.0, 0.0, 1.6620649964740164E9, 0.0, 2022-09-01 16:43:16.474
158.0, -21352.46501594365, -20821.432271174464, -29945.771985742093, -17228.277591261576, -11887.149439710312, -15219.705131018774, 26742.230563429664, -14936.843804936863, -25283.376906320682, -2298.0051991945743, -28122.71900447834, -26795.15949429983, -8443.840854625805, 7256.739706604446, -8958.333308498062, -21480.942843072753, 0.182, 0.8300000000000001, -0.486, 192.0, 0.0, 0.0, 0.0, 0.0, 0.0, 0.0, 0.0, 0.0, 0.0, 1.6620649964740207E9, 0.0, 2022-09-01 16:43:16.474
160.0, -21362.32213524844, -20819.08533800666, -29980.953631514745, -17218.420471956786, -11920.453538948721, -15206.204677367768, 26741.783528540556, -14940.464787538624, -25363.217337515038, -2379.3208455229815, -28214.58467418965, -26881.683097086323, -8519.859137518304, 7176.184019587519, -9031.177643677907, -21574.8425215295, 0.18, 0.8300000000000001, -0.488, 192.0, 2.5, 80.0, 12.5, 120.0, 120.0, 96.0, 0.0, 0.0, 0.0, 1.6620649964740252E9, 0.0, 2022-09-01 16:43:16.474
162.0, -21336.304704702463, -20804.847276788627, -29951.40462534483, -17204.428279927764, -11879.348680895411, -15210.026825669627, 26690.866254671368, -14925.846746664853, -25279.24183359645, -2265.9751493901194, -28122.80841145616, -26777.38985745786, -8443.48322671452, 7283.9417796065545, -8969.553884214627, -21483.289776240563, 0.18, 0.8300000000000001, -0.488, 192.0, 0.0, 0.0, 0.0, 0.0, 0.0, 0.0, 0.0, 0.0, 0.0, 1.66206499647403E9, 0.0, 2022-09-01 16:43:16.474
164.0, -21375.241443543608, -20832.049349790734, -30007.283986483097, -17231.630352929875, -11937.776140901584, -15226.187136910814, 26784.944747083755, -14958.413238336236, -25360.758645624956, -2368.144973295328, -28223.078337082665, -26876.966879006253, -8520.0603032184, 7167.243321805397, -9031.937602989388, -21592.7462688382, 0.18, 0.8300000000000001, -0.488, 192.0, 0.0, 0.0, 0.0, 0.0, 0.0, 0.0, 0.0, 0.0, 0.0, 1.6620649964740367E9, 0.0, 2022-09-01 16:43:16.474
166.0, -21314.9811404921, -20783.814285256183, -29943.335645596464, -17183.84232328443, -11870.318576135467, -15199.029767397615, 26648.50969892856, -14910.893429624251, -25286.886130200164, -2259.7390126870887, -28129.96096968186, -26777.076933035485, -8458.660061199673, 7294.938837878566, -8976.68409069587, -21501.372337504905, 0.18, 0.8300000000000001, -0.488, 192.0, 0.0, 0.0, 0.0, 0.0, 0.0, 0.0, 0.0, 0.0, 0.0, 1.6620649964740424E9, 0.0, 2022-09-01 16:43:16.474
168.0, -21372.447475486693, -20839.22425976089, -30010.41323070684, -17229.998675584637, -11940.435998491765, -15234.993724226204, 26834.856192452455, -14963.844712238875, -25351.192098998083, -2367.116793050384, -28200.659537393993, -26864.114625944454, -8509.554983324408, 7168.047984605788, -9017.721893515813, -21581.168065210353, 0.18, 0.8300000000000001, -0.488, 192.0, 0.0, 0.0, 0.0, 0.0, 0.0, 0.0, 0.0, 0.0, 0.0, 1.662064996474048E9, 0.0, 2022-09-01 16:43:16.474
170.0, -21324.435928396695, -20796.35361389561, -29941.703968251226, -17186.412773896787, -11871.436163358232, -15203.991854666694, 26611.964596744132, -14915.944923871151, -25320.234932927484, -2290.629123524323, -28144.15432741098, -26797.908758867834, -8476.697918975105, 7275.448116713538, -8998.141765372964, -21509.418965508816, 0.18, 0.8220000000000001, -0.49, 192.0, 2.5, 80.0, 12.5, 88.0, 120.0, 88.0, 0.0, 0.0, 0.0, 1.6620649964740534E9, 0.0, 2022-09-01 16:43:16.474
172.0, -21382.617519213858, -20845.683913908473, -29989.424942663307, -17227.36116973891, -11931.249431520633, -15235.507814348677, 26877.235099939717, -14962.637718038288, -25342.67608436061, -2379.052624589518, -28187.069676765168, -26860.851271253978, -8487.382052824743, 7168.517371239349, -9005.808413721135, -21562.012620212154, 0.18, 0.8220000000000001, -0.49, 192.0, 0.0, 0.0, 0.0, 0.0, 0.0, 0.0, 0.0, 0.0, 0.0, 1.6620649964740584E9, 0.0, 2022-09-01 16:43:16.474
174.0, -21334.56126863495, -20805.249608188824, -29935.601942014928, -17182.009480239092, -11878.432259372743, -15203.880095944418, 26574.614831759314, -14919.543554728456, -25321.5760375948, -2294.6747892707335, -28151.642161803506, -26806.15655257184, -8472.071107872856, 7269.05551779932, -8997.918247928412, -21506.982625363187, 0.18, 0.8220000000000001, -0.49, 192.0, 0.0, 0.0, 0.0, 0.0, 0.0, 0.0, 0.0, 0.0, 0.0, 1.6620649964740636E9, 0.0, 2022-09-01 16:43:16.474
176.0, -21385.433839015226, -20852.680009922984, -29998.432695678795, -17236.3689227544, -11941.911213625815, -15250.908166278383, 26899.542140906113, -14974.238273410592, -25335.97056102402, -2370.380147740859, -28196.926796069958, -26865.65689631187, -8487.046776657913, 7145.65153666157, -9004.02027416471, -21562.683172545814, 0.18, 0.8220000000000001, -0.49, 192.0, 0.0, 0.0, 0.0, 0.0, 0.0, 0.0, 0.0, 0.0, 0.0, 1.6620649964740684E9, 0.0, 2022-09-01 16:43:16.474
178.0, -21293.814038492925, -20765.30704084719, -29910.322119035976, -17144.123273387348, -11856.996936440104, -15164.675136169808, 26560.868508919302, -14882.350251954826, -25315.742232291967, -2275.049957638974, -28149.697560035893, -26796.63470943388, -8472.831067184337, 7288.501535475438, -8992.889105425968, -21500.791192149067, 0.18, 0.8220000000000001, -0.49, 192.0, 0.0, 0.0, 0.0, 0.0, 0.0, 0.0, 0.0, 0.0, 0.0, 1.6620649964740736E9, 0.0, 2022-09-01 16:43:16.474
180.0, -21377.342507522408, -20849.50606221033, -29993.001221776158, -17225.014236571104, -11937.999658346136, -15238.279430661134, 26918.205847526297, -14965.811665750942, -25314.222313669005, -2343.8486270724093, -28159.487624107318, -26827.703634226757, -8452.15570356318, 7182.37545280164, -8969.151552814432, -21523.768785449123, 0.178, 0.8220000000000001, -0.49, 192.0, 2.5, 72.0, 12.5, 88.0, 120.0, 88.0, 0.0, 0.0, 0.0, 1.6620649964740784E9, 0.0, 2022-09-01 16:43:16.474
182.0, -21300.184285662686, -20769.710334504885, -29917.742898195138, -17146.62666876634, -11861.333174864432, -15164.541025703076, 26553.64889546024, -14887.357042712814, -25337.915162791633, -2295.9935421935966, -28158.928830495934, -26804.882503137887, -8483.828125456348, 7288.099204075242, -9001.092195641064, -21505.999148607156, 0.178, 0.8220000000000001, -0.49, 192.0, 0.0, 0.0, 0.0, 0.0, 0.0, 0.0, 0.0, 0.0, 0.0, 1.6620649964740913E9, 0.0, 2022-09-01 16:43:16.474
184.0, -21386.03733611552, -20859.385533259578, -29989.290832196577, -17237.285344277065, -11930.668286164795, -15246.482520876232, 26926.788917397134, -14971.466657098134, -25314.557589835837, -2348.0954585189174, -28153.56441182666, -26829.156497616354, -8457.520122232452, 7169.053813106277, -8966.11171556851, -21521.511259259136, 0.178, 0.8220000000000001, -0.49, 192.0, 0.0, 0.0, 0.0, 0.0, 0.0, 0.0, 0.0, 0.0, 0.0, 1.6620649964741013E9, 0.0, 2022-09-01 16:43:16.474
186.0, -21302.218294408118, -20773.711296762383, -29914.72541269367, -17145.218508865655, -11857.958061451682, -15156.628508165897, 26559.77327344099, -14883.80311534442, -25339.993875025975, -2309.6281063113342, -28167.95893525588, -26821.087517867985, -8495.473384317564, 7254.012793780898, -9003.103852642042, -21515.811564423035, 0.178, 0.8220000000000001, -0.49, 192.0, 0.0, 0.0, 0.0, 0.0, 0.0, 0.0, 0.0, 0.0, 0.0, 1.6620649964741066E9, 0.0, 2022-09-01 16:43:16.474
188.0, -21383.779809925534, -20862.04539084976, -29987.21211996223, -17234.044341331046, -11929.17071928629, -15249.254137188691, 26915.098955047008, -14974.037107710494, -25293.681060514577, -2326.347211163904, -28140.645103531493, -26814.851381164957, -8444.086723814813, 7184.074185380243, -8953.527683440172, -21505.529761973594, 0.178, 0.8220000000000001, -0.49, 192.0, 0.0, 0.0, 0.0, 0.0, 0.0, 0.0, 0.0, 0.0, 0.0, 1.6620649964741125E9, 0.0, 2022-09-01 16:43:16.474
190.0, -21314.668216069727, -20780.774448010263, -29930.528096023572, -17142.782168720027, -11877.694651805718, -15159.757752389642, 26567.39521830025, -14894.75547012752, -25355.394226955683, -2317.9653069931637, -28188.254319221298, -26832.50925928465, -8505.129337922257, 7238.545386617826, -9016.26903012622, -21529.31201807404, 0.186, 0.8200000000000001, -0.49, 192.0, 2.5, 104.0, 12.5, 80.0, 120.0, 88.0, 0.0, 0.0, 0.0, 1.6620649964741185E9, 0.0, 2022-09-01 16:43:16.474
192.0, -21382.215187813665, -20856.390399502565, -29984.909890283336, -17219.22513475718, -11926.309695996011, -15236.647753315898, 26894.088315259018, -14964.24704363907, -25298.799609994843, -2316.467740114658, -28136.28651336271, -26799.0263460906, -8444.734924404016, 7215.858365995689, -8952.320689239585, -21484.00503206313, 0.186, 0.8200000000000001, -0.49, 192.0, 0.0, 0.0, 0.0, 0.0, 0.0, 0.0, 0.0, 0.0, 0.0, 1.6620649964741237E9, 0.0, 2022-09-01 16:43:16.474
194.0, -21334.02482676802, -20800.39927964202, -29949.482375321673, -17158.49544507211, -11895.285474692044, -15174.666365941332, 26594.75375351355, -14911.340464513358, -25368.246480017482, -2337.9254147917527, -28201.24068274983, -26846.970837947232, -8522.742512553039, 7228.6435638241255, -9025.857928497546, -21532.575372764513, 0.186, 0.8200000000000001, -0.49, 192.0, 0.0, 0.0, 0.0, 0.0, 0.0, 0.0, 0.0, 0.0, 0.0, 1.6620649964741287E9, 0.0, 2022-09-01 16:43:16.474
196.0, -21381.768152924556, -20859.586698959673, -29974.225756433698, -17221.952047580726, -11916.49728018013, -15240.268735917656, 26858.705503786266, -14969.007965208051, -25305.81805775381, -2327.107170475384, -28144.444900088896, -26811.16334332983, -8450.188750051111, 7197.149955886598, -8958.892102109445, -21486.284909997572, 0.186, 0.8200000000000001, -0.49, 192.0, 0.0, 0.0, 0.0, 0.0, 0.0, 0.0, 0.0, 0.0, 0.0, 1.6620649964741352E9, 0.0, 2022-09-01 16:43:16.474
198.0, -21351.28037348752, -20810.524619880274, -29950.085872421965, -17166.519721331566, -11897.006559015103, -15175.403973508355, 26632.528201643017, -14922.695150696654, -25368.849977117778, -2351.3141097204816, -28208.549703186716, -26858.057303197063, -8519.25564041801, 7208.526993814349, -9011.753977746246, -21534.20705010975, 0.186, 0.8200000000000001, -0.49, 192.0, 0.0, 0.0, 0.0, 0.0, 0.0, 0.0, 0.0, 0.0, 0.0, 1.6620649964741404E9, 0.0, 2022-09-01 16:43:16.474
200.0, -21394.84392343091, -20866.962774629927, -29976.259765179133, -17220.61094291341, -11914.060940034502, -15231.037465457615, 26818.78528818909, -14968.203302407659, -25317.597427081757, -2305.7389027761105, -28150.345760625096, -26807.743526428167, -8454.81556115336, 7222.8321102657455, -8952.566558428593, -21472.762104602112, 0.182, 0.8260000000000001, -0.492, 192.0, 2.5, 88.0, 12.5, 104.0, 120.0, 80.0, 0.0, 0.0, 0.0, 1.6620649964741457E9, 0.0, 2022-09-01 16:43:16.474
202.0, -21341.087978015898, -20805.607236100106, -29949.616485788407, -17158.406038094286, -11891.552733368007, -15158.57310993351, 26679.533920232527, -14910.915781368707, -25377.321288266336, -2347.0449265295183, -28213.310624755697, -26859.398407864384, -8518.361570639798, 7213.354970616695, -9007.484794555283, -21523.344102304472, 0.182, 0.8260000000000001, -0.492, 192.0, 0.0, 0.0, 0.0, 0.0, 0.0, 0.0, 0.0, 0.0, 0.0, 1.6620649964741511E9, 0.0, 2022-09-01 16:43:16.474
204.0, -21370.838149885913, -20848.388474987565, -29973.711666311225, -17211.60318989792, -11904.963780041193, -15224.35429386548, 26774.797055101044, -14958.4802935696, -25305.594540309256, -2288.572763034435, -28134.699539506382, -26789.571558186002, -8449.629956439729, 7260.807724095313, -8951.739543883747, -21457.182938716764, 0.182, 0.8260000000000001, -0.492, 192.0, 0.0, 0.0, 0.0, 0.0, 0.0, 0.0, 0.0, 0.0, 0.0, 1.6620649964741564E9, 0.0, 2022-09-01 16:43:16.474
206.0, -21350.22984149812, -20813.3632914261, -29972.370561643907, -17181.763611050083, -11909.92586731027, -15188.300930059067, 26722.493973075627, -14935.882679925286, -25374.77318939843, -2359.7630691245877, -28216.2610550238, -26862.12532068793, -8531.057361490413, 7184.543572013805, -9021.052303439654, -21537.626867011415, 0.182, 0.8260000000000001, -0.492, 192.0, 0.0, 0.0, 0.0, 0.0, 0.0, 0.0, 0.0, 0.0, 0.0, 1.6620649964741614E9, 0.0, 2022-09-01 16:43:16.474
208.0, -21343.054931527964, -20817.1630879835, -29947.716587509705, -17193.49827688912, -11886.769460054573, -15211.904372203873, 26717.151906150808, -14944.018714907017, -25284.09216214325, -2273.7535564605664, -28117.84632418708, -26768.493863164647, -8452.267462285456, 7264.4510584415275, -8958.467418964794, -21451.080912480465, 0.182, 0.8260000000000001, -0.492, 192.0, 0.0, 0.0, 0.0, 0.0, 0.0, 0.0, 0.0, 0.0, 0.0, 1.6620649964741666E9, 0.0, 2022-09-01 16:43:16.474
210.0, -21373.676821431734, -20835.17859401448, -29994.007050276647, -17212.139631764847, -11944.638126449363, -15216.01709318365, 26754.121691479886, -14967.242177396081, -25370.45930271856, -2372.1682872972833, -28211.813057877192, -26865.768655034146, -8533.560756869407, 7165.768106671347, -9038.799588537167, -21550.993210195687, 0.184, 0.8270000000000001, -0.494, 192.0, 2.5, 104.0, 12.5, 112.0, 120.0, 64.0, 0.0, 0.0, 0.0, 1.6620649964741716E9, 0.0, 2022-09-01 16:43:16.474
212.0, -21339.232783226107, -20814.36911992659, -29952.231639889676, -17194.481753645152, -11890.904532778804, -15207.836354713007, 26653.538841431004, -14942.699961984154, -25305.5721885648, -2279.788527463499, -28131.346777838087, -26779.8709010924, -8472.495791017507, 7265.345128219739, -8991.704462969836, -21471.06337202351, 0.184, 0.8270000000000001, -0.494, 192.0, 0.0, 0.0, 0.0, 0.0, 0.0, 0.0, 0.0, 0.0, 0.0, 1.6620649964741771E9, 0.0, 2022-09-01 16:43:16.474
214.0, -21381.209359313176, -20843.716960396407, -30003.350079458964, -17225.30480924902, -11939.206652546723, -15224.10842467647, 26799.16045655733, -14971.44430535368, -25363.373799726225, -2372.4365082307468, -28205.375755474062, -26863.265259655152, -8519.456806118109, 7165.410478760062, -9024.87445174151, -21550.769692751135, 0.184, 0.8270000000000001, -0.494, 192.0, 0.0, 0.0, 0.0, 0.0, 0.0, 0.0, 0.0, 0.0, 0.0, 1.662064996474183E9, 0.0, 2022-09-01 16:43:16.474
216.0, -21338.1375477478, -20811.396337914033, -29947.40366308733, -17195.331119934453, -11878.432259372743, -15202.226066854724, 26619.78770730349, -14929.981819389084, -25321.33016840579, -2278.8721059408317, -28143.57318205514, -26793.281947765583, -8478.10607887579, 7265.434535197561, -8988.239942579263, -21487.022517564597, 0.184, 0.8270000000000001, -0.494, 192.0, 0.0, 0.0, 0.0, 0.0, 0.0, 0.0, 0.0, 0.0, 0.0, 1.6620649964741883E9, 0.0, 2022-09-01 16:43:16.474
218.0, -21382.41635351376, -20844.521623196797, -29992.867111309424, -17227.65174241683, -11934.915117611305, -15222.052064186582, 26851.910573471854, -14964.068229683427, -25359.506947935457, -2375.856325132409, -28203.09587753962, -26865.74630328969, -8507.677436790162, 7153.519350709838, -9006.098986399054, -21555.642373042392, 0.184, 0.8270000000000001, -0.494, 192.0, 0.0, 0.0, 0.0, 0.0, 0.0, 0.0, 0.0, 0.0, 0.0, 1.6620649964741943E9, 0.0, 2022-09-01 16:43:16.474
220.0, -21328.056910998454, -20795.88422726205, -29930.461040790207, -17173.78403827954, -11871.167942424769, -15181.461296255744, 26596.0278029475, -14908.94882785664, -25319.58673233828, -2276.0110826505525, -28140.80156574268, -26784.229491261183, -8473.38986079572, 7287.428651741583, -8977.48875349626, -21475.600776147938, 0.182, 0.8245, -0.496, 192.0, 2.5, 80.0, 12.5, 88.0, 120.0, 56.0, 0.0, 0.0, 0.0, 1.6620649964741998E9, 0.0, 2022-09-01 16:43:16.474
222.0, -21383.533940736528, -20847.784977887273, -29996.17516948881, -17225.215402271202, -11936.613850189908, -15222.052064186582, 26889.84148381251, -14964.895244228273, -25344.508927405946, -2358.46666794618, -28189.77423784426, -26850.994151949188, -8496.479212818052, 7168.763240428358, -8993.44789903735, -21535.21287861024, 0.182, 0.8245, -0.496, 192.0, 0.0, 0.0, 0.0, 0.0, 0.0, 0.0, 0.0, 0.0, 0.0, 1.6620649964742053E9, 0.0, 2022-09-01 16:43:16.474
224.0, -21315.718748059124, -20786.272977146265, -29927.711776222204, -17164.038677697026, -11863.635404543329, -15172.4311914958, 26571.798511957946, -14901.706862653122, -25325.19702019656, -2271.0042918925633, -28148.691731535404, -26791.985546587177, -8480.944750421613, 7300.459718759027, -8985.848305922545, -21477.29950872654, 0.182, 0.8245, -0.496, 192.0, 0.0, 0.0, 0.0, 0.0, 0.0, 0.0, 0.0, 0.0, 0.0, 1.6620649964742105E9, 0.0, 2022-09-01 16:43:16.474
226.0, -21400.588321755928, -20869.309707797733, -30010.212065006745, -17249.332934538477, -11945.17456831629, -15247.376590654445, 26912.9531875793, -14980.34029964689, -25343.905430305655, -2367.1614965392946, -28191.495322167317, -26859.063131697552, -8493.215858127578, 7152.960557098456, -8986.697672211847, -21531.658951241847, 0.182, 0.8245, -0.496, 192.0, 0.0, 0.0, 0.0, 0.0, 0.0, 0.0, 0.0, 0.0, 0.0, 1.662064996474216E9, 0.0, 2022-09-01 16:43:16.474
228.0, -21328.012207509542, -20798.946416252427, -29935.19961061473, -17172.800561523505, -11870.765611024573, -15181.707165444752, 26549.983209369566, -14905.774880143987, -25343.257229716448, -2296.798204993988, -28174.597403359105, -26820.305206812052, -8503.140032665735, 7267.893227087645, -8998.611152006526, -21494.756221146134, 0.182, 0.8245, -0.496, 192.0, 0.0, 0.0, 0.0, 0.0, 0.0, 0.0, 0.0, 0.0, 0.0, 1.6620649964742231E9, 0.0, 2022-09-01 16:43:16.474
230.0, -21403.42699330175, -20873.400077033053, -30004.624128892916, -17240.32518152299, -11941.17360605879, -15243.710904563774, 26919.569303938068, -14981.033203725006, -25336.283485446394, -2367.8767523618644, -28187.650822121006, -26853.206974650264, -8482.688186489127, 7152.357059998162, -8980.01450061971, -21520.81835518102, 0.18, 0.82325, -0.495, 192.0, 2.5, 72.0, 12.5, 88.0, 120.0, 72.0, 0.0, 0.0, 0.0, 1.662064996474229E9, 0.0, 2022-09-01 16:43:16.474
232.0, -21309.840239267378, -20772.21372988388, -29923.44259303124, -17138.892965184805, -11862.741334765118, -15149.051266795548, 26549.938505880655, -14889.480458436068, -25346.766453595934, -2293.6689607702447, -28179.29126969472, -26810.135163084888, -8507.386864112243, 7288.099204075242, -9004.35555033154, -21491.40345947784, 0.18, 0.82325, -0.495, 192.0, 0.0, 0.0, 0.0, 0.0, 0.0, 0.0, 0.0, 0.0, 0.0, 1.6620649964742336E9, 0.0, 2022-09-01 16:43:16.474
234.0, -21404.835153202435, -20871.924861899002, -30017.006995321157, -17248.3718095269, -11949.823731162995, -15257.613689614975, 26911.075641045052, -14997.081756243917, -25321.01724398342, -2328.0906472314177, -28168.115397467067, -26821.31103531254, -8478.1507823647, 7183.7389092134135, -8979.567465730604, -21506.289721285073, 0.18, 0.82325, -0.495, 192.0, 0.0, 0.0, 0.0, 0.0, 0.0, 0.0, 0.0, 0.0, 0.0, 1.662064996474238E9, 0.0, 2022-09-01 16:43:16.474
236.0, -21328.481594143104, -20789.40222137001, -29947.35895959842, -17162.764628263074, -11878.476962861654, -15169.123133316414, 26551.704293692626, -14909.261752279015, -25364.469035204536, -2308.734036533122, -28199.519598426774, -26832.799831962566, -8535.192434214645, 7251.218825723985, -9034.753922790756, -21525.69103547228, 0.18, 0.82325, -0.495, 192.0, 0.0, 0.0, 0.0, 0.0, 0.0, 0.0, 0.0, 0.0, 0.0, 1.6620649964742422E9, 0.0, 2022-09-01 16:43:16.474
238.0, -21405.416298558273, -20877.02105963481, -30003.193617247776, -17246.293097292557, -11939.050190335536, -15252.517491879165, 26899.117457761462, -14990.644453840787, -25318.580903837792, -2331.9351472777307, -28163.086254964623, -26822.607436490947, -8475.267407329966, 7189.572714516248, -8974.806544161624, -21501.01470959362, 0.18, 0.82325, -0.495, 192.0, 0.0, 0.0, 0.0, 0.0, 0.0, 0.0, 0.0, 0.0, 0.0, 1.6620649964742465E9, 0.0, 2022-09-01 16:43:16.474
240.0, -21331.92376278922, -20797.69471856293, -29932.472697791185, -17157.646078782807, -11880.376861140354, -15153.633374408886, 26583.35436384134, -14904.14320279875, -25376.20370104357, -2327.040115242018, -28206.560397930196, -26845.24975362417, -8539.036934260957, 7233.382133648651, -9025.321486630617, -21519.76782319162, 0.181, 0.823625, -0.4955, 192.0, 2.5, 88.0, 12.5, 96.0, 120.0, 64.0, 0.0, 0.0, 0.0, 1.6620649964742508E9, 0.0, 2022-09-01 16:43:16.474
242.0, -21396.766173454067, -20872.1260275991, -29982.160625715333, -17237.978248355183, -11928.92485009728, -15239.35231439499, 26880.40904765237, -14975.422915866724, -25308.14263917716, -2318.0547139709847, -28148.535269324217, -26805.620110704913, -8465.790267680915, 7215.836014251235, -8950.86782584999, -21467.844720821944, 0.181, 0.823625, -0.4955, 192.0, 0.0, 0.0, 0.0, 0.0, 0.0, 0.0, 0.0, 0.0, 0.0, 1.6620649969546535E9, 0.0, 2022-09-01 16:43:16.954
244.0, -21345.535975162504, -20807.887114034547, -29948.945933454746, -17173.82874176845, -11899.152326482812, -15168.76550540513, 26616.032614235, -14917.24132504956, -25384.27268079194, -2347.7154788631774, -28213.847066622624, -26854.190451406295, -8544.133131996767, 7213.891412483623, -9019.30886737214, -21511.452974254247, 0.181, 0.823625, -0.4955, 192.0, 0.0, 0.0, 0.0, 0.0, 0.0, 0.0, 0.0, 0.0, 0.0, 1.6620649969547265E9, 0.0, 2022-09-01 16:43:16.954
246.0, -21383.8468651589, -20858.200890803444, -29972.907003510834, -17231.049207574037, -11915.670265635285, -15234.189061425814, 26848.5354600591, -14968.270357641026, -25302.733517018976, -2308.0634841994624, -28141.695635520893, -26800.367450757916, -8465.075011858346, 7207.364703102673, -8952.00776481721, -21457.47351139468, 0.181, 0.823625, -0.4955, 192.0, 0.0, 0.0, 0.0, 0.0, 0.0, 0.0, 0.0, 0.0, 0.0, 1.662064996954777E9, 0.0, 2022-09-01 16:43:16.954
248.0, -21334.94124829069, -20800.57809359766, -29945.794337486546, -17172.711154545683, -11897.16302122629, -15167.178531548803, 26661.22784152363, -14922.136357085272, -25368.49234920649, -2348.2519207301048, -28204.9063688405, -26850.23419263771, -8536.511187137507, 7201.5308977998375, -9019.398274349962, -21522.31592205953, 0.181, 0.823625, -0.4955, 192.0, 0.0, 0.0, 0.0, 0.0, 0.0, 0.0, 0.0, 0.0, 0.0, 1.6620649969547813E9, 0.0, 2022-09-01 16:43:16.954
250.0, -21365.876062616833, -20841.03475106177, -29956.50082308064, -17224.07546330398, -11910.909344066304, -15227.036503200115, 26804.815447904522, -14967.800971007464, -25286.103819144228, -2294.3618648483593, -28117.108716620056, -26781.63668890437, -8459.062392599868, 7231.482235369949, -8955.71815439679, -21456.11005498291, 0.1805, 0.8248125000000001, -0.49775, 192.0, 2.5, 80.0, 12.5, 104.0, 120.0, 48.0, 0.0, 0.0, 0.0, 1.6620649969547856E9, 0.0, 2022-09-01 16:43:16.954
252.0, -21353.18027176622, -20817.69952985043, -29956.79139575856, -17196.5604658795, -11921.2134982602, -15192.301892316567, 26701.081001887444, -14952.400619077758, -25361.473901447524, -2350.2635777310825, -28195.54098791373, -26853.989285706197, -8529.313925422899, 7187.449298792994, -9018.973591205311, -21527.54623026207, 0.1805, 0.8248125000000001, -0.49775, 192.0, 0.0, 0.0, 0.0, 0.0, 0.0, 0.0, 0.0, 0.0, 0.0, 1.66206499695479E9, 0.0, 2022-09-01 16:43:16.954
254.0, -21353.89552758879, -20835.335056225667, -29953.237468390165, -17223.047283059037, -11909.568239398986, -15236.960677738272, 26748.28788617705, -14981.860218269852, -25293.63635702567, -2296.5523358049795, -28123.881295190014, -26786.24114826216, -8463.800962424393, 7228.241232423929, -8968.77157315869, -21466.034229521065, 0.1805, 0.8248125000000001, -0.49775, 192.0, 0.0, 0.0, 0.0, 0.0, 0.0, 0.0, 0.0, 0.0, 0.0, 1.6620649969547944E9, 0.0, 2022-09-01 16:43:16.954
0.0, -21346.050065284977, -20816.470183905385, -29963.899250495346, -17197.58864612444, -11921.50407093812, -15204.01420641115, 26743.616371585893, -14965.096409928372, -25349.582773397302, -2368.703766906711, -28200.905406583002, -26857.677323541324, -8521.870794519282, 7156.89446412259, -9024.539175574682, -21543.997114181177, 0.1805, 0.8248125000000001, -0.49775, 192.0, 0.0, 0.0, 0.0, 0.0, 0.0, 0.0, 0.0, 0.0, 0.0, 1.6620649969547987E9, 0.0, 2022-09-01 16:43:16.954
2.0, -21331.901411044768, -20807.283616934255, -29935.73605248166, -17190.39138440983, -11879.147515195313, -15205.668235500842, 26706.91480719028, -14952.5794330334, -25282.035801653365, -2264.54463774498, -28113.46538227384, -26762.660057861813, -8450.188750051111, 7260.338337461751, -8957.550997442127, -21443.123691454377, 0.1805, 0.8248125000000001, -0.49775, 192.0, 0.0, 0.0, 0.0, 0.0, 0.0, 0.0, 0.0, 0.0, 0.0, 1.662064996954803E9, 0.0, 2022-09-01 16:43:16.954
4.0, -21358.567042179948, -20821.74519559684, -29975.902137267847, -17209.50212591912, -11923.046341305535, -15208.283389602113, 26801.172113558307, -14974.81941876643, -25353.717846121534, -2362.1323540368503, -28191.025935533755, -26847.954314703264, -8518.987419484547, 7171.624263718637, -9014.324428358606, -21531.390730308383, 0.18025, 0.82240625, -0.495875, 192.0, 2.5, 80.0, 12.5, 80.0, 120.0, 72.0, 0.0, 0.0, 0.0, 1.662064996954827E9, 0.0, 2022-09-01 16:43:16.954
6.0, -21332.728425589612, -20810.25639894681, -29925.1636773543, -17198.996806025127, -11871.59262556942, -15205.310607589558, 26667.352219504384, -14949.383133576292, -25289.590691279256, -2270.333739558904, -28114.3371003076, -26768.471511420194, -8466.706689203584, 7271.760078878413, -8962.893064366945, -21454.098397981932, 0.18025, 0.82240625, -0.495875, 192.0, 0.0, 0.0, 0.0, 0.0, 0.0, 0.0, 0.0, 0.0, 0.0, 1.6620649969548311E9, 0.0, 2022-09-01 16:43:16.954
8.0, -21382.975147125144, -20849.997800588346, -29986.385105417387, -17238.22411754419, -11933.506957710619, -15229.003456712182, 26844.422739079328, -14988.185761950705, -25361.11627353624, -2379.9466943677303, -28205.800438618713, -26872.675344070834, -8527.391675399742, 7136.934356324, -9005.204916620842, -21541.9854571802, 0.18025, 0.82240625, -0.495875, 192.0, 0.0, 0.0, 0.0, 0.0, 0.0, 0.0, 0.0, 0.0, 0.0, 1.6620649969548357E9, 0.0, 2022-09-01 16:43:16.954
10.0, -21330.672065099727, -20802.50034362082, -29925.700119221226, -17182.59062559493, -11865.49059933312, -15187.026880625115, 26624.056890494456, -14931.211165334127, -25301.034784440373, -2281.084928641907, -28135.683016262417, -26782.664869149314, -8476.474401530553, 7272.4976864454375, -8959.853227121022, -21443.302505410018, 0.18025, 0.82240625, -0.495875, 192.0, 0.0, 0.0, 0.0, 0.0, 0.0, 0.0, 0.0, 0.0, 0.0, 1.6620649969548397E9, 0.0, 2022-09-01 16:43:16.954
12.0, -21411.89830445031, -20876.395210790066, -30012.46959119673, -17247.231870559677, -11958.22798707819, -15235.06077945957, 26878.151521462387, -15001.30623594597, -25360.557479924857, -2381.75718566861, -28214.24939802282, -26868.87554751343, -8523.860099775804, 7145.495074450383, -8992.844401937056, -21517.420890023815, 0.18025, 0.82240625, -0.495875, 192.0, 0.0, 0.0, 0.0, 0.0, 0.0, 0.0, 0.0, 0.0, 0.0, 1.662064996954844E9, 0.0, 2022-09-01 16:43:16.954
14.0, -21323.161878962743, -20791.391526626532, -29925.11897386539, -17169.15722717729, -11872.151419180802, -15165.926833859306, 26589.21052088863, -14922.829261163386, -25329.756776065446, -2277.9780361626194, -28160.605211330083, -26793.93014835479, -8496.389805840232, 7282.623026683692, -8981.73558494277, -21448.778682801567, 0.177125, 0.819203125, -0.49393750000000003, 192.0, 2.5, 56.0, 12.5, 64.0, 120.0, 80.0, 0.0, 0.0, 0.0, 1.6620649969548483E9, 0.0, 2022-09-01 16:43:16.954
16.0, -21403.762269468578, -20865.1746350735, -30007.03811729409, -17253.155082840334, -11956.752771944139, -15232.15505268038, 26907.789934610122, -14998.82519231143, -25333.511869133934, -2358.9360545797413, -28187.404952931996, -26847.37316934743, -8499.027311685957, 7155.307490266263, -8985.580084989082, -21497.5725409475, 0.177125, 0.819203125, -0.49393750000000003, 192.0, 0.0, 0.0, 0.0, 0.0, 0.0, 0.0, 0.0, 0.0, 0.0, 1.6620649969548526E9, 0.0, 2022-09-01 16:43:16.954
18.0, -21332.46020465615, -20797.650015074018, -29928.315273322496, -17184.177599451257, -11877.024099472059, -15173.392316507377, 26569.138654367765, -14923.969200130607, -25332.930723778096, -2284.705911243667, -28165.969629999356, -26807.58706421698, -8505.531669322452, 7272.520038189893, -8995.236038593774, -21463.083799252963, 0.177125, 0.819203125, -0.49393750000000003, 192.0, 0.0, 0.0, 0.0, 0.0, 0.0, 0.0, 0.0, 0.0, 0.0, 1.6620649969548569E9, 0.0, 2022-09-01 16:43:16.954
20.0, -21419.006159187098, -20879.636213736085, -30006.635785893894, -17263.258071334134, -11950.047248607547, -15253.031582001637, 26925.42546098536, -15006.201267981682, -25333.86949704522, -2363.7193278931773, -28191.741191356326, -26853.922230472832, -8495.674550017662, 7149.473684963427, -8982.96493088781, -21511.274160298606, 0.177125, 0.819203125, -0.49393750000000003, 192.0, 0.0, 0.0, 0.0, 0.0, 0.0, 0.0, 0.0, 0.0, 0.0, 1.6620649969548724E9, 0.0, 2022-09-01 16:43:16.954
22.0, -21344.239573984098, -20801.315701164687, -29929.030529145068, -17176.533302847543, -11869.782134268538, -15173.884054885395, 26564.087160120867, -14922.896316396753, -25356.44475894508, -2314.947821491697, -28191.495322167317, -26823.523858013614, -8519.099178206823, 7249.564796634293, -9009.742320745268, -21492.565750189515, 0.177125, 0.819203125, -0.49393750000000003, 192.0, 0.0, 0.0, 0.0, 0.0, 0.0, 0.0, 0.0, 0.0, 0.0, 1.6620649969548764E9, 0.0, 2022-09-01 16:43:16.954
24.0, -21430.517307581584, -20891.057955152744, -30006.859303338446, -17273.718687739216, -11952.193016075256, -15268.87896882045, 26936.37781576846, -15021.06517804446, -25337.06579650233, -2363.115830792884, -28188.120208754568, -26843.84159372349, -8491.964160438081, 7153.988737343399, -8975.387689517462, -21509.9777591202, 0.1765625, 0.8186015625, -0.49096875, 192.0, 2.5, 64.0, 12.5, 72.0, 120.0, 96.0, 0.0, 0.0, 0.0, 1.662064996954882E9, 0.0, 2022-09-01 16:43:16.954
26.0, -21339.813928581945, -20800.57809359766, -29928.717604722693, -17181.808314538994, -11882.433221630243, -15180.880150899906, 26569.02689564549, -14937.804929948441, -25359.17167176863, -2314.433731369225, -28193.61873789057, -26831.391672061884, -8522.83191953086, 7243.2616046978965, -9012.06690216862, -21500.88059912689, 0.1765625, 0.8186015625, -0.49096875, 192.0, 0.0, 0.0, 0.0, 0.0, 0.0, 0.0, 0.0, 0.0, 0.0, 1.6620649969548862E9, 0.0, 2022-09-01 16:43:16.954
28.0, -21422.58243829995, -20887.839303951183, -29998.92443405681, -17277.18320812979, -11951.231891063679, -15267.671974619863, 26935.774318668166, -15020.573439666445, -25315.76458403642, -2350.151819008806, -28161.745150297305, -26834.49856454117, -8476.38499455273, 7164.516408981849, -8970.984395859767, -21493.795096134556, 0.1765625, 0.8186015625, -0.49096875, 192.0, 0.0, 0.0, 0.0, 0.0, 0.0, 0.0, 0.0, 0.0, 0.0, 1.6620649969548905E9, 0.0, 2022-09-01 16:43:16.954
30.0, -21357.091827045897, -20814.4138234155, -29940.92165719529, -17194.705271089708, -11891.060994989992, -15184.031746868104, 26588.69643076616, -14939.5260142715, -25368.02296257293, -2343.267481716571, -28203.67702289546, -26855.196279906784, -8539.014582516502, 7217.534746829838, -9024.270954641219, -21516.236247567685, 0.1765625, 0.8186015625, -0.49096875, 192.0, 0.0, 0.0, 0.0, 0.0, 0.0, 0.0, 0.0, 0.0, 0.0, 1.6620649969548948E9, 0.0, 2022-09-01 16:43:16.954
32.0, -21422.984769700142, -20887.74989697336, -29998.74562010117, -17267.124923124902, -11943.229966548679, -15256.92078553686, 26918.116440548474, -15012.616218640354, -25326.336959163782, -2349.0565835304956, -28170.730551568337, -26833.671549996325, -8482.978759167047, 7166.170438071542, -8968.123372569487, -21487.71542164271, 0.1765625, 0.8186015625, -0.49096875, 192.0, 0.0, 0.0, 0.0, 0.0, 0.0, 0.0, 0.0, 0.0, 0.0, 1.6620649969548993E9, 0.0, 2022-09-01 16:43:16.954
34.0, -21332.951943034168, -20790.67627080396, -29930.192819856744, -17168.084343443436, -11880.01923322907, -15158.95308958925, 26622.425213149218, -14924.796214675453, -25366.681857905613, -2333.231548456138, -28200.77129611627, -26836.44316630878, -8527.995172500036, 7232.242194681429, -9006.613076521526, -21495.35971824643, 0.1765625, 0.8186015625, -0.49096875, 192.0, 0.0, 0.0, 0.0, 0.0, 0.0, 0.0, 0.0, 0.0, 0.0, 1.6620649969549034E9, 0.0, 2022-09-01 16:43:16.954
36.0, -21410.42308931626, -20880.46322828093, -29995.83989332198, -17267.303737080543, -11938.245527535144, -15260.809989072084, 26884.36530642096, -15020.484032688622, -25304.588711808767, -2318.3452866489038, -28146.9929989568, -26799.294567024062, -8462.213988568066, 7212.147976416109, -8945.704572880813, -21458.52404338408, 0.17200000000000001, 0.8240000000000001, -0.492, 192.0, 2.5, 48.0, 12.5, 96.0, 120.0, 80.0, 0.0, 0.0, 0.0, 1.662064996954909E9, 0.0, 2022-09-01 16:43:16.954
38.0, -21364.713771905157, -20823.39922468653, -29965.732093540682, -17208.83157358546, -11911.98222780016, -15192.257188827658, 26645.916896571744, -14967.309232629446, -25391.045259361897, -2366.13331629435, -28228.15218307402, -26872.541233604104, -8557.007736803023, 7188.924513927044, -9030.775312277712, -21532.038930897586, 0.17200000000000001, 0.8240000000000001, -0.492, 192.0, 0.0, 0.0, 0.0, 0.0, 0.0, 0.0, 0.0, 0.0, 0.0, 1.6620649969549131E9, 0.0, 2022-09-01 16:43:16.954
40.0, -21395.939158909223, -20868.572100230707, -29979.724285569704, -17256.954879397737, -11920.006504059615, -15241.341619651512, 26841.852288466966, -15001.485049901612, -25302.4205925966, -2315.4842633586245, -28144.020216944245, -26808.615244461926, -8466.48317175903, 7208.61640079217, -8952.499503195228, -21459.842796306944, 0.17200000000000001, 0.8240000000000001, -0.492, 192.0, 0.0, 0.0, 0.0, 0.0, 0.0, 0.0, 0.0, 0.0, 0.0, 1.6620649969549177E9, 0.0, 2022-09-01 16:43:16.954
42.0, -21365.384324238817, -20822.12517525258, -29960.92646848279, -17206.97637879567, -11908.651817876318, -15183.160028834347, 26699.76224896458, -14951.57360453291, -25380.98697435701, -2366.2450750166267, -28225.91700862849, -26877.860948784466, -8547.731762854071, 7181.839010934712, -9017.07369292661, -21525.53457326109, 0.17200000000000001, 0.8240000000000001, -0.492, 192.0, 0.0, 0.0, 0.0, 0.0, 0.0, 0.0, 0.0, 0.0, 0.0, 1.662064996954922E9, 0.0, 2022-09-01 16:43:16.954
44.0, -21404.9022084358, -20870.27083280931, -29979.970154758714, -17257.826597431493, -11920.341780226443, -15243.487387119221, 26804.882503137887, -14996.880590543818, -25305.34867112025, -2298.675751528234, -28144.623714044537, -26796.835875133977, -8470.372375294253, 7233.00215399291, -8946.397476958928, -21441.29084840904, 0.17200000000000001, 0.8240000000000001, -0.492, 192.0, 0.0, 0.0, 0.0, 0.0, 0.0, 0.0, 0.0, 0.0, 0.0, 1.6620649969549265E9, 0.0, 2022-09-01 16:43:16.954
46.0, -21381.41052501327, -20831.512907923807, -29971.275326165596, -17217.54875392303, -11922.375788971876, -15199.72267147573, 26750.321894922483, -14966.035183195494, -25406.82559094734, -2384.2829327920595, -28240.467994268896, -26884.298251187596, -8559.667594393206, 7166.863342149657, -9022.12518717351, -21532.061282642044, 0.17, 0.8260000000000001, -0.492, 192.0, 2.5, 40.0, 12.5, 104.0, 120.0, 80.0, 0.0, 0.0, 0.0, 1.6620649969549305E9, 0.0, 2022-09-01 16:43:16.954
48.0, -21375.66612668826, -20844.3204574967, -29954.10918642392, -17238.402931499833, -11905.142593996834, -15237.318305649556, 26758.10030199293, -14983.357785148357, -25312.814153768322, -2295.0100654375633, -28135.23598137331, -26787.224625018196, -8475.49092477452, 7240.758209318902, -8949.079686293566, -21440.150909441818, 0.17, 0.8260000000000001, -0.492, 192.0, 0.0, 0.0, 0.0, 0.0, 0.0, 0.0, 0.0, 0.0, 0.0, 1.6620649969549348E9, 0.0, 2022-09-01 16:43:16.954
50.0, -21385.27737680404, -20843.471091207397, -29969.80011103155, -17232.278553519078, -11927.181414029768, -15217.089976917503, 26800.099229824453, -14983.983633993106, -25376.896605121685, -2375.3869384988475, -28209.980214831856, -26869.27787891363, -8540.422742417186, 7147.372620984629, -9005.11550964302, -21529.110852373942, 0.17, 0.8260000000000001, -0.492, 192.0, 0.0, 0.0, 0.0, 0.0, 0.0, 0.0, 0.0, 0.0, 0.0, 1.6620649969549394E9, 0.0, 2022-09-01 16:43:16.954
52.0, -21368.826492884935, -20839.60423941663, -29938.395910071842, -17231.205669785224, -11886.456535632198, -15217.358197850966, 26708.85940895789, -14968.96326171914, -25312.657691557135, -2292.7525392475773, -28138.76755699725, -26795.53947395557, -8482.934055678137, 7244.490950642938, -8956.746334641735, -21452.667886336792, 0.17, 0.8260000000000001, -0.492, 192.0, 0.0, 0.0, 0.0, 0.0, 0.0, 0.0, 0.0, 0.0, 0.0, 1.662064996954944E9, 0.0, 2022-09-01 16:43:16.954
54.0, -21395.536827509026, -20849.818986632705, -29989.357887429942, -17249.198824071744, -11933.372847243887, -15216.642942028397, 26840.26531461064, -14990.890323029796, -25370.325192251825, -2385.5122787371015, -28220.329072514665, -26881.07959998603, -8533.247832447032, 7152.759391398357, -9005.204916620842, -21532.59772450897, 0.17, 0.8260000000000001, -0.492, 192.0, 0.0, 0.0, 0.0, 0.0, 0.0, 0.0, 0.0, 0.0, 0.0, 1.6620649969549482E9, 0.0, 2022-09-01 16:43:16.954
56.0, -21337.22112622513, -20799.013471485792, -29928.82936344497, -17200.31555894799, -11872.710212792184, -15186.333976547001, 26664.826472380933, -14946.969145175117, -25310.713089789522, -2277.7098152291555, -28139.86279247556, -26784.16243602782, -8479.648349243207, 7280.812535382812, -8963.138933555952, -21438.362769885396, 0.17200000000000001, 0.8220000000000001, -0.498, 192.0, 2.5, 48.0, 12.5, 88.0, 120.0, 56.0, 0.0, 0.0, 0.0, 1.6620649969549525E9, 0.0, 2022-09-01 16:43:16.954
58.0, -21405.1033741359, -20861.240728049368, -30012.626053407916, -17264.1744928568, -11963.838274936472, -15241.386323140423, 26876.184567950317, -15017.980637309629, -25361.719770636533, -2378.9408658672414, -28206.493342696827, -26865.5898410785, -8525.849405032326, 7149.60779543016, -8995.124279871497, -21512.905837643844, 0.17200000000000001, 0.8220000000000001, -0.498, 192.0, 0.0, 0.0, 0.0, 0.0, 0.0, 0.0, 0.0, 0.0, 0.0, 1.6620649969549568E9, 0.0, 2022-09-01 16:43:16.954
60.0, -21338.405768681263, -20803.372061654576, -29943.82738397448, -17208.74216660764, -11893.698500835717, -15203.209543610757, 26618.37954740281, -14968.33741287439, -25324.43706088508, -2293.512498559058, -28155.129033938534, -26802.624976947904, -8506.604553056306, 7260.092468272743, -8985.803602433634, -21455.975944516176, 0.17200000000000001, 0.8220000000000001, -0.498, 192.0, 0.0, 0.0, 0.0, 0.0, 0.0, 0.0, 0.0, 0.0, 0.0, 1.6620649969549613E9, 0.0, 2022-09-01 16:43:16.954
62.0, -21410.981882927645, -20870.047315364758, -30013.296605741576, -17271.79643771606, -11967.101629626946, -15255.333811680533, 26905.443001442316, -15036.465529974168, -25354.053122288362, -2378.9408658672414, -28200.100743782612, -26868.204995179774, -8532.890204535748, 7136.934356324, -8998.812317706623, -21525.199297094263, 0.17200000000000001, 0.8220000000000001, -0.498, 192.0, 0.0, 0.0, 0.0, 0.0, 0.0, 0.0, 0.0, 0.0, 0.0, 1.6620649969549656E9, 0.0, 2022-09-01 16:43:16.954
64.0, -21345.535975162504, -20809.094108235135, -29925.610712243404, -17198.728585091663, -11882.142648952324, -15187.04923236957, 26587.847064476857, -14958.994383692074, -25335.054139501353, -2304.241335897605, -28159.219403173855, -26809.26344505113, -8519.702675307117, 7261.120648517686, -8987.323521056596, -21467.509444655116, 0.17200000000000001, 0.8220000000000001, -0.498, 192.0, 0.0, 0.0, 0.0, 0.0, 0.0, 0.0, 0.0, 0.0, 0.0, 1.66206499695497E9, 0.0, 2022-09-01 16:43:16.954
66.0, -21425.219944145676, -20888.733373729396, -29994.051753765554, -17273.942205183772, -11952.1706643308, -15250.103503477992, 26932.130984321953, -15028.731826392632, -25336.797575568864, -2370.402499485314, -28180.140635984022, -26853.40814035036, -8504.570544310875, 7145.606833172659, -8965.731735912768, -21497.907817114334, 0.176, 0.8260000000000001, -0.496, 192.0, 2.5, 64.0, 12.5, 104.0, 120.0, 64.0, 0.0, 0.0, 0.0, 1.6620649969549742E9, 0.0, 2022-09-01 16:43:16.954
68.0, -21348.776978108523, -20809.608198357608, -29917.429973772763, -17197.58864612444, -11875.839457015927, -15181.885979400395, 26572.11143638032, -14952.132398144293, -25350.856822831254, -2314.1655104357615, -28172.116359724565, -26824.48498302519, -8520.194413685133, 7255.711526359502, -8984.06016636612, -21469.00701153362, 0.176, 0.8260000000000001, -0.496, 192.0, 0.0, 0.0, 0.0, 0.0, 0.0, 0.0, 0.0, 0.0, 0.0, 1.6620649969549804E9, 0.0, 2022-09-01 16:43:16.954
70.0, -21427.27630463556, -20888.55455977375, -29995.929300299802, -17282.793495988073, -11952.528292242087, -15265.816779830073, 26938.255362302705, -15034.275059017547, -25340.753834337454, -2372.6823774197555, -28182.33110694064, -26858.057303197063, -8501.754224509505, 7141.3600017261515, -8955.874616607978, -21495.426773479794, 0.176, 0.8260000000000001, -0.496, 192.0, 0.0, 0.0, 0.0, 0.0, 0.0, 0.0, 0.0, 0.0, 0.0, 1.662064996954985E9, 0.0, 2022-09-01 16:43:16.954
72.0, -21342.138510005298, -20802.07566047617, -29915.77594468307, -17192.939483277736, -11874.945387237714, -15183.875284656917, 26567.439921789162, -14947.237366108582, -25356.5341659229, -2328.247109442605, -28178.57601387215, -26830.69876798377, -8527.749303311028, 7237.00311625041, -8985.714195455814, -21485.547302430547, 0.176, 0.8260000000000001, -0.496, 192.0, 0.0, 0.0, 0.0, 0.0, 0.0, 0.0, 0.0, 0.0, 0.0, 1.662064996954989E9, 0.0, 2022-09-01 16:43:16.954
74.0, -21425.37640635686, -20886.90053068406, -29987.569747873516, -17279.59719653096, -11938.670210679795, -15265.906186807893, 26938.836507658543, -15027.793053125508, -25329.846183043264, -2355.1809615112497, -28165.075560221143, -26841.02527392212, -8486.599741768807, 7165.455182248972, -8947.380953714963, -21497.43843048077, 0.176, 0.8260000000000001, -0.496, 192.0, 0.0, 0.0, 0.0, 0.0, 0.0, 0.0, 0.0, 0.0, 0.0, 1.6620649969549932E9, 0.0, 2022-09-01 16:43:16.954
76.0, -21344.597201895383, -20803.126192465566, -29926.2142093437, -17186.189256452235, -11870.787962769027, -15172.408839751344, 26578.101703894343, -14931.032351378484, -25358.836395601797, -2311.6844668012222, -28182.375810429552, -26828.083613882496, -8526.095274221334, 7246.279090199362, -8988.128183856987, -21494.577407190493, 0.18, 0.8240000000000001, -0.498, 192.0, 2.5, 80.0, 12.5, 96.0, 120.0, 56.0, 0.0, 0.0, 0.0, 1.6620649969549975E9, 0.0, 2022-09-01 16:43:16.954
78.0, -21435.52409833957, -20897.249388366865, -30015.285910998096, -17287.286196623587, -11951.41070501932, -15269.34835545401, 26918.764641137677, -15018.271209987548, -25329.689720832077, -2350.151819008806, -28168.13774921152, -26831.101099383963, -8485.1021748903, 7170.864304407157, -8957.171017786386, -21488.810657121023, 0.18, 0.8240000000000001, -0.498, 192.0, 0.0, 0.0, 0.0, 0.0, 0.0, 0.0, 0.0, 0.0, 0.0, 1.662064996955002E9, 0.0, 2022-09-01 16:43:16.955
80.0, -21347.32411471893, -20796.040689473237, -29948.45419507673, -17188.1562099643, -11886.545942610019, -15165.680964670297, 26591.803323245447, -14913.486231981067, -25386.440800004104, -2347.626071885356, -28216.2610550238, -26857.36439911895, -8552.559739656417, 7219.211127663985, -9023.667457540925, -21520.907762158844, 0.18, 0.8240000000000001, -0.498, 192.0, 0.0, 0.0, 0.0, 0.0, 0.0, 0.0, 0.0, 0.0, 0.0, 1.6620649969550064E9, 0.0, 2022-09-01 16:43:16.955
82.0, -21402.555275267994, -20858.044428592257, -29989.000259518656, -17259.860606176928, -11927.583745429964, -15243.040352230115, 26885.9969837662, -14975.512322844545, -25309.327281633294, -2316.26657441456, -28147.596496057096, -26807.095325838964, -8469.143029349212, 7232.935098759544, -8951.337212483551, -21475.936052314766, 0.18, 0.8240000000000001, -0.498, 192.0, 0.0, 0.0, 0.0, 0.0, 0.0, 0.0, 0.0, 0.0, 0.0, 1.662064996955011E9, 0.0, 2022-09-01 16:43:16.955
84.0, -21354.811949111456, -20801.293349420233, -29961.999352216644, -17201.902532804317, -11910.283495221556, -15185.864589913439, 26611.629320577304, -14922.695150696654, -25377.83537838881, -2344.7426968506215, -28206.38158397455, -26851.105910671464, -8534.745399325539, 7232.599822592714, -9023.73451277429, -21537.31394258904, 0.18, 0.8240000000000001, -0.498, 192.0, 0.0, 0.0, 0.0, 0.0, 0.0, 0.0, 0.0, 0.0, 0.0, 1.6620649969550147E9, 0.0, 2022-09-01 16:43:16.955
86.0, -21387.780772183036, -20849.818986632705, -29980.238375692177, -17248.394161271353, -11922.241678505145, -15241.341619651512, 26844.735663501702, -14966.526921573512, -25314.95992123603, -2313.673772057745, -28150.792795514204, -26810.470439251716, -8469.880636916238, 7221.558060831793, -8970.738526670757, -21504.9262648733, 0.182, 0.8200000000000001, -0.496, 192.0, 2.5, 88.0, 12.5, 80.0, 120.0, 64.0, 0.0, 0.0, 0.0, 1.6620649969550192E9, 0.0, 2022-09-01 16:43:16.955
88.0, -21346.452396685174, -20800.667500575484, -29958.89245973736, -17190.525494876565, -11908.271838220579, -15174.62166245242, 26652.957696075166, -14913.597990703343, -25360.959811325054, -2330.884615288331, -28197.9549763149, -26849.36247460395, -8518.093349706334, 7233.605651093203, -9012.670399268914, -21544.46650081474, 0.182, 0.8200000000000001, -0.496, 192.0, 0.0, 0.0, 0.0, 0.0, 0.0, 0.0, 0.0, 0.0, 0.0, 1.6620649969550235E9, 0.0, 2022-09-01 16:43:16.955
90.0, -21383.153961080785, -20850.35542849963, -29977.60086984645, -17242.73916992416, -11915.603210401918, -15233.518509092155, 26799.093401323964, -14951.707714999642, -25295.580958793278, -2296.395873593792, -28136.845306974094, -26800.747430413656, -8449.741715162005, 7243.5521773758155, -8960.300262010129, -21488.609491420924, 0.182, 0.8200000000000001, -0.496, 192.0, 0.0, 0.0, 0.0, 0.0, 0.0, 0.0, 0.0, 0.0, 0.0, 1.6620649969550278E9, 0.0, 2022-09-01 16:43:16.955
92.0, -21365.451379472182, -20820.717015351896, -29976.818558790514, -17210.396195697333, -11920.83351860446, -15188.546799248077, 26690.061591870977, -14920.772900673497, -25381.277547034926, -2369.955464596208, -28222.96657836039, -26885.92992853283, -8533.359591169308, 7180.475554522938, -9041.45944612735, -21576.49655061919, 0.182, 0.8200000000000001, -0.496, 192.0, 0.0, 0.0, 0.0, 0.0, 0.0, 0.0, 0.0, 0.0, 0.0, 1.662064996955032E9, 0.0, 2022-09-01 16:43:16.955
94.0, -21372.447475486693, -20840.677123150483, -29971.565898843517, -17231.138614551855, -11907.064844019991, -15223.862555487462, 26752.445310645737, -14940.218918349616, -25299.313700117316, -2289.1092049013623, -28128.865734203548, -26797.72994491219, -8449.875825628736, 7261.232407239963, -8975.544151728649, -21493.392764734363, 0.182, 0.8200000000000001, -0.496, 192.0, 0.0, 0.0, 0.0, 0.0, 0.0, 0.0, 0.0, 0.0, 0.0, 1.6620649969550364E9, 0.0, 2022-09-01 16:43:16.955
96.0, -21371.396943497293, -20828.94245731145, -29987.59209961797, -17202.72954734916, -11926.868489607394, -15196.4369650408, 26739.660112817302, -14926.405540276235, -25384.89852963669, -2383.9029531363194, -28230.230895308367, -26889.170931478853, -8534.767751069994, 7175.357005042673, -9044.879263029012, -21585.459600145772, 0.18, 0.8160000000000001, -0.496, 192.0, 2.5, 80.0, 12.5, 64.0, 120.0, 64.0, 0.0, 0.0, 0.0, 1.6620649969550407E9, 0.0, 2022-09-01 16:43:16.955
98.0, -21350.90039383178, -20820.895829307537, -29948.677712521283, -17182.456515128197, -11876.331195393945, -15198.090994130493, 26708.121801390866, -14911.340464513358, -25289.009545923418, -2277.4192425512365, -28129.603341770573, -26782.173130771298, -8447.260671527467, 7283.20417203953, -8965.038831834654, -21476.49484592615, 0.18, 0.8160000000000001, -0.496, 192.0, 0.0, 0.0, 0.0, 0.0, 0.0, 0.0, 0.0, 0.0, 0.0, 1.6620649969550452E9, 0.0, 2022-09-01 16:43:16.955
100.0, -21383.735106436623, -20846.533280197775, -29995.0799340105, -17195.73345133465, -11925.952068084725, -15204.371834322434, 26789.750372141647, -14935.748569458554, -25360.624535158222, -2356.99145281213, -28215.25522652331, -26868.674381813336, -8511.410178114198, 7188.90216218259, -9018.705370271846, -21557.16229166535, 0.18, 0.8160000000000001, -0.496, 192.0, 0.0, 0.0, 0.0, 0.0, 0.0, 0.0, 0.0, 0.0, 0.0, 1.6620649969550505E9, 0.0, 2022-09-01 16:43:16.955
102.0, -21342.40673093876, -20813.96678852639, -29940.92165719529, -17174.812218524483, -11870.765611024573, -15197.733366219207, 26657.517451944048, -14909.440566234658, -25312.791802023865, -2275.251123339072, -28145.47308033384, -26793.88544486588, -8463.24216881301, 7277.571532436792, -8981.377957031484, -21488.743601887658, 0.18, 0.8160000000000001, -0.496, 192.0, 0.0, 0.0, 0.0, 0.0, 0.0, 0.0, 0.0, 0.0, 0.0, 1.6620649969550545E9, 0.0, 2022-09-01 16:43:16.955
104.0, -21400.32010082246, -20867.387457774577, -30007.03811729409, -17225.014236571104, -11937.820844390493, -15227.952924722782, 26834.766785474636, -14953.67466851171, -25357.450587445568, -2375.3198832654816, -28209.44377296493, -26875.60342259448, -8503.765881510482, 7164.4270020040285, -9018.63831503848, -21570.215710427252, 0.18, 0.8160000000000001, -0.496, 192.0, 0.0, 0.0, 0.0, 0.0, 0.0, 0.0, 0.0, 0.0, 0.0, 1.6620649969550588E9, 0.0, 2022-09-01 16:43:16.955
106.0, -21338.673989614726, -20811.776317569773, -29936.25014260413, -17178.410849381788, -11862.786038254028, -15192.123078360926, 26622.425213149218, -14895.358967227814, -25318.06681371532, -2291.2549723690718, -28149.317580380153, -26804.16724731532, -8470.975872394547, 7279.516134204404, -8993.604361248537, -21501.50644797164, 0.179, 0.8160000000000001, -0.493, 192.0, 2.5, 72.0, 12.5, 64.0, 120.0, 88.0, 0.0, 0.0, 0.0, 1.6620649974341767E9, 0.0, 2022-09-01 16:43:17.434
108.0, -21406.869161947867, -20874.450609022453, -30009.36269871744, -17240.41458850081, -11941.79945490354, -15233.898488747895, 26874.619945838447, -14958.502645314056, -25348.509889663448, -2374.6493309318225, -28201.352441472107, -26872.42947488183, -8492.701768005105, 7148.825484374223, -9007.753015488746, -21563.152559179372, 0.179, 0.8160000000000001, -0.493, 192.0, 0.0, 0.0, 0.0, 0.0, 0.0, 0.0, 0.0, 0.0, 0.0, 1.6620649974342084E9, 0.0, 2022-09-01 16:43:17.434
110.0, -21336.08118725791, -20810.412861157998, -29931.869200690893, -17175.661584813784, -11868.843361001416, -15183.852932912461, 26587.444733076663, -14898.152935284726, -25336.462299402036, -2296.820556738443, -28160.71697005236, -26813.331462541995, -8481.592951010818, 7270.709546889013, -9007.373035833007, -21512.883485899387, 0.179, 0.8160000000000001, -0.493, 192.0, 0.0, 0.0, 0.0, 0.0, 0.0, 0.0, 0.0, 0.0, 0.0, 1.662064997434217E9, 0.0, 2022-09-01 16:43:17.434
112.0, -21398.777830455045, -20871.723696198904, -29996.84572182247, -17238.000600099636, -11939.541928713552, -15241.811006285074, 26904.504228175192, -14966.191645406681, -25344.10659600575, -2377.0633193329954, -28193.417572190476, -26869.07671321353, -8490.243076115023, 7157.721478667436, -9009.07176841161, -21567.64525981489, 0.179, 0.8160000000000001, -0.493, 192.0, 0.0, 0.0, 0.0, 0.0, 0.0, 0.0, 0.0, 0.0, 0.0, 1.6620649974342225E9, 0.0, 2022-09-01 16:43:17.434
114.0, -21326.112309230844, -20801.293349420233, -29915.150095838322, -17161.468227084664, -11866.675241789251, -15179.00260436566, 26569.473930534594, -14899.248170763038, -25324.347653907258, -2281.733129231111, -28147.484737334817, -26807.8776368949, -8478.10607887579, 7288.479183730982, -9001.807451463634, -21513.576389977505, 0.179, 0.8160000000000001, -0.493, 192.0, 0.0, 0.0, 0.0, 0.0, 0.0, 0.0, 0.0, 0.0, 0.0, 1.6620649974342268E9, 0.0, 2022-09-01 16:43:17.434
116.0, -21410.71366199418, -20878.004536390847, -29988.68733509628, -17239.587573955963, -11937.083236823468, -15252.182215712335, 26926.09601331902, -14974.752363533064, -25335.16589822363, -2359.56190342449, -28178.710124338882, -26857.9902479637, -8474.306282318388, 7175.647577720592, -8988.418756534906, -21554.12245441943, 0.1775, 0.8190000000000001, -0.4915, 192.0, 2.5, 64.0, 12.5, 88.0, 120.0, 88.0, 0.0, 0.0, 0.0, 1.6620649974342318E9, 0.0, 2022-09-01 16:43:17.434
118.0, -21333.063701756444, -20799.862837775094, -29924.046090131535, -17159.121293916858, -11867.278738889545, -15183.897636401372, 26556.174642583686, -14899.494039952046, -25347.571116396324, -2305.269516142549, -28178.508958638784, -26827.480116782204, -8497.35093085181, 7263.713450874502, -9007.551849788648, -21529.535535518593, 0.1775, 0.8190000000000001, -0.4915, 192.0, 0.0, 0.0, 0.0, 0.0, 0.0, 0.0, 0.0, 0.0, 0.0, 1.6620649974342363E9, 0.0, 2022-09-01 16:43:17.434
