%OpenBCI Raw EEG Data
%Number of channels = 16
%Sample Rate = 125 Hz
%Board = OpenBCI_GUI$BoardCytonSerialDaisy
Sample Index, EXG Channel 0, EXG Channel 1, EXG Channel 2, EXG Channel 3, EXG Channel 4, EXG Channel 5, EXG Channel 6, EXG Channel 7, EXG Channel 8, EXG Channel 9, EXG Channel 10, EXG Channel 11, EXG Channel 12, EXG Channel 13, EXG Channel 14, EXG Channel 15, Accel Channel 0, Accel Channel 1, Accel Channel 2, Other, Other, Other, Other, Other, Other, Other, Analog Channel 0, Analog Channel 1, Analog Channel 2, Timestamp, Other, Timestamp (Formatted)
0.0, -7554.375535771315, -16347.194176577828, -4285.052929526917, -7385.351644200283, -30596.766543002912, -873.0591384242939, -1202.52385169552, -14231.981543538755, 0.0, 0.0, 0.0, 0.0, 0.0, 0.0, 0.0, 0.0, 0.0, 0.0, 0.0, 192.0, 0.0, 0.0, 0.0, 0.0, 0.0, 0.0, 0.0, 0.0, 0.0, 1.65833484413886E9, 0.0, 2022-07-20 12:34:04.138
76.0, -7802.166974802849, -16877.62342424672, -4602.224183347725, -8131.676391562986, -31510.215283657944, -916.9132610456063, 569.9471318658748, -13635.391132282155, 806.316829480747, -23470.315154828448, -6362.580521414343, -31289.71532460634, -15811.55697245085, -10938.988439916187, -26958.28252533466, 4807.279086980711, 0.0, 0.0, 0.0, 192.0, 0.0, 0.0, 0.0, 0.0, 0.0, 0.0, 0.0, 0.0, 0.0, 1.6583348441388664E9, 0.0, 2022-07-20 12:34:04.138
78.0, -7739.269165905615, -16530.456129366892, -4462.928111902251, -7572.435745291204, -30784.878824338775, -1021.4970733519881, -1179.2556857175452, -14293.404137301939, -620.1044464235838, -24927.246561914275, -7737.10104669345, -32615.665509184066, -17229.66339941781, -12321.086206565644, -28405.446220093516, 3785.4690892063486, 0.0, 0.0, 0.0, 192.0, 0.0, 0.0, 0.0, 0.0, 0.0, 0.0, 0.0, 0.0, 0.0, 1.6583348441388717E9, 0.0, 2022-07-20 12:34:04.138
80.0, -7615.216984178661, -16682.5373986408, -4416.905870068774, -7936.880938634985, -31319.666662176453, -752.1362009210826, 512.8607765270206, -13542.474930581444, 869.0805279112492, -23378.248319417038, -6346.867245062262, -31301.04765904518, -15769.066306241311, -10906.958390111731, -26859.0407799531, 4741.520254793198, -0.041, 0.47300000000000003, 0.043000000000000003, 192.0, 126.5, 56.0, 14.5, 72.0, 1.0, 88.0, 0.0, 0.0, 0.0, 1.658334844138877E9, 0.0, 2022-07-20 12:34:04.138
82.0, -7925.459197218323, -16732.515899242866, -4649.319308915056, -7778.071794280028, -31016.577007362488, -1197.651171404263, -1116.7155047315962, -14395.819830396156, -662.7068713553991, -24992.379545257038, -7729.680267534289, -32588.619898393143, -17265.627356246398, -12351.685744724959, -28484.772561165402, 3881.3133694307057, -0.041, 0.47300000000000003, 0.043000000000000003, 192.0, 0.0, 0.0, 0.0, 0.0, 0.0, 0.0, 0.0, 0.0, 0.0, 1.6583348441388817E9, 0.0, 2022-07-20 12:34:04.138
84.0, -7422.65670569619, -16477.21427407435, -4239.611833049278, -7717.342104594959, -31096.57390076803, -602.8041962151761, 405.6171066304573, -13519.296171581289, 867.7841267328414, -23333.790699695433, -6376.349195998811, -31347.36047355658, -15773.916634788113, -10918.178965828296, -26818.025328877608, 4619.815006234051, -0.041, 0.47300000000000003, 0.043000000000000003, 192.0, 0.0, 0.0, 0.0, 0.0, 0.0, 0.0, 0.0, 0.0, 0.0, 1.658334844138888E9, 0.0, 2022-07-20 12:34:04.138
86.0, -8080.2450275713245, -16912.6933112971, -4812.688209138895, -7973.314282097135, -31224.761155219217, -1338.0201265835915, -988.3270845803124, -14396.646844941002, -657.0518800082065, -25004.829466918643, -7684.261522801105, -32510.701717221942, -17246.807187415026, -12327.881136880058, -28504.59855849726, 3995.93311499752, -0.041, 0.47300000000000003, 0.043000000000000003, 192.0, 0.0, 0.0, 0.0, 0.0, 0.0, 0.0, 0.0, 0.0, 0.0, 1.6583348441388955E9, 0.0, 2022-07-20 12:34:04.138
88.0, -7269.860180599711, -16303.295350467606, -4088.4022818091253, -7539.288108263983, -30893.575357624934, -490.6431425384453, 243.0975726959196, -13492.407023001555, 836.2681670508584, -23341.77027246598, -6445.550196832442, -31429.54783791874, -15802.79508862437, -10977.254626423673, -26816.907741654843, 4498.310923375002, -0.041, 0.47300000000000003, 0.043000000000000003, 192.0, 0.0, 0.0, 0.0, 0.0, 0.0, 0.0, 0.0, 0.0, 0.0, 1.6583348441389012E9, 0.0, 2022-07-20 12:34:04.138
90.0, -8238.383619592621, -17093.451868707165, -4970.782097671282, -8184.605322433153, -31439.874343857093, -1458.7866018756154, -818.4314749755234, -14442.736142007845, -586.0627396181512, -24980.689582906914, -7596.2180013916495, -32414.723326530857, -17174.141666190822, -12245.783179495715, -28469.327505746784, 4114.754988521932, -0.0615, 0.7115, 0.0645, 192.0, 126.5, 56.0, 14.5, 88.0, 1.0, 88.0, 0.0, 0.0, 0.0, 1.6583348441389072E9, 0.0, 2022-07-20 12:34:04.138
92.0, -7156.469780977939, -16161.495883643138, -3978.6328647891123, -7376.790926073901, -30703.11614312126, -405.90767930837626, 48.816209890390624, -13532.43899732101, 725.5823285081779, -23428.20446827465, -6585.539172356031, -31585.898290383615, -15927.562526173893, -11105.419529130404, -26903.386640952427, 4324.302592790436, -0.0615, 0.7115, 0.0645, 192.0, 0.0, 0.0, 0.0, 0.0, 0.0, 0.0, 0.0, 0.0, 0.0, 1.6583348441389132E9, 0.0, 2022-07-20 12:34:04.138
94.0, -8357.227844861489, -17239.07348383349, -5086.9664653499685, -8348.018926145904, -31620.655253011617, -1538.9399574923466, -587.2697338187378, -14411.600161981603, -481.0989476560292, -24878.810331679622, -7472.836371998355, -32279.070589431598, -17070.273109707014, -12124.994352459235, -28375.047847634298, 4251.41355412168, -0.0615, 0.7115, 0.0645, 192.0, 0.0, 0.0, 0.0, 0.0, 0.0, 0.0, 0.0, 0.0, 0.0, 1.65833484413892E9, 0.0, 2022-07-20 12:34:04.138
96.0, -7065.274663600286, -16035.521451893026, -3873.3337966601607, -7213.802005505801, -30530.381861970647, -326.6483934698574, -163.50301069057116, -13500.498354494377, 578.8878296479976, -23545.79699585402, -6738.738028852705, -31738.180725357623, -16062.32119349494, -11243.977993008852, -27021.314444698626, 4181.318483509837, -0.0615, 0.7115, 0.0645, 192.0, 0.0, 0.0, 0.0, 0.0, 0.0, 0.0, 0.0, 0.0, 0.0, 1.6583348441389256E9, 0.0, 2022-07-20 12:34:04.138
98.0, -8419.589211891796, -17345.75836011867, -5156.390983628152, -8476.116773619267, -31775.86576650927, -1562.2304752147766, -369.2284666572174, -14325.009503961743, -323.36268703492726, -24732.920495619834, -7307.813442684823, -32112.84066591748, -16904.423165848635, -11943.945222371249, -28231.080261597668, 4429.35579173038, -0.0615, 0.7115, 0.0645, 192.0, 0.0, 0.0, 0.0, 0.0, 0.0, 0.0, 0.0, 0.0, 0.0, 1.6583348441389306E9, 0.0, 2022-07-20 12:34:04.138
100.0, -7016.525508943261, -15943.00758159251, -3819.4437407784158, -7109.955800766445, -30392.471598681404, -318.57941372149156, -396.58700187051323, -13623.812928654306, 422.850301605499, -23708.40593676638, -6901.816356398625, -31904.96944248312, -16223.656084973347, -11377.619073107133, -27184.728048411376, 4035.450999194503, -0.0615, 0.7115, 0.0645, 192.0, 0.0, 0.0, 0.0, 0.0, 0.0, 0.0, 0.0, 0.0, 0.0, 1.6583348441389358E9, 0.0, 2022-07-20 12:34:04.138
102.0, -8437.850587111781, -17403.29175034663, -5193.427824190596, -8565.635510162772, -31880.516634049018, -1562.632806614972, -139.18431272319708, -14248.186558268853, -136.61386211083678, -24552.76543531006, -7129.625335887115, -31940.17344000023, -16727.620867207155, -11787.483011184098, -28054.03209376718, 4562.795706128562, -0.08, 0.9520000000000001, 0.09, 192.0, 126.5, 64.0, 14.5, 96.0, 1.0, 104.0, 0.0, 0.0, 0.0, 1.658334844138941E9, 0.0, 2022-07-20 12:34:04.138
104.0, -7036.418561508484, -15941.353552502818, -3830.2843368392396, -7064.380593822074, -30325.95280718241, -343.7027744892567, -630.1180279395614, -13711.699987852573, 219.80705497348964, -23914.01963401075, -7094.913076748023, -32085.45977895973, -16421.714892591823, -11604.288113628401, -27389.291213666347, 3902.2793057297836, -0.08, 0.9520000000000001, 0.09, 192.0, 0.0, 0.0, 0.0, 0.0, 0.0, 0.0, 0.0, 0.0, 0.0, 1.6583348441389463E9, 0.0, 2022-07-20 12:34:04.138
106.0, -8409.754444331462, -17415.24993363022, -5173.288902436364, -8598.023187878513, -31940.12873651132, -1510.7544077342043, 71.27971306797423, -14152.834016422514, 29.928985825656156, -24370.621069743764, -6970.659729320972, -31783.085379968332, -16555.780655834755, -11615.754558533974, -27860.242469339668, 4672.989806293226, -0.08, 0.9520000000000001, 0.09, 192.0, 0.0, 0.0, 0.0, 0.0, 0.0, 0.0, 0.0, 0.0, 0.0, 1.658334844138955E9, 0.0, 2022-07-20 12:34:04.138
108.0, -7058.613843752604, -15931.161157031198, -3847.0257934362644, -7036.195044063931, -30278.120074048053, -401.1691094838512, -822.3206785107468, -13798.692977272627, 47.56451220089343, -24108.81508693875, -7245.72029658798, -32219.95022534731, -16594.85150514263, -11760.929138771193, -27576.12944556826, 3815.778054687745, -0.08, 0.9520000000000001, 0.09, 192.0, 0.0, 0.0, 0.0, 0.0, 0.0, 0.0, 0.0, 0.0, 0.0, 1.6583348441389604E9, 0.0, 2022-07-20 12:34:04.138
110.0, -8329.265812547901, -17367.618366195962, -5110.547555750318, -8587.808440662437, -31936.2395329761, -1442.0004417896798, 264.10821248390823, -14039.644782500838, 261.2918926825396, -24133.178488395035, -6771.572741457551, -31611.088706384744, -16344.355505032005, -11413.895954358097, -27623.4704403246, 4769.974025484804, -0.08, 0.9520000000000001, 0.09, 192.0, 0.0, 0.0, 0.0, 0.0, 0.0, 0.0, 0.0, 0.0, 0.0, 1.6583348441389658E9, 0.0, 2022-07-20 12:34:04.138
112.0, -7143.84104536069, -15989.029823425988, -3923.4687594734146, -7081.233809141375, -30299.018955113766, -499.4944333427469, -997.5360032958989, -13937.273792895532, -142.58177788040376, -24325.62700815523, -7408.239830522518, -32374.579593489125, -16785.333071390756, -11949.197882318245, -27799.512779654597, 3729.8132455126342, -0.082, 0.9520000000000001, 0.094, 192.0, 126.5, 56.0, 14.5, 96.0, 1.0, 120.0, 0.0, 0.0, 0.0, 1.6583348441389709E9, 0.0, 2022-07-20 12:34:04.138
114.0, -8205.124223843124, -17270.432981304286, -4999.012350918335, -8519.367399140287, -31875.129863635288, -1318.3058879740106, 417.754103869689, -13907.456565792152, 453.2263223202613, -23920.76986083625, -6608.650876122818, -31473.111387862136, -16155.460912640205, -11231.237498669327, -27401.383507416667, 4835.263471038756, -0.082, 0.9520000000000001, 0.094, 192.0, 0.0, 0.0, 0.0, 0.0, 0.0, 0.0, 0.0, 0.0, 0.0, 1.658334844138976E9, 0.0, 2022-07-20 12:34:04.138
116.0, -7254.839808325745, -16079.956719870177, -4025.638583378623, -7159.889597879601, -30365.0683599792, -611.7225422528437, -1109.7194087170851, -14017.270686301075, -321.5521957340474, -24514.543952291486, -7538.841073374877, -32475.162443538007, -16945.77389309095, -12073.317119278565, -27991.804837203603, 3714.010562182732, -0.082, 0.9520000000000001, 0.094, 192.0, 0.0, 0.0, 0.0, 0.0, 0.0, 0.0, 0.0, 0.0, 0.0, 1.658334844138981E9, 0.0, 2022-07-20 12:34:04.138
118.0, -8064.621158197065, -17149.599450778896, -4876.144811647512, -8416.527022901419, -31785.0523334804, -1174.2265432151012, 508.1669101914061, -13788.746450990016, 618.5621760561677, -23705.96959662075, -6481.089470516381, -31361.151499885502, -15997.9258177192, -11075.781115982667, -27196.95445262843, 4867.137058632024, -0.082, 0.9520000000000001, 0.094, 192.0, 0.0, 0.0, 0.0, 0.0, 0.0, 0.0, 0.0, 0.0, 0.0, 1.6583348441389868E9, 0.0, 2022-07-20 12:34:04.138
120.0, -7421.829691151344, -16237.089483390986, -4186.548791712379, -7302.560782737825, -30502.57629186825, -771.5598668527444, -1192.5996771573637, -14166.647394495893, -483.4011773349258, -24710.166419764333, -7660.501618445113, -32571.140834229092, -17107.24289503609, -12236.507205546763, -28194.937490813434, 3691.6141142385145, -0.082, 0.9520000000000001, 0.094, 192.0, 0.0, 0.0, 0.0, 0.0, 0.0, 0.0, 0.0, 0.0, 0.0, 1.6583348441389918E9, 0.0, 2022-07-20 12:34:04.138
122.0, -7882.499144375222, -16977.736887662042, -4705.936277620349, -8254.25335815589, -31618.665947755093, -1014.0539424483708, 557.0948788040732, -13701.418185403132, 752.2703113878144, -23538.84560332842, -6380.238399534035, -31291.14583625148, -15870.632633046227, -10975.198265933785, -27020.86740980952, 4838.593880962597, -0.09, 0.9500000000000001, 0.094, 192.0, 126.5, 24.0, 14.5, 88.0, 1.0, 120.0, 0.0, 0.0, 0.0, 1.6583348441389968E9, 0.0, 2022-07-20 12:34:04.138
124.0, -7621.229603437138, -16433.427206686403, -4374.884590492796, -7496.462165887615, -30691.672049960143, -946.1269910486926, -1212.135101811302, -14247.136026279453, -586.1074431070618, -24853.53050870067, -7720.225479629694, -32614.391459750113, -17201.366090937387, -12314.984180329346, -28334.568838425737, 3735.69175430438, -0.09, 0.9500000000000001, 0.094, 192.0, 0.0, 0.0, 0.0, 0.0, 0.0, 0.0, 0.0, 0.0, 0.0, 1.6583348441390035E9, 0.0, 2022-07-20 12:34:04.139
126.0, -7716.157462138827, -16811.283446703368, -4543.059115774527, -8089.968036409383, -31452.70424517444, -865.280731353847, 532.0609250141293, -13587.826620081261, 817.2021290304815, -23449.863308651842, -6370.291873251424, -31310.994185327792, -15815.960266108546, -10952.332431356006, -26917.75881263719, 4764.497848093253, -0.09, 0.9500000000000001, 0.094, 192.0, 0.0, 0.0, 0.0, 0.0, 0.0, 0.0, 0.0, 0.0, 0.0, 1.65833484413901E9, 0.0, 2022-07-20 12:34:04.139
128.0, -7789.001797318673, -16601.95935987942, -4533.023182514094, -7671.230455783661, -30869.793101524487, -1090.5416119744316, -1147.9855952245707, -14309.139765398475, -653.7661735732763, -24967.256184489273, -7746.511131109135, -32609.78700039232, -17254.831463674484, -12347.997706889833, -28431.016615750388, 3814.3922465315163, -0.09, 0.9500000000000001, 0.094, 192.0, 0.0, 0.0, 0.0, 0.0, 0.0, 0.0, 0.0, 0.0, 0.0, 1.6583348441390164E9, 0.0, 2022-07-20 12:34:04.139
130.0, -7514.410616685226, -16593.28688303076, -4350.811761714431, -7872.574969837066, -31226.862219198018, -690.5124414578011, 481.6577412674119, -13517.418625047045, 877.6188942931765, -23347.492319046538, -6353.729230610041, -31305.093324791593, -15762.316079415808, -10898.73294815218, -26809.26344505113, 4690.558277435098, -0.09, 0.9500000000000001, 0.094, 192.0, 0.0, 0.0, 0.0, 0.0, 0.0, 0.0, 0.0, 0.0, 0.0, 1.6583348441390233E9, 0.0, 2022-07-20 12:34:04.139
132.0, -7972.934302441395, -16801.26986518739, -4723.2141760843015, -7881.694481574832, -31096.372735067933, -1249.4401633072096, -1059.7185563705632, -14355.989021776799, -671.6475691375219, -25010.12683035455, -7728.585032055978, -32562.35659865816, -17276.289138351578, -12342.476826009373, -28494.36145953673, 3899.4182824395043, -0.088, 0.9520000000000001, 0.098, 192.0, 126.5, 32.0, 14.5, 96.0, 1.5, 8.0, 0.0, 0.0, 0.0, 1.6583348441390283E9, 0.0, 2022-07-20 12:34:04.139
134.0, -7338.480036077504, -16398.692595802855, -4171.170791527127, -7655.628938153856, -30991.99008846165, -539.5934628955678, 355.370385094927, -13441.802673554741, 866.8677052101738, -23313.115336074276, -6399.8185276768845, -31370.852156979105, -15781.516227902917, -10913.507451237138, -26789.951537841745, 4567.780145142096, -0.088, 0.9520000000000001, 0.098, 192.0, 0.0, 0.0, 0.0, 0.0, 0.0, 0.0, 0.0, 0.0, 0.0, 1.6583348441390333E9, 0.0, 2022-07-20 12:34:04.139
136.0, -8144.014554502315, -16997.629940227263, -4891.63457055504, -8086.794088696729, -31318.549074953688, -1375.6381125018731, -911.7723598208858, -14369.534178916714, -638.7681530437652, -24995.285272036228, -7656.6794701432555, -32477.956411594918, -17229.708102906716, -12281.814191557669, -28483.54321522036, 4036.1886067615283, -0.088, 0.9520000000000001, 0.098, 192.0, 0.0, 0.0, 0.0, 0.0, 0.0, 0.0, 0.0, 0.0, 0.0, 1.6583348441390383E9, 0.0, 2022-07-20 12:34:04.139
138.0, -7217.534746829838, -16261.274070891628, -4066.6987379430225, -7504.888773547265, -30834.410290051736, -448.93478738484237, 150.74016460659084, -13450.117522492113, 764.0720324602166, -23371.475740847083, -6523.803654170472, -31512.1375336811, -15888.692842566115, -11028.887156115432, -26856.045646196086, 4401.863146050352, -0.088, 0.9520000000000001, 0.098, 192.0, 0.0, 0.0, 0.0, 0.0, 0.0, 0.0, 0.0, 0.0, 0.0, 1.6583348441390448E9, 0.0, 2022-07-20 12:34:04.139
140.0, -8270.21250369698, -17163.01049745208, -5042.553549117273, -8286.17164923807, -31530.130687967623, -1497.5445267611178, -741.6085292826331, -14404.626417711546, -564.4038992409586, -24945.41853015644, -7569.105335367362, -32382.112131370563, -17170.408924866788, -12202.353740019053, -28448.450976425527, 4153.6023203852565, -0.088, 0.9520000000000001, 0.098, 192.0, 0.0, 0.0, 0.0, 0.0, 0.0, 0.0, 0.0, 0.0, 0.0, 1.65833484413905E9, 0.0, 2022-07-20 12:34:04.139
142.0, -7082.150230664043, -16091.177295586742, -3937.0586201022415, -7321.224489358007, -30625.466182883523, -350.3635943369382, -47.229236034063824, -13473.072764047714, 673.1227842715722, -23460.74860820158, -6645.17362656279, -31649.243134169956, -15991.175590893698, -11133.96270679983, -26943.463318760794, 4253.514618100478, -0.08600000000000001, 0.9480000000000001, 0.098, 192.0, 126.5, 40.0, 14.5, 80.0, 1.5, 8.0, 0.0, 0.0, 0.0, 1.6583348441390564E9, 0.0, 2022-07-20 12:34:04.139
144.0, -8346.007269144926, -17268.51073128113, -5116.269602330876, -8414.604772878263, -31677.540442650374, -1523.8078264961036, -503.92007874489775, -14335.447768622373, -421.1515690268957, -24819.421746661872, -7413.805414891889, -32223.124173059965, -17026.687208019164, -12044.550424164585, -28321.26955047483, 4325.017848613006, -0.08600000000000001, 0.9480000000000001, 0.098, 192.0, 0.0, 0.0, 0.0, 0.0, 0.0, 0.0, 0.0, 0.0, 0.0, 1.6583348441390631E9, 0.0, 2022-07-20 12:34:04.139
146.0, -7000.141680257521, -15979.820904710401, -3838.8674067100774, -7175.915798654056, -30448.820346453234, -302.2179367802068, -253.28996816753963, -13520.011427403859, 545.6284338985007, -23581.559786982514, -6782.927427640847, -31789.142702715722, -16117.082967410443, -11261.74762985082, -27052.673942169422, 4129.663602073622, -0.08600000000000001, 0.9480000000000001, 0.098, 192.0, 0.0, 0.0, 0.0, 0.0, 0.0, 0.0, 0.0, 0.0, 0.0, 1.6583348441390693E9, 0.0, 2022-07-20 12:34:04.139
148.0, -8409.530926886908, -17382.77284893666, -5188.8680683217135, -8551.710373367116, -31823.229113010064, -1578.7484143672484, -280.5367446585589, -14288.531457010682, -255.23456993515134, -24672.92841350179, -7245.38502042115, -32059.57645888048, -16855.495197235967, -11882.612035585886, -28160.20287992989, 4454.5015042426, -0.08600000000000001, 0.9480000000000001, 0.098, 192.0, 0.0, 0.0, 0.0, 0.0, 0.0, 0.0, 0.0, 0.0, 0.0, 1.658334844139074E9, 0.0, 2022-07-20 12:34:04.139
150.0, -6972.067889221656, -15928.43424420765, -3808.0890545951197, -7085.994730710356, -30336.346368354127, -306.9788583491872, -490.8890117274537, -13567.620643093664, 347.77079198012257, -23786.882911548964, -6975.4206508899515, -31983.736989943623, -16307.60923714748, -11479.431269101056, -27249.95043873196, 3966.227646616417, -0.08600000000000001, 0.9480000000000001, 0.098, 192.0, 0.0, 0.0, 0.0, 0.0, 0.0, 0.0, 0.0, 0.0, 0.0, 1.6583348441390796E9, 0.0, 2022-07-20 12:34:04.139
152.0, -8396.835136036294, -17410.220791127776, -5187.795184587859, -8591.496478497564, -31899.20269241365, -1539.0070127257125, -52.45954423660567, -14152.834016422514, -67.36815778829549, -24471.18156804819, -7063.821800210691, -31880.047247415456, -16665.840645532688, -11685.670815190175, -27967.32967702504, 4606.5157182831435, -0.076, 0.9440000000000001, 0.096, 192.0, 126.5, 80.0, 14.5, 64.0, 1.5, 0.0, 0.0, 0.0, 0.0, 1.6583348441390846E9, 0.0, 2022-07-20 12:34:04.139
154.0, -6973.967787500356, -15891.978549001045, -3795.5050224667816, -7011.71988388537, -30260.328085461628, -321.28397480058374, -702.515328230301, -13674.529036823396, 180.95972311016598, -23960.39950375551, -7132.84398708868, -32120.820238688022, -16484.97032940034, -11633.747712820497, -27440.253191024447, 3877.424165895482, -0.076, 0.9440000000000001, 0.096, 192.0, 0.0, 0.0, 0.0, 0.0, 0.0, 0.0, 0.0, 0.0, 0.0, 1.6583348441390898E9, 0.0, 2022-07-20 12:34:04.139
156.0, -8338.117103352202, -17385.477410015752, -5131.938175194046, -8593.530487242995, -31925.37658517082, -1466.028567079135, 162.0501473009762, -14052.005297184623, 160.217304255641, -24241.763262958917, -6856.755239576726, -31684.335372964786, -16457.567090698136, -11503.392339157146, -27734.335092822923, 4732.065466888603, -0.076, 0.9440000000000001, 0.096, 192.0, 0.0, 0.0, 0.0, 0.0, 0.0, 0.0, 0.0, 0.0, 0.0, 1.6583348441390948E9, 0.0, 2022-07-20 12:34:04.139
158.0, -7049.740201203847, -15939.744226902036, -3860.0568604537084, -7044.532244745761, -30265.826614597634, -425.55486268459117, -902.0269992383718, -13827.437320642153, -35.85219810631253, -24190.153085011614, -7315.189518355074, -32289.464150603315, -16689.39938418858, -11818.86486039935, -27664.932926289195, 3766.2465889747846, -0.076, 0.9440000000000001, 0.096, 192.0, 0.0, 0.0, 0.0, 0.0, 0.0, 0.0, 0.0, 0.0, 0.0, 1.6583348441390998E9, 0.0, 2022-07-20 12:34:04.139
160.0, -8231.3428200892, -17320.70205458427, -5056.411630679564, -8549.78812334396, -31898.085105190887, -1379.0802811479905, 337.77956220860034, -13930.23299339211, 345.6026727679578, -24020.816269018207, -6692.067586430024, -31537.372653171144, -16267.867835505944, -11305.557048983223, -27511.331738392324, 4799.590086888085, -0.076, 0.9440000000000001, 0.096, 192.0, 0.0, 0.0, 0.0, 0.0, 0.0, 0.0, 0.0, 0.0, 0.0, 1.6583348441391048E9, 0.0, 2022-07-20 12:34:04.139
162.0, -7157.922644367533, -16037.89073680529, -3975.54832405428, -7110.671056589014, -30313.011147142788, -551.0152043122297, -1056.20933249108, -13931.685856781705, -229.68652602273536, -24402.315843381388, -7474.62451155478, -32425.094535958116, -16869.08505786479, -12001.053929454558, -27877.34155384798, 3710.8813179589893, -0.07200000000000001, 0.9460000000000001, 0.10200000000000001, 192.0, 126.5, 96.0, 14.5, 72.0, 1.5, 24.0, 0.0, 0.0, 0.0, 1.65833484413911E9, 0.0, 2022-07-20 12:34:04.139
164.0, -8125.842586260151, -17244.773178669595, -4963.629539445584, -8484.766898723472, -31837.78009865047, -1261.8677332243603, 457.9648921447864, -13846.369248195799, 509.5527183476351, -23825.283208523182, -6566.607244802385, -31432.677082142483, -16108.365787072873, -11172.295948540683, -27317.519762220356, 4832.916537870949, -0.07200000000000001, 0.9460000000000001, 0.10200000000000001, 192.0, 0.0, 0.0, 0.0, 0.0, 0.0, 0.0, 0.0, 0.0, 0.0, 1.658334844139115E9, 0.0, 2022-07-20 12:34:04.139
166.0, -7307.0087798844315, -16162.747581332635, -4107.155395407128, -7220.328714886751, -30419.69602342797, -673.7262813718655, -1157.5521418514422, -14053.189939640753, -407.6511153758902, -24598.966491099178, -7613.026513222041, -32538.23906639088, -17044.568603583408, -12149.804788804626, -28092.56650120813, 3682.7851751786684, -0.07200000000000001, 0.9460000000000001, 0.10200000000000001, 192.0, 0.0, 0.0, 0.0, 0.0, 0.0, 0.0, 0.0, 0.0, 0.0, 1.65833484413912E9, 0.0, 2022-07-20 12:34:04.139
168.0, -7961.3784505580015, -17092.826019862416, -4806.764996858239, -8339.614670230707, -31709.07875407681, -1096.8224521663728, 542.3203757191153, -13709.844793062783, 681.5940954201336, -23624.609246803433, -6445.505493343532, -31336.788098429217, -15955.926889887678, -11031.368199749972, -27118.45512610139, 4857.39169804951, -0.07200000000000001, 0.9460000000000001, 0.10200000000000001, 192.0, 0.0, 0.0, 0.0, 0.0, 0.0, 0.0, 0.0, 0.0, 0.0, 1.658334844139125E9, 0.0, 2022-07-20 12:34:04.139
170.0, -7478.156087178718, -16334.476033982759, -4260.17543794816, -7364.229245690018, -30566.211708332507, -831.8201699042523, -1208.648229676274, -14137.32190577053, -536.1065907605399, -24779.210958386775, -7702.8134706990095, -32601.02511656584, -17164.01632595257, -12234.249679356775, -28256.382436321073, 3701.9629719213217, -0.07200000000000001, 0.9460000000000001, 0.10200000000000001, 192.0, 0.0, 0.0, 0.0, 0.0, 0.0, 0.0, 0.0, 0.0, 0.0, 1.6583348441391315E9, 0.0, 2022-07-20 12:34:04.139
172.0, -7792.376910731425, -16936.20734646408, -4641.764419289162, -8174.636444406086, -31543.38527242962, -937.4992176889441, 555.7537741367548, -13584.87618981316, 797.1749659985264, -23482.027468923032, -6371.074184307359, -31286.67548736042, -15841.105978620766, -10918.961276884233, -26954.23685958825, 4823.618212177541, -0.074, 0.96, 0.094, 192.0, 126.5, 88.0, 15.0, 0.0, 1.0, 120.0, 0.0, 0.0, 0.0, 1.658334844139137E9, 0.0, 2022-07-20 12:34:04.139
174.0, -7675.700804674721, -16531.640771823022, -4453.987414120128, -7556.476599750114, -30759.688408337643, -1010.1200354242368, -1212.0456948334809, -14249.460607702806, -645.7866008027316, -24930.018178226732, -7771.790954088087, -32649.08136714475, -17268.51073128113, -12357.1172186276, -28410.251845151408, 3733.769504281224, -0.074, 0.96, 0.094, 192.0, 0.0, 0.0, 0.0, 0.0, 0.0, 0.0, 0.0, 0.0, 0.0, 1.6583348441391423E9, 0.0, 2022-07-20 12:34:04.139
176.0, -7609.472585853647, -16750.33023957375, -4460.69293745672, -7972.688433252387, -31342.01840663176, -783.1827739695042, 519.1863202078724, -13518.178584358524, 854.3060248262913, -23381.8693020188, -6356.456143433588, -31299.751257866774, -15792.245065241465, -10888.831125358478, -26859.17489041983, 4740.290908848156, -0.074, 0.96, 0.094, 192.0, 0.0, 0.0, 0.0, 0.0, 0.0, 0.0, 0.0, 0.0, 0.0, 1.6583348441391473E9, 0.0, 2022-07-20 12:34:04.139
178.0, -7852.681917271843, -16722.815242149263, -4614.227070120224, -7737.525729838101, -30955.93672465524, -1153.6405865717634, -1121.4764263005766, -14326.462367351338, -677.839002351642, -24982.90240560799, -7756.100029480462, -32605.562520690266, -17293.432926348796, -12351.39517204704, -28473.708447660025, 3847.875159725566, -0.074, 0.96, 0.094, 192.0, 0.0, 0.0, 0.0, 0.0, 0.0, 0.0, 0.0, 0.0, 0.0, 1.6583348441391523E9, 0.0, 2022-07-20 12:34:04.139
180.0, -7429.876319155254, -16553.903109300507, -4281.543705647434, -7778.809401847054, -31137.567000099065, -637.0470687207066, 415.49657767970297, -13475.307938493246, 860.4304028070454, -23331.264952571983, -6378.338501255334, -31341.414909531464, -15790.054594284844, -10892.094480048952, -26808.481133995192, 4632.130817428925, -0.074, 0.96, 0.094, 192.0, 0.0, 0.0, 0.0, 0.0, 0.0, 0.0, 0.0, 0.0, 0.0, 1.6583348441391575E9, 0.0, 2022-07-20 12:34:04.139
182.0, -8017.481329140822, -16906.837154249806, -4786.894296037472, -7955.164665599426, -31181.3093639981, -1306.7276843461616, -1009.9635732130496, -14373.333975474117, -669.9264848144633, -25017.681719980446, -7707.172060867794, -32538.30612162425, -17275.439772062276, -12326.920011868478, -28500.68700321758, 3953.1071726211517, -0.075, 0.9570000000000001, 0.095, 192.0, 126.5, 80.0, 14.5, 104.0, 1.5, 0.0, 0.0, 0.0, 0.0, 1.6583348441391623E9, 0.0, 2022-07-20 12:34:04.139
184.0, -7248.961299533999, -16354.011458636698, -4107.490671573958, -7571.474620279625, -30920.77743062704, -498.39919786443687, 270.12083174238586, -13463.930900565494, 843.4207252765567, -23333.835403184345, -6433.055571681925, -31415.667404611995, -15813.345112007275, -10954.478198823716, -26801.328575769494, 4505.977571723172, -0.075, 0.9570000000000001, 0.095, 192.0, 0.0, 0.0, 0.0, 0.0, 0.0, 0.0, 0.0, 0.0, 0.0, 1.6583348441391675E9, 0.0, 2022-07-20 12:34:04.139
186.0, -8172.177752516002, -17093.51892394053, -4938.819103100193, -8151.122409239103, -31400.579977104662, -1435.6525463643727, -845.8570654221852, -14398.949074619899, -610.0461614186956, -24984.310565508673, -7617.742731302111, -32436.89625703052, -17212.698425376228, -12246.319621362642, -28471.070941814298, 4085.9212381745865, -0.075, 0.9570000000000001, 0.095, 192.0, 0.0, 0.0, 0.0, 0.0, 0.0, 0.0, 0.0, 0.0, 0.0, 1.6583348441391728E9, 0.0, 2022-07-20 12:34:04.139
188.0, -7098.645818072059, -16182.238302497663, -3958.1810186125067, -7371.337100426806, -30704.83722744432, -380.56080109605807, 90.97159993309974, -13440.685086331974, 765.1225644496161, -23382.49515086355, -6539.941613667204, -31541.083042750724, -15898.169982215166, -11049.048429614119, -26854.391617106394, 4365.027471188006, -0.075, 0.9570000000000001, 0.095, 192.0, 0.0, 0.0, 0.0, 0.0, 0.0, 0.0, 0.0, 0.0, 0.0, 1.6583348441391778E9, 0.0, 2022-07-20 12:34:04.139
190.0, -8268.312605418278, -17218.465175445697, -5040.765409560849, -8304.321265735778, -31573.940107100025, -1493.409454036886, -624.9547749703855, -14345.081370482609, -478.2155726212946, -24870.11550308651, -7468.164857407196, -32282.065723188607, -17078.587958644388, -12087.331663052042, -28365.593059729705, 4259.638996081233, -0.075, 0.9570000000000001, 0.095, 192.0, 0.0, 0.0, 0.0, 0.0, 0.0, 0.0, 0.0, 0.0, 0.0, 1.6583348441391828E9, 0.0, 2022-07-20 12:34:04.139
192.0, -7028.863671882591, -16068.93730985371, -3876.463040883904, -7231.303421414307, -30539.344911497228, -329.4647132712261, -134.4233911542167, -13485.388575242589, 633.2472721633044, -23499.059498197974, -6686.904333460848, -31691.286765490386, -16034.448568159172, -11179.850838166576, -26972.9676214418, 4213.728512970032, -0.0785, 0.9555, 0.0915, 192.0, 126.5, 56.0, 14.5, 104.0, 1.0, 96.0, 0.0, 0.0, 0.0, 1.6583348441391878E9, 0.0, 2022-07-20 12:34:04.139
194.0, -8373.343452613766, -17356.084866057023, -5143.337564866253, -8450.255805284478, -31740.28178933642, -1553.3791844104749, -413.5966794010019, -14315.21943989032, -355.7056612617566, -24768.526824537137, -7338.16711165513, -32140.020387175133, -16961.665983398674, -11987.151144403357, -28249.654561240026, 4383.042977218983, -0.0785, 0.9555, 0.0915, 192.0, 0.0, 0.0, 0.0, 0.0, 0.0, 0.0, 0.0, 0.0, 0.0, 1.658334844139193E9, 0.0, 2022-07-20 12:34:04.139
196.0, -6990.686892352926, -15984.693585001658, -3812.715865697368, -7103.473794874406, -30395.91376732752, -309.1693293058073, -363.81934449903304, -13552.175587675047, 452.5110664976915, -23676.197073006282, -6866.634710625972, -31864.289267574462, -16215.92238139181, -11360.6317473211, -27138.839917044632, 4049.5996534347123, -0.0785, 0.9555, 0.0915, 192.0, 0.0, 0.0, 0.0, 0.0, 0.0, 0.0, 0.0, 0.0, 0.0, 1.6583348441391983E9, 0.0, 2022-07-20 12:34:04.139
0.0, -3802.2552492922846, -8424.104264271768, -2253.2570067950496, -4085.965941663497, -15780.733916846983, -448.4430490068256, 403.71720835175614, -6632.589594434452, -429.1758452863509, -12635.284678373895, -3906.1908610094624, -16295.60635037498, -8727.931526652757, -6231.778112861885, -14377.826676109635, 2016.1049981242418, -0.066, 0.9580000000000001, 0.10200000000000001, 192.0, 126.5, 120.0, 14.5, 120.0, 1.5, 24.0, 0.0, 0.0, 0.0, 1.6583348447011397E9, 0.0, 2022-07-20 12:34:04.701
2.0, -8128.6142025726085, -17118.86580215285, -4944.094114791646, -8236.371962591644, -31469.66921921602, -1543.4326581278633, -806.316829480747, -14249.52766293617, -651.0169090052735, -24941.037588243198, -7638.060467011985, -32433.387033151037, -17357.62713642444, -12147.346096914542, -28331.059614546255, 4179.329178253314, -0.066, 0.9580000000000001, 0.10200000000000001, 192.0, 0.0, 0.0, 0.0, 0.0, 0.0, 0.0, 0.0, 0.0, 0.0, 1.6583348447012053E9, 0.0, 2022-07-20 12:34:04.701
4.0, -6944.239967374799, -16059.46017020466, -3834.8887961970327, -7280.834887127267, -30575.822958448287, -395.82704255903275, -54.49355298203862, -13314.509488881766, 645.5854351026339, -23407.10442150884, -6654.8072284230275, -31658.206183696533, -16124.704912269703, -11048.646098213923, -26773.05361903353, 4315.250136286037, -0.066, 0.9580000000000001, 0.10200000000000001, 192.0, 0.0, 0.0, 0.0, 0.0, 0.0, 0.0, 0.0, 0.0, 0.0, 1.6583348447012885E9, 0.0, 2022-07-20 12:34:04.701
6.0, -8234.293250357301, -17260.240585832667, -5052.567130633251, -8402.557182616853, -31656.84272728476, -1613.9747636288123, -585.682759962411, -14202.09726120201, -503.8306717670765, -24814.616121603984, -7480.883000002265, -32277.170691152896, -17211.893762575837, -11983.485458312685, -28201.844179850126, 4352.398735570757, -0.066, 0.9580000000000001, 0.10200000000000001, 192.0, 0.0, 0.0, 0.0, 0.0, 0.0, 0.0, 0.0, 0.0, 0.0, 1.6583348447012947E9, 0.0, 2022-07-20 12:34:04.701
8.0, -6862.723155346293, -15943.25345078152, -3754.042536502187, -7149.473684963427, -30422.668805440524, -363.6405305433906, -287.3540267174276, -13405.011702181304, 490.41962509389225, -23543.494766175125, -6818.44434958033, -31830.269912513486, -16287.291501437605, -11202.157879132972, -26922.050347572607, 4149.824875572309, -0.062, 0.964, 0.112, 192.0, 127.0, 8.0, 15.0, 16.0, 1.5, 64.0, 0.0, 0.0, 0.0, 1.6583348447013009E9, 0.0, 2022-07-20 12:34:04.701
10.0, -8275.39810841061, -17337.801139092582, -5102.612686468683, -8511.588992069841, -31793.38953416223, -1631.5208830262284, -361.628873542413, -14113.65140839236, -329.59882373795796, -24647.805052734024, -7300.280904803384, -32095.607470942436, -17043.093388449357, -11830.398360538287, -28038.83290753757, 4497.953295463717, -0.062, 0.964, 0.112, 192.0, 0.0, 0.0, 0.0, 0.0, 0.0, 0.0, 0.0, 0.0, 0.0, 1.6583348447013068E9, 0.0, 2022-07-20 12:34:04.701
12.0, -6842.271309169688, -15890.972720500557, -3718.860890729534, -7065.54288453375, -30311.446525030915, -378.2362196727061, -525.0871807440735, -13500.677168450018, 306.7553409046341, -23734.22220161226, -6992.072700509156, -31998.198568606207, -16466.552491969167, -11377.663776596044, -27100.484323559325, 4003.152728456584, -0.062, 0.964, 0.112, 192.0, 0.0, 0.0, 0.0, 0.0, 0.0, 0.0, 0.0, 0.0, 0.0, 1.6583348447013128E9, 0.0, 2022-07-20 12:34:04.701
14.0, -8298.085129032746, -17397.860276443993, -5129.546538537328, -8593.619894220818, -31892.83244524389, -1633.4431330493849, -145.37574593731713, -14026.747825950126, -167.86160085935603, -24482.491550742576, -7141.717629637436, -31947.214239503654, -16881.020889403928, -11678.69707092012, -27866.009219409138, 4605.599296760475, -0.062, 0.964, 0.112, 192.0, 0.0, 0.0, 0.0, 0.0, 0.0, 0.0, 0.0, 0.0, 0.0, 1.6583348447013187E9, 0.0, 2022-07-20 12:34:04.701
16.0, -6846.562844105107, -15862.518949808951, -3716.268088372718, -7010.490537940328, -30236.232904938806, -401.45968216177016, -741.3403083491694, -13548.375791117644, 118.06191421293191, -23941.13230003504, -7176.765164943357, -32178.912422527366, -16654.463607604936, -11585.847924452773, -27301.202988767982, 3882.632122353569, -0.062, 0.964, 0.112, 192.0, 0.0, 0.0, 0.0, 0.0, 0.0, 0.0, 0.0, 0.0, 0.0, 1.6583348447013252E9, 0.0, 2022-07-20 12:34:04.701
18.0, -8245.022087695848, -17382.63873846993, -5088.933418862035, -8609.266115339531, -31923.610797358848, -1555.8378763005587, 84.53429752997131, -13912.66452225024, 67.18934383265304, -24248.289972339866, -6935.768656226237, -31764.75694951498, -16657.01170647284, -11455.291385089326, -27631.070033439402, 4735.418228556899, -0.056, 0.9580000000000001, 0.11800000000000001, 192.0, 127.0, 32.0, 14.5, 120.0, 1.5, 88.0, 0.0, 0.0, 0.0, 1.6583348447013316E9, 0.0, 2022-07-20 12:34:04.701
20.0, -6928.727856722815, -15912.899781811213, -3788.754795641279, -7032.551709717716, -30248.12403298903, -496.5216513301911, -947.2892817603686, -13699.1830109576, -89.18346037667519, -24167.60017485621, -7360.764725299446, -32349.523287954726, -16860.122008338214, -11757.3752114028, -27532.45413690259, 3772.661539633458, -0.056, 0.9580000000000001, 0.11800000000000001, 192.0, 0.0, 0.0, 0.0, 0.0, 0.0, 0.0, 0.0, 0.0, 0.0, 1.6583348447013376E9, 0.0, 2022-07-20 12:34:04.701
22.0, -8168.847342592162, -17333.71076985726, -5024.403932619564, -8571.692832910161, -31913.083125720397, -1468.643721180406, 241.08591569494197, -13830.521861376985, 235.34151736992806, -24036.775414559295, -6788.493012010219, -31625.952616447525, -16484.679756722424, -11282.46769696089, -27431.580714175787, 4794.382130429999, -0.056, 0.9580000000000001, 0.11800000000000001, 192.0, 0.0, 0.0, 0.0, 0.0, 0.0, 0.0, 0.0, 0.0, 0.0, 1.6583348447013435E9, 0.0, 2022-07-20 12:34:04.701
24.0, -7038.899605143024, -15998.059928185932, -3881.201610708429, -7085.100660932143, -30290.078257331643, -619.612708045567, -1116.9837256650599, -13826.520899119485, -295.6688756548018, -24383.69684025012, -7527.5981459138575, -32480.14688255154, -17043.071036704903, -11933.350495499433, -27754.809290743982, 3699.2584108422293, -0.056, 0.9580000000000001, 0.11800000000000001, 192.0, 0.0, 0.0, 0.0, 0.0, 0.0, 0.0, 0.0, 0.0, 0.0, 1.6583348447013495E9, 0.0, 2022-07-20 12:34:04.701
26.0, -8055.032259825738, -17240.12401582289, -4908.912469018993, -8490.935980193137, -31846.564334221406, -1364.2387228296666, 370.48016434671456, -13693.907999266148, 430.494598209214, -23831.832269648585, -6637.730495659172, -31492.266832860332, -16297.953283542787, -11127.793625330165, -27211.013699890816, 4844.003003120781, -0.056, 0.9580000000000001, 0.11800000000000001, 192.0, 0.0, 0.0, 0.0, 0.0, 0.0, 0.0, 0.0, 0.0, 0.0, 1.658334844701356E9, 0.0, 2022-07-20 12:34:04.701
28.0, -7168.271502050341, -16110.355092329395, -3989.6299230611235, -7189.751528471891, -30369.873985037088, -744.737773506376, -1211.6433634332852, -13941.900603997781, -458.16605784488416, -24585.041354303525, -7661.418039967781, -32588.8434158377, -17201.16492523729, -12094.3054073221, -27951.1470140394, 3676.9066663869226, -0.056, 0.9520000000000001, 0.12, 192.0, 127.0, 32.0, 14.5, 96.0, 1.5, 96.0, 0.0, 0.0, 0.0, 1.6583348447013628E9, 0.0, 2022-07-20 12:34:04.701
30.0, -7885.315464176591, -17093.653034407263, -4746.482342062276, -8363.061650164325, -31704.3848877412, -1185.9165055652268, 477.41090982090356, -13565.58663434823, 604.5029287937795, -23635.159270186337, -6504.961133594648, -31399.820017793183, -16134.964362974688, -10986.463545139259, -26993.933557740875, 4859.29159632821, -0.056, 0.9520000000000001, 0.12, 192.0, 0.0, 0.0, 0.0, 0.0, 0.0, 0.0, 0.0, 0.0, 0.0, 1.6583348447013693E9, 0.0, 2022-07-20 12:34:04.701
32.0, -7342.704515779557, -16288.945530527299, -4161.53718966689, -7359.535379354404, -30523.56457991178, -899.2553829259138, -1267.0533379379915, -14060.990698455656, -606.0228474167404, -24778.0486676751, -7761.643262105377, -32679.770312281886, -17336.34827570299, -12227.097121131077, -28129.2904173482, 3698.632561997481, -0.056, 0.9520000000000001, 0.12, 192.0, 0.0, 0.0, 0.0, 0.0, 0.0, 0.0, 0.0, 0.0, 0.0, 1.6583348447013755E9, 0.0, 2022-07-20 12:34:04.701
34.0, -7699.125432863883, -16914.079119453327, -4572.362252755434, -8191.310845769745, -31533.550504869287, -1019.239547162002, 508.2786689136826, -13440.103940976136, 719.5026540163343, -23470.136340872807, -6421.611478520808, -31352.85900269258, -16009.369910880318, -10884.226666000684, -26831.8834104399, 4844.070058354147, -0.056, 0.9520000000000001, 0.12, 192.0, 0.0, 0.0, 0.0, 0.0, 0.0, 0.0, 0.0, 0.0, 0.0, 1.6583348447013822E9, 0.0, 2022-07-20 12:34:04.701
36.0, -7544.585471699891, -16481.528160754224, -4358.880741462796, -7546.887701378787, -30725.333777109838, -1083.2549432820015, -1272.9765502186478, -14159.18191184782, -725.8505494416415, -24913.567294307628, -7832.78886470662, -32715.823676088297, -17441.40147464293, -12302.467203434373, -28281.79636976676, 3747.8958067769777, -0.056, 0.9520000000000001, 0.12, 192.0, 0.0, 0.0, 0.0, 0.0, 0.0, 0.0, 0.0, 0.0, 0.0, 1.6583348447013917E9, 0.0, 2022-07-20 12:34:04.701
38.0, -7512.086035261874, -16717.22730603544, -4401.594925116888, -7991.396843361479, -31336.899857151493, -861.3915278186236, 460.1553631014065, -13390.483068285355, 782.2440007023813, -23371.788665269454, -6408.870984181283, -31352.97076141486, -15966.119285359298, -10859.282119188561, -26733.826307514468, 4757.591159056564, -0.052000000000000005, 0.9500000000000001, 0.11800000000000001, 192.0, 127.0, 48.0, 14.5, 88.0, 1.5, 88.0, 0.0, 0.0, 0.0, 1.6583348447013984E9, 0.0, 2022-07-20 12:34:04.701
40.0, -7700.846517186942, -16648.6298023021, -4519.098045718437, -7718.437340073269, -30917.335261980923, -1223.9591746281594, -1198.52288943802, -14214.435424141338, -752.3373666211804, -24975.727495637835, -7823.35642854648, -32665.152271408115, -17474.929091325892, -12281.165990968466, -28346.839946131702, 3846.6011102916136, -0.052000000000000005, 0.9500000000000001, 0.11800000000000001, 192.0, 0.0, 0.0, 0.0, 0.0, 0.0, 0.0, 0.0, 0.0, 0.0, 1.6583348447014053E9, 0.0, 2022-07-20 12:34:04.701
42.0, -7300.571477481303, -16492.078184137128, -4199.892783152197, -7759.095163237473, -31112.86832247595, -705.1304823315719, 380.6725598183346, -13332.413236190467, 823.9523558559843, -23284.03571653792, -6403.6406759787415, -31364.191337131422, -15938.157253045709, -10814.198650622207, -26657.383341477318, 4669.324120202556, -0.052000000000000005, 0.9500000000000001, 0.11800000000000001, 192.0, 0.0, 0.0, 0.0, 0.0, 0.0, 0.0, 0.0, 0.0, 0.0, 1.6583348447014115E9, 0.0, 2022-07-20 12:34:04.701
44.0, -7878.788754795642, -16836.4738627045, -4691.921733846872, -7921.704104149831, -31137.92462801035, -1374.6322840013843, -1077.756414145996, -14253.193349026842, -736.3335175911806, -24982.79064688571, -7765.465410407235, -32583.344886701692, -17449.045771246645, -12249.38181035302, -28370.778664443336, 3972.6202455306347, -0.052000000000000005, 0.9500000000000001, 0.11800000000000001, 192.0, 0.0, 0.0, 0.0, 0.0, 0.0, 0.0, 0.0, 0.0, 0.0, 1.658334844701418E9, 0.0, 2022-07-20 12:34:04.701
46.0, -7166.997452616389, -16332.263211281683, -4053.8241331367653, -7589.043091421497, -30923.481991706132, -585.1239663510282, 216.38723807182768, -13301.277256164225, 767.0001109838619, -23298.631405667235, -6486.610351396841, -31465.400036025054, -15989.342747848363, -10875.755354852123, -26673.27543178504, 4526.742342322153, -0.052000000000000005, 0.9500000000000001, 0.11800000000000001, 192.0, 0.0, 0.0, 0.0, 0.0, 0.0, 0.0, 0.0, 0.0, 0.0, 1.6583348447014244E9, 0.0, 2022-07-20 12:34:04.701
48.0, -8053.042954569216, -17039.047722702948, -4863.896055686004, -8144.148664969047, -31371.880337224047, -1501.3219715740647, -930.6819356300755, -14262.424619486883, -714.1158836026053, -24978.163835783464, -7713.631715015378, -32515.82026670221, -17414.40056734092, -12215.362455292041, -28373.617335989158, 4084.3119125738044, -0.054, 0.9540000000000001, 0.122, 192.0, 127.0, 40.0, 14.5, 104.0, 1.5, 104.0, 0.0, 0.0, 0.0, 1.658334844701431E9, 0.0, 2022-07-20 12:34:04.701
50.0, -7022.068741568178, -16168.9166628023, -3924.519291462814, -7415.414740492671, -30717.667128761666, -481.83655522305435, 27.62675614675953, -13315.805890060174, 690.3336275021586, -23372.8168455144, -6597.586762617441, -31593.63199396515, -16072.625347688836, -10986.88822828391, -26740.375368639874, 4374.728128281609, -0.054, 0.9540000000000001, 0.122, 192.0, 0.0, 0.0, 0.0, 0.0, 0.0, 0.0, 0.0, 0.0, 0.0, 1.6583348447014377E9, 0.0, 2022-07-20 12:34:04.701
52.0, -8172.535380427287, -17201.567256637485, -4999.481737551897, -8339.212338830512, -31560.752577871393, -1597.1662517984214, -733.7183634899096, -14254.735619394258, -606.3134200946594, -24920.138707177488, -7595.055710679974, -32386.515425028258, -17310.934342257304, -12116.053654677113, -28297.666108330028, 4226.245489865004, -0.054, 0.9540000000000001, 0.122, 192.0, 0.0, 0.0, 0.0, 0.0, 0.0, 0.0, 0.0, 0.0, 0.0, 1.658334844701444E9, 0.0, 2022-07-20 12:34:04.701
54.0, -6891.825126627104, -16011.135698692287, -3791.437004975916, -7239.662973840592, -30505.437315158528, -381.0525394740748, -164.0171008130432, -13336.458901936878, 573.3893005119921, -23482.60861427887, -6735.832302073515, -31740.99704515899, -16195.44818347075, -11137.427227190403, -26837.806622720556, 4222.0433619074065, -0.054, 0.9540000000000001, 0.122, 192.0, 0.0, 0.0, 0.0, 0.0, 0.0, 0.0, 0.0, 0.0, 0.0, 1.6583348447014508E9, 0.0, 2022-07-20 12:34:04.701
56.0, -8237.288384114312, -17296.942150228282, -5070.113250030667, -8466.863151414771, -31711.202169800064, -1637.600557518072, -490.8219564940878, -14185.221694138252, -427.7229818967559, -24745.951562637278, -7402.94246708661, -32196.145617502407, -17134.556726760475, -11931.584707687463, -28130.81033597116, 4402.019608261538, -0.054, 0.9540000000000001, 0.122, 192.0, 0.0, 0.0, 0.0, 0.0, 0.0, 0.0, 0.0, 0.0, 0.0, 1.6583348447014573E9, 0.0, 2022-07-20 12:34:04.701
58.0, -6838.538567845651, -15915.023197534467, -3731.6684403024246, -7116.616620614126, -30363.079054722675, -366.8815334894101, -396.92227803734283, -13410.778452250774, 399.0903972495076, -23622.441127591268, -6898.150670307955, -31906.243491917074, -16359.28647032815, -11293.352996510625, -26990.53609258367, 4067.7492699324216, -0.062, 0.9520000000000001, 0.124, 192.0, 127.0, 8.0, 14.5, 96.0, 1.5, 112.0, 0.0, 0.0, 0.0, 1.6583348447014644E9, 0.0, 2022-07-20 12:34:04.701
60.0, -8279.108497990192, -17366.701944673296, -5112.402750540108, -8565.613158418317, -31836.841325383346, -1641.3332988421082, -264.17526771727415, -14091.210256959232, -266.7010148407239, -24567.495234906106, -7238.3889244066395, -32037.33647314745, -16971.21017828109, -11762.85138879435, -27958.76895889866, 4540.063982017516, -0.062, 0.9520000000000001, 0.124, 192.0, 0.0, 0.0, 0.0, 0.0, 0.0, 0.0, 0.0, 0.0, 0.0, 1.6583348447014709E9, 0.0, 2022-07-20 12:34:04.701
62.0, -6827.005067706713, -15870.85615049078, -3699.4819282867825, -7041.827683666669, -30266.98890530931, -386.59577209899095, -622.0043447022849, -13495.938598625495, 215.29200259351762, -23812.788583372665, -7080.585608552171, -32082.57640392499, -16539.754455060298, -11448.965841408473, -27172.456940705415, 3944.0323643722973, -0.062, 0.9520000000000001, 0.124, 192.0, 0.0, 0.0, 0.0, 0.0, 0.0, 0.0, 0.0, 0.0, 0.0, 1.6583348447014782E9, 0.0, 2022-07-20 12:34:04.701
64.0, -8271.44184964202, -17396.183895609844, -5117.655410487105, -8627.192214392688, -31921.39797465777, -1616.4781590078069, -54.94058787114476, -13964.47586589764, -69.33511130036251, -24378.645346003217, -7061.117239131599, -31862.702293718135, -16777.934643976052, -11550.263947279924, -27759.68197103524, 4665.680785856341, -0.062, 0.9520000000000001, 0.124, 192.0, 0.0, 0.0, 0.0, 0.0, 0.0, 0.0, 0.0, 0.0, 0.0, 1.6583348447014847E9, 0.0, 2022-07-20 12:34:04.701
66.0, -6856.822294810092, -15872.577234813838, -3728.695658289869, -7010.065854795677, -30230.64496882498, -440.26231053618324, -838.7492106853975, -13593.749832361918, 19.446017676117144, -24038.854126793638, -7271.178933522575, -32252.09203387404, -16743.892937170618, -11667.565902181375, -27400.064754493804, 3819.846072178611, -0.062, 0.9520000000000001, 0.124, 192.0, 0.0, 0.0, 0.0, 0.0, 0.0, 0.0, 0.0, 0.0, 0.0, 1.6583348447014925E9, 0.0, 2022-07-20 12:34:04.701
68.0, -8187.041662578781, -17352.91091834437, -5052.947110288991, -8591.831754664392, -31920.59331185738, -1526.311221875098, 156.0151762980433, -13832.68998058915, 161.35724322286168, -24154.12207294966, -6858.789248322159, -31679.485044417987, -16563.871987327577, -11366.376145646114, -27528.587285111822, 4777.2159906883235, -0.061, 0.956, 0.12, 192.0, 127.0, 16.0, 15.0, 0.0, 1.5, 80.0, 0.0, 0.0, 0.0, 1.6583348447015E9, 0.0, 2022-07-20 12:34:04.701
70.0, -6914.355685038053, -15919.225325492065, -3789.3135892526616, -7037.826721409169, -30235.36118690505, -529.6469366129562, -1014.6350878042088, -13707.319045939334, -148.59439713888136, -24262.528033557897, -7417.962839360576, -32392.97507917584, -16919.555296844876, -11838.243822842102, -27611.33344308537, 3755.607158614059, -0.061, 0.956, 0.12, 192.0, 0.0, 0.0, 0.0, 0.0, 0.0, 0.0, 0.0, 0.0, 0.0, 1.6583348447015069E9, 0.0, 2022-07-20 12:34:04.701
72.0, -8089.9903881538385, -17301.412499119342, -4971.251484304844, -8567.893036352758, -31895.402895856252, -1433.350316685476, 298.21697452270683, -13707.85548780626, 367.3956236118822, -23962.567622967676, -6696.448528343264, -31557.757444114384, -16372.496351301237, -11210.785652492721, -27317.251541286892, 4833.81060764916, -0.061, 0.956, 0.12, 192.0, 0.0, 0.0, 0.0, 0.0, 0.0, 0.0, 0.0, 0.0, 0.0, 1.6583348447015133E9, 0.0, 2022-07-20 12:34:04.701
74.0, -7079.758594007325, -16073.184141300218, -3944.099419605663, -7183.716557468958, -30346.628170803568, -705.2869445427591, -1194.298409735967, -13868.609233928828, -351.6376437708907, -24523.305836117965, -7597.067367680952, -32562.848337036176, -17118.15054633028, -12044.170444508845, -27853.71575995872, 3672.570427962593, -0.061, 0.956, 0.12, 192.0, 0.0, 0.0, 0.0, 0.0, 0.0, 0.0, 0.0, 0.0, 0.0, 1.658334844701519E9, 0.0, 2022-07-20 12:34:04.701
76.0, -7939.473740991801, -17178.232035426146, -4828.960279102359, -8468.271311315455, -31777.430388621142, -1313.9920012941363, 416.54710966910244, -13601.662349899096, 539.1464280064616, -23788.335774938558, -6569.512971581576, -31469.08807386018, -16213.30722729054, -11102.558505840125, -27118.097498190105, 4828.222671535334, -0.061, 0.956, 0.12, 192.0, 0.0, 0.0, 0.0, 0.0, 0.0, 0.0, 0.0, 0.0, 0.0, 1.658334844701526E9, 0.0, 2022-07-20 12:34:04.701
78.0, -7210.561002559782, -16197.370433493905, -4068.285711799349, -7299.185669325075, -30444.41705279554, -863.9172749420733, -1271.7695560180612, -13968.610938621872, -504.97061073429717, -24723.0857280595, -7708.1555376238275, -32659.65374227211, -17264.59917600145, -12182.483039198285, -28040.665750582906, 3640.5850816470484, -0.0605, 0.9530000000000001, 0.123, 192.0, 127.0, 16.0, 14.5, 88.0, 1.5, 120.0, 0.0, 0.0, 0.0, 1.6583348447015324E9, 0.0, 2022-07-20 12:34:04.701
80.0, -7753.149599212361, -17004.693091475143, -4650.30278567109, -8302.019036056881, -31614.53087503086, -1151.1818946816798, 490.44197683834756, -13467.909511078538, 698.000275850329, -23584.800789928533, -6447.450095111143, -31381.62569780656, -16059.102542293376, -10962.368364616439, -26920.32926324955, 4822.970011588337, -0.0605, 0.9530000000000001, 0.123, 192.0, 0.0, 0.0, 0.0, 0.0, 0.0, 0.0, 0.0, 0.0, 0.0, 1.6583348447015393E9, 0.0, 2022-07-20 12:34:04.701
82.0, -7386.849211078788, -16365.969641920286, -4228.905347455186, -7452.943319433131, -30600.834560493775, -1014.3892186152004, -1282.878373012349, -14057.928509465279, -612.0801701641286, -24857.68793316936, -7768.505247653156, -32689.962707753508, -17361.404581237388, -12270.392450141007, -28188.589595388126, 3696.4197392964056, -0.0605, 0.9530000000000001, 0.123, 192.0, 0.0, 0.0, 0.0, 0.0, 0.0, 0.0, 0.0, 0.0, 0.0, 1.658334844701546E9, 0.0, 2022-07-20 12:34:04.701
84.0, -7600.017797949052, -16849.14730181066, -4503.116548432893, -8144.081609735681, -31465.31062904723, -993.758558482952, 468.53726727214666, -13389.387832807046, 777.9748175114177, -23465.8895094263, -6411.687303982652, -31367.63350577754, -15988.113401903322, -10891.401575970838, -26803.988433359675, 4771.449240618854, -0.0605, 0.9530000000000001, 0.123, 192.0, 0.0, 0.0, 0.0, 0.0, 0.0, 0.0, 0.0, 0.0, 0.0, 1.658334844701553E9, 0.0, 2022-07-20 12:34:04.701
86.0, -7578.828344205421, -16560.675687870465, -4422.359695715868, -7647.805827594499, -30799.47451346809, -1176.975807783104, -1262.6053407913853, -14152.31992630004, -711.9254126459853, -25002.19196107292, -7832.677105984343, -32718.058850533827, -17457.58413762857, -12340.152244586021, -28327.975073811423, 3756.8141528146452, -0.0605, 0.9530000000000001, 0.123, 192.0, 0.0, 0.0, 0.0, 0.0, 0.0, 0.0, 0.0, 0.0, 0.0, 1.6583348447015593E9, 0.0, 2022-07-20 12:34:04.701
88.0, -7384.74814709999, -16633.497671305857, -4305.258906514515, -7920.5194616937, -31232.4725070563, -820.4878354654116, 432.5956621880129, -13321.751454085286, 850.8191526912633, -23373.37563912578, -6390.743719428029, -31365.554793543197, -15930.736473886547, -10871.799096083534, -26693.973147150657, 4692.704044902807, -0.058249999999999996, 0.9505000000000001, 0.1255, 192.0, 127.0, 32.0, 14.5, 80.0, 2.0, 0.0, 0.0, 0.0, 0.0, 1.6583348447015653E9, 0.0, 2022-07-20 12:34:04.701
90.0, -7738.53155833859, -16740.629582480142, -4580.498287737166, -7826.619783236955, -30993.442951851244, -1317.0765420289686, -1153.4841243605763, -14179.164371390865, -706.0692555986948, -25033.52910679926, -7784.464393194246, -32650.17660262306, -17449.895137535947, -12306.222296502865, -28360.943896883, 3873.2220379378846, -0.058249999999999996, 0.9505000000000001, 0.1255, 192.0, 0.0, 0.0, 0.0, 0.0, 0.0, 0.0, 0.0, 0.0, 0.0, 1.6583348447015712E9, 0.0, 2022-07-20 12:34:04.701
92.0, -7223.815587021779, -16452.783817384698, -4140.615956856723, -7723.6229447869, -31027.10467900094, -676.8331738511532, 307.78352114957823, -13281.227741387815, 854.4848387819337, -23336.025874140963, -6412.357856316311, -31421.657672126017, -15922.91336332719, -10874.436601929261, -26652.018922808045, 4587.963770385239, -0.058249999999999996, 0.9505000000000001, 0.1255, 192.0, 0.0, 0.0, 0.0, 0.0, 0.0, 0.0, 0.0, 0.0, 0.0, 1.658334844701578E9, 0.0, 2022-07-20 12:34:04.701
94.0, -7938.087932835571, -16958.06735254137, -4770.219894673812, -8059.793181394718, -31226.593998264554, -1461.9829013327244, -1033.0082217464712, -14244.699686133825, -710.6737149564881, -25058.80892977821, -7752.076715478506, -32604.26611951186, -17436.551146096128, -12291.045462017712, -28395.790266488824, 3981.0468531902857, -0.058249999999999996, 0.9505000000000001, 0.1255, 192.0, 0.0, 0.0, 0.0, 0.0, 0.0, 0.0, 0.0, 0.0, 0.0, 1.6583348447015853E9, 0.0, 2022-07-20 12:34:04.701
96.0, -7078.797468995746, -16282.46352463526, -3984.913704981054, -7541.724448409611, -30809.130467072784, -556.3349194925928, 140.57012087942613, -13279.037270431194, 778.9135907785405, -23383.322165408394, -6523.311915792456, -31551.945990556003, -16001.367986365318, -10964.670594295334, -26696.364783807374, 4428.349963229891, -0.058249999999999996, 0.9505000000000001, 0.1255, 192.0, 0.0, 0.0, 0.0, 0.0, 0.0, 0.0, 0.0, 0.0, 0.0, 1.6583348447015915E9, 0.0, 2022-07-20 12:34:04.701
98.0, -8107.380045340067, -17150.225299623646, -4938.081495533168, -8284.02588177036, -31457.75573942134, -1592.5617924406283, -871.0027779344056, -14265.553863710627, -637.583510587634, -25012.205542588898, -7656.366545720881, -32493.267356546803, -17353.58147067803, -12209.126318589011, -28344.13538505261, 4104.093206416751, -0.056124999999999994, 0.9512500000000002, 0.12475, 192.0, 127.0, 40.0, 14.5, 96.0, 1.5, 112.0, 0.0, 0.0, 0.0, 1.658334844701598E9, 0.0, 2022-07-20 12:34:04.701
100.0, -6959.2826913932195, -16130.583421061448, -3871.947988503932, -7376.455649907071, -30626.15908696164, -478.9531801883197, -79.415748049706, -13341.465692694866, 644.8254757911534, -23486.810742236466, -6670.252283841644, -31709.52578896592, -16126.560107059493, -11120.283439193183, -26804.12254382641, 4239.589481304823, -0.056124999999999994, 0.9512500000000002, 0.12475, 192.0, 0.0, 0.0, 0.0, 0.0, 0.0, 0.0, 0.0, 0.0, 0.0, 1.6583348447016072E9, 0.0, 2022-07-20 12:34:04.701
102.0, -8192.562543459242, -17266.85670219144, -5032.607022834662, -8420.438578181098, -31631.384090350162, -1637.958185429357, -656.1354584855388, -14202.14196469092, -509.7762357921882, -24909.901608216955, -7510.8119858279215, -32340.180258772405, -17225.72949239367, -12064.398773240897, -28243.82075593719, 4255.168647190171, -0.056124999999999994, 0.9512500000000002, 0.12475, 192.0, 0.0, 0.0, 0.0, 0.0, 0.0, 0.0, 0.0, 0.0, 0.0, 1.6583348447016137E9, 0.0, 2022-07-20 12:34:04.701
104.0, -6855.481190142774, -15989.365099592818, -3766.4701064193378, -7206.940019958022, -30453.469509299935, -413.2166997452617, -294.19366052075156, -13354.206187034391, 528.0823145010846, -23599.463534291215, -6796.830212692048, -31835.790793393946, -16255.619079544436, -11219.636943297022, -26911.45562070079, 4125.506177604935, -0.056124999999999994, 0.9512500000000002, 0.12475, 192.0, 0.0, 0.0, 0.0, 0.0, 0.0, 0.0, 0.0, 0.0, 0.0, 1.6583348447016208E9, 0.0, 2022-07-20 12:34:04.701
106.0, -8251.414686610065, -17357.96241259127, -5100.8245469122585, -8538.321678438388, -31788.069818981865, -1689.076624998644, -428.92997609734255, -14131.756321401159, -352.7775827381114, -24744.968085881246, -7340.7599140119455, -32160.65104730738, -17070.76484808503, -11928.813091375005, -28090.398381995965, 4425.220719006147, -0.056124999999999994, 0.9512500000000002, 0.12475, 192.0, 0.0, 0.0, 0.0, 0.0, 0.0, 0.0, 0.0, 0.0, 0.0, 1.6583348447016273E9, 0.0, 2022-07-20 12:34:04.701
108.0, -6790.43761377783, -15891.687976323126, -3691.2564863272296, -7077.813992239713, -30317.168571611473, -395.51411813665845, -514.7830265501769, -13442.026190999293, 365.0933939329856, -23751.16482390938, -6954.477066335329, -31991.80596969199, -16420.507898391235, -11409.693826400498, -27075.338611047104, 3990.166364928051, -0.0560625, 0.9496250000000002, 0.11937500000000001, 192.0, 127.0, 32.0, 14.5, 80.0, 1.5, 72.0, 0.0, 0.0, 0.0, 1.6583348447016344E9, 0.0, 2022-07-20 12:34:04.701
110.0, -8259.72953554744, -17402.889418946437, -5104.423177769563, -8596.547972744462, -31882.72945675009, -1662.276883396731, -198.30467680748427, -14022.72451194817, -133.03758299798764, -24528.9384757207, -7131.3240684657185, -31963.08397806692, -16866.983993885995, -11711.196507358136, -27872.62533576791, 4584.968636628227, -0.0560625, 0.9496250000000002, 0.11937500000000001, 192.0, 0.0, 0.0, 0.0, 0.0, 0.0, 0.0, 0.0, 0.0, 0.0, 1.6583348447016406E9, 0.0, 2022-07-20 12:34:04.701
112.0, -6824.747541516726, -15891.911493767679, -3705.405140567439, -7030.294183527731, -30252.683788857914, -437.91537736837597, -748.3364043636805, -13551.080352196735, 157.78096411001255, -23974.525806251266, -7155.352193755173, -32180.85702429498, -16635.44227307347, -11613.988770722006, -27283.142779248094, 3858.201665663918, -0.0560625, 0.9496250000000002, 0.11937500000000001, 192.0, 0.0, 0.0, 0.0, 0.0, 0.0, 0.0, 0.0, 0.0, 0.0, 1.6583348447016463E9, 0.0, 2022-07-20 12:34:04.701
114.0, -8227.855947954173, -17401.235389856745, -5079.6350931686275, -8612.12713862981, -31916.27942517751, -1595.2216500308098, 27.671459635670143, -13913.08920539489, 64.30596879791842, -24315.56872315034, -6949.559682555161, -31789.321516671363, -16674.334308425703, -11497.044443731838, -27649.55492610394, 4712.574745723575, -0.0560625, 0.9496250000000002, 0.11937500000000001, 192.0, 0.0, 0.0, 0.0, 0.0, 0.0, 0.0, 0.0, 0.0, 0.0, 1.6583348447016523E9, 0.0, 2022-07-20 12:34:04.701
116.0, -6895.244943528765, -15929.663590152693, -3769.621702387536, -7046.789770935747, -30248.302846944673, -513.5536806051351, -948.7421451499636, -13677.188894413579, -55.16410531569783, -24194.13169552466, -7338.457684333049, -32344.471793707824, -16836.630324915688, -11785.873685583316, -27499.10533417527, 3770.180495998919, -0.0560625, 0.9496250000000002, 0.11937500000000001, 192.0, 0.0, 0.0, 0.0, 0.0, 0.0, 0.0, 0.0, 0.0, 0.0, 1.6583348447016594E9, 0.0, 2022-07-20 12:34:04.701
118.0, -8172.445973449466, -17378.503665745695, -5037.502054870374, -8619.36910383333, -31936.59716088738, -1521.1926723948327, 193.14142383830833, -13820.754149050015, 244.55043608551458, -24131.904438961083, -6800.0265121491575, -31659.524936619397, -16497.710823739868, -11348.919433226518, -27448.791557406374, 4778.847668033561, -0.057031250000000006, 0.9498125000000002, 0.1176875, 192.0, 127.0, 24.0, 14.5, 88.0, 1.5, 80.0, 0.0, 0.0, 0.0, 1.6583348447016652E9, 0.0, 2022-07-20 12:34:04.701
120.0, -7008.545936172716, -16025.083187232398, -3869.5116483583033, -7120.416417171528, -30298.750734180303, -612.7283707533325, -1117.8107402099063, -13799.698805773116, -261.2918926825396, -24431.417814662196, -7520.758512110533, -32512.981595156387, -17034.08563543387, -11975.997623920159, -27728.30012181999, 3689.8706781710007, -0.057031250000000006, 0.9498125000000002, 0.1176875, 192.0, 0.0, 0.0, 0.0, 0.0, 0.0, 0.0, 0.0, 0.0, 0.0, 1.658334845180591E9, 0.0, 2022-07-20 12:34:05.180
122.0, -8041.688268385919, -17280.42421107581, -4919.820120313182, -8536.868815048792, -31864.557488507926, -1378.32032183651, 342.5181320331254, -13683.84971426126, 414.15547301238456, -23933.48800343132, -6668.218275096211, -31560.394949960108, -16334.967772360777, -11203.476632055836, -27240.026264193806, 4828.088561068602, -0.057031250000000006, 0.9498125000000002, 0.1176875, 192.0, 0.0, 0.0, 0.0, 0.0, 0.0, 0.0, 0.0, 0.0, 0.0, 1.658334845180688E9, 0.0, 2022-07-20 12:34:05.180
124.0, -7117.890670048078, -16117.708816255192, -3973.2907978642943, -7206.5153368133715, -30367.92938326948, -740.1109624041275, -1218.7065146811624, -13915.279676351509, -407.7628740981667, -24615.663244207295, -7639.938013546231, -32609.339965503215, -17184.64698608482, -12095.62416024496, -27915.42892639982, 3682.5840094785704, -0.057031250000000006, 0.9498125000000002, 0.1176875, 192.0, 0.0, 0.0, 0.0, 0.0, 0.0, 0.0, 0.0, 0.0, 0.0, 1.65833484518075E9, 0.0, 2022-07-20 12:34:05.180
126.0, -7883.057937986606, -17137.663619239764, -4771.94097899687, -8413.218964722033, -31739.70064398058, -1241.0582591364694, 440.37406925845977, -13576.941320531527, 610.7837689857208, -23716.139640347916, -6516.248764544579, -31435.091070543658, -16157.025534752076, -11043.66165920039, -27025.047186022664, 4843.019526364747, -0.057031250000000006, 0.9498125000000002, 0.1176875, 192.0, 0.0, 0.0, 0.0, 0.0, 0.0, 0.0, 0.0, 0.0, 0.0, 1.6583348451807556E9, 0.0, 2022-07-20 12:34:05.180
128.0, -7298.470413502505, -16292.253588706684, -4147.455590660046, -7361.0105944884535, -30510.600568127702, -912.3982086656343, -1287.6616463257847, -14004.574895450462, -576.2503238022714, -24809.654034334904, -7761.777372572109, -32701.987946270463, -17337.2423454812, -12242.542176549696, -28120.2379608438, 3661.4839627127603, -0.055515625, 0.9509062500000001, 0.11684375, 192.0, 127.0, 40.0, 14.5, 96.0, 1.5, 80.0, 0.0, 0.0, 0.0, 1.6583348451807609E9, 0.0, 2022-07-20 12:34:05.180
130.0, -7711.038912658562, -16971.299585258912, -4613.57886953102, -8249.805361009283, -31575.236508278434, -1087.9711613620714, 474.88516269745384, -13451.99506902636, 725.0682383857059, -23552.23429825715, -6443.739705531562, -31386.096046697625, -16037.17548098272, -10936.932079426299, -26862.818224766044, 4814.923383584426, -0.055515625, 0.9509062500000001, 0.11684375, 192.0, 0.0, 0.0, 0.0, 0.0, 0.0, 0.0, 0.0, 0.0, 0.0, 1.658334845180766E9, 0.0, 2022-07-20 12:34:05.180
132.0, -7488.9743314950865, -16479.427096775424, -4329.801121926442, -7543.7808088995, -30698.89166341921, -1094.6766846986634, -1290.5003178716086, -14116.132452026899, -682.4434617094353, -24953.018123271242, -7824.876347169441, -32734.420327475113, -17431.365541382496, -12321.1085583101, -28257.34356133265, 3712.7141610043245, -0.055515625, 0.9509062500000001, 0.11684375, 192.0, 0.0, 0.0, 0.0, 0.0, 0.0, 0.0, 0.0, 0.0, 0.0, 1.6583348451807797E9, 0.0, 2022-07-20 12:34:05.180
134.0, -7520.803215599444, -16788.037632469848, -4429.78047487503, -8055.859274370584, -31383.793817018726, -922.054162270327, 450.14178158542893, -13372.802838421207, 790.4023874285683, -23454.7359889431, -6415.352990073323, -31389.158235688003, -15981.318471588907, -10899.738776652668, -26751.707703078715, 4740.045039659148, -0.055515625, 0.9509062500000001, 0.11684375, 192.0, 0.0, 0.0, 0.0, 0.0, 0.0, 0.0, 0.0, 0.0, 0.0, 1.6583348451807847E9, 0.0, 2022-07-20 12:34:05.180
136.0, -7680.417022754792, -16686.650119620575, -4516.885223017362, -7745.77352354211, -30909.467447932657, -1259.0067099340808, -1242.6675847372514, -14193.380080864441, -738.3004711032476, -25055.411464621004, -7841.483693299734, -32726.5748651713, -17485.36735598652, -12360.82760820718, -28362.62027771715, 3789.7382723973124, -0.055515625, 0.9509062500000001, 0.11684375, 192.0, 0.0, 0.0, 0.0, 0.0, 0.0, 0.0, 0.0, 0.0, 0.0, 1.65833484518079E9, 0.0, 2022-07-20 12:34:05.180
138.0, -7343.062143690842, -16596.438478998956, -4261.896522271219, -7857.666356285376, -31175.67672439536, -783.607457114155, 353.8281147275108, -13334.715465869363, 824.5782047007328, -23398.096668493352, -6429.948679202638, -31428.966692562903, -15958.58674747786, -10882.72909912218, -26694.531940762037, 4636.377648875434, -0.055515625, 0.9509062500000001, 0.11684375, 192.0, 0.0, 0.0, 0.0, 0.0, 0.0, 0.0, 0.0, 0.0, 0.0, 1.6583348451807952E9, 0.0, 2022-07-20 12:34:05.180
140.0, -7849.820893981564, -16868.816836931328, -4694.313370503589, -7947.989755629273, -31120.15499116838, -1396.8499179899595, -1130.5735862938866, -14235.401360440417, -744.7824769952866, -25094.571720906704, -7810.21360280676, -32670.829614499762, -17477.03015530469, -12344.689648710448, -28408.396650361618, 3898.0771777721857, -0.054, 0.9500000000000001, 0.12, 192.0, 127.0, 40.0, 14.5, 88.0, 1.5, 96.0, 0.0, 0.0, 0.0, 1.6583348451808004E9, 0.0, 2022-07-20 12:34:05.180
142.0, -7163.175304314531, -16398.066746958106, -4086.6811974860666, -7650.443333440225, -30945.900791394808, -627.9946122163072, 224.7244387536572, -13284.513447822745, 806.8756230921297, -23376.66134556071, -6477.222618725613, -31496.245443373376, -15975.037631396966, -10918.983628628688, -26679.310402787974, 4521.2885166750575, -0.054, 0.9500000000000001, 0.12, 192.0, 0.0, 0.0, 0.0, 0.0, 0.0, 0.0, 0.0, 0.0, 0.0, 1.6583348451808057E9, 0.0, 2022-07-20 12:34:05.180
144.0, -8010.01584649275, -17059.968955513115, -4852.384907291521, -8148.574310371198, -31335.849325162093, -1524.5454340631288, -975.1842588405918, -14247.24778500173, -696.9497438609295, -25059.077150711677, -7727.489796577668, -32571.96784877394, -17428.325704136576, -12271.822961786147, -28386.8495687067, 4044.2799382543494, -0.054, 0.9500000000000001, 0.12, 192.0, 0.0, 0.0, 0.0, 0.0, 0.0, 0.0, 0.0, 0.0, 0.0, 1.658334845180811E9, 0.0, 2022-07-20 12:34:05.180
146.0, -7009.19413676192, -16220.526840749604, -3925.8603961301324, -7447.735362975045, -30727.479544577545, -524.4836836437802, 53.06304133689897, -13279.506657064756, 733.8748257010968, -23420.6272269043, -6579.414794375276, -31610.619319751182, -16055.548614924983, -11020.169975777862, -26725.91378997729, 4372.068270691428, -0.054, 0.9500000000000001, 0.12, 192.0, 0.0, 0.0, 0.0, 0.0, 0.0, 0.0, 0.0, 0.0, 0.0, 1.6583348451808162E9, 0.0, 2022-07-20 12:34:05.180
148.0, -8141.555862612232, -17217.36993996739, -4981.443879776464, -8333.065609105302, -31537.28324619332, -1628.8386736915916, -773.6162273426328, -14200.554990834593, -584.0287308727183, -24975.012239815267, -7601.403606105281, -32426.79326853672, -17314.108289969958, -12141.579346845074, -28294.894492017567, 4196.472966250535, -0.054, 0.9500000000000001, 0.12, 192.0, 0.0, 0.0, 0.0, 0.0, 0.0, 0.0, 0.0, 0.0, 0.0, 1.6583348451808228E9, 0.0, 2022-07-20 12:34:05.180
150.0, -6888.852344614547, -16070.747801154592, -3807.731426683835, -7274.3752329796835, -30533.824030616765, -434.36144999998214, -156.2610454870517, -13293.945883982884, 609.8226439741426, -23528.519097390068, -6722.510662378152, -31758.38670234522, -16179.265520485107, -11148.379581973504, -26827.189544104283, 4211.73920771351, -0.052000000000000005, 0.9500000000000001, 0.124, 192.0, 127.0, 48.0, 14.5, 88.0, 1.5, 112.0, 0.0, 0.0, 0.0, 1.658334845180828E9, 0.0, 2022-07-20 12:34:05.180
152.0, -8207.873488411127, -17321.484365640208, -5052.276557955332, -8451.038116340413, -31692.963146324535, -1649.1117059125552, -545.8072478541432, -14160.277147326131, -428.63940341942356, -24822.975674030266, -7429.496339499515, -32249.409824539405, -17156.01440143757, -11987.844048481471, -28156.559545583674, 4360.400660085757, -0.052000000000000005, 0.9500000000000001, 0.124, 192.0, 0.0, 0.0, 0.0, 0.0, 0.0, 0.0, 0.0, 0.0, 0.0, 1.658334845180833E9, 0.0, 2022-07-20 12:34:05.180
154.0, -6831.184843919855, -15977.429268053684, -3731.0872949465866, -7143.84104536069, -30396.025526049798, -394.0612547470635, -392.16135646836244, -13393.36644332009, 456.9814153887529, -23668.15044500237, -6873.3402339625645, -31912.949015253667, -16329.603353691502, -11286.021624329285, -26972.92291795289, 4069.895037400131, -0.052000000000000005, 0.9500000000000001, 0.124, 192.0, 0.0, 0.0, 0.0, 0.0, 0.0, 0.0, 0.0, 0.0, 0.0, 1.6583348451808383E9, 0.0, 2022-07-20 12:34:05.180
156.0, -8262.881131515638, -17409.214962627288, -5104.937267892035, -8566.753097385537, -31833.130935803765, -1672.8045550351806, -327.274242314606, -14096.149992483854, -277.65336962382435, -24676.571747848007, -7271.134230033664, -32097.55207271005, -16995.68533845965, -11821.882345900816, -27999.471485551774, 4493.684112272753, -0.052000000000000005, 0.9500000000000001, 0.124, 192.0, 0.0, 0.0, 0.0, 0.0, 0.0, 0.0, 0.0, 0.0, 0.0, 1.6583348451808438E9, 0.0, 2022-07-20 12:34:05.180
158.0, -6821.774759504171, -15928.456595952106, -3712.334181348584, -7076.539942805761, -30296.56026322368, -414.2895834791164, -629.8274552616424, -13483.846304875173, 266.0975177404306, -23861.62714500751, -7062.68186124347, -32099.0272878441, -16526.27635315375, -11483.588693569744, -27160.14112951054, 3937.1927305689733, -0.052000000000000005, 0.9500000000000001, 0.124, 192.0, 0.0, 0.0, 0.0, 0.0, 0.0, 0.0, 0.0, 0.0, 0.0, 1.658334845180849E9, 0.0, 2022-07-20 12:34:05.180
160.0, -8269.11726821867, -17448.2187567018, -5125.187948368543, -8646.437066368708, -31926.56122762695, -1662.9474357303902, -114.575042077904, -14035.576765009971, -89.78695747696847, -24484.41380076573, -7100.791585539769, -31939.547591155482, -16821.744063108454, -11647.248166471501, -27806.710041369206, 4611.343695085489, -0.056, 0.9540000000000001, 0.122, 192.0, 127.0, 32.0, 14.5, 104.0, 1.5, 104.0, 0.0, 0.0, 0.0, 1.658334845180854E9, 0.0, 2022-07-20 12:34:05.180
162.0, -6851.994318007746, -15925.662627895194, -3738.9998124837653, -7049.516683759294, -30260.59630639509, -472.22530510727233, -849.9027311685958, -13587.826620081261, 47.83273313435711, -24078.86374936864, -7259.511322916905, -32284.837339501068, -16744.74230345992, -11678.272387775469, -27386.832521776265, 3795.683836422424, -0.056, 0.9540000000000001, 0.122, 192.0, 0.0, 0.0, 0.0, 0.0, 0.0, 0.0, 0.0, 0.0, 0.0, 1.6583348451808593E9, 0.0, 2022-07-20 12:34:05.180
164.0, -8201.994979619381, -17409.527887049662, -5074.605950666184, -8635.596470307884, -31939.99462604459, -1577.3849579554746, 96.78305349147958, -13869.88328336278, 126.08619047238714, -24261.790425990872, -6906.197298311866, -31758.18553664512, -16623.841717701165, -11465.03674567184, -27577.962288613595, 4724.197652840335, -0.056, 0.9540000000000001, 0.122, 192.0, 0.0, 0.0, 0.0, 0.0, 0.0, 0.0, 0.0, 0.0, 0.0, 1.658334845180866E9, 0.0, 2022-07-20 12:34:05.180
166.0, -6926.1127026215445, -15970.366116805806, -3813.6099354755806, -7079.110393418121, -30263.971419807844, -570.2824080327044, -1031.4883031235104, -13727.457967693565, -141.8218185689233, -24303.364670677744, -7424.377790019249, -32427.374413892558, -16928.853622538285, -11875.481829104643, -27599.576425501877, 3720.917251219422, -0.056, 0.9540000000000001, 0.122, 192.0, 0.0, 0.0, 0.0, 0.0, 0.0, 0.0, 0.0, 0.0, 0.0, 1.6583348451808712E9, 0.0, 2022-07-20 12:34:05.180
168.0, -8101.926219692972, -17346.495967685696, -4993.111490382134, -8585.21563830562, -31906.198788428166, -1482.121823086956, 263.23649445015127, -13734.945802086093, 316.14307357586307, -24039.681141338486, -6746.3152702230545, -31620.364680333696, -16431.750825852254, -11283.764098139298, -27363.720818009475, 4791.744624584273, -0.056, 0.9540000000000001, 0.122, 192.0, 0.0, 0.0, 0.0, 0.0, 0.0, 0.0, 0.0, 0.0, 0.0, 1.6583348451808765E9, 0.0, 2022-07-20 12:34:05.180
170.0, -7017.084302554644, -16044.640963630793, -3891.729282346879, -7120.617582871626, -30294.123923078052, -670.1500022590163, -1154.713470305618, -13822.54228860644, -322.0886376009748, -24504.977405664613, -7571.027585390519, -32552.722996797922, -17098.995101332082, -12025.551441377575, -27809.302843726022, 3682.7851751786684, -0.056, 0.96, 0.126, 192.0, 127.0, 32.0, 15.0, 0.0, 1.5, 120.0, 0.0, 0.0, 0.0, 1.6583348451808817E9, 0.0, 2022-07-20 12:34:05.180
172.0, -7952.90713940944, -17215.000655055126, -4846.349936288588, -8462.236340312522, -31802.598452877817, -1328.967670079192, 401.884365306421, -13608.300818002323, 522.2485091982495, -23810.79927811614, -6579.817125775472, -31477.984068153393, -16238.005904913654, -11093.237828402262, -27126.74762329431, 4849.568587490152, -0.056, 0.96, 0.126, 192.0, 0.0, 0.0, 0.0, 0.0, 0.0, 0.0, 0.0, 0.0, 0.0, 1.658334845180887E9, 0.0, 2022-07-20 12:34:05.180
174.0, -7193.014883162366, -16204.791212653068, -4054.2711680258717, -7264.562817163804, -30438.22561958142, -834.7258966834422, -1265.1087361703796, -13956.540996616006, -484.58581979105713, -24695.2801579571, -7695.146822350839, -32642.375843808157, -17250.741094439163, -12156.35384993003, -28000.901997196914, 3676.169058819897, -0.056, 0.96, 0.126, 192.0, 0.0, 0.0, 0.0, 0.0, 0.0, 0.0, 0.0, 0.0, 0.0, 1.6583348451808922E9, 0.0, 2022-07-20 12:34:05.180
176.0, -7807.598448705488, -17084.466467436134, -4706.405664253911, -8337.021867873891, -31680.334410707288, -1198.3887789712883, 447.68308969534513, -13522.358360571667, 635.1024669530949, -23649.419683148826, -6504.692912661185, -31424.049308782734, -16124.61550529188, -10989.749251574189, -26965.233917860263, 4822.947659843881, -0.056, 0.96, 0.126, 192.0, 0.0, 0.0, 0.0, 0.0, 0.0, 0.0, 0.0, 0.0, 0.0, 1.6583348451808977E9, 0.0, 2022-07-20 12:34:05.180
178.0, -7367.4702486360375, -16375.29031935815, -4211.627448991233, -7423.148444074207, -30587.28940335386, -999.0112184299492, -1298.8822220423488, -14078.000375986145, -633.291975652215, -24877.15630258993, -7796.44492822229, -32716.04719353285, -17386.371479793965, -12283.781145069737, -28179.939470283924, 3686.629675224981, -0.056, 0.96, 0.126, 192.0, 0.0, 0.0, 0.0, 0.0, 0.0, 0.0, 0.0, 0.0, 0.0, 1.6583348451809027E9, 0.0, 2022-07-20 12:34:05.180
180.0, -7619.709684814177, -16900.221037891035, -4523.434284142767, -8158.990223287371, -31497.00540268486, -1034.885768280717, 463.9104561698981, -13419.048597699237, 759.3781661246021, -23501.115858687863, -6424.27133611099, -31378.943488471927, -16005.950093978656, -10917.664875705825, -26802.759087414634, 4787.9001245379595, -0.054, 0.9560000000000001, 0.128, 192.0, 127.0, 40.0, 14.5, 112.0, 2.0, 0.0, 0.0, 0.0, 0.0, 1.658334845180908E9, 0.0, 2022-07-20 12:34:05.180
182.0, -7566.244312077083, -16572.23153975386, -4398.331570426413, -7625.185862205728, -30800.52504545749, -1184.3295317089, -1290.5003178716086, -14159.986574648212, -713.1994620799378, -25000.42617326095, -7840.3437543325135, -32736.655501920643, -17462.836797575572, -12349.472922023884, -28307.45617240145, 3746.0629637316424, -0.054, 0.9560000000000001, 0.128, 192.0, 0.0, 0.0, 0.0, 0.0, 0.0, 0.0, 0.0, 0.0, 0.0, 1.6583348451809132E9, 0.0, 2022-07-20 12:34:05.180
184.0, -7429.496339499515, -16699.30120698228, -4332.371572538802, -7961.043174391172, -31296.689068876396, -873.6849872690425, 403.560746140569, -13356.754285902296, 816.5315766968223, -23417.58738965838, -6413.4977952835325, -31395.707296813405, -15967.236872582063, -10891.423927715294, -26706.95951067919, 4694.827460626061, -0.054, 0.9560000000000001, 0.128, 192.0, 0.0, 0.0, 0.0, 0.0, 0.0, 0.0, 0.0, 0.0, 0.0, 1.6583348451809185E9, 0.0, 2022-07-20 12:34:05.180
186.0, -7725.522843065602, -16747.513919772377, -4554.190284513269, -7808.246649294692, -30992.6159373064, -1309.5887076364409, -1192.9126015797378, -14193.983577964733, -730.9467471774516, -25053.35510413112, -7813.789881919609, -32683.056018716816, -17480.047640806155, -12322.114386810588, -28325.203457498963, 3852.3455086166277, -0.054, 0.9560000000000001, 0.128, 192.0, 0.0, 0.0, 0.0, 0.0, 0.0, 0.0, 0.0, 0.0, 0.0, 1.6583348451809237E9, 0.0, 2022-07-20 12:34:05.180
188.0, -7220.842805009223, -16478.868303164043, -4134.044543986863, -7731.110779179428, -31056.34076074848, -695.3627700046027, 319.9875736221759, -13284.267578633737, 842.571358987255, -23353.214365627096, -6421.320905842889, -31425.725689616884, -15947.120302572288, -10878.281101975574, -26590.328108111396, 4612.953020686272, -0.054, 0.9560000000000001, 0.128, 192.0, 0.0, 0.0, 0.0, 0.0, 0.0, 0.0, 0.0, 0.0, 0.0, 1.6583348451809287E9, 0.0, 2022-07-20 12:34:05.180
190.0, -7903.398025440935, -16944.432788423634, -4736.155836123924, -8025.527957144733, -31217.452134782332, -1461.3347007435204, -1062.624283149753, -14235.401360440417, -704.8846131425636, -25051.142281430042, -7752.233177689694, -32601.382744477123, -17445.961230511813, -12285.032842759234, -28290.64766057106, 3989.071129449741, -0.048, 0.9560000000000001, 0.128, 192.0, 127.0, 64.0, 14.5, 112.0, 2.0, 0.0, 0.0, 0.0, 0.0, 1.658334845180934E9, 0.0, 2022-07-20 12:34:05.180
192.0, -7067.2863206012635, -16304.882324323933, -3987.2829898933164, -7548.720544424123, -30846.949618691164, -586.7556436962657, 149.91315006174446, -13297.276293906725, 775.1361459655936, -23378.270671161496, -6511.62195344233, -31531.784717057315, -16008.900524246756, -10944.732838241202, -26590.708087767136, 4458.077783355449, -0.048, 0.9560000000000001, 0.128, 192.0, 0.0, 0.0, 0.0, 0.0, 0.0, 0.0, 0.0, 0.0, 0.0, 1.6583348451809392E9, 0.0, 2022-07-20 12:34:05.180
194.0, -8052.59591968011, -17124.900773155783, -4896.239029912834, -8228.77236947684, -31435.247532754845, -1589.5219551947064, -899.3000864148244, -14262.178750297875, -641.1821414449385, -25014.127792612053, -7663.56380743549, -32492.172121068495, -17376.603767466997, -12223.856118185058, -28246.100633871632, 4111.111654175717, -0.048, 0.9560000000000001, 0.128, 192.0, 0.0, 0.0, 0.0, 0.0, 0.0, 0.0, 0.0, 0.0, 0.0, 1.6583348451809442E9, 0.0, 2022-07-20 12:34:05.180
196.0, -6951.772505256236, -16161.071200498487, -3875.6583780835126, -7387.519763412448, -30664.559383935855, -518.5828231075792, -60.64028270724806, -13357.201320791402, 675.4920691838347, -23468.34820131638, -6645.307737029521, -31674.522957148907, -16122.357979101895, -11095.070671447596, -26673.61070795187, 4284.538839404445, -0.048, 0.9560000000000001, 0.128, 192.0, 0.0, 0.0, 0.0, 0.0, 0.0, 0.0, 0.0, 0.0, 0.0, 1.6583348451809509E9, 0.0, 2022-07-20 12:34:05.180
198.0, -8163.929958811994, -17264.912100423826, -5006.209612632944, -8390.978978989004, -31618.800058221826, -1655.3925461044964, -690.9147728579966, -14198.118650688964, -533.4243814259031, -24923.35735837905, -7540.472750720114, -32354.910058368452, -17269.918891181816, -12080.223808315255, -28144.064920433157, 4245.155065674194, -0.048, 0.9560000000000001, 0.128, 192.0, 0.0, 0.0, 0.0, 0.0, 0.0, 0.0, 0.0, 0.0, 0.0, 1.658334845180956E9, 0.0, 2022-07-20 12:34:05.180
200.0, -6845.624070837984, -16016.343655150373, -3756.8365045591004, -7209.197546148008, -30466.388817595103, -416.92708932484265, -262.2753694385731, -13343.052666551193, 544.1979222533611, -23578.609356714413, -6786.548410242607, -31817.39530770723, -16251.17108239783, -11209.399844336493, -26770.63963063236, 4155.323404708315, -0.054, 0.9500000000000001, 0.12, 192.0, 127.0, 40.0, 14.5, 88.0, 1.5, 96.0, 0.0, 0.0, 0.0, 1.6583348451809611E9, 0.0, 2022-07-20 12:34:05.180
202.0, -8248.576015064242, -17382.057593114092, -5093.515526475373, -8530.319753923388, -31776.022228720456, -1683.5780958626385, -454.7909444321328, -14150.308269299063, -372.983559725709, -24758.602649998982, -7373.773440572434, -32188.65778310988, -17098.57041818743, -11909.411777187799, -27977.611479474483, 4422.87378583834, -0.054, 0.9500000000000001, 0.12, 192.0, 0.0, 0.0, 0.0, 0.0, 0.0, 0.0, 0.0, 0.0, 0.0, 1.6583348451809664E9, 0.0, 2022-07-20 12:34:05.180
204.0, -6817.930259457858, -15954.764599176002, -3721.990134953277, -7119.187071226486, -30350.159746427507, -415.6306881464348, -497.2145554083056, -13434.381894395578, 348.7095652472455, -23756.79746351212, -6980.695662581404, -32015.320004858975, -16435.952953809854, -11389.845477324187, -26949.610048486004, 3995.7543010418776, -0.054, 0.9500000000000001, 0.12, 192.0, 0.0, 0.0, 0.0, 0.0, 0.0, 0.0, 0.0, 0.0, 0.0, 1.6583348451809716E9, 0.0, 2022-07-20 12:34:05.180
206.0, -8260.601253581197, -17433.220736172287, -5116.649581986616, -8606.650961238262, -31873.9228694347, -1677.9231045154459, -221.46108406318237, -14044.49511104764, -189.02870285853183, -24586.24834850411, -7192.970179673455, -32014.13536240284, -16923.802128291383, -11744.65706880773, -27790.37091617238, 4564.717956151719, -0.054, 0.9500000000000001, 0.12, 192.0, 0.0, 0.0, 0.0, 0.0, 0.0, 0.0, 0.0, 0.0, 0.0, 1.6583348451809769E9, 0.0, 2022-07-20 12:34:05.180
208.0, -6825.552204317118, -15928.478947696562, -3721.2301756417964, -7063.106544388122, -30271.481605944828, -452.71223219778926, -718.6309359825774, -13531.58963103171, 153.28826347449584, -23963.104064834602, -7164.494057237394, -32184.343896430004, -16631.687180004978, -11573.979148147006, -27148.04883576022, 3873.9372937604544, -0.054, 0.9500000000000001, 0.12, 192.0, 0.0, 0.0, 0.0, 0.0, 0.0, 0.0, 0.0, 0.0, 0.0, 1.658334845180982E9, 0.0, 2022-07-20 12:34:05.180
210.0, -8251.30292788779, -17448.889309035458, -5118.370666309675, -8651.779133293527, -31942.27450397903, -1642.8755692095244, -15.37800018525126, -13956.943328016201, -7.957221026089314, -24384.233282117046, -7027.813139893191, -31850.07355810089, -16740.584878991234, -11554.264909537425, -27585.070143350382, 4664.004405022193, -0.051000000000000004, 0.9480000000000001, 0.11599999999999999, 192.0, 127.0, 64.0, 14.5, 72.0, 1.5, 64.0, 0.0, 0.0, 0.0, 1.6583348451809871E9, 0.0, 2022-07-20 12:34:05.180
212.0, -6884.851382357047, -15946.561508960905, -3771.231027988318, -7057.608015252115, -30254.315466203152, -525.0424772551629, -929.2514239849359, -13664.202530885046, -46.826904633868295, -24171.467026646977, -7350.482922850004, -32341.275494250716, -16828.337827722768, -11766.964109774126, -27357.976419684463, 3756.5459318811813, -0.051000000000000004, 0.9480000000000001, 0.11599999999999999, 192.0, 0.0, 0.0, 0.0, 0.0, 0.0, 0.0, 0.0, 0.0, 0.0, 1.6583348451809924E9, 0.0, 2022-07-20 12:34:05.180
214.0, -8153.46934240691, -17381.029412869146, -5028.874281510625, -8604.728711215104, -31919.855704290356, -1528.4346375983523, 188.11228133586425, -13824.643352585239, 204.02672338804288, -24154.345590394212, -6848.619204594995, -31686.32467822131, -16540.112082971584, -11367.806657291254, -27355.65183826111, 4754.596025299553, -0.051000000000000004, 0.9480000000000001, 0.11599999999999999, 192.0, 0.0, 0.0, 0.0, 0.0, 0.0, 0.0, 0.0, 0.0, 0.0, 1.6583348451809976E9, 0.0, 2022-07-20 12:34:05.180
216.0, -6959.126229182033, -15995.757698507035, -3830.3066885836947, -7085.033605698777, -30267.458291942872, -601.3736845700365, -1083.1655363041803, -13760.650308209695, -228.54658705551472, -24363.91554640717, -7497.62445659929, -32470.647391158032, -17000.781536195464, -11897.945332282226, -27556.59402091432, 3704.2204981113077, -0.051000000000000004, 0.9480000000000001, 0.11599999999999999, 192.0, 0.0, 0.0, 0.0, 0.0, 0.0, 0.0, 0.0, 0.0, 0.0, 1.6583348451810029E9, 0.0, 2022-07-20 12:34:05.181
218.0, -8033.753399104286, -17284.1793041443, -4912.242878942833, -8528.933945767158, -31852.53224999097, -1403.8460140044706, 341.8252279550109, -13681.860409004737, 416.86003409147673, -23908.87873278603, -6665.2007895947445, -31526.844981532693, -16331.99499034822, -11184.052966124174, -27107.212198640373, 4830.614308192052, -0.051000000000000004, 0.9480000000000001, 0.11599999999999999, 192.0, 0.0, 0.0, 0.0, 0.0, 0.0, 0.0, 0.0, 0.0, 0.0, 1.658334845181008E9, 0.0, 2022-07-20 12:34:05.181
220.0, -7095.74009129287, -16113.551391786505, -3948.748582452367, -7188.432775549028, -30356.664104064002, -739.3062996037364, -1213.006819845059, -13876.499399721552, -418.8046358590884, -24598.07242132097, -7648.1634555057835, -32596.4430089525, -17188.513837875587, -12081.319043793565, -27767.750950783608, 3656.34306148804, -0.0485, 0.9500000000000001, 0.11599999999999999, 192.0, 127.0, 72.0, 14.5, 96.0, 1.5, 80.0, 0.0, 0.0, 0.0, 1.658334845181013E9, 0.0, 2022-07-20 12:34:05.181
222.0, -7867.590530823533, -17144.52560478754, -4762.687356792374, -8407.385159419198, -31734.80561194487, -1255.3186720989552, 444.71030768278933, -13556.601233077197, 583.6711029614333, -23721.302893317094, -6531.537357752009, -31427.22325649539, -16175.264558227607, -11044.891005145431, -26895.02708852614, 4847.847503167093, -0.0485, 0.9500000000000001, 0.11599999999999999, 192.0, 0.0, 0.0, 0.0, 0.0, 0.0, 0.0, 0.0, 0.0, 0.0, 1.6583348451810184E9, 0.0, 2022-07-20 12:34:05.181
224.0, -7257.857293827212, -16274.97569024273, -4109.502328574936, -7337.094227921275, -30494.842588286712, -907.3467144187349, -1281.939599745226, -14018.410625268296, -547.0365937991851, -24766.962202425268, -7738.643317060866, -32666.113396419692, -17312.878944024917, -12215.138937847489, -27929.130545750922, 3674.8056024081234, -0.0485, 0.9500000000000001, 0.11599999999999999, 192.0, 0.0, 0.0, 0.0, 0.0, 0.0, 0.0, 0.0, 0.0, 0.0, 1.6583348451810234E9, 0.0, 2022-07-20 12:34:05.181
226.0, -7697.560810752012, -16985.090611587835, -4610.6284392629195, -8256.77910527934, -31593.676697454062, -1101.337504546345, 472.0464911516299, -13458.231205729391, 698.737883417354, -23571.635612444356, -6461.084659228881, -31384.374962374564, -16067.149170297287, -10948.35382084296, -26735.793261026534, 4817.918517341437, -0.0485, 0.9500000000000001, 0.11599999999999999, 192.0, 0.0, 0.0, 0.0, 0.0, 0.0, 0.0, 0.0, 0.0, 0.0, 1.658334845181029E9, 0.0, 2022-07-20 12:34:05.181
228.0, -7441.186301849641, -16455.577785441612, -4297.256981999514, -7525.139454023773, -30682.79840741139, -1067.2063907630911, -1305.2971727010217, -14125.140205042388, -674.9332755724521, -24925.301960146662, -7817.83554766602, -32714.929606310085, -17423.944762223335, -12308.47982269285, -28097.439181499387, 3714.144672649464, -0.0485, 0.9500000000000001, 0.11599999999999999, 192.0, 0.0, 0.0, 0.0, 0.0, 0.0, 0.0, 0.0, 0.0, 0.0, 1.6583348451810355E9, 0.0, 2022-07-20 12:34:05.181
230.0, -7523.351314467349, -16808.467126902, -4441.2245680361475, -8086.011777640793, -31415.488590656354, -946.082287559782, 441.4022495034039, -13383.621082737576, 779.8300123012081, -23450.623267963325, -6423.153748888225, -31376.1048169261, -15994.148372906253, -10888.741718380657, -26627.968445774135, 4755.043060188658, -0.04825, 0.9510000000000001, 0.11599999999999999, 192.0, 127.0, 64.0, 14.5, 96.0, 1.5, 80.0, 0.0, 0.0, 0.0, 1.6583348451810408E9, 0.0, 2022-07-20 12:34:05.181
232.0, -7629.052713996496, -16648.71920927992, -4475.64625449732, -7718.571450540001, -30890.22259595664, -1234.1292183553242, -1258.0232331780473, -14192.910694230879, -742.1673228940157, -25031.025711420265, -7845.641117768421, -32713.968481298507, -17483.758030385736, -12346.611898733605, -28208.19207527543, 3791.168784042452, -0.04825, 0.9510000000000001, 0.11599999999999999, 192.0, 0.0, 0.0, 0.0, 0.0, 0.0, 0.0, 0.0, 0.0, 0.0, 1.6583348451810462E9, 0.0, 2022-07-20 12:34:05.181
234.0, -7332.422713330116, -16604.842734914153, -4257.6049873358, -7874.161943693393, -31206.678593954875, -805.8250911027302, 359.9524927082649, -13321.259715707269, 814.6987336514871, -23383.702145064133, -6429.971030947093, -31404.200959706424, -15964.353497547329, -10894.083785305475, -26555.8170146724, 4644.15605594588, -0.04825, 0.9510000000000001, 0.11599999999999999, 192.0, 0.0, 0.0, 0.0, 0.0, 0.0, 0.0, 0.0, 0.0, 0.0, 1.6583348451810515E9, 0.0, 2022-07-20 12:34:05.181
236.0, -7789.3370734855025, -16828.941324823063, -4636.198834919791, -7902.146327751438, -31099.993717669695, -1392.3795690988982, -1153.5064761050317, -14204.220676925264, -740.6921077599654, -25059.211261178407, -7798.59069569, -32636.69850071651, -17476.828989604594, -12316.906430352501, -28242.34554080314, 3892.9586282919204, -0.04825, 0.9510000000000001, 0.11599999999999999, 192.0, 0.0, 0.0, 0.0, 0.0, 0.0, 0.0, 0.0, 0.0, 0.0, 1.6583348451810565E9, 0.0, 2022-07-20 12:34:05.181
238.0, -7131.055847532255, -16393.216418411306, -4060.484952984447, -7643.782513592543, -30973.348733585924, -655.5766648741561, 250.54070359953687, -13269.67188950442, 820.9348703545178, -23353.68375226066, -6450.758153290529, -31444.74702414835, -15977.295157586952, -10899.8728871194, -26519.987168310545, 4528.329316178479, -0.04825, 0.9510000000000001, 0.11599999999999999, 192.0, 0.0, 0.0, 0.0, 0.0, 0.0, 0.0, 0.0, 0.0, 0.0, 1.6583348451810617E9, 0.0, 2022-07-20 12:34:05.181
240.0, -7955.589348744077, -17022.015693428006, -4803.769863101228, -8116.70072277793, -31323.555865711674, -1537.73296329176, -996.597230028776, -14224.001970768211, -688.1431565455385, -25045.219069149385, -7717.0738836614955, -32539.379005358103, -17436.59584958504, -12291.246627717808, -28227.503982484817, 4021.6599728655788, -0.050125, 0.9515, 0.118, 192.0, 127.0, 48.0, 14.5, 96.0, 1.5, 96.0, 0.0, 0.0, 0.0, 1.6583348456607025E9, 0.0, 2022-07-20 12:34:05.660
242.0, -6984.562514372172, -16221.309151805539, -3917.6126024261243, -7464.409764338704, -30754.636914090745, -554.6138351695341, 67.68108221066979, -13275.572750040621, 748.090535174672, -23407.171476742205, -6556.638366775319, -31569.469758208965, -16059.28135624902, -11002.17682149134, -26570.390352057264, 4372.381195113801, -0.050125, 0.9515, 0.118, 192.0, 0.0, 0.0, 0.0, 0.0, 0.0, 0.0, 0.0, 0.0, 0.0, 1.6583348456607597E9, 0.0, 2022-07-20 12:34:05.660
244.0, -8083.754251450808, -17177.092096458924, -4932.806483841716, -8294.911181320093, -31508.181274912513, -1612.1642723279326, -794.2915909637918, -14184.461734826773, -589.4155012864472, -24971.74888512479, -7605.918658485253, -32415.840913753622, -17334.38132219092, -12152.509349883718, -28156.112510694566, 4174.277684006415, -0.050125, 0.9515, 0.118, 192.0, 0.0, 0.0, 0.0, 0.0, 0.0, 0.0, 0.0, 0.0, 0.0, 1.6583348456607687E9, 0.0, 2022-07-20 12:34:05.660
246.0, -6870.590969394561, -16073.027679089033, -3796.644961434002, -7289.4626604870155, -30548.33031276826, -441.33519427003796, -118.15132119075314, -13282.948825710873, 634.1189901970614, -23484.664974768755, -6691.866420729926, -31712.43151574511, -16165.832122067468, -11111.879183277988, -26651.482480941115, 4252.866417511274, -0.050125, 0.9515, 0.118, 192.0, 0.0, 0.0, 0.0, 0.0, 0.0, 0.0, 0.0, 0.0, 0.0, 1.658334845660777E9, 0.0, 2022-07-20 12:34:05.660
248.0, -8186.058185822748, -17310.017920734637, -5033.635203079606, -8451.44044774061, -31663.101215732244, -1635.7453627282814, -562.8392771290871, -14112.846745591969, -471.3759388179706, -24854.089302312055, -7472.121116175786, -32276.85776673052, -17197.58864612444, -12013.436795882797, -28026.248875409234, 4353.561026282433, -0.050125, 0.9515, 0.118, 192.0, 0.0, 0.0, 0.0, 0.0, 0.0, 0.0, 0.0, 0.0, 0.0, 1.658334845660784E9, 0.0, 2022-07-20 12:34:05.660
250.0, -6809.078968653556, -15971.818980195401, -3725.007620454743, -7166.70687993847, -30385.095523011154, -378.8397167729994, -335.6114429964355, -13308.765090556752, 483.49058431274705, -23633.929924241296, -6853.871864541992, -31880.337820093373, -16310.47026043776, -11251.309365190193, -26773.05361903353, 4123.494520603957, -0.0490625, 0.9477500000000001, 0.119, 192.0, 127.0, 64.0, 14.5, 64.0, 1.5, 96.0, 0.0, 0.0, 0.0, 1.6583348456608117E9, 0.0, 2022-07-20 12:34:05.660
252.0, -8239.769427748852, -17389.59013099553, -5107.664180715583, -8570.262321265021, -31804.8559790678, -1672.2904649127086, -334.42680054030427, -14051.871186717892, -299.8039483790336, -24688.70874508724, -7307.567573495815, -32114.338232795984, -17032.90099297774, -11821.547069733986, -27861.337704817975, 4491.31482736049, -0.0490625, 0.9477500000000001, 0.119, 192.0, 0.0, 0.0, 0.0, 0.0, 0.0, 0.0, 0.0, 0.0, 0.0, 1.6583348456608484E9, 0.0, 2022-07-20 12:34:05.660
254.0, -6787.978921887747, -15911.648084121714, -3717.49743431776, -7088.095794689155, -30294.36979226706, -418.62582190344597, -584.9675041398411, -13453.023249271304, 282.0119597926092, -23825.95376085684, -7054.009384394812, -32069.925316563287, -16514.295818125705, -11450.64222224262, -26993.48652285177, 3943.9653091389314, -0.0490625, 0.9477500000000001, 0.119, 192.0, 0.0, 0.0, 0.0, 0.0, 0.0, 0.0, 0.0, 0.0, 0.0, 1.6583348456608887E9, 0.0, 2022-07-20 12:34:05.660
0.0, -8239.590613793209, -17432.080797205068, -5126.663163502594, -8639.79859826548, -31901.169645925722, -1671.7093195568705, -129.19308295167482, -13966.755743832082, -110.05998969793198, -24489.621757223817, -7129.871205076123, -31940.93339931171, -16855.182272813592, -11650.176244995147, -27692.559682435953, 4584.3874912723895, -0.0490625, 0.9477500000000001, 0.119, 192.0, 0.0, 0.0, 0.0, 0.0, 0.0, 0.0, 0.0, 0.0, 0.0, 1.6583348456609228E9, 0.0, 2022-07-20 12:34:05.660
2.0, -6813.839890222537, -15907.982398031045, -3721.5654518086258, -7042.520587744783, -30238.781003806715, -478.6179040214901, -810.2954399937917, -13542.139654414614, 87.70824524262491, -24035.791937803264, -7236.019639494377, -32241.765527935688, -16706.431413463524, -11644.208329225581, -27218.322720327702, 3808.267868550762, -0.0490625, 0.9477500000000001, 0.119, 192.0, 0.0, 0.0, 0.0, 0.0, 0.0, 0.0, 0.0, 0.0, 0.0, 1.658334845660948E9, 0.0, 2022-07-20 12:34:05.660
4.0, -8189.09802306867, -17416.30046561962, -5070.046194797301, -8631.036714439, -31919.65453859026, -1612.052513605656, 78.07464338238756, -13855.175835511189, 99.73348375958011, -24262.840957980272, -6932.438246302396, -31760.95715295758, -16639.24206963087, -11465.908463705597, -27473.780807707408, 4695.542716448631, -0.04853125, 0.9448750000000001, 0.1215, 192.0, 127.0, 64.0, 14.5, 56.0, 1.5, 112.0, 0.0, 0.0, 0.0, 1.65833484566098E9, 0.0, 2022-07-20 12:34:05.660
6.0, -6891.288684760176, -15957.558567232916, -3781.3787199710277, -7062.68186124347, -30233.46128862635, -566.0802800751067, -1007.080198178315, -13696.254932433956, -118.66541131322519, -24264.360876603234, -7410.542060201414, -32401.625204280044, -16904.132593170714, -11816.093244086891, -27446.981066105494, 3706.6791900013914, -0.04853125, 0.9448750000000001, 0.1215, 192.0, 0.0, 0.0, 0.0, 0.0, 0.0, 0.0, 0.0, 0.0, 0.0, 1.658334845660986E9, 0.0, 2022-07-20 12:34:05.660
8.0, -8100.65217025902, -17357.180101535334, -4987.255333334843, -8587.160240073234, -31890.686677776182, -1487.6650557118721, 242.7399447846347, -13728.307333982866, 301.8603088689219, -24065.2291852509, -6762.944968097802, -31621.012880922903, -16460.405762243958, -11292.146002310039, -27254.197270178473, 4772.142144696969, -0.04853125, 0.9448750000000001, 0.1215, 192.0, 0.0, 0.0, 0.0, 0.0, 0.0, 0.0, 0.0, 0.0, 0.0, 1.6583348456609924E9, 0.0, 2022-07-20 12:34:05.660
10.0, -7015.832604865147, -16062.455303961671, -3886.789546822256, -7147.439676217995, -30288.290117775217, -676.7214151288766, -1152.5229993489982, -13803.811526752894, -317.19360556526254, -24492.259263069544, -7569.373556300826, -32547.336226384192, -17094.792973374482, -12013.347388904976, -27658.6297343528, 3664.3226342585845, -0.04853125, 0.9448750000000001, 0.1215, 192.0, 0.0, 0.0, 0.0, 0.0, 0.0, 0.0, 0.0, 0.0, 0.0, 1.6583348456609983E9, 0.0, 2022-07-20 12:34:05.660
12.0, -7976.555285043155, -17258.83242593198, -4864.34309057511, -8517.042817716934, -31811.04741228192, -1363.6575774738285, 374.27996090411676, -13610.22306802548, 471.5547527736131, -23869.53966254469, -6628.163949032301, -31528.43195538902, -16292.32064394005, -11154.503959954258, -27040.40283446346, 4815.996267318281, -0.04853125, 0.9448750000000001, 0.1215, 192.0, 0.0, 0.0, 0.0, 0.0, 0.0, 0.0, 0.0, 0.0, 0.0, 1.658334845661005E9, 0.0, 2022-07-20 12:34:05.661
14.0, -7156.045097833288, -16188.988529323165, -4016.5637751297686, -7264.384003208162, -30401.59111041917, -814.6093266736659, -1254.0893261539134, -13913.268019350531, -481.54598254513536, -24694.766067834626, -7700.533592764568, -32663.31942836278, -17256.84312067546, -12162.254710466232, -27857.113225115925, 3655.918378343389, -0.050265625, 0.9464375, 0.12275, 192.0, 127.0, 48.0, 14.5, 80.0, 1.5, 112.0, 0.0, 0.0, 0.0, 1.6583348456610112E9, 0.0, 2022-07-20 12:34:05.661
16.0, -7808.380759761425, -17097.92221759823, -4711.434806756354, -8371.46590607952, -31683.865986331224, -1215.0631803349472, 447.72779318425575, -13508.924962154028, 629.7156965393659, -23660.930831543308, -6507.933915607205, -31429.100803029636, -16140.105264199408, -11013.173879763352, -26835.102061641464, 4832.938889615404, -0.050265625, 0.9464375, 0.12275, 192.0, 0.0, 0.0, 0.0, 0.0, 0.0, 0.0, 0.0, 0.0, 0.0, 1.658334845661018E9, 0.0, 2022-07-20 12:34:05.661
18.0, -7330.455759818049, -16348.445874267325, -4185.520611467435, -7411.279667768439, -30551.258391291907, -983.923790922617, -1298.0775592419577, -14036.470834788184, -624.7312575258323, -24856.726808157782, -7797.428404978324, -32714.28140572088, -17390.864180429482, -12252.220481898843, -28017.621102049485, 3675.0291198526766, -0.050265625, 0.9464375, 0.12275, 192.0, 0.0, 0.0, 0.0, 0.0, 0.0, 0.0, 0.0, 0.0, 0.0, 1.6583348456610243E9, 0.0, 2022-07-20 12:34:05.661
20.0, -7624.60471684989, -16913.855602008774, -4539.035801772571, -8181.163153787036, -31503.80033299927, -1045.9051782971833, 468.4031568054148, -13421.551993078232, 738.4345815699794, -23515.242161183618, -6445.103161943336, -31379.099950683114, -16035.253230959563, -10909.886468635377, -26677.790484165012, 4785.307322181145, -0.050265625, 0.9464375, 0.12275, 192.0, 0.0, 0.0, 0.0, 0.0, 0.0, 0.0, 0.0, 0.0, 0.0, 1.6583348456610312E9, 0.0, 2022-07-20 12:34:05.661
22.0, -7518.590392898369, -16533.339504401625, -4371.8447532468745, -7593.826364734932, -30747.216134931583, -1132.585243294864, -1284.711216057684, -14116.46772819373, -710.6737149564881, -24981.024859073743, -7841.9307281888405, -32722.260978491424, -17468.916472067413, -12316.571154185673, -28154.056150204677, 3729.3215071346176, -0.050265625, 0.9464375, 0.12275, 192.0, 0.0, 0.0, 0.0, 0.0, 0.0, 0.0, 0.0, 0.0, 0.0, 1.6583348456610377E9, 0.0, 2022-07-20 12:34:05.661
24.0, -7428.378752276749, -16711.348797243692, -4360.065383918927, -7984.57956130261, -31303.416943957443, -872.1650686460816, 421.7997696160996, -13334.268430980257, 810.0048673158726, -23402.879941806787, -6413.430740050166, -31374.67430528096, -15982.570169278404, -10869.9662530382, -26594.329070368894, 4692.2793617581565, -0.050265625, 0.9464375, 0.12275, 192.0, 0.0, 0.0, 0.0, 0.0, 0.0, 0.0, 0.0, 0.0, 0.0, 1.6583348456610444E9, 0.0, 2022-07-20 12:34:05.661
26.0, -7694.722139206188, -16728.49258524091, -4554.5702641690095, -7799.73063465722, -30974.354562086413, -1310.7509983481168, -1219.5111774815534, -14182.360670847973, -744.0672211727168, -25045.777862760766, -7829.704323971788, -32688.576899597276, -17508.881391153504, -12337.78295967376, -28252.02384615229, 3809.6089732180803, -0.05, 0.9460000000000001, 0.12, 192.0, 127.0, 56.0, 14.5, 72.0, 1.5, 96.0, 0.0, 0.0, 0.0, 1.6583348456610513E9, 0.0, 2022-07-20 12:34:05.661
28.0, -7242.926328531066, -16516.620399549058, -4180.759689898454, -7778.675291380321, -31104.486418305212, -734.3665640791136, 308.99051535016486, -13292.828296760119, 819.3925999871016, -23362.132711664763, -6433.860234482317, -31425.345709961144, -15985.989986180066, -10867.999299526133, -26567.35051481134, 4583.515773238632, -0.05, 0.9460000000000001, 0.12, 192.0, 0.0, 0.0, 0.0, 0.0, 0.0, 0.0, 0.0, 0.0, 0.0, 1.6583348456610577E9, 0.0, 2022-07-20 12:34:05.661
30.0, -7865.109487188994, -16915.82255552084, -4718.6320684709635, -7989.854572994062, -31194.005154848717, -1445.1520377578781, -1096.4871759995433, -14224.806633568602, -732.8242937116974, -25066.028543237277, -7780.664596636844, -32622.281625542837, -17495.40328924695, -12319.946267598423, -28287.0266779693, 3934.8681491456214, -0.05, 0.9460000000000001, 0.12, 192.0, 0.0, 0.0, 0.0, 0.0, 0.0, 0.0, 0.0, 0.0, 0.0, 1.6583348456610641E9, 0.0, 2022-07-20 12:34:05.661
32.0, -7076.83051548368, -16329.603353691502, -4005.8572895356765, -7562.109239352852, -30878.73379930661, -600.4572630473689, 161.53605717850414, -13271.4823808053, 794.4927566638895, -23367.452426845128, -6491.460679943643, -31505.163789411046, -16020.41167264124, -10943.54819578507, -26560.935564152667, 4473.053452140504, -0.05, 0.9460000000000001, 0.12, 192.0, 0.0, 0.0, 0.0, 0.0, 0.0, 0.0, 0.0, 0.0, 0.0, 1.6583348456610708E9, 0.0, 2022-07-20 12:34:05.661
34.0, -8026.153805989481, -17099.53154319901, -4866.15358187599, -8193.434261493, -31394.142674701536, -1574.9486178098462, -925.2951652163465, -14227.980581281256, -676.5426011732342, -25046.38135986106, -7693.448089772236, -32520.20120861545, -17423.363616867497, -12236.976592180323, -28240.15506984652, 4078.8804386711645, -0.05, 0.9460000000000001, 0.12, 192.0, 0.0, 0.0, 0.0, 0.0, 0.0, 0.0, 0.0, 0.0, 0.0, 1.6583348456610775E9, 0.0, 2022-07-20 12:34:05.661
36.0, -6941.80362722917, -16162.881691799366, -3860.235674409351, -7383.6082081327695, -30651.483613429504, -490.1737559048839, -9.96887802706695, -13285.429869345411, 702.2024038079267, -23436.228744534106, -6612.383617446854, -31639.341311376254, -16104.945970171211, -11043.57225222257, -26610.042346720977, 4328.616479470311, -0.054, 0.9540000000000001, 0.124, 192.0, 127.0, 40.0, 14.5, 104.0, 1.5, 112.0, 0.0, 0.0, 0.0, 1.658334845661086E9, 0.0, 2022-07-20 12:34:05.661
38.0, -8147.680240592986, -17256.50784450863, -4994.139670627078, -8378.998443960958, -31579.01395309138, -1641.1097813975553, -703.8787846420747, -14215.709473575293, -558.4806869603023, -24941.32816092112, -7559.583492229402, -32378.60290749108, -17292.248283892666, -12109.526945296162, -28130.27389410423, 4239.589481304823, -0.054, 0.9540000000000001, 0.124, 192.0, 0.0, 0.0, 0.0, 0.0, 0.0, 0.0, 0.0, 0.0, 0.0, 1.6583348456610928E9, 0.0, 2022-07-20 12:34:05.661
40.0, -6847.255748183221, -16035.74496933758, -3770.5157721657483, -7236.24315693893, -30474.770721765846, -414.915432323865, -225.97613644315442, -13317.348160427591, 547.103649032551, -23566.651173430822, -6779.619369461462, -31812.47792392706, -16250.098198663974, -11187.428079536925, -26736.262647660096, 4167.527457180912, -0.054, 0.9540000000000001, 0.124, 192.0, 0.0, 0.0, 0.0, 0.0, 0.0, 0.0, 0.0, 0.0, 0.0, 1.6583348456610987E9, 0.0, 2022-07-20 12:34:05.661
42.0, -8228.81707296575, -17371.954604620292, -5086.519430460862, -8515.433492116154, -31746.607333017273, -1682.1699359619543, -486.66453202540066, -14132.650391179372, -411.2497462331946, -24801.361537141984, -7410.117377056763, -32219.771411391666, -17149.577099034443, -11931.808225132016, -27988.697944724317, 4400.991428016595, -0.054, 0.9540000000000001, 0.124, 192.0, 0.0, 0.0, 0.0, 0.0, 0.0, 0.0, 0.0, 0.0, 0.0, 1.6583348456611054E9, 0.0, 2022-07-20 12:34:05.661
44.0, -6807.983733175246, -15955.613965465303, -3727.1533879224526, -7126.339629452184, -30354.428929618472, -413.3731619564488, -464.8939329259316, -13401.927161446472, 377.34214989449384, -23736.882059202442, -6961.0931826941, -31984.407542277284, -16424.55356413765, -11374.847456794674, -26902.716088618767, 4023.0904845107184, -0.054, 0.9540000000000001, 0.124, 192.0, 0.0, 0.0, 0.0, 0.0, 0.0, 0.0, 0.0, 0.0, 0.0, 1.6583348456611116E9, 0.0, 2022-07-20 12:34:05.661
46.0, -8249.671250542551, -17426.82813725807, -5116.895451175625, -8591.98821687558, -31856.175584337187, -1685.1874214634206, -258.45322113671557, -14043.15400638032, -239.05190694950903, -24619.77596518707, -7244.893282043134, -32048.601752352926, -16982.631919697753, -11783.23617973759, -27814.689614139752, 4533.201996469736, -0.054, 0.96, 0.122, 192.0, 127.0, 40.0, 15.0, 0.0, 1.5, 104.0, 0.0, 0.0, 0.0, 1.6583348456611185E9, 0.0, 2022-07-20 12:34:05.661
48.0, -6792.292808567621, -15907.58006663085, -3699.8395561980674, -7038.385515020552, -30257.98115229382, -425.84543536251016, -690.937124602452, -13490.440069489488, 192.94025813821057, -23916.970064278852, -7130.452350431961, -32136.757032484657, -16609.804822183232, -11526.861670835218, -27094.6952217454, 3904.9615150644204, -0.054, 0.96, 0.122, 192.0, 0.0, 0.0, 0.0, 0.0, 0.0, 0.0, 0.0, 0.0, 0.0, 1.658334845661125E9, 0.0, 2022-07-20 12:34:05.661
50.0, -8224.950221174982, -17429.800919270627, -5102.00918936839, -8620.576098033916, -31918.045212989477, -1638.1369993849994, -44.189398788142064, -13954.819912292947, -26.24094799053049, -24405.668605049683, -7042.788808678247, -31852.867526157803, -16777.80053350932, -11568.704136455553, -27614.105059397825, 4668.944140546816, -0.054, 0.96, 0.122, 192.0, 0.0, 0.0, 0.0, 0.0, 0.0, 0.0, 0.0, 0.0, 0.0, 1.6583348456611316E9, 0.0, 2022-07-20 12:34:05.661
52.0, -6847.50161737223, -15930.892936097734, -3752.746135323779, -7036.150340575021, -30234.847096782578, -512.1008172155401, -911.4817871429667, -13704.56978137133, -15.512110651983102, -24146.164851923568, -7320.732750979991, -32310.72065958031, -16825.655618388133, -11713.677550992674, -27344.587724755733, 3771.1863244994074, -0.054, 0.96, 0.122, 192.0, 0.0, 0.0, 0.0, 0.0, 0.0, 0.0, 0.0, 0.0, 0.0, 1.6583348456611383E9, 0.0, 2022-07-20 12:34:05.661
54.0, -8141.868787034606, -17381.67761345835, -5030.528310600318, -8587.36140577333, -31907.65165181776, -1547.0983442185336, 145.3086907039512, -13769.658061225184, 174.41066198476102, -24187.18030299906, -6866.701765859338, -31698.148751038167, -16589.24121728435, -11391.767727347342, -27408.938397042562, 4739.173321625391, -0.054, 0.96, 0.122, 192.0, 0.0, 0.0, 0.0, 0.0, 0.0, 0.0, 0.0, 0.0, 0.0, 1.658334845661145E9, 0.0, 2022-07-20 12:34:05.661
56.0, -6925.240984587787, -15983.106611145331, -3807.4855574948265, -7061.4748670428835, -30248.056977755667, -594.8693269335422, -1073.2413617660238, -13689.705871308552, -200.04811287499822, -24353.2984677909, -7469.796534752433, -32444.205277467405, -16999.50748676151, -11908.137727753847, -27545.373445197758, 3725.9687454663213, -0.044, 0.9560000000000001, 0.122, 192.0, 127.0, 80.0, 14.5, 112.0, 1.5, 104.0, 0.0, 0.0, 0.0, 1.6583348456611516E9, 0.0, 2022-07-20 12:34:05.661
58.0, -8053.981727836339, -17319.606819105964, -4938.55088216673, -8552.716201867604, -31867.93260192068, -1456.7525931301825, 297.7475878891454, -13680.295786892866, 364.4451933437817, -23978.280899319758, -6708.85374651596, -31569.313295997777, -16403.20764818283, -11223.324981132148, -27177.396676230037, 4806.228554991312, -0.044, 0.9560000000000001, 0.122, 192.0, 0.0, 0.0, 0.0, 0.0, 0.0, 0.0, 0.0, 0.0, 0.0, 1.658334845661158E9, 0.0, 2022-07-20 12:34:05.661
60.0, -7059.39615480854, -16096.452307278194, -3924.4969397183586, -7165.164609571053, -30321.907141436, -725.4705697859014, -1204.557860440953, -13847.397428440741, -402.13023449542936, -24586.136589781832, -7641.010897280085, -32597.8958723421, -17191.508971632597, -12084.805915928593, -27766.990991472125, 3655.4713434542828, -0.044, 0.9560000000000001, 0.122, 192.0, 0.0, 0.0, 0.0, 0.0, 0.0, 0.0, 0.0, 0.0, 0.0, 1.6583348456611648E9, 0.0, 2022-07-20 12:34:05.661
62.0, -7886.8353827995525, -17177.06974471447, -4783.362720413533, -8428.686371885105, -31738.538353268905, -1272.4177566072651, 428.0806098080409, -13544.978325960437, 552.8256956131096, -23758.496196090724, -6555.699593508196, -31454.26886728631, -16207.115794076419, -11060.581929753058, -26948.313647307594, 4842.706601942373, -0.044, 0.9560000000000001, 0.122, 192.0, 0.0, 0.0, 0.0, 0.0, 0.0, 0.0, 0.0, 0.0, 0.0, 1.6583348456611717E9, 0.0, 2022-07-20 12:34:05.661
64.0, -7219.501700341904, -16247.97478294072, -4076.801726436821, -7308.059311873832, -30438.02445388132, -863.2020191195035, -1271.5236868290528, -13951.71301981366, -537.3806401944925, -24766.09048439151, -7735.20114841475, -32673.33300987876, -17310.733176557205, -12186.260484011233, -27939.166479011357, 3670.8046401506235, -0.044, 0.9560000000000001, 0.122, 192.0, 0.0, 0.0, 0.0, 0.0, 0.0, 0.0, 0.0, 0.0, 0.0, 1.658334845661178E9, 0.0, 2022-07-20 12:34:05.661
66.0, -7728.294459378059, -17026.08371091887, -4638.858692509973, -8288.987969039437, -31594.660174210094, -1123.2198623680906, 468.4031568054148, -13445.937746278973, 679.3589209746028, -23610.460592563224, -6474.920389046716, -31405.54206437374, -16096.385252044827, -10956.735725013701, -26787.15756978483, 4817.583241174608, -0.042, 0.9540000000000001, 0.128, 192.0, 127.0, 88.0, 14.5, 104.0, 2.0, 0.0, 0.0, 0.0, 0.0, 1.658334845661186E9, 0.0, 2022-07-20 12:34:05.661
68.0, -7420.153310317196, -16444.044285302673, -4279.912028302197, -7497.825622299389, -30640.64301736868, -1062.691338383119, -1311.6003646374184, -14101.335597197485, -677.7495953738207, -24933.63916082849, -7830.687800727821, -32737.080185065293, -17447.771721812693, -12304.322398224163, -28123.81423995665, 3687.501393258738, -0.042, 0.9540000000000001, 0.128, 192.0, 0.0, 0.0, 0.0, 0.0, 0.0, 0.0, 0.0, 0.0, 0.0, 1.6583348456611943E9, 0.0, 2022-07-20 12:34:05.661
70.0, -7538.617555930324, -16833.501080691945, -4466.705556715197, -8095.22069635638, -31428.407898951522, -973.5302297508991, 441.24578729221673, -13405.212867881402, 765.3237301497138, -23480.753419489076, -6439.314060129412, -31387.370096131577, -16030.514661135037, -10915.429701260293, -26684.786580179523, 4735.529987279176, -0.042, 0.9540000000000001, 0.128, 192.0, 0.0, 0.0, 0.0, 0.0, 0.0, 0.0, 0.0, 0.0, 0.0, 1.6583348456612015E9, 0.0, 2022-07-20 12:34:05.661
72.0, -7584.818611719444, -16613.783432696277, -4447.840684394919, -7661.350984734415, -30841.205220366148, -1199.819290616428, -1263.7676315030612, -14140.384094760908, -734.6794885014879, -25018.061699636186, -7846.512835802178, -32711.95682429753, -17503.718138184326, -12335.257212550308, -28233.404843021017, 3772.594484400092, -0.042, 0.9540000000000001, 0.128, 192.0, 0.0, 0.0, 0.0, 0.0, 0.0, 0.0, 0.0, 0.0, 0.0, 1.6583348456612084E9, 0.0, 2022-07-20 12:34:05.661
74.0, -7346.8619402482445, -16630.547241037755, -4280.359063191302, -7881.9627025082955, -31215.060498125615, -797.800814843275, 381.3431121519938, -13289.386128114002, 814.9669545849508, -23382.651613074737, -6423.377266332778, -31391.460465366898, -15985.0735646574, -10877.118811263897, -26591.758619756536, 4677.750727862207, -0.042, 0.9540000000000001, 0.128, 192.0, 0.0, 0.0, 0.0, 0.0, 0.0, 0.0, 0.0, 0.0, 0.0, 1.6583348456612148E9, 0.0, 2022-07-20 12:34:05.661
76.0, -7780.01639604764, -16816.178478739082, -4631.952003473282, -7873.781964037653, -31063.91800211883, -1367.5020775201415, -1176.394662427266, -14195.615255309971, -757.6794335459988, -25070.16361596151, -7829.681972227332, -32675.54583257983, -17519.52082151423, -12318.895735609023, -28295.140361206577, 3881.045148497242, -0.044, 0.9520000000000001, 0.13, 192.0, 127.0, 80.0, 14.5, 96.0, 2.0, 8.0, 0.0, 0.0, 0.0, 1.6583348456612213E9, 0.0, 2022-07-20 12:34:05.661
78.0, -7156.425077489028, -16419.055035001642, -4092.1573748776173, -7656.165380020783, -30987.117408170394, -654.4814293958461, 253.93816875674355, -13288.693224035887, 809.960163826962, -23360.501034319524, -6467.6784238431965, -31456.03465509828, -15998.149335163753, -10892.876791104889, -26570.07742763489, 4554.525560680099, -0.044, 0.9520000000000001, 0.13, 192.0, 0.0, 0.0, 0.0, 0.0, 0.0, 0.0, 0.0, 0.0, 0.0, 1.6583348456612277E9, 0.0, 2022-07-20 12:34:05.661
80.0, -7930.197767042848, -16990.54443723493, -4781.015787245726, -8056.909806359984, -31278.51710063423, -1490.2355063242326, -1029.655460078175, -14225.544241135627, -711.031342867773, -25060.328848401172, -7750.579148600001, -32569.93384002851, -17474.526759925695, -12274.549874609695, -28279.78471276578, 4011.802853560788, -0.044, 0.9520000000000001, 0.13, 192.0, 0.0, 0.0, 0.0, 0.0, 0.0, 0.0, 0.0, 0.0, 0.0, 1.658334845661234E9, 0.0, 2022-07-20 12:34:05.661
82.0, -6994.687854610426, -16233.759073467145, -3923.0887798176745, -7448.361211819793, -30770.305486953916, -529.2446052127606, 89.38462607677295, -13258.563072510133, 759.4675731024233, -23387.837217788365, -6542.735581724118, -31548.749691098892, -16065.808065629968, -10975.51119035616, -26585.50013130905, 4429.825178363941, -0.044, 0.9520000000000001, 0.13, 192.0, 0.0, 0.0, 0.0, 0.0, 0.0, 0.0, 0.0, 0.0, 0.0, 1.6583348456612403E9, 0.0, 2022-07-20 12:34:05.661
84.0, -8075.93114089145, -17167.324384131956, -4922.54703313673, -8259.036631469326, -31485.181329868, -1591.086577306578, -839.1738938300483, -14224.091377746032, -619.8585772345755, -24989.272652777752, -7635.288850699527, -32448.161536235995, -17376.648470955904, -12184.628806665994, -28206.02395606327, 4173.2048002725605, -0.044, 0.9520000000000001, 0.13, 192.0, 0.0, 0.0, 0.0, 0.0, 0.0, 0.0, 0.0, 0.0, 0.0, 1.6583348456612468E9, 0.0, 2022-07-20 12:34:05.661
86.0, -6902.531612221195, -16111.182106874241, -3829.4126188054825, -7312.552012509348, -30584.20486261903, -461.3847090464484, -110.86465249832303, -13320.790329073709, 621.7584755132766, -23500.89234124331, -6701.455319101253, -31723.741498439493, -16191.246055513151, -11119.076444992595, -26684.6971732017, 4263.483496127546, -0.056, 0.9460000000000001, 0.13, 192.0, 127.0, 32.0, 14.5, 72.0, 2.0, 8.0, 0.0, 0.0, 0.0, 1.6583348456612532E9, 0.0, 2022-07-20 12:34:05.661
88.0, -8181.878409609606, -17307.022786977624, -5039.647822338084, -8430.832139352815, -31661.156613964635, -1661.7851450187143, -614.9188417099526, -14180.058441169078, -510.35738114802615, -24892.757820219736, -7515.662314374723, -32319.95193004035, -17260.441751532766, -12039.789502595604, -28093.147646563968, 4314.914860119207, -0.056, 0.9460000000000001, 0.13, 192.0, 0.0, 0.0, 0.0, 0.0, 0.0, 0.0, 0.0, 0.0, 0.0, 1.6583348456612597E9, 0.0, 2022-07-20 12:34:05.661
90.0, -6823.093512427034, -15999.401032853251, -3750.332146922606, -7180.252037078386, -30422.087660084686, -413.77549335664435, -338.74068722017853, -13371.841713409629, 472.7617469741997, -23640.881316766896, -6863.21489372431, -31888.093875419367, -16337.8064439066, -11270.956548566408, -26817.824163177513, 4119.2029856685385, -0.056, 0.9460000000000001, 0.13, 192.0, 0.0, 0.0, 0.0, 0.0, 0.0, 0.0, 0.0, 0.0, 0.0, 1.6583348456612659E9, 0.0, 2022-07-20 12:34:05.661
92.0, -8242.563395805764, -17397.256779343697, -5113.162709851588, -8561.522789182996, -31806.9570430466, -1697.3020669581972, -396.0952634924965, -14117.026521805112, -344.5074372896478, -24728.696015917783, -7348.6277280602135, -32154.772538515634, -17091.283749495, -11870.765611024573, -27939.01001680017, 4450.2099693071805, -0.056, 0.9460000000000001, 0.13, 192.0, 0.0, 0.0, 0.0, 0.0, 0.0, 0.0, 0.0, 0.0, 0.0, 1.6583348456612723E9, 0.0, 2022-07-20 12:34:05.661
94.0, -6777.518305482663, -15913.704444611603, -3699.9066114314332, -7075.623521283093, -30292.872225388557, -397.61518211545734, -562.4145939844364, -13425.03886521326, 295.0206750655979, -23808.698214137345, -7042.498236000328, -32059.39764492484, -16518.22972514984, -11426.815262653263, -27003.7236218123, 3963.299568092772, -0.056, 0.9460000000000001, 0.13, 192.0, 0.0, 0.0, 0.0, 0.0, 0.0, 0.0, 0.0, 0.0, 0.0, 1.6583348456612785E9, 0.0, 2022-07-20 12:34:05.661
96.0, -8228.928831688027, -17423.74359652324, -5103.238535313432, -8611.523641529518, -31883.757636995037, -1650.5422175576948, -152.95298730766623, -13981.217322494665, -128.05314398445415, -24519.215466882644, -7144.3551354831625, -31953.31626573995, -16882.160828371147, -11680.395803498723, -27729.82004044295, 4600.838375191495, -0.055, 0.9470000000000001, 0.128, 192.0, 127.0, 40.0, 14.5, 80.0, 1.5, 120.0, 0.0, 0.0, 0.0, 1.6583348456612844E9, 0.0, 2022-07-20 12:34:05.661
98.0, -6781.854543906992, -15886.412964631674, -3691.770576449702, -7019.274773511264, -30230.64496882498, -440.4858279807363, -768.2294569289037, -13533.400122332589, 118.46424561312743, -24011.026204946782, -7209.242249636919, -32218.027975324152, -16705.93967508551, -11611.597134065287, -27206.208074832928, 3849.730354515357, -0.055, 0.9470000000000001, 0.128, 192.0, 0.0, 0.0, 0.0, 0.0, 0.0, 0.0, 0.0, 0.0, 0.0, 1.658334845661291E9, 0.0, 2022-07-20 12:34:05.661
100.0, -8172.088345538181, -17401.816535212583, -5067.073412784745, -8612.104786885357, -31926.74004158259, -1599.7367024107818, 61.04261410744359, -13877.169952055212, 86.07656789738749, -24282.93517624559, -6946.810417987159, -31769.786092017424, -16691.656910378566, -11477.687833033542, -27516.20441868358, 4724.242356329245, -0.055, 0.9470000000000001, 0.128, 192.0, 0.0, 0.0, 0.0, 0.0, 0.0, 0.0, 0.0, 0.0, 0.0, 1.658334845661299E9, 0.0, 2022-07-20 12:34:05.661
102.0, -6854.989451764757, -15934.245697766031, -3765.8889610634997, -7037.424390008973, -30251.54384989069, -547.2377594992828, -985.8013374568627, -13662.503798306441, -89.29521909895172, -24226.139393584657, -7380.389556931205, -32369.349285286582, -16910.81576476285, -11811.757005662563, -27441.460185225034, 3758.535237137704, -0.055, 0.9470000000000001, 0.128, 192.0, 0.0, 0.0, 0.0, 0.0, 0.0, 0.0, 0.0, 0.0, 0.0, 1.6583348456613052E9, 0.0, 2022-07-20 12:34:05.661
104.0, -8074.858257157595, -17337.264697225655, -4979.566333242218, -8563.757963628526, -31897.638070301782, -1499.9808669067463, 234.76037201409008, -13750.614374949262, 269.2714654530842, -24085.457513982954, -6784.603808474995, -31629.26067462691, -16510.563076801667, -11300.885534392064, -27319.97845411044, 4783.943865769371, -0.055, 0.9470000000000001, 0.128, 192.0, 0.0, 0.0, 0.0, 0.0, 0.0, 0.0, 0.0, 0.0, 0.0, 1.6583348461416073E9, 0.0, 2022-07-20 12:34:06.141
106.0, -6965.071793207145, -16022.423329642217, -3850.356203360105, -7088.989864467367, -30280.399951982494, -669.3453394586253, -1136.787371252462, -13804.705596531106, -277.921590557288, -24441.16317524471, -7532.403770971749, -32496.95539438193, -17079.79495284497, -11978.948054188259, -27647.52091735851, 3702.3653033215173, -0.0545, 0.9465000000000001, 0.125, 192.0, 127.0, 40.0, 14.5, 72.0, 1.5, 104.0, 0.0, 0.0, 0.0, 1.6583348461417089E9, 0.0, 2022-07-20 12:34:06.141
108.0, -7960.394973801968, -17242.895632135347, -4860.699756228895, -8481.123564377256, -31815.1601332617, -1395.3970546003645, 367.66384454534585, -13674.3278711233, 458.3672235449819, -23871.61837477903, -6628.588632176952, -31498.212396885443, -16317.108728540985, -11142.903404581954, -27079.764256449256, 4823.081770310613, -0.0545, 0.9465000000000001, 0.125, 192.0, 0.0, 0.0, 0.0, 0.0, 0.0, 0.0, 0.0, 0.0, 0.0, 1.6583348461417563E9, 0.0, 2022-07-20 12:34:06.141
110.0, -7115.2978676912635, -16151.839930038444, -3985.226629403428, -7205.911839713078, -30372.131511227075, -784.7920995702863, -1240.6559277362737, -13899.298179065965, -458.07665086706294, -24656.25401213813, -7679.142973320839, -32618.571235963256, -17252.149254339845, -12144.574480602085, -27842.60694296443, 3664.1885237918527, -0.0545, 0.9465000000000001, 0.125, 192.0, 0.0, 0.0, 0.0, 0.0, 0.0, 0.0, 0.0, 0.0, 0.0, 1.6583348461417615E9, 0.0, 2022-07-20 12:34:06.141
112.0, -7785.850201350475, -17085.3828889588, -4710.07135034458, -8338.005344629926, -31670.87962280269, -1196.8912120927826, 466.1456306154288, -13514.24467733439, 631.6379465625223, -23671.6373171374, -6504.648209172275, -31399.574148604173, -16158.612508608403, -10982.037899737108, -26857.677323541324, 4856.654090482484, -0.0545, 0.9465000000000001, 0.125, 192.0, 0.0, 0.0, 0.0, 0.0, 0.0, 0.0, 0.0, 0.0, 0.0, 1.6583348461417663E9, 0.0, 2022-07-20 12:34:06.141
114.0, -7286.087547074265, -16314.314760484072, -4168.82385835932, -7367.380841658216, -30527.23026600245, -952.921921363106, -1290.3662074048768, -14034.570936509483, -598.0432746461958, -24824.76381358669, -7777.803573346565, -32680.686733804556, -17388.33843330603, -12237.937717191902, -28016.838790993548, 3694.072806128598, -0.0545, 0.9465000000000001, 0.125, 192.0, 0.0, 0.0, 0.0, 0.0, 0.0, 0.0, 0.0, 0.0, 0.0, 1.6583348461417716E9, 0.0, 2022-07-20 12:34:06.141
116.0, -7620.0449609810075, -16918.3930061332, -4560.784049127585, -8182.593665432176, -31524.609807087163, -1058.1315825142362, 477.6120755210013, -13410.957266206417, 726.6999157309432, -23528.474393901157, -6451.026374223992, -31368.818148233673, -16072.535940711015, -10918.670704206314, -26732.23933365814, 4811.347104471577, -0.05525, 0.9472500000000001, 0.1235, 192.0, 127.0, 32.0, 14.5, 80.0, 1.5, 104.0, 0.0, 0.0, 0.0, 1.6583348461417775E9, 0.0, 2022-07-20 12:34:06.141
118.0, -7452.272767099473, -16483.606872988566, -4330.717543449109, -7538.34933499686, -30709.30757633538, -1111.6640104846967, -1268.4391460942204, -14085.555265612038, -695.7651014047982, -24945.686751089903, -7826.0833413700275, -32696.981155512472, -17479.958233828336, -12299.561476655183, -28161.320467152655, 3748.2310829438075, -0.05525, 0.9472500000000001, 0.1235, 192.0, 0.0, 0.0, 0.0, 0.0, 0.0, 0.0, 0.0, 0.0, 0.0, 1.6583348461417828E9, 0.0, 2022-07-20 12:34:06.141
120.0, -7420.577993461847, -16720.06597758126, -4370.637759046288, -7987.351177615068, -31330.574313470643, -896.7743392913746, 439.2788337801497, -13338.291744982213, 804.6851521355096, -23405.360985441326, -6408.021617891982, -31349.483889279833, -15998.283445630486, -10862.76899132359, -26619.675948581214, 4738.79334196965, -0.05525, 0.9472500000000001, 0.1235, 192.0, 0.0, 0.0, 0.0, 0.0, 0.0, 0.0, 0.0, 0.0, 0.0, 1.6583348461417878E9, 0.0, 2022-07-20 12:34:06.141
122.0, -7636.965231533674, -16679.318747439236, -4504.055321700015, -7742.890148507375, -30929.002872586596, -1280.911419500282, -1220.6064129598633, -14169.463714297262, -737.8757879585968, -25032.277409109764, -7830.576042005545, -32674.294134890337, -17519.207897091856, -12321.86851762158, -28258.39409332205, 3820.360162301083, -0.05525, 0.9472500000000001, 0.1235, 192.0, 0.0, 0.0, 0.0, 0.0, 0.0, 0.0, 0.0, 0.0, 0.0, 1.6583348461417928E9, 0.0, 2022-07-20 12:34:06.141
