%OpenBCI Raw EEG Data
%Number of channels = 16
%Sample Rate = 125 Hz
%Board = OpenBCI_GUI$BoardCytonSerialDaisy
Sample Index, EXG Channel 0, EXG Channel 1, EXG Channel 2, EXG Channel 3, EXG Channel 4, EXG Channel 5, EXG Channel 6, EXG Channel 7, EXG Channel 8, EXG Channel 9, EXG Channel 10, EXG Channel 11, EXG Channel 12, EXG Channel 13, EXG Channel 14, EXG Channel 15, Accel Channel 0, Accel Channel 1, Accel Channel 2, Other, Other, Other, Other, Other, Other, Other, Analog Channel 0, Analog Channel 1, Analog Channel 2, Timestamp, Other, Timestamp (Formatted)
0.0, -24040.41874890551, -1966.4394219445494, -44677.6949975127, -44702.66189606928, -33510.74111589684, -36356.34170250198, -32851.87874458775, -15491.479991850852, 0.0, 0.0, 0.0, 0.0, 0.0, 0.0, 0.0, 0.0, 0.0, 0.0, 0.0, 192.0, 0.0, 0.0, 0.0, 0.0, 0.0, 0.0, 0.0, 0.0, 0.0, 1.6689764075226214E9, 0.0, 2022-11-20 15:33:27.522
214.0, -24140.465157087467, -2056.114620699241, -44776.55676323852, -44807.67039152031, -33604.46198039794, -36450.800174570104, -32946.13605095578, -15584.575007507206, -33631.12761153312, -9327.405312944093, -37605.33483092008, -41407.523024979004, -34660.04546404427, -20584.74964913722, -32238.39041452294, -43209.81123564378, 0.0, 0.0, 0.0, 192.0, 0.0, 0.0, 0.0, 0.0, 0.0, 0.0, 0.0, 0.0, 0.0, 1.6689764075226283E9, 0.0, 2022-11-20 15:33:27.522
216.0, -24059.70830437044, -2004.4373875185715, -44691.441320352715, -44721.794989323025, -33515.54674095473, -36361.66141768234, -32857.42197721267, -15497.02322447577, -33620.21996023893, -9329.193452500516, -37585.240612654765, -41397.6212021853, -34634.60917885413, -20562.844939571016, -32226.387527750438, -43201.71990415095, 0.004, 0.962, -0.084, 192.0, 0.0, 16.0, 15.0, 8.0, 126.5, 48.0, 0.0, 0.0, 0.0, 1.6689764075226336E9, 0.0, 2022-11-20 15:33:27.522
218.0, -24161.49814861991, -2060.0708794678308, -44806.48574906418, -44837.3311564125, -33628.19953300947, -36471.162613768895, -32969.20305123366, -15607.507897318352, -33629.205361509965, -9329.03699028933, -37610.81100831163, -41411.47928374759, -34656.603295398156, -20585.666070659885, -32242.749004691723, -43217.611994458675, 0.004, 0.962, -0.084, 192.0, 0.0, 0.0, 0.0, 0.0, 0.0, 0.0, 0.0, 0.0, 0.0, 1.668976407522639E9, 0.0, 2022-11-20 15:33:27.522
220.0, -24083.356450004158, -2035.8639402227332, -44723.33725969044, -44744.10203028942, -33540.20071508893, -36379.654571968866, -32883.4617595031, -15514.88226829556, -33647.82436464124, -9356.641394691635, -37620.51166540523, -41425.560882754435, -34671.400150227564, -20596.238445787247, -32267.7159032483, -43228.40788703059, 0.004, 0.962, -0.084, 192.0, 0.0, 0.0, 0.0, 0.0, 0.0, 0.0, 0.0, 0.0, 0.0, 1.6689764075226457E9, 0.0, 2022-11-20 15:33:27.522
222.0, -24171.243509202424, -2057.187504433096, -44823.718944039225, -44851.36805193044, -33643.398719239085, -36484.79717788663, -32985.63158340831, -15616.180374167012, -33636.17910578002, -9344.7055631525, -37622.12099100602, -41418.833007673384, -34670.215507771434, -20594.740878908742, -32258.35052232153, -43213.96866011246, 0.004, 0.962, -0.084, 192.0, 0.0, 0.0, 0.0, 0.0, 0.0, 0.0, 0.0, 0.0, 0.0, 1.6689764075226507E9, 0.0, 2022-11-20 15:33:27.522
224.0, -24101.81899092424, -2067.7151760715456, -44739.117591275884, -44750.561684437, -33556.78570947477, -36391.23277559671, -32897.386896298754, -15525.924030056482, -33679.742655723414, -9389.051424151829, -37652.83228788761, -41453.50056332357, -34703.58666224321, -20621.98765539976, -32300.125932708495, -43249.016195418386, 0.004, 0.962, -0.084, 192.0, 0.0, 0.0, 0.0, 0.0, 0.0, 0.0, 0.0, 0.0, 0.0, 1.6689764075226562E9, 0.0, 2022-11-20 15:33:27.522
226.0, -24139.43697684252, -2020.8882714376775, -44795.24282160316, -44817.974545714205, -33622.70100387347, -36456.54457289512, -32960.06118775144, -15591.615807010628, -33628.713623131945, -9326.019504787864, -37607.99468851026, -41401.35394350933, -34661.766548367326, -20572.187968753336, -32252.42731004087, -43195.88609884812, 0.004, 0.962, -0.084, 192.0, 0.0, 0.0, 15.0, 0.0, 126.5, 48.0, 0.0, 0.0, 0.0, 1.6689764075226617E9, 0.0, 2022-11-20 15:33:27.522
228.0, -24069.677182397507, -2050.9513677300656, -44702.93011700274, -44716.251756698104, -33529.24836030583, -36361.683769426796, -32870.31893376338, -15498.431384376454, -33651.221829798444, -9358.250720292417, -37622.54567415067, -41424.018612387015, -34681.257269532354, -20588.325928250066, -32276.924821963887, -43223.31168929478, 0.004, 0.962, -0.084, 192.0, 0.0, 0.0, 0.0, 0.0, 0.0, 0.0, 0.0, 0.0, 0.0, 1.6689764075226667E9, 0.0, 2022-11-20 15:33:27.522
230.0, -24125.623598769143, -1997.3295327817839, -44779.99893188464, -44810.93374621079, -33611.70394560146, -36450.17432572536, -32948.10300446785, -15580.529341760797, -33597.93527101699, -9302.55017310979, -37576.277563128184, -41372.83311758436, -34634.11744047611, -20538.77211079265, -32218.832638124546, -43170.695682846985, 0.004, 0.962, -0.084, 192.0, 0.0, 0.0, 0.0, 0.0, 0.0, 0.0, 0.0, 0.0, 0.0, 1.668976407522672E9, 0.0, 2022-11-20 15:33:27.522
232.0, -24084.317575015735, -2065.7482225594786, -44714.28480318604, -44730.62392838287, -33545.07339538019, -36383.81199643755, -32885.093436848336, -15513.183535716957, -33661.39187352561, -9364.308043039804, -37633.07334578912, -41431.43939154618, -34692.07551384873, -20597.914826621392, -32279.04823768714, -43234.44285803352, 0.004, 0.962, -0.084, 192.0, 0.0, 0.0, 0.0, 0.0, 0.0, 0.0, 0.0, 0.0, 0.0, 1.6689764075226772E9, 0.0, 2022-11-20 15:33:27.522
234.0, -24114.62654049713, -1979.4928407064488, -44771.30410329153, -44802.28362110658, -33608.731163588905, -36449.414366413876, -32945.10787071084, -15576.193103336467, -33606.98772752139, -9304.025388243841, -37578.15510966243, -41371.82728908388, -34641.85114405765, -20548.36100916398, -32228.846219640523, -43181.08924401871, 0.004, 0.962, -0.084, 192.0, 0.0, 0.0, 0.0, 0.0, 0.0, 0.0, 0.0, 0.0, 0.0, 1.6689764075226827E9, 0.0, 2022-11-20 15:33:27.522
236.0, -24075.5333394448, -2058.059222466853, -44710.70852407319, -44719.93979453323, -33545.58748550266, -36377.46410101224, -32884.13231183676, -15509.249628692822, -33659.08964384671, -9360.284729037849, -37626.99367129728, -41422.18576934168, -34696.523510995336, -20598.808896399605, -32288.190101169363, -43234.01817488887, 0.01, 0.962, -0.09, 192.0, 0.0, 40.0, 15.0, 8.0, 126.5, 24.0, 0.0, 0.0, 0.0, 1.668976407522688E9, 0.0, 2022-11-20 15:33:27.522
238.0, -24102.891874658093, -1974.9777883264767, -44766.43142300027, -44791.64419074586, -33607.34535543268, -36444.04994774461, -32944.169097443715, -15576.684841714483, -33585.28418365528, -9289.40734737007, -37556.1162896295, -41349.989634751044, -34628.93183576249, -20529.786709521617, -32218.56441719108, -43164.79482231079, 0.01, 0.962, -0.09, 192.0, 0.0, 0.0, 0.0, 0.0, 0.0, 0.0, 0.0, 0.0, 0.0, 1.6689764075226932E9, 0.0, 2022-11-20 15:33:27.522
240.0, -24112.30195907378, -2096.5265746744367, -44745.487838445646, -44751.85808561541, -33582.579622576195, -36417.42902009833, -32924.387803600766, -15550.063914068212, -33687.07402790475, -9389.409052063114, -37651.87116287603, -41447.91262720974, -34728.3970985886, -20627.620295002496, -32311.30180493615, -43258.962721701, 0.01, 0.962, -0.09, 192.0, 0.0, 0.0, 0.0, 0.0, 0.0, 0.0, 0.0, 0.0, 0.0, 1.6689764075226984E9, 0.0, 2022-11-20 15:33:27.522
242.0, -24092.85594139766, -1963.5113434209043, -44745.33137623446, -44774.03101611508, -33588.50283485685, -36430.79536328261, -32926.958254213125, -15559.742219417361, -33591.76618954733, -9292.849516016187, -37552.115327372, -41350.03433823995, -34625.266149671814, -20531.328979889033, -32209.690774642324, -43162.96197926545, 0.01, 0.962, -0.09, 192.0, 0.0, 0.0, 0.0, 0.0, 0.0, 0.0, 0.0, 0.0, 0.0, 1.668976407522704E9, 0.0, 2022-11-20 15:33:27.522
244.0, -24133.580819795232, -2102.002752065987, -44750.04759431453, -44754.920274605785, -33586.155901689046, -36418.63601429892, -32925.66185303472, -15551.2709082688, -33702.78730425684, -9397.7686044894, -37668.65732296197, -41461.23426690511, -34731.07930792324, -20641.09839690905, -32306.898511278454, -43264.21538164799, 0.01, 0.962, -0.09, 192.0, 0.0, 0.0, 0.0, 0.0, 0.0, 0.0, 0.0, 0.0, 0.0, 1.6689764075227127E9, 0.0, 2022-11-20 15:33:27.522
246.0, -24080.09309531368, -1954.190665983041, -44721.571471878466, -44744.68317564526, -33565.525241556796, -36398.653554755874, -32901.454913789625, -15531.690780125951, -33594.962489004436, -9293.877696261132, -37557.479746041274, -41348.89439927273, -34620.25935891383, -20527.283314142624, -32195.40800993538, -43148.612159325145, 0.012, 0.97, -0.088, 192.0, 0.0, 48.0, 15.0, 40.0, 126.5, 32.0, 0.0, 0.0, 0.0, 1.668976407522718E9, 0.0, 2022-11-20 15:33:27.522
248.0, -24120.885028944616, -2084.6577983686684, -44745.30902449, -44751.6122164264, -33582.020828964814, -36408.62243278294, -32920.47624832109, -15545.437102965965, -33680.70378073499, -9364.531560484358, -37648.853677374565, -41438.703708494155, -34713.354374570175, -20616.779698941675, -32280.366990610004, -43236.8568464347, 0.012, 0.97, -0.088, 192.0, 0.0, 0.0, 0.0, 0.0, 0.0, 0.0, 0.0, 0.0, 0.0, 1.6689764075227237E9, 0.0, 2022-11-20 15:33:27.522
250.0, -24072.404095221056, -1964.0924887767421, -44721.68323060074, -44748.415916969294, -33560.339636843164, -36394.27261284264, -32898.996221899535, -15528.181556246467, -33580.0762271972, -9274.342271607193, -37545.90154241342, -41343.507628859, -34609.061134941716, -20512.888790713405, -32187.763713331668, -43142.26426389984, 0.012, 0.97, -0.088, 192.0, 0.0, 0.0, 0.0, 0.0, 0.0, 0.0, 0.0, 0.0, 0.0, 1.6689764075227287E9, 0.0, 2022-11-20 15:33:27.522
252.0, -24144.041436200314, -2105.355513734283, -44774.25453355963, -44793.365275068914, -33611.435724667994, -36443.91583727787, -32950.76286205803, -15575.70136495845, -33693.37721984115, -9387.978540417975, -37664.61165721556, -41465.36933962934, -34726.54190379881, -20639.46671956381, -32301.69055482037, -43260.125012412675, 0.012, 0.97, -0.088, 192.0, 0.0, 0.0, 0.0, 0.0, 0.0, 0.0, 0.0, 0.0, 0.0, 1.668976407522734E9, 0.0, 2022-11-20 15:33:27.522
254.0, -24057.987220047384, -1961.7902590978456, -44704.42768388125, -44738.648204642326, -33547.26386633681, -36384.884880171405, -32885.160492081704, -15513.250590950322, -33582.8254917652, -9293.073033460741, -37545.8121354356, -41354.77290806448, -34610.15637042002, -20530.09963394399, -32199.788951848623, -43156.41291814005, 0.012, 0.97, -0.088, 192.0, 0.0, 0.0, 0.0, 0.0, 0.0, 0.0, 0.0, 0.0, 0.0, 1.6689764075227394E9, 0.0, 2022-11-20 15:33:27.522
0.0, -24132.798508739295, -2070.062109239353, -44754.3167775055, -44779.37308303989, -33594.49310237087, -36430.951825493794, -32932.56854207141, -15559.69751592845, -33673.48416727593, -9368.465467508491, -37643.55631393866, -41443.06229866294, -34708.325232067735, -20625.69804497934, -32279.763493509712, -43241.46130579249, 0.012, 0.96, -0.088, 192.0, 0.0, 48.0, 15.0, 0.0, 126.5, 32.0, 0.0, 0.0, 0.0, 1.668976407522745E9, 0.0, 2022-11-20 15:33:27.522
2.0, -24042.65392335104, -1954.5706456387813, -44668.731947986125, -44702.17015769126, -33517.49134272234, -36354.687673412285, -32855.90205858971, -15483.768640013772, -33581.61849756462, -9282.433603100015, -37539.33012954356, -41345.89926551572, -34600.254547626326, -20523.77409026314, -32180.56645161706, -43145.54997033477, 0.012, 0.96, -0.088, 192.0, 0.0, 0.0, 0.0, 0.0, 0.0, 0.0, 0.0, 0.0, 0.0, 1.66897640752275E9, 0.0, 2022-11-20 15:33:27.522
4.0, -24139.951066964994, -2065.4129463926492, -44759.23416128566, -44788.60435349993, -33610.049916511765, -36445.63692160093, -32948.66179807923, -15575.053164369247, -33646.63972218511, -9340.145807283618, -37615.571929880614, -41412.46276050362, -34673.68002816201, -20599.07711733307, -32245.47591751527, -43213.566328712266, 0.012, 0.96, -0.088, 192.0, 0.0, 0.0, 0.0, 0.0, 0.0, 0.0, 0.0, 0.0, 0.0, 1.6689764075227556E9, 0.0, 2022-11-20 15:33:27.522
6.0, -24047.593658875663, -1976.9000383496332, -44672.710558499166, -44706.99813449361, -33530.25418880632, -36368.38929276339, -32870.69891341912, -15497.872590765071, -33598.6281750951, -9303.801870799289, -37554.99870240673, -41361.50078314552, -34621.13107694758, -20545.142357962413, -32203.23112049474, -43170.58392412471, 0.012, 0.96, -0.088, 192.0, 0.0, 0.0, 0.0, 0.0, 0.0, 0.0, 0.0, 0.0, 0.0, 1.6689764075227609E9, 0.0, 2022-11-20 15:33:27.522
8.0, -24142.16388966607, -2053.2759491534175, -44769.20303931273, -44800.00374317214, -33623.90799807406, -36464.07711077656, -32963.36924593082, -15591.861676199636, -33652.71939667695, -9346.337240497738, -37620.93634854988, -41418.00599312854, -34689.57211846973, -20611.057652361116, -32256.070644387084, -43225.9044916516, 0.012, 0.96, -0.088, 192.0, 0.0, 0.0, 0.0, 0.0, 0.0, 0.0, 0.0, 0.0, 0.0, 1.668976407522766E9, 0.0, 2022-11-20 15:33:27.522
10.0, -24039.479975638387, -1984.611390186714, -44667.815526463455, -44690.43549185223, -33516.7090316664, -36353.41362397833, -32857.37727372376, -15482.986328957837, -33611.45807641245, -9309.568620868757, -37565.52637404518, -41366.08289075886, -34631.3234724192, -20551.467901643267, -32208.059097297086, -43175.12132824914, 0.006, 0.9580000000000001, -0.094, 192.0, 0.0, 24.0, 14.5, 120.0, 126.5, 8.0, 0.0, 0.0, 0.0, 1.6689764075227714E9, 0.0, 2022-11-20 15:33:27.522
12.0, -24134.385482595622, -2033.293489610373, -44772.734614936664, -44795.01930415861, -33622.11985851763, -36453.79530832712, -32959.547097628965, -15583.725641217905, -33630.85939059966, -9323.493757664413, -37602.093827974066, -41391.13919629326, -34668.695589148476, -20578.31234673409, -32233.67419644287, -43196.24372675941, 0.006, 0.9580000000000001, -0.094, 192.0, 0.0, 0.0, 0.0, 0.0, 0.0, 0.0, 0.0, 0.0, 0.0, 1.6689764075227768E9, 0.0, 2022-11-20 15:33:27.522
14.0, -24058.05427528075, -2015.7920737018674, -44687.32859937294, -44698.83974776742, -33529.53893298375, -36360.47677522621, -32873.53758496494, -15495.570361086175, -33623.483314929406, -9324.097254764707, -37586.44760685535, -41380.00802755452, -34655.3292459642, -20561.16855873687, -32229.025033596165, -43184.889040576105, 0.006, 0.9580000000000001, -0.094, 192.0, 0.0, 0.0, 0.0, 0.0, 0.0, 0.0, 0.0, 0.0, 0.0, 1.668976407522782E9, 0.0, 2022-11-20 15:33:27.522
16.0, -24144.130843178136, -2031.0136116759315, -44788.44789128875, -44809.30206886555, -33631.172315022035, -36466.22287824427, -32974.76863560303, -15600.601208281661, -33637.319044747244, -9331.22746124595, -37610.52043563371, -41395.83306262887, -34680.29614452078, -20585.688422404342, -32246.52644950467, -43199.55178493879, 0.006, 0.9580000000000001, -0.094, 192.0, 0.0, 0.0, 0.0, 0.0, 0.0, 0.0, 0.0, 0.0, 0.0, 1.668976407522787E9, 0.0, 2022-11-20 15:33:27.522
18.0, -24041.782205317286, -2011.3440765552614, -44665.82622120693, -44676.86798296785, -33509.13179029606, -36336.73922261468, -32853.845698099816, -15473.084506164136, -33637.92254184753, -9341.08458055074, -37597.64583082746, -41393.30731550542, -34670.59548742718, -20575.78659961064, -32246.168821593386, -43192.242764501905, 0.006, 0.9580000000000001, -0.094, 192.0, 0.0, 0.0, 0.0, 0.0, 0.0, 0.0, 0.0, 0.0, 0.0, 1.6689764075227923E9, 0.0, 2022-11-20 15:33:27.522
20.0, -24120.125069633137, -1990.6240094451916, -44760.28469327506, -44780.96005689622, -33611.100448501165, -36434.237531928724, -32948.080652723394, -15567.78884742127, -33596.30359367175, -9286.412213613059, -37563.47001355529, -41352.649492341225, -34632.46341138642, -20537.386302636423, -32203.946376317308, -43144.47708660091, 0.008, 0.9580000000000001, -0.08600000000000001, 192.0, 0.0, 32.0, 14.5, 120.0, 126.5, 40.0, 0.0, 0.0, 0.0, 1.6689764075227995E9, 0.0, 2022-11-20 15:33:27.522
22.0, -24068.33607773019, -2035.8415884782778, -44682.83589873742, -44690.30138138549, -33530.38829927305, -36352.38544373339, -32869.62602968526, -15487.076698193157, -33645.56683845125, -9347.343068998227, -37608.35231642155, -41401.57746095389, -34675.15524329606, -20580.70398339081, -32255.154222864418, -43192.26511624636, 0.008, 0.9580000000000001, -0.08600000000000001, 192.0, 0.0, 0.0, 0.0, 0.0, 0.0, 0.0, 0.0, 0.0, 0.0, 1.6689764075228047E9, 0.0, 2022-11-20 15:33:27.522
24.0, -24121.086194644715, -1983.0914715637532, -44760.28469327506, -44786.07860637648, -33614.20734098045, -36446.93332277934, -32949.71233006863, -15573.868521913115, -33600.79629430727, -9301.723158564944, -37574.19885089384, -41365.166469236196, -34640.08535624568, -20551.378494665445, -32216.150428789908, -43159.89979027508, 0.008, 0.9580000000000001, -0.08600000000000001, 192.0, 0.0, 0.0, 0.0, 0.0, 0.0, 0.0, 0.0, 0.0, 0.0, 1.66897640752281E9, 0.0, 2022-11-20 15:33:27.522
26.0, -24073.14170278808, -2046.6598327946465, -44683.28293362653, -44691.97776221964, -33532.802287674225, -36359.98503684819, -32870.94478260813, -15492.642282562529, -33656.42978625653, -9366.274996551872, -37620.69047936088, -41417.53660649498, -34690.220319058935, -20607.861352904005, -32269.884022460465, -43217.611994458675, 0.008, 0.9580000000000001, -0.08600000000000001, 192.0, 0.0, 0.0, 0.0, 0.0, 0.0, 0.0, 0.0, 0.0, 0.0, 1.6689764075228152E9, 0.0, 2022-11-20 15:33:27.522
28.0, -24101.39430777959, -1958.8845323186556, -44736.681251130256, -44764.91150437731, -33592.68261106999, -36421.76525852266, -32926.15359141274, -15554.154283303535, -33573.70598002744, -9272.487076817402, -37538.63722546545, -41328.42020135167, -34610.62575705359, -20523.30470362958, -32181.348762672995, -43128.96497594893, 0.008, 0.9580000000000001, -0.08600000000000001, 192.0, 0.0, 0.0, 0.0, 0.0, 0.0, 0.0, 0.0, 0.0, 0.0, 1.6689764075228207E9, 0.0, 2022-11-20 15:33:27.522
30.0, -24095.71696468794, -2071.5820278623137, -44704.78531179253, -44714.68713458623, -33553.79057571776, -36381.6885807143, -32894.34705905284, -15516.916277040993, -33670.28786781882, -9366.409107018604, -37631.12874402151, -41424.800923442956, -34705.12893261063, -20614.99155938525, -32277.550670808636, -43230.21837833147, 0.01, 0.96, -0.083, 192.0, 0.0, 48.0, 15.0, 8.0, 126.5, 64.0, 0.0, 0.0, 0.0, 1.668976407522826E9, 0.0, 2022-11-20 15:33:27.522
32.0, -24072.47115045442, -1932.5988808392146, -44714.5530241195, -44742.693870388735, -33566.084035168176, -36398.87707220043, -32905.05354464693, -15536.429349950475, -33569.74972125885, -9264.194579624484, -37532.244626551226, -41325.98386120604, -34603.115570916605, -20515.280427370122, -32179.60532660548, -43138.03978419778, 0.01, 0.96, -0.083, 192.0, 0.0, 0.0, 0.0, 0.0, 0.0, 0.0, 0.0, 0.0, 0.0, 1.6689764075228312E9, 0.0, 2022-11-20 15:33:27.522
34.0, -24097.57215947773, -2069.6150743502467, -44711.647297340314, -44717.659916598794, -33552.69534023945, -36381.2862493141, -32898.88446317726, -15522.615971877096, -33655.33455077822, -9345.353763741705, -37621.1822177389, -41412.64157445927, -34688.83451090271, -20599.4123934999, -32269.660505015912, -43223.356392783695, 0.01, 0.96, -0.083, 192.0, 0.0, 0.0, 0.0, 0.0, 0.0, 0.0, 0.0, 0.0, 0.0, 1.6689764075228364E9, 0.0, 2022-11-20 15:33:27.522
36.0, -24099.360299034157, -1957.588131140248, -44733.21673073968, -44759.457678730214, -33579.24921265235, -36415.28325263062, -32921.41502158821, -15552.097922813646, -33581.5737940757, -9278.566751309247, -37548.98608314825, -41338.00909972299, -34609.79874250874, -20525.226953652735, -32192.50228315619, -43149.26035991435, 0.01, 0.96, -0.083, 192.0, 0.0, 0.0, 0.0, 0.0, 0.0, 0.0, 0.0, 0.0, 0.0, 1.6689764075228417E9, 0.0, 2022-11-20 15:33:27.522
38.0, -24115.67707248653, -2068.452783638571, -44717.436399154234, -44728.925195804266, -33566.53107005728, -36394.049095398084, -32906.484056292065, -15533.210698748911, -33677.19455685551, -9361.826999405266, -37642.08109880461, -41425.20325484315, -34704.52543551033, -20620.020701887694, -32278.42238884239, -43236.11923886767, 0.01, 0.96, -0.083, 192.0, 0.0, 0.0, 0.0, 0.0, 0.0, 0.0, 0.0, 0.0, 0.0, 1.6689764075228472E9, 0.0, 2022-11-20 15:33:27.522
40.0, -24069.38660971959, -1935.325793662762, -44697.85627101139, -44728.344050448424, -33553.29883733974, -36381.91209815885, -32888.82617817237, -15520.559611387207, -33573.50481432734, -9263.993413924387, -37535.172705074874, -41322.452285582105, -34601.84152148265, -20522.522392573643, -32177.861890537966, -43137.81626675323, 0.007, 0.958, -0.07750000000000001, 192.0, 0.0, 16.0, 14.5, 112.0, 126.5, 96.0, 0.0, 0.0, 0.0, 1.6689764075228524E9, 0.0, 2022-11-20 15:33:27.522
42.0, -24138.788776253317, -2088.0776152703306, -44750.89696060383, -44764.93385612177, -33597.91291927254, -36422.30170038959, -32935.6754345507, -15561.619765951607, -33665.81751892776, -9357.691926681033, -37635.59909291257, -41422.4763420196, -34700.12214185264, -20620.31127456561, -32273.594412040045, -43230.08426786474, 0.007, 0.958, -0.07750000000000001, 192.0, 0.0, 0.0, 0.0, 0.0, 0.0, 0.0, 0.0, 0.0, 0.0, 1.6689764075228577E9, 0.0, 2022-11-20 15:33:27.522
44.0, -24066.05619979575, -1943.0147937553877, -44699.66676231227, -44729.03695452654, -33549.54374427125, -36380.79451093609, -32885.18284382616, -15519.911410798004, -33587.049971467255, -9280.310187376761, -37548.94137965934, -41341.47362011357, -34610.62575705359, -20535.419349124357, -32196.21267273577, -43155.340034406196, 0.007, 0.958, -0.07750000000000001, 192.0, 0.0, 0.0, 0.0, 0.0, 0.0, 0.0, 0.0, 0.0, 0.0, 1.6689764075228631E9, 0.0, 2022-11-20 15:33:27.522
46.0, -24133.29024711731, -2071.7831935624117, -44748.19239952474, -44763.6151031989, -33592.03441048079, -36420.4465055998, -32931.652120548744, -15559.809274650726, -33672.88067017563, -9361.782295916355, -37642.81870637163, -41427.81840894442, -34703.497255265385, -20624.915733923404, -32277.57302255309, -43241.595416259224, 0.007, 0.958, -0.07750000000000001, 192.0, 0.0, 0.0, 0.0, 0.0, 0.0, 0.0, 0.0, 0.0, 0.0, 1.6689764075228684E9, 0.0, 2022-11-20 15:33:27.522
48.0, -24057.070798524714, -1948.0215845133764, -44687.1497854173, -44713.882471785844, -33536.49032550935, -36367.562278218546, -32878.723189678574, -15508.489669381343, -33581.70790454244, -9273.492905317891, -37541.252379566715, -41331.7059077866, -34606.89301572955, -20525.875154241938, -32191.496454655702, -43151.830810526706, 0.007, 0.958, -0.07750000000000001, 192.0, 0.0, 0.0, 0.0, 0.0, 0.0, 0.0, 0.0, 0.0, 0.0, 1.6689764075228736E9, 0.0, 2022-11-20 15:33:27.522
50.0, -24129.06576741526, -2049.5655595738363, -44746.09133554594, -44762.743385165144, -33596.147131460566, -36418.97129046575, -32933.44026010517, -15561.84328339616, -33656.2956757898, -9338.670592149567, -37623.752668351255, -41406.696010434156, -34693.05899060476, -20605.536771480653, -32265.078397402576, -43226.32917479625, 0.0045000000000000005, 0.9570000000000001, -0.08075000000000002, 192.0, 0.0, 8.0, 14.5, 112.0, 126.5, 48.0, 0.0, 0.0, 0.0, 1.6689764075228794E9, 0.0, 2022-11-20 15:33:27.522
52.0, -24035.411958147524, -1933.068267472776, -44664.28395083952, -44680.466613825156, -33515.23381653235, -36335.55458015855, -32853.08573878834, -15479.275939378256, -33581.48438709789, -9268.307300604261, -37539.84421966603, -41325.84975073931, -34610.75986752032, -20517.53795356011, -32195.94445180231, -43150.62381632612, 0.0045000000000000005, 0.9570000000000001, -0.08075000000000002, 192.0, 0.0, 0.0, 0.0, 0.0, 0.0, 0.0, 0.0, 0.0, 0.0, 1.6689764075228865E9, 0.0, 2022-11-20 15:33:27.522
54.0, -24135.5477733073, -2039.417867591127, -44757.06604207349, -44767.14667882284, -33606.183064721, -36424.62628181294, -32942.09038520937, -15566.98418462088, -33634.41331796805, -9305.500603377892, -37601.69149657387, -41374.442443185144, -34673.165938039536, -20571.249195486213, -32244.179516336862, -43197.11544479316, 0.0045000000000000005, 0.9570000000000001, -0.08075000000000002, 192.0, 0.0, 0.0, 0.0, 0.0, 0.0, 0.0, 0.0, 0.0, 0.0, 1.6689764075228925E9, 0.0, 2022-11-20 15:33:27.522
56.0, -24056.132025257593, -1967.3781952116724, -44673.13524164382, -44685.60751504988, -33521.84993289113, -36344.91996108532, -32859.81361386939, -15487.054346448702, -33610.58635837869, -9291.55311483778, -37563.26884785519, -41346.30159691592, -34630.876437530096, -20537.16278519187, -32215.636338667435, -43167.45467990097, 0.0045000000000000005, 0.9570000000000001, -0.08075000000000002, 192.0, 0.0, 0.0, 0.0, 0.0, 0.0, 0.0, 0.0, 0.0, 0.0, 1.6689764075228975E9, 0.0, 2022-11-20 15:33:27.522
58.0, -24156.670171817565, -2046.481018839004, -44771.79584166954, -44785.408054042826, -33622.008099795356, -36444.92166577836, -32956.86488829433, -15585.491429029875, -33651.46769898745, -9322.778501841844, -37613.78379032419, -41389.8204433704, -34677.72569390842, -20590.13641955095, -32253.701359474824, -43210.280622277336, 0.0045000000000000005, 0.9570000000000001, -0.08075000000000002, 192.0, 0.0, 0.0, 0.0, 0.0, 0.0, 0.0, 0.0, 0.0, 0.0, 1.668976407522903E9, 0.0, 2022-11-20 15:33:27.522
60.0, -24076.986202834392, -2008.036018375876, -44685.38399760533, -44695.82226226595, -33536.53502899826, -36353.72654840071, -32869.04488432943, -15495.726823297362, -33640.04595757079, -9318.196394228506, -37592.48257785828, -41378.10812927582, -34653.6305133856, -20569.841035585527, -32238.8598011565, -43192.77920636883, 0.0032500000000000003, 0.9615, -0.081375, 192.0, 0.0, 8.0, 15.0, 24.0, 126.5, 56.0, 0.0, 0.0, 0.0, 1.6689764075229084E9, 0.0, 2022-11-20 15:33:27.522
62.0, -24159.330029407745, -2039.3061088688505, -44774.94743763774, -44790.54895526755, -33629.25006499887, -36447.64857860191, -32958.563620872934, -15588.553618020253, -33649.23252454192, -9317.436434917026, -37613.64967985746, -41393.73199865007, -34671.131929294104, -20588.12476254997, -32241.65376921341, -43197.29425874881, 0.0032500000000000003, 0.9615, -0.081375, 192.0, 0.0, 0.0, 0.0, 0.0, 0.0, 0.0, 0.0, 0.0, 0.0, 1.6689764075229137E9, 0.0, 2022-11-20 15:33:27.522
64.0, -24082.305918014757, -2025.157454628641, -44685.13812841632, -44693.16240467577, -33538.457279021415, -36351.73724314418, -32866.02739882796, -15495.615064575084, -33653.07702458823, -9334.04378104732, -37605.87127278701, -41396.30244926244, -34669.030865315304, -20585.375497981968, -32243.57601923657, -43201.608145428676, 0.0032500000000000003, 0.9615, -0.081375, 192.0, 0.0, 0.0, 0.0, 0.0, 0.0, 0.0, 0.0, 0.0, 0.0, 1.6689764075229475E9, 0.0, 2022-11-20 15:33:27.522
66.0, -24152.26687815987, -2016.5743847578033, -44769.873591646385, -44786.793862199054, -33629.004195809866, -36441.83712504353, -32949.48881262408, -15580.46228652743, -33631.0382045553, -9307.914591779065, -37593.19783368085, -41377.97401880909, -34658.88317333259, -20570.64569838592, -32217.24566426822, -43178.608200384166, 0.0032500000000000003, 0.9615, -0.081375, 192.0, 0.0, 0.0, 0.0, 0.0, 0.0, 0.0, 0.0, 0.0, 0.0, 1.6689764075229528E9, 0.0, 2022-11-20 15:33:27.522
68.0, -24082.887063370596, -2034.6792977666018, -44679.483137069124, -44685.629866794334, -33535.48449700886, -36348.049205309064, -32860.03713131394, -15488.238988904834, -33664.40935902707, -9343.073885807264, -37613.64967985746, -41404.95257436664, -34681.50313872137, -20595.523189964675, -32245.297103559627, -43204.13389255213, 0.0032500000000000003, 0.9615, -0.081375, 192.0, 0.0, 0.0, 0.0, 0.0, 0.0, 0.0, 0.0, 0.0, 0.0, 1.6689764075229585E9, 0.0, 2022-11-20 15:33:27.522
70.0, -24159.106511963193, -2013.0204573894093, -44778.277847561585, -44793.499385535644, -33640.04595757079, -36451.0013402702, -32960.35176042936, -15590.677033743506, -33631.82051561124, -9301.633751587124, -37590.64973481295, -41373.92835306268, -34656.96092330944, -20570.668050130374, -32208.66259439738, -43167.54408687879, 0.003625, 0.96875, -0.0836875, 192.0, 0.0, 16.0, 15.0, 64.0, 126.5, 40.0, 0.0, 0.0, 0.0, 1.6689764075229635E9, 0.0, 2022-11-20 15:33:27.522
72.0, -24087.692688428484, -2040.4907513249818, -44686.56864006146, -44685.09342492741, -33544.58165700217, -36355.62644667941, -32873.53758496494, -15502.007663489303, -33677.61924000016, -9351.61225218919, -37628.67005213142, -41415.39083902727, -34701.06091511976, -20608.107222093015, -32253.254324585716, -43209.45360773249, 0.003625, 0.96875, -0.0836875, 192.0, 0.0, 0.0, 0.0, 0.0, 0.0, 0.0, 0.0, 0.0, 0.0, 1.6689764075229692E9, 0.0, 2022-11-20 15:33:27.522
74.0, -24137.268857630355, -1980.6998349070354, -44761.62579794238, -44783.932838908775, -33623.10333527366, -36446.50863963469, -32955.25556269354, -15591.884027944092, -33613.35797469115, -9283.864114745154, -37568.186231635365, -41349.83317253985, -34641.359405679636, -20551.669067343362, -32194.290422712616, -43155.96588325094, 0.003625, 0.96875, -0.0836875, 192.0, 0.0, 0.0, 0.0, 0.0, 0.0, 0.0, 0.0, 0.0, 0.0, 1.6689764075229757E9, 0.0, 2022-11-20 15:33:27.522
76.0, -24110.558523006264, -2069.8385917948, -44703.62302108086, -44719.17983522175, -33559.93730544297, -36386.985944150205, -32899.018573643996, -15531.489614425853, -33691.0526384178, -9372.935816399553, -37644.07040406113, -41432.53462702449, -34713.846112948195, -20633.87878344998, -32278.91412722041, -43241.21543660348, 0.003625, 0.96875, -0.0836875, 192.0, 0.0, 0.0, 0.0, 0.0, 0.0, 0.0, 0.0, 0.0, 0.0, 1.6689764075229814E9, 0.0, 2022-11-20 15:33:27.522
0.0, -11754.961223001626, 5479.03841484051, -22243.517308654467, -22182.228825358015, -16593.53275221977, -18068.166740914196, -16327.144661801418, -7606.030417207529, -16847.269755276415, -4693.888687358938, -18833.602229786185, -20726.57146770614, -17362.790389393616, -10329.702237808971, -16149.425941637272, -21630.923048367866, 0.027812500000000004, 0.966375, -0.07684375, 192.0, 0.5, 80.0, 15.0, 16.0, 126.5, 104.0, 0.0, 0.0, 0.0, 1.668976407621128E9, 0.0, 2022-11-20 15:33:27.621
2.0, -23539.806728339998, 10638.424532225674, -44489.76153013248, -44349.32551971979, -33185.076199183015, -36132.46663003763, -32652.881163702154, -15205.265904100646, -33468.406911898484, -9072.37190870904, -37472.096082222, -40929.30745235771, -32944.28085616599, -20257.363648100334, -32002.534807030537, -43005.35982911108, 0.027812500000000004, 0.966375, -0.07684375, 192.0, 0.0, 0.0, 0.0, 0.0, 0.0, 0.0, 0.0, 0.0, 0.0, 1.668976408100908E9, 0.0, 2022-11-20 15:33:28.100
4.0, -23455.36183778785, 10795.42318527975, -44426.37198285723, -44295.16724290458, -33125.732317654176, -36076.78843459945, -32593.447875195492, -15146.838444094474, -33371.19917526236, -8976.68409069587, -37361.387891934864, -40824.053087717664, -32837.30540720289, -20150.4552543706, -31906.310547150442, -42901.64773483846, 0.027812500000000004, 0.966375, -0.07684375, 192.0, 0.0, 0.0, 0.0, 0.0, 0.0, 0.0, 0.0, 0.0, 0.0, 1.668976408100943E9, 0.0, 2022-11-20 15:33:28.100
6.0, -23540.432577184747, 10660.955090636622, -44499.01515233698, -44355.58400816727, -33195.201539421265, -36142.301397597956, -32660.212535883493, -15213.334883849013, -33459.55562109419, -9065.26405397225, -37463.08832920651, -40920.746734231325, -32939.22936191909, -20247.01479041753, -31996.633946494338, -42991.41234057097, 0.027812500000000004, 0.966375, -0.07684375, 192.0, 0.0, 0.0, 0.0, 0.0, 0.0, 0.0, 0.0, 0.0, 0.0, 1.668976408100999E9, 0.0, 2022-11-20 15:33:28.100
8.0, -23439.626209691312, 10751.524359169527, -44409.69758149357, -44271.988483904424, -33113.64002390385, -36060.47166114708, -32577.220508720937, -15133.226231721192, -33376.876518354, -8986.116526856009, -37368.31693271601, -40834.35724191156, -32844.14504100622, -20153.13746370524, -31913.753678054058, -42906.34160117407, 0.07200000000000001, 0.9580000000000001, -0.068, 192.0, 1.0, 32.0, 14.5, 120.0, 126.5, 112.0, 0.0, 0.0, 0.0, 1.668976408101005E9, 0.0, 2022-11-20 15:33:28.101
10.0, -23517.365576906872, 10716.722693052614, -44483.03365505143, -44337.3673364362, -33184.62916429391, -36129.33738581388, -32646.019178154373, -15202.740156977197, -33429.87250445753, -9033.010486723244, -37434.34398583698, -40894.21521356287, -32909.926224938186, -20219.47744124859, -31968.582507202926, -42967.339511792605, 0.07200000000000001, 0.9580000000000001, -0.068, 192.0, 0.0, 0.0, 0.0, 0.0, 0.0, 0.0, 0.0, 0.0, 0.0, 1.6689764081010108E9, 0.0, 2022-11-20 15:33:28.101
12.0, -23434.351197999862, 10706.59735281436, -44400.66747673362, -44254.5988267182, -33105.74985811113, -36044.17723943916, -32564.100034725674, -15120.217516448203, -33371.713265384824, -8973.331329027573, -37364.181859991775, -40825.99768948528, -32839.11589850377, -20147.437768869135, -31909.819771029925, -42903.860557539534, 0.07200000000000001, 0.9580000000000001, -0.068, 192.0, 0.0, 0.0, 0.0, 0.0, 0.0, 0.0, 0.0, 0.0, 0.0, 1.6689764081010165E9, 0.0, 2022-11-20 15:33:28.101
14.0, -23545.305257476004, 10724.299934422963, -44507.017076851975, -44360.92607509209, -33214.33463267501, -36145.4306418217, -32666.94041096454, -15222.63320954242, -33441.361301107565, -9030.55179483316, -37442.50237256317, -40895.42220776346, -32917.14583839725, -20220.259752304526, -31967.08494032442, -42960.388119267, 0.07200000000000001, 0.9580000000000001, -0.068, 192.0, 0.0, 0.0, 0.0, 0.0, 0.0, 0.0, 0.0, 0.0, 0.0, 1.6689764081010225E9, 0.0, 2022-11-20 15:33:28.101
16.0, -23440.989666103087, 10647.275823029975, -44402.79089245688, -44254.151791829085, -33109.013212801605, -36039.34926263682, -32561.820156791233, -15118.943467014251, -33401.77636167721, -9005.361378832029, -37393.35088650595, -40856.284303222215, -32869.98365759655, -20170.348306935826, -31926.717689838137, -42918.65741236894, 0.07200000000000001, 0.9580000000000001, -0.068, 192.0, 0.0, 0.0, 0.0, 0.0, 0.0, 0.0, 0.0, 0.0, 0.0, 1.668976408101028E9, 0.0, 2022-11-20 15:33:28.101
18.0, -23531.067196257973, 10760.777981374024, -44505.31834427337, -44363.854153615735, -33210.78070530661, -36149.96804594613, -32663.095910918226, -15223.259058387168, -33416.79673395118, -9020.314695872628, -37417.110790861945, -40878.41253023297, -32896.15755035372, -20198.690318905155, -31939.905219066768, -42941.746764391275, 0.076, 0.97, -0.062, 192.0, 1.0, 48.0, 15.0, 40.0, 127.0, 8.0, 0.0, 0.0, 0.0, 1.6689764081010337E9, 0.0, 2022-11-20 15:33:28.101
20.0, -23470.493968784092, 10576.465496595561, -44425.54496831238, -44281.17505087555, -33130.42618398979, -36072.3627891973, -32586.943517558997, -15141.719894614209, -33429.02313816823, -9035.178605935407, -37415.25559607215, -40888.60492570459, -32894.235300330554, -20202.80303988493, -31949.024730804533, -42952.76617440774, 0.076, 0.97, -0.062, 192.0, 0.0, 0.0, 0.0, 0.0, 0.0, 0.0, 0.0, 0.0, 0.0, 1.6689764081010394E9, 0.0, 2022-11-20 15:33:28.101
22.0, -23538.84560332842, 10782.70504268468, -44511.88975714323, -44378.09221483376, -33222.9400542903, -36171.87275551233, -32678.65272505912, -15235.150186437391, -33428.352585834575, -9031.334105889095, -37425.135067121395, -40889.990733860825, -32904.33828882436, -20216.795231913955, -31951.28225699452, -42955.046052342186, 0.076, 0.97, -0.062, 192.0, 0.0, 0.0, 0.0, 0.0, 0.0, 0.0, 0.0, 0.0, 0.0, 1.6689764081010451E9, 0.0, 2022-11-20 15:33:28.101
24.0, -23455.87592791032, 10553.398496317684, -44411.373962327714, -44269.127460614145, -33121.97722458568, -36070.798167085435, -32583.05431402377, -15135.304943955534, -33445.80929825417, -9050.936585776399, -37430.20891311275, -40897.813844420176, -32910.99910867204, -20227.367607041313, -31969.0965973254, -42970.893439161, 0.076, 0.97, -0.062, 192.0, 0.0, 0.0, 0.0, 0.0, 0.0, 0.0, 0.0, 0.0, 0.0, 1.6689764081010509E9, 0.0, 2022-11-20 15:33:28.101
26.0, -23506.145001190307, 10820.054807669498, -44484.642980652214, -44356.81335411231, -33200.029516223614, -36150.66095002424, -32658.737320749442, -15214.273657116135, -33388.52177721522, -8992.106794370031, -37384.320781746006, -40846.427183917425, -32866.02739882796, -20182.32884196387, -31915.810038543947, -42917.070438512616, 0.076, 0.97, -0.062, 192.0, 0.0, 0.0, 0.0, 0.0, 0.0, 0.0, 0.0, 0.0, 0.0, 1.6689764081010563E9, 0.0, 2022-11-20 15:33:28.101
28.0, -23466.56006175996, 10521.837833146792, -44422.32631711082, -44279.85629795269, -33130.470887478696, -36074.59796364283, -32593.626689151133, -15140.75876960263, -33443.462365086365, -9054.669327100435, -37433.248750358674, -40898.48439675384, -32914.77655348498, -20229.75924369803, -31969.23070779213, -42965.08198560262, 0.084, 0.962, -0.062, 192.0, 1.0, 80.0, 15.0, 8.0, 127.0, 8.0, 0.0, 0.0, 0.0, 1.668976408101062E9, 0.0, 2022-11-20 15:33:28.101
30.0, -23504.26745465606, 10836.86331949989, -44487.19107952012, -44359.227342513484, -33201.90706275786, -36144.5812755324, -32662.26889637338, -15212.150241392881, -33391.449855738865, -8992.531477514682, -37391.719209160714, -40850.338739197105, -32871.79414889743, -20182.731173364064, -31923.566093869937, -42911.974240776806, 0.084, 0.962, -0.062, 192.0, 0.0, 0.0, 0.0, 0.0, 0.0, 0.0, 0.0, 0.0, 0.0, 1.6689764081010678E9, 0.0, 2022-11-20 15:33:28.101
32.0, -23459.005172134064, 10526.576402971317, -44410.32343033832, -44261.796088432806, -33123.58655018646, -36056.06836748938, -32588.30697397077, -15131.95218228724, -33443.77528950874, -9051.227158454318, -37437.294416105084, -40900.674867710455, -32921.12444891029, -20228.351083797348, -31980.0489521085, -42957.616502954545, 0.084, 0.962, -0.062, 192.0, 0.0, 0.0, 0.0, 0.0, 0.0, 0.0, 0.0, 0.0, 0.0, 1.6689764081010735E9, 0.0, 2022-11-20 15:33:28.101
34.0, -23489.06826842645, 10843.457084114205, -44469.93553280062, -44336.227397468974, -33192.76519927564, -36122.4754002661, -32655.83159397025, -15199.05211914207, -33368.584021161085, -8968.570407458594, -37362.371368690896, -40821.39323012748, -32849.88943933123, -20150.23173692605, -31906.109381450344, -42885.17449917489, 0.084, 0.962, -0.062, 192.0, 0.0, 0.0, 0.0, 0.0, 0.0, 0.0, 0.0, 0.0, 0.0, 1.6689764081010792E9, 0.0, 2022-11-20 15:33:28.101
36.0, -23459.474558767626, 10528.096321594277, -44427.824846246825, -44270.6473792371, -33138.76338467162, -36063.69031234864, -32606.635404424123, -15149.386542962378, -33444.57995230913, -9040.699486815869, -37440.378956839915, -40898.640858965024, -32927.807620502426, -20225.199487829148, -31989.123760357354, -42970.44640427189, 0.084, 0.962, -0.062, 192.0, 0.0, 0.0, 0.0, 0.0, 0.0, 0.0, 0.0, 0.0, 0.0, 1.6689764081010847E9, 0.0, 2022-11-20 15:33:28.101
38.0, -23492.510437072568, 10815.405644822795, -44478.429195693636, -44340.720098104495, -33193.54751033158, -36122.05071712145, -32659.474928316467, -15208.305741346569, -33364.0242652922, -8963.384802744962, -37363.77952859158, -40818.4875033483, -32848.07894803035, -20148.84592876982, -31910.713840808137, -42889.77895853269, 0.08600000000000001, 0.9580000000000001, -0.066, 192.0, 1.0, 88.0, 14.5, 120.0, 126.5, 120.0, 0.0, 0.0, 0.0, 1.668976408101092E9, 0.0, 2022-11-20 15:33:28.101
40.0, -23496.08671618542, 10496.043920045367, -44449.08135522382, -44296.329533616256, -33154.90134416835, -36082.57753641338, -32624.516799988367, -15171.537121717587, -33467.04345548671, -9081.737289635812, -37470.8443845325, -40932.32493785917, -32949.35470215735, -20261.4316655912, -32010.24615886762, -42993.71457024987, 0.08600000000000001, 0.9580000000000001, -0.066, 192.0, 0.0, 0.0, 0.0, 0.0, 0.0, 0.0, 0.0, 0.0, 0.0, 1.6689764081010978E9, 0.0, 2022-11-20 15:33:28.101
42.0, -23481.4910270561, 10786.840115408912, -44459.85489605128, -44331.421772411086, -33171.82161472102, -36107.1197518253, -32640.36418680718, -15191.363119049445, -33355.39649193245, -8993.604361248537, -37364.42772918078, -40833.95491051137, -32838.42299442566, -20165.83325455585, -31903.449523860163, -42889.890717254966, 0.08600000000000001, 0.9580000000000001, -0.066, 192.0, 0.0, 0.0, 0.0, 0.0, 0.0, 0.0, 0.0, 0.0, 0.0, 1.6689764081011033E9, 0.0, 2022-11-20 15:33:28.101
44.0, -23515.26451292807, 10483.973978039501, -44468.03563452192, -44330.39359216614, -33177.81188223504, -36120.50844675404, -32650.802451467807, -15203.589523266499, -33454.45942335838, -9114.303781307195, -37471.73845431071, -40944.10430718712, -32943.16326894322, -20286.73384031461, -32004.993498920623, -42995.45800631738, 0.08600000000000001, 0.9580000000000001, -0.066, 192.0, 0.0, 0.0, 0.0, 0.0, 0.0, 0.0, 0.0, 0.0, 0.0, 1.6689764081011093E9, 0.0, 2022-11-20 15:33:28.101
46.0, -23472.21505310715, 10751.03262079151, -44453.17172445914, -44342.75410684993, -33172.51451879913, -36131.594912003864, -32645.885067687643, -15209.110404146959, -33354.01068377622, -9034.329239646106, -37370.68621762827, -40850.24933221928, -32840.12172700426, -20205.239380030558, -31912.501980364563, -42909.09086574207, 0.08600000000000001, 0.9580000000000001, -0.066, 192.0, 0.0, 0.0, 0.0, 0.0, 0.0, 0.0, 0.0, 0.0, 0.0, 1.6689764081011147E9, 0.0, 2022-11-20 15:33:28.101
48.0, -23505.474448856647, 10521.167280813132, -44463.31941644185, -44343.357603950215, -33177.47660606821, -36142.72608074261, -32653.015274168883, -15216.151203650381, -33446.63631279902, -9137.728409496356, -37472.34195141101, -40954.721385803394, -32939.16230668573, -20319.16622151926, -32012.14605714632, -43019.37437288456, 0.08600000000000001, 0.964, -0.056, 192.0, 1.0, 88.0, 15.0, 16.0, 127.0, 32.0, 0.0, 0.0, 0.0, 1.6689764081011205E9, 0.0, 2022-11-20 15:33:28.101
50.0, -23425.16463102873, 10758.162827272752, -44405.40604655815, -44303.83971975323, -33125.68761416526, -36098.134350554275, -32599.482846198425, -15167.80438039355, -33313.75519201221, -9020.627620295003, -37334.56579858849, -40827.74112555279, -32801.274395140936, -20185.726307121076, -31882.327125349897, -42900.083112726585, 0.08600000000000001, 0.964, -0.056, 192.0, 0.0, 0.0, 0.0, 0.0, 0.0, 0.0, 0.0, 0.0, 0.0, 1.668976408101126E9, 0.0, 2022-11-20 15:33:28.101
52.0, -23506.390870379313, 10569.447048836595, -44471.366044445764, -44348.02911854138, -33188.02662945112, -36151.24209538008, -32660.145480650128, -15220.956828708271, -33415.075649628125, -9121.076359877154, -37448.17971565482, -40935.409478594, -32916.98937618606, -20298.043823008993, -31989.90607141329, -43006.54447156721, 0.08600000000000001, 0.964, -0.056, 192.0, 0.0, 0.0, 0.0, 0.0, 0.0, 0.0, 0.0, 0.0, 0.0, 1.6689764081011317E9, 0.0, 2022-11-20 15:33:28.101
54.0, -23428.338578741383, 10711.894716250268, -44407.50711053695, -44282.22558286495, -33126.000538587636, -36083.11397828031, -32592.26323273936, -15153.320449986513, -33329.51317185321, -9031.423512866917, -37354.72707208718, -40834.98309075631, -32823.983767507525, -20196.924531093184, -31901.102590692353, -42902.98883950578, 0.08600000000000001, 0.964, -0.056, 192.0, 0.0, 0.0, 0.0, 0.0, 0.0, 0.0, 0.0, 0.0, 0.0, 1.6689764081011372E9, 0.0, 2022-11-20 15:33:28.101
56.0, -23508.335472146926, 10607.37795917725, -44476.976332304046, -44341.83768532726, -33199.09074295649, -36148.33636860089, -32661.665399273086, -15219.749834507686, -33407.54311174669, -9099.462222988872, -37440.89304696239, -40911.11313237109, -32911.021460416494, -20280.34124140039, -31976.360914273373, -42966.780718181224, 0.08600000000000001, 0.964, -0.056, 192.0, 0.0, 0.0, 0.0, 0.0, 0.0, 0.0, 0.0, 0.0, 0.0, 1.668976408101143E9, 0.0, 2022-11-20 15:33:28.101
58.0, -23412.424136689206, 10681.87632344679, -44397.44882553206, -44271.27322808185, -33132.1696200573, -36077.32487646638, -32590.69861062749, -15149.319487729013, -33342.14190747045, -9040.02893448221, -37360.02443552309, -40838.98405301381, -32839.987616537524, -20208.078051576384, -31913.954843754156, -42900.61955459351, 0.081, 0.963, -0.056, 192.0, 1.0, 48.0, 15.0, 8.0, 127.0, 32.0, 0.0, 0.0, 0.0, 1.6689764081011486E9, 0.0, 2022-11-20 15:33:28.101
60.0, -23501.428783110237, 10659.34576503584, -44484.19594576311, -44360.30022624734, -33222.9400542903, -36163.35674087486, -32681.737265793952, -15239.665238817364, -33383.336172501586, -9086.677025160436, -37417.088439117484, -40897.97030663137, -32903.60068125733, -20273.434552363702, -31970.460053737173, -42958.28705528821, 0.081, 0.963, -0.056, 192.0, 0.0, 0.0, 0.0, 0.0, 0.0, 0.0, 0.0, 0.0, 0.0, 1.6689764081011543E9, 0.0, 2022-11-20 15:33:28.101
62.0, -23405.986834286075, 10637.888090358745, -44395.370113297715, -44274.916562428065, -33131.61082644592, -36071.53577465245, -32591.570328661244, -15151.107627285437, -33344.31002668262, -9054.781085822713, -37364.248915225144, -40854.116184010054, -32852.81751785488, -20227.166441341215, -31931.791535829492, -42920.780828092196, 0.081, 0.963, -0.056, 192.0, 0.0, 0.0, 0.0, 0.0, 0.0, 0.0, 0.0, 0.0, 0.0, 1.66897640810116E9, 0.0, 2022-11-20 15:33:28.101
64.0, -23494.49974232909, 10708.921934237711, -44485.29118124142, -44363.38476698217, -33219.49788564419, -36165.88248799831, -32678.85389075922, -15245.163767953369, -33378.41878872142, -9078.742155878801, -37407.34307853497, -40889.40958850498, -32896.26930907599, -20269.947680228674, -31964.42508273424, -42961.97509312333, 0.081, 0.963, -0.056, 192.0, 0.0, 0.0, 0.0, 0.0, 0.0, 0.0, 0.0, 0.0, 0.0, 1.6689764081011655E9, 0.0, 2022-11-20 15:33:28.101
66.0, -23426.148107784764, 10592.826973536847, -44409.20584311555, -44279.00693166339, -33138.13753582687, -36086.35498122632, -32599.996936320895, -15164.09399081397, -33365.007742048234, -9067.186303995408, -37379.895136343854, -40864.48739343732, -32870.81067214139, -20243.505566538046, -31945.336692969406, -42945.41245048195, 0.081, 0.963, -0.056, 192.0, 0.0, 0.0, 0.0, 0.0, 0.0, 0.0, 0.0, 0.0, 0.0, 1.6689764081011724E9, 0.0, 2022-11-20 15:33:28.101
68.0, -23495.237349896117, 10749.088019023899, -44488.24161150952, -44368.54801995135, -33216.122772231436, -36168.72115954413, -32677.17750992507, -15243.35327665249, -33376.09420729807, -9069.846161585589, -37403.90090988886, -40879.97715234484, -32896.73869570955, -20266.505511582556, -31956.892544852803, -42962.891514646, 0.0775, 0.9615, -0.06, 192.0, 1.0, 40.0, 15.0, 0.0, 127.0, 0.0, 0.0, 0.0, 0.0, 1.668976408101178E9, 0.0, 2022-11-20 15:33:28.101
70.0, -23434.194735788675, 10548.905795682169, -44417.475988564016, -44296.038960938335, -33141.378538772886, -36095.675658664186, -32609.921110859053, -15171.268900784124, -33378.66465791043, -9084.777126881734, -37398.1788633083, -40885.922716369954, -32889.25086131702, -20262.43749409169, -31964.60389668988, -42967.11599434805, 0.0775, 0.9615, -0.06, 192.0, 0.0, 0.0, 0.0, 0.0, 0.0, 0.0, 0.0, 0.0, 0.0, 1.668976408101185E9, 0.0, 2022-11-20 15:33:28.101
72.0, -23487.995384692596, 10778.413507749261, -44492.1531667892, -44380.617961957214, -33220.235493211214, -36170.84457526739, -32685.313544906803, -15248.136549965926, -33355.75411984374, -9064.571149894136, -37391.808616138536, -40875.64091392051, -32884.13231183676, -20256.894261466776, -31960.021789076545, -42957.54944772118, 0.0775, 0.9615, -0.06, 192.0, 0.0, 0.0, 0.0, 0.0, 0.0, 0.0, 0.0, 0.0, 0.0, 1.668976408101191E9, 0.0, 2022-11-20 15:33:28.101
74.0, -23422.77299437201, 10541.462664778552, -44401.71800872302, -44277.799937462805, -33130.09090782296, -36076.587268899355, -32597.761761875365, -15156.650859910353, -33372.96496307432, -9079.524466934738, -37397.39655225236, -40885.63214369203, -32889.67554446167, -20260.82816849091, -31978.70784744118, -42971.541639750205, 0.0775, 0.9615, -0.06, 192.0, 0.0, 0.0, 0.0, 0.0, 0.0, 0.0, 0.0, 0.0, 0.0, 1.6689764081011968E9, 0.0, 2022-11-20 15:33:28.101
76.0, -23496.153771418783, 10797.144269602808, -44488.934515587636, -44385.69180794857, -33228.17036249285, -36186.80372080848, -32696.75763806792, -15263.671012362363, -33335.54814285614, -9031.892899500477, -37367.2216972377, -40849.37761418553, -32856.48320394554, -20230.318037309415, -31936.41834693174, -42938.90809284546, 0.0775, 0.9615, -0.06, 192.0, 0.0, 0.0, 0.0, 0.0, 0.0, 0.0, 0.0, 0.0, 0.0, 1.6689764081012025E9, 0.0, 2022-11-20 15:33:28.101
78.0, -23460.36862854584, 10492.445289188063, -44423.55566305586, -44305.337286631744, -33163.48441403919, -36121.961310143626, -32637.16788735007, -15203.321302333034, -33412.12521936002, -9120.89754592151, -37432.10881139145, -40922.3113563432, -32924.96894895661, -20303.810573078463, -32008.14509488882, -43015.48516934933, 0.07475000000000001, 0.9597500000000001, -0.063, 192.0, 1.0, 32.0, 14.5, 120.0, 126.5, 120.0, 0.0, 0.0, 0.0, 1.668976408101208E9, 0.0, 2022-11-20 15:33:28.101
80.0, -23475.634870008813, 10831.007162452599, -44467.36508218826, -44361.484868703476, -33210.13250471741, -36173.2362119241, -32675.165852924092, -15246.951907509794, -33335.34697715604, -9037.12320770302, -37364.78535709207, -40846.449535661886, -32859.0536545579, -20236.15184261225, -31932.104460251867, -42941.27737775772, 0.07475000000000001, 0.9597500000000001, -0.063, 192.0, 0.0, 0.0, 0.0, 0.0, 0.0, 0.0, 0.0, 0.0, 0.0, 1.6689764081012137E9, 0.0, 2022-11-20 15:33:28.101
82.0, -23450.712674941144, 10508.046806817867, -44420.26995662093, -44287.299428856306, -33152.822631934, -36105.93510936917, -32616.447820240002, -15181.57305497802, -33399.92116688743, -9103.284371290729, -37423.41398279834, -40904.6534782235, -32920.252730876535, -20293.037032251006, -31995.09167612692, -42998.40843658548, 0.07475000000000001, 0.9597500000000001, -0.063, 192.0, 0.0, 0.0, 0.0, 0.0, 0.0, 0.0, 0.0, 0.0, 0.0, 1.6689764081012194E9, 0.0, 2022-11-20 15:33:28.101
84.0, -23458.334619800404, 10838.942031734232, -44462.067718752354, -44344.63165338417, -33199.91775750134, -36154.17017390372, -32657.195050382026, -15226.29889563309, -33321.801820016124, -9023.376884863006, -37347.596865605934, -40826.69059356339, -32848.950666064105, -20216.459955747123, -31919.051041489965, -42917.51747340173, 0.07475000000000001, 0.9597500000000001, -0.063, 192.0, 0.0, 0.0, 0.0, 0.0, 0.0, 0.0, 0.0, 0.0, 0.0, 1.6689764081012251E9, 0.0, 2022-11-20 15:33:28.101
86.0, -23458.468730267137, 10505.40930097214, -44429.97061371453, -44302.72213253047, -33160.08694888198, -36116.82040891891, -32623.30980578778, -15189.127944603915, -33404.07859135611, -9107.531202737237, -37429.02427065662, -40911.023725393265, -32928.67933853619, -20301.217770721647, -32000.500798285106, -43001.18005289794, 0.07475000000000001, 0.9597500000000001, -0.063, 192.0, 0.0, 0.0, 0.0, 0.0, 0.0, 0.0, 0.0, 0.0, 0.0, 1.6689764081012309E9, 0.0, 2022-11-20 15:33:28.101
88.0, -23441.146128314274, 10839.791398023533, -44446.46620112255, -44348.85613308622, -33182.10341717046, -36151.57737154691, -32643.56048626429, -15217.067625173047, -33308.189607642846, -9015.464367325827, -37337.22565617868, -40820.78973302719, -32833.39385192321, -20213.688339434666, -31906.802285528458, -42915.97520303431, 0.07137500000000001, 0.963875, -0.0675, 192.0, 1.0, 16.0, 15.0, 32.0, 126.5, 96.0, 0.0, 0.0, 0.0, 1.6689764081012363E9, 0.0, 2022-11-20 15:33:28.101
90.0, -23455.048913365474, 10533.863071663747, -44434.75388702797, -44314.47915011396, -33161.36099831593, -36129.359737558334, -32625.746145933408, -15196.168744107335, -33401.91047214394, -9114.572002240659, -37431.6841282468, -40913.884748683544, -32927.78526875797, -20313.153602260783, -31996.768056961067, -43008.578480312644, 0.07137500000000001, 0.963875, -0.0675, 192.0, 0.0, 0.0, 0.0, 0.0, 0.0, 0.0, 0.0, 0.0, 0.0, 1.668976408101242E9, 0.0, 2022-11-20 15:33:28.101
92.0, -23453.55134648697, 10819.652476269302, -44463.0958989973, -44355.13697327817, -33193.70397254276, -36163.78142401951, -32656.055111414807, -15230.076340446038, -33325.28869215115, -9034.64216406848, -37351.597827863436, -40832.233826188305, -32848.660093386185, -20229.28985706447, -31918.246378689575, -42925.56410140564, 0.07137500000000001, 0.963875, -0.0675, 192.0, 0.0, 0.0, 0.0, 0.0, 0.0, 0.0, 0.0, 0.0, 0.0, 1.6689764081012478E9, 0.0, 2022-11-20 15:33:28.101
94.0, -23473.623213007835, 10549.196368360088, -44454.06579423735, -44331.15355147762, -33177.76717874613, -36141.742603986575, -32644.454556042503, -15211.926723948327, -33420.57417876413, -9125.054970390198, -37449.051433688575, -40928.83806572414, -32945.778423044496, -20322.653093654288, -32007.13926638833, -43012.98177397034, 0.07137500000000001, 0.963875, -0.0675, 192.0, 0.0, 0.0, 0.0, 0.0, 0.0, 0.0, 0.0, 0.0, 0.0, 1.6689764081012535E9, 0.0, 2022-11-20 15:33:28.101
96.0, -23440.095596324874, 10798.284208570029, -44441.70527955357, -44335.93682479105, -33168.69237049727, -36138.4792492961, -32633.88218091514, -15207.210505868257, -33316.79502925814, -9025.41089360844, -37342.67948182577, -40826.712945307845, -32839.33941594832, -20215.52118248, -31904.522407594017, -42913.80708382215, 0.07137500000000001, 0.963875, -0.0675, 192.0, 0.0, 0.0, 0.0, 0.0, 0.0, 0.0, 0.0, 0.0, 0.0, 1.6689764081012592E9, 0.0, 2022-11-20 15:33:28.101
98.0, -23480.21697762215, 10577.113697184766, -44457.75383207248, -44338.30610970332, -33176.62723977891, -36143.86601970983, -32644.07457638676, -15214.027787927127, -33415.45562928386, -9116.47190051936, -37448.917323221845, -40927.452257567915, -32943.00680673204, -20318.518020930056, -31996.924519172255, -43010.836006502635, 0.06668750000000001, 0.9669375, -0.07075000000000001, 192.0, 0.5, 120.0, 15.0, 40.0, 126.5, 88.0, 0.0, 0.0, 0.0, 1.6689764081012647E9, 0.0, 2022-11-20 15:33:28.101
100.0, -23414.189924501174, 10776.826533892934, -44417.65480251966, -44310.52289134537, -33140.10448933893, -36108.684373937176, -32611.105753315183, -15181.52835148911, -33316.81738100259, -9023.063960440631, -37336.644510822836, -40819.60509057106, -32833.05857575638, -20207.116926564806, -31894.151198166754, -42906.6768773409, 0.06668750000000001, 0.9669375, -0.07075000000000001, 192.0, 0.0, 0.0, 0.0, 0.0, 0.0, 0.0, 0.0, 0.0, 0.0, 1.6689764081012704E9, 0.0, 2022-11-20 15:33:28.101
102.0, -23497.673690041745, 10605.679226598648, -44486.63228590874, -44371.25258103044, -33205.95272850427, -36171.045740967485, -32678.965649481495, -15244.426160386343, -33407.78898093569, -9109.453452760394, -37438.07672716102, -40919.11505688608, -32934.69195779466, -20310.44904118169, -31993.974088904157, -43000.353038353096, 0.06668750000000001, 0.9669375, -0.07075000000000001, 192.0, 0.0, 0.0, 0.0, 0.0, 0.0, 0.0, 0.0, 0.0, 0.0, 1.6689764081012776E9, 0.0, 2022-11-20 15:33:28.101
104.0, -23416.313340224428, 10730.960754270644, -44417.85596821976, -44312.02045822388, -33145.20068707474, -36107.566786714415, -32615.039660339316, -15180.567226477531, -33335.861067278514, -9050.69071658739, -37357.92337154429, -40848.12591649603, -32854.51625043348, -20234.6766274782, -31928.528181139016, -42930.19091250788, 0.06668750000000001, 0.9669375, -0.07075000000000001, 192.0, 0.0, 0.0, 0.0, 0.0, 0.0, 0.0, 0.0, 0.0, 0.0, 1.6689764081012836E9, 0.0, 2022-11-20 15:33:28.101
106.0, -23513.208152438183, 10633.887128101245, -44500.78094014894, -44387.23407831599, -33226.15870549187, -36183.07097948444, -32693.29311767735, -15258.038372759625, -33411.11939085953, -9117.164804597474, -37443.46349757475, -40925.015917422286, -32938.782327029985, -20314.964093561663, -31999.29380408452, -42998.4978435633, 0.06668750000000001, 0.9669375, -0.07075000000000001, 192.0, 0.0, 0.0, 0.0, 0.0, 0.0, 0.0, 0.0, 0.0, 0.0, 1.6689764081012893E9, 0.0, 2022-11-20 15:33:28.101
108.0, -23402.7234795956, 10692.895733463256, -44392.64320047417, -44284.706626499494, -33113.95294832622, -36075.5143851655, -32583.389590190603, -15150.414723207323, -33334.83288703357, -9063.341803949095, -37361.87963031288, -40853.53503865421, -32854.35978822229, -20234.34135131137, -31923.722556081124, -42922.390153692984, 0.06234375, 0.96546875, -0.065375, 192.0, 0.5, 104.0, 15.0, 16.0, 127.0, 16.0, 0.0, 0.0, 0.0, 1.668976408101295E9, 0.0, 2022-11-20 15:33:28.101
110.0, -23512.470544871157, 10681.58575076887, -44498.99280059252, -44390.65389521765, -33217.32976643202, -36180.83580503891, -32686.498187362933, -15253.880948290938, -33384.14083530198, -9100.04336834471, -37423.63750024289, -40906.061638124185, -32911.51319879451, -20297.999119520086, -31965.40855949027, -42970.96049439436, 0.06234375, 0.96546875, -0.065375, 192.0, 0.0, 0.0, 0.0, 0.0, 0.0, 0.0, 0.0, 0.0, 0.0, 1.6689764081013007E9, 0.0, 2022-11-20 15:33:28.101
112.0, -23409.719575610114, 10654.406029511218, -44394.811319686334, -44287.34413234522, -33114.399983215335, -36080.632934645764, -32585.91533731405, -15154.929775587294, -33354.63653262097, -9070.024975541231, -37378.442272954264, -40868.98009407283, -32868.240221529035, -20259.77763650151, -31937.17830624322, -42942.037337069196, 0.06234375, 0.96546875, -0.065375, 192.0, 0.0, 0.0, 0.0, 0.0, 0.0, 0.0, 0.0, 0.0, 0.0, 1.6689764081013064E9, 0.0, 2022-11-20 15:33:28.101
114.0, -23497.249006897095, 10741.242556720086, -44491.504966199995, -44384.35070328125, -33216.23453095371, -36180.79110155, -32680.306754148813, -15253.612727357475, -33374.95426833085, -9081.267903002252, -37407.34307853497, -40889.23077454934, -32906.640518503256, -20291.00302350557, -31961.497004210592, -42967.7418431928, 0.06234375, 0.96546875, -0.065375, 192.0, 0.0, 0.0, 0.0, 0.0, 0.0, 0.0, 0.0, 0.0, 0.0, 1.668976408101312E9, 0.0, 2022-11-20 15:33:28.101
116.0, -23411.39595644426, 10621.526613417462, -44401.06980813382, -44283.79020497682, -33127.60986418842, -36083.717475380596, -32590.944479816495, -15162.462313468734, -33356.60348613304, -9066.202827239375, -37372.65317114034, -40861.55931491367, -32876.57742221087, -20258.503587067557, -31938.02767253252, -42944.65249117047, 0.06234375, 0.96546875, -0.065375, 192.0, 0.0, 0.0, 0.0, 0.0, 0.0, 0.0, 0.0, 0.0, 0.0, 1.668976408101318E9, 0.0, 2022-11-20 15:33:28.101
118.0, -23509.564818091967, 10767.41644947725, -44510.48159724255, -44395.81714818683, -33243.168383022356, -36194.671534856745, -32703.95489978253, -15276.769134613174, -33383.13500680149, -9086.408804226972, -37414.33917454948, -40892.31531528418, -32912.80959997292, -20288.54433161549, -31969.208356047675, -42968.63591297101, 0.060171875, 0.9687343749999999, -0.06268750000000001, 192.0, 0.5, 104.0, 15.0, 48.0, 127.0, 16.0, 0.0, 0.0, 0.0, 1.6689764081013243E9, 0.0, 2022-11-20 15:33:28.101
120.0, -23416.939189069177, 10583.171019932153, -44398.14172961018, -44274.782451961335, -33133.89070438036, -36080.34236196785, -32596.26419499686, -15163.892825113873, -33383.91731785743, -9094.790708397712, -37405.48788374518, -40888.62727744905, -32903.22070160159, -20276.720258798632, -31974.058684594478, -42965.30550304717, 0.060171875, 0.9687343749999999, -0.06268750000000001, 192.0, 0.0, 0.0, 0.0, 0.0, 0.0, 0.0, 0.0, 0.0, 0.0, 1.66897640810133E9, 0.0, 2022-11-20 15:33:28.101
122.0, -23499.394774364802, 10803.738034217124, -44499.685704670635, -44383.97072362551, -33237.58044690853, -36185.97670626363, -32696.15414096763, -15266.464980419278, -33362.504346669244, -9067.096897017587, -37396.770703407616, -40871.21526851836, -32889.27321306148, -20261.990459202585, -31954.56796342945, -42948.69815691688, 0.060171875, 0.9687343749999999, -0.06268750000000001, 192.0, 0.0, 0.0, 0.0, 0.0, 0.0, 0.0, 0.0, 0.0, 0.0, 1.668976408581819E9, 0.0, 2022-11-20 15:33:28.581
124.0, -23410.457183177135, 10566.921301713146, -44391.83853767378, -44267.11580361317, -33128.03454733307, -36076.766082855, -32590.989183305406, -15158.28253725559, -33385.41488473593, -9095.684778175924, -37409.332383791494, -40887.91202162648, -32905.65704174722, -20275.82618902042, -31978.081998596434, -42971.184011838915, 0.060171875, 0.9687343749999999, -0.06268750000000001, 192.0, 0.0, 0.0, 0.0, 0.0, 0.0, 0.0, 0.0, 0.0, 0.0, 1.6689764085819776E9, 0.0, 2022-11-20 15:33:28.581
126.0, -23462.35793380236, 10853.00127899662, -44472.908314813176, -44361.820144870304, -33206.19859769328, -36157.32176987192, -32663.207669640506, -15235.641924815409, -33326.69685205184, -9042.375867650017, -37360.29265645655, -40836.65947159046, -32853.68923588863, -20226.495889007558, -31917.844047289378, -42917.96450829083, 0.060171875, 0.9687343749999999, -0.06268750000000001, 192.0, 0.0, 0.0, 0.0, 0.0, 0.0, 0.0, 0.0, 0.0, 0.0, 1.66897640858207E9, 0.0, 2022-11-20 15:33:28.582
128.0, -23428.6291514193, 10543.65313573517, -44417.677154264115, -44292.64149578113, -33139.43393700528, -36089.28305974997, -32603.01442182236, -15169.05607808305, -33399.831759909604, -9121.344580810617, -37428.95721542325, -40910.64374573753, -32913.07782090638, -20285.213921691648, -31980.339524786417, -42981.51051777727, 0.060171875, 0.9687343749999999, -0.06268750000000001, 192.0, 0.0, 0.0, 0.0, 0.0, 0.0, 0.0, 0.0, 0.0, 0.0, 1.6689764085820796E9, 0.0, 2022-11-20 15:33:28.582
130.0, -23454.110140098353, 10859.438581399749, -44479.70324512759, -44376.371130510706, -33205.349231403976, -36159.62399955082, -32665.107567919204, -15234.658448059376, -33340.197305702844, -9051.07069624313, -37373.45783394073, -40855.166715999454, -32855.54443067842, -20227.56877274141, -31921.84500954688, -42921.92076705942, 0.06, 0.966, -0.062, 192.0, 0.5, 112.0, 15.0, 24.0, 127.0, 8.0, 0.0, 0.0, 0.0, 1.668976408582088E9, 0.0, 2022-11-20 15:33:28.582
132.0, -23410.83716283288, 10551.029211405423, -44409.67522974911, -44292.820309736766, -33128.95096885574, -36080.5658794124, -32593.649040895587, -15156.203825021246, -33390.71224817184, -9110.414577771971, -37421.7823054531, -40910.822559693166, -32903.64538474624, -20279.268357666537, -31981.591222475916, -42979.007122398274, 0.06, 0.966, -0.062, 192.0, 0.0, 0.0, 0.0, 0.0, 0.0, 0.0, 0.0, 0.0, 0.0, 1.6689764085820963E9, 0.0, 2022-11-20 15:33:28.582
134.0, -23419.666101892723, 10880.359814209916, -44445.23685517751, -44353.013557554914, -33174.52617580011, -36131.192580603674, -32634.59743673771, -15203.29895058858, -33315.96801471329, -9030.26122215524, -37346.3675196609, -40837.71000357986, -32824.408450652176, -20201.57369393989, -31906.01997447252, -42905.603993607045, 0.06, 0.966, -0.062, 192.0, 0.0, 0.0, 0.0, 0.0, 0.0, 0.0, 0.0, 0.0, 0.0, 1.6689764085821116E9, 0.0, 2022-11-20 15:33:28.582
136.0, -23430.327883997907, 10538.51223451045, -44430.79762825938, -44318.63657458265, -33157.69531222526, -36107.05269659194, -32621.74518367591, -15183.562360234542, -33403.1845215779, -9114.32613305165, -37430.56654102404, -40925.44060056694, -32903.690088235155, -20281.257662923057, -31989.66020222428, -42991.32293359315, 0.06, 0.966, -0.062, 192.0, 0.0, 0.0, 0.0, 0.0, 0.0, 0.0, 0.0, 0.0, 0.0, 1.6689764085821178E9, 0.0, 2022-11-20 15:33:28.582
138.0, -23429.143241541773, 10844.328802147962, -44460.83837280731, -44363.071842559795, -33196.45323711076, -36150.01274943504, -32655.69748350352, -15223.214354898259, -33327.09918345203, -9034.686867557391, -37356.9175430438, -40852.797431087194, -32830.26460769947, -20203.250074774038, -31922.202637458166, -42917.58452863509, 0.06, 0.966, -0.062, 192.0, 0.0, 0.0, 0.0, 0.0, 0.0, 0.0, 0.0, 0.0, 0.0, 1.668976408582124E9, 0.0, 2022-11-20 15:33:28.582
140.0, -23463.609631491858, 10515.51228946594, -44463.811154819865, -44343.49171441695, -33196.117960943935, -36141.92141794222, -32655.809242225798, -15217.58171529552, -33429.00078642378, -9141.550557798215, -37462.484832106216, -40960.19756319494, -32937.06124270693, -20310.02435803704, -32024.506571830105, -43016.51334959428, 0.066, 0.962, -0.056, 192.0, 1.0, 8.0, 15.0, 8.0, 127.0, 32.0, 0.0, 0.0, 0.0, 1.6689764085821335E9, 0.0, 2022-11-20 15:33:28.582
142.0, -23397.336709181873, 10826.179185650253, -44426.617852046234, -44323.15162696262, -33170.4805100537, -36114.80875191793, -32625.276759299846, -15190.3349388045, -33330.74251779825, -9041.995887994277, -37356.11288024341, -40854.89849506599, -32835.89724730221, -20206.51342946451, -31923.208465958654, -42913.20358672185, 0.066, 0.962, -0.056, 192.0, 0.0, 0.0, 0.0, 0.0, 0.0, 0.0, 0.0, 0.0, 0.0, 1.6689764085821397E9, 0.0, 2022-11-20 15:33:28.582
144.0, -23439.760320158046, 10555.27604285193, -44445.1921516886, -44323.12927521816, -33183.399818348866, -36124.263539822525, -32639.380710051148, -15201.175534865324, -33403.050411111166, -9108.246458559806, -37430.4324305573, -40926.60289127861, -32914.26246336252, -20278.73191579961, -31991.001306891598, -42981.62227649955, 0.066, 0.962, -0.056, 192.0, 0.0, 0.0, 0.0, 0.0, 0.0, 0.0, 0.0, 0.0, 0.0, 1.6689764085821464E9, 0.0, 2022-11-20 15:33:28.582
146.0, -23401.002395272542, 10783.50970548507, -44433.92687248312, -44323.799827551826, -33171.575745532005, -36116.68629845218, -32627.243712811916, -15193.710052217253, -33320.0136804597, -9035.446826868872, -37342.992406248144, -40846.583646128616, -32827.336529175824, -20190.37546996778, -31906.377602383807, -42895.411598135426, 0.066, 0.962, -0.056, 192.0, 0.0, 0.0, 0.0, 0.0, 0.0, 0.0, 0.0, 0.0, 0.0, 1.6689764085821524E9, 0.0, 2022-11-20 15:33:28.582
148.0, -23452.72433194212, 10571.726926771036, -44462.067718752354, -44339.177827737076, -33191.69231554178, -36135.35000507236, -32647.293227588325, -15212.19494488179, -33416.48380952881, -9123.177423855952, -37448.71615752175, -40948.775821778276, -32931.56271357092, -20289.19253220469, -32000.34433607392, -42986.919639935455, 0.066, 0.962, -0.056, 192.0, 0.0, 0.0, 0.0, 0.0, 0.0, 0.0, 0.0, 0.0, 0.0, 1.6689764085821588E9, 0.0, 2022-11-20 15:33:28.582
150.0, -23386.473761376594, 10743.947117799178, -44415.28551760739, -44310.96992623448, -33147.815841176016, -36095.00510633053, -32601.203930521482, -15171.112438572936, -33321.08656419356, -9032.541100089682, -37345.89813302733, -40851.72454735333, -32826.48716288652, -20188.22970250007, -31900.230872658598, -42893.8246242791, 0.07200000000000001, 0.962, -0.054, 192.0, 1.0, 32.0, 15.0, 8.0, 127.0, 40.0, 0.0, 0.0, 0.0, 1.6689764085821648E9, 0.0, 2022-11-20 15:33:28.582
152.0, -23450.51150924105, 10601.499450385505, -44463.185305975116, -44352.41006045462, -33193.77102777613, -36140.89323769727, -32648.433166555547, -15216.061796672559, -33409.64417572548, -9114.639057474025, -37445.02811968662, -40941.7126705304, -32922.44320183316, -20286.465619381146, -31985.972164389153, -42987.52313703574, 0.07200000000000001, 0.962, -0.054, 192.0, 0.0, 0.0, 0.0, 0.0, 0.0, 0.0, 0.0, 0.0, 0.0, 1.6689764085821712E9, 0.0, 2022-11-20 15:33:28.582
154.0, -23370.492264091048, 10706.396187114262, -44394.543098752874, -44297.357713861194, -33136.14823057035, -36088.1654725272, -32588.754008859876, -15161.612947179432, -33311.92234896688, -9033.479873356804, -37338.34324340144, -40842.64973910448, -32821.59213085081, -20193.99645256954, -31897.638070301782, -42898.563194103626, 0.07200000000000001, 0.962, -0.054, 192.0, 0.0, 0.0, 0.0, 0.0, 0.0, 0.0, 0.0, 0.0, 0.0, 1.6689764085821772E9, 0.0, 2022-11-20 15:33:28.582
156.0, -23471.365686817848, 10623.940601818635, -44494.27658251245, -44381.71319743552, -33233.11009801747, -36177.885374770805, -32685.22413792898, -15252.91982327936, -33400.77053317673, -9116.494252263816, -37433.56167478105, -40931.90025471452, -32920.118620409805, -20292.67940433972, -31989.391981290817, -42990.36180858157, 0.07200000000000001, 0.962, -0.054, 192.0, 0.0, 0.0, 0.0, 0.0, 0.0, 0.0, 0.0, 0.0, 0.0, 1.6689764085821836E9, 0.0, 2022-11-20 15:33:28.582
158.0, -23361.551566308925, 10669.046422129444, -44391.41385452913, -44276.07885313974, -33134.740070669664, -36074.93323980967, -32586.429427436524, -15155.488569198676, -33348.13217498448, -9061.531312648214, -37362.95251404673, -40863.88389633702, -32854.806823111394, -20222.897258150253, -31942.43096619022, -42932.046107297676, 0.07200000000000001, 0.962, -0.054, 192.0, 0.0, 0.0, 0.0, 0.0, 0.0, 0.0, 0.0, 0.0, 0.0, 1.6689764085821898E9, 0.0, 2022-11-20 15:33:28.582
160.0, -23455.339486043395, 10674.120268120798, -44479.14445151621, -44359.808487869326, -33224.974063035734, -36164.809604264454, -32676.84223375824, -15244.694381319809, -33388.63353593749, -9086.98994958281, -37414.54034024958, -40902.73122820035, -32908.003974915024, -20271.57935757391, -31979.221937563652, -42970.17818333843, 0.074, 0.96, -0.048, 192.0, 1.0, 40.0, 15.0, 0.0, 127.0, 64.0, 0.0, 0.0, 0.0, 1.668976408582196E9, 0.0, 2022-11-20 15:33:28.582
162.0, -23330.61675198278, 10642.470197972083, -44353.438240699565, -44230.28012875082, -33102.866483076396, -36040.84682951532, -32558.10976721165, -15122.430339149278, -33332.32949165458, -9039.291326915185, -37343.79706904854, -40839.36403266955, -32840.702872360096, -20200.769031139498, -31920.12392522382, -42904.575813362106, 0.074, 0.96, -0.048, 192.0, 0.0, 0.0, 0.0, 0.0, 0.0, 0.0, 0.0, 0.0, 0.0, 1.6689764085822241E9, 0.0, 2022-11-20 15:33:28.582
164.0, -23427.19863977416, 10729.88787053679, -44455.83158204932, -44338.194350981044, -33206.22094943773, -36149.87863896831, -32661.263067872893, -15228.221145656247, -33348.33334068458, -9058.737344591302, -37373.614296151914, -40861.15698351347, -32869.96130585209, -20226.85351691884, -31938.497059166082, -42923.865368827035, 0.074, 0.96, -0.048, 192.0, 0.0, 0.0, 0.0, 0.0, 0.0, 0.0, 0.0, 0.0, 0.0, 1.6689764085822563E9, 0.0, 2022-11-20 15:33:28.582
166.0, -23352.990848182544, 10584.914455999668, -44375.20883979903, -44255.93993138551, -33119.04914606204, -36063.75736758201, -32575.767645331343, -15143.552737659544, -33340.2196574473, -9054.445809655883, -37360.80674657902, -40852.88683806501, -32852.77281436596, -20211.85549638933, -31928.058794505454, -42916.60105187906, 0.074, 0.96, -0.048, 192.0, 0.0, 0.0, 0.0, 0.0, 0.0, 0.0, 0.0, 0.0, 0.0, 1.668976408582265E9, 0.0, 2022-11-20 15:33:28.582
168.0, -23424.047043805964, 10756.374687716328, -44467.43213742163, -44353.214723255005, -33207.00326049367, -36149.6327697793, -32661.531288806356, -15231.953886980284, -33349.562686629615, -9054.89284454499, -37382.1750142783, -40867.86250685007, -32875.39277975474, -20230.76507219852, -31940.955751056168, -42930.12385727452, 0.074, 0.96, -0.048, 192.0, 0.0, 0.0, 0.0, 0.0, 0.0, 0.0, 0.0, 0.0, 0.0, 1.668976408582271E9, 0.0, 2022-11-20 15:33:28.582
170.0, -23351.023894670474, 10550.001031160478, -44377.689883433566, -44252.25189355038, -33106.82274184498, -36050.36867265328, -32565.865822537642, -15133.315638699012, -33349.920314540905, -9057.50799864626, -37367.71343561571, -40860.53113466873, -32858.6066196688, -20211.810792900418, -31930.182210228708, -42919.28326121369, 0.07200000000000001, 0.964, -0.056, 192.0, 1.0, 32.0, 15.0, 16.0, 127.0, 32.0, 0.0, 0.0, 0.0, 1.6689764085822775E9, 0.0, 2022-11-20 15:33:28.582
172.0, -23430.663160164735, 10767.997594833088, -44477.02103579295, -44362.53540069287, -33205.975080248725, -36155.98066520461, -32663.341780107236, -15236.334828893523, -33345.226448205285, -9043.381696150505, -37372.51906067361, -40859.90528582398, -32860.908849347696, -20218.76218542602, -31921.39797465777, -42916.668107112426, 0.07200000000000001, 0.964, -0.056, 192.0, 0.0, 0.0, 0.0, 0.0, 0.0, 0.0, 0.0, 0.0, 0.0, 1.6689764085822835E9, 0.0, 2022-11-20 15:33:28.582
174.0, -23368.10062743433, 10500.067234047323, -44385.28947654837, -44260.25381806539, -33112.81300935901, -36064.53967863794, -32573.64422960809, -15143.75390335964, -33380.85512886705, -9094.455432230883, -37404.43735175578, -40897.679733953446, -32890.63666947326, -20260.559947557445, -31959.21712627615, -42955.962473864856, 0.07200000000000001, 0.964, -0.056, 192.0, 0.0, 0.0, 0.0, 0.0, 0.0, 0.0, 0.0, 0.0, 0.0, 1.66897640858229E9, 0.0, 2022-11-20 15:33:28.582
176.0, -23433.948866599665, 10780.983958361621, -44481.98312306203, -44367.67630191759, -33218.04502225459, -36169.88345025581, -32673.400065112124, -15247.15307320989, -33333.11180271051, -9038.531367603704, -37361.387891934864, -40851.16575374195, -32847.609561396785, -20223.500755250545, -31910.199750685664, -42909.672011097915, 0.07200000000000001, 0.964, -0.056, 192.0, 0.0, 0.0, 0.0, 0.0, 0.0, 0.0, 0.0, 0.0, 0.0, 1.668976408582296E9, 0.0, 2022-11-20 15:33:28.582
178.0, -23392.128752723784, 10471.032317999878, -44411.12809313871, -44275.900039184104, -33141.736166684175, -36090.53475743947, -32601.695668899498, -15170.777162406108, -33401.932823888405, -9111.398054528005, -37425.53739852159, -40917.036344651744, -32913.45780056212, -20287.15852345926, -31980.13835908632, -42977.2413345863, 0.07200000000000001, 0.964, -0.056, 192.0, 0.0, 0.0, 0.0, 0.0, 0.0, 0.0, 0.0, 0.0, 0.0, 1.6689764085823023E9, 0.0, 2022-11-20 15:33:28.582
180.0, -23416.40274720225, 10789.388214276816, -44459.2961024399, -44341.32359520478, -33200.14127494589, -36150.34802560187, -32655.719835247975, -15231.171575924347, -33327.188590429854, -9029.188338421385, -37356.58226687697, -40840.10164023658, -32849.19653525311, -20216.795231913955, -31903.31541339343, -42901.290106927176, 0.064, 0.968, -0.058, 192.0, 1.0, 0.0, 15.0, 32.0, 127.0, 24.0, 0.0, 0.0, 0.0, 1.6689764085823085E9, 0.0, 2022-11-20 15:33:28.582
182.0, -23398.9236830382, 10456.056649214823, -44404.86960469122, -44271.072062381754, -33140.79739341705, -36085.30444923692, -32598.92405258704, -15169.14548506087, -33405.79967567917, -9110.124005094052, -37431.2370933577, -40916.701068484916, -32919.91745470971, -20287.71731707064, -31973.18696656072, -42969.79820368269, 0.064, 0.968, -0.058, 192.0, 0.0, 0.0, 0.0, 0.0, 0.0, 0.0, 0.0, 0.0, 0.0, 1.6689764085823147E9, 0.0, 2022-11-20 15:33:28.582
184.0, -23394.118057980308, 10796.876048669345, -44437.45844810706, -44325.27504268588, -33176.403722334355, -36127.16926660172, -32632.69753845901, -15207.612837268452, -33312.03410768916, -9008.669437011415, -37337.67269106778, -40819.73920103779, -32826.5989216088, -20190.733097879067, -31880.002543926545, -42874.512717069716, 0.064, 0.968, -0.058, 192.0, 0.0, 0.0, 0.0, 0.0, 0.0, 0.0, 0.0, 0.0, 0.0, 1.668976408582321E9, 0.0, 2022-11-20 15:33:28.582
186.0, -23383.210406686117, 10478.698966348049, -44403.9308314241, -44276.01179790638, -33136.572913715, -36081.75052186853, -32594.297241484794, -15160.964746590227, -33400.256443054255, -9099.305760777685, -37424.46451478774, -40908.87795792556, -32917.950501197636, -20282.330546656915, -31973.745760172103, -42968.03241587072, 0.064, 0.968, -0.058, 192.0, 0.0, 0.0, 0.0, 0.0, 0.0, 0.0, 0.0, 0.0, 0.0, 1.6689764085823271E9, 0.0, 2022-11-20 15:33:28.582
188.0, -23379.500017106537, 10793.456231767683, -44435.17857017262, -44325.94559501953, -33171.03930366508, -36118.20621707514, -32622.97452962095, -15195.297026073578, -33292.49868303522, -8992.263256581218, -37317.1090861689, -40804.24944213026, -32813.27728191343, -20175.444504671636, -31873.7217037346, -42868.36598734451, 0.064, 0.968, -0.058, 192.0, 0.0, 0.0, 0.0, 0.0, 0.0, 0.0, 0.0, 0.0, 0.0, 1.6689764085823333E9, 0.0, 2022-11-20 15:33:28.582
190.0, -23417.76620361402, 10474.966225024013, -44443.15814294316, -44310.88051925666, -33171.28517285409, -36111.18776931617, -32622.683956943034, -15190.5361045046, -33417.75785896276, -9111.129833594541, -37444.37991909742, -40926.78170523426, -32937.01653921801, -20293.327604928923, -31991.358934802884, -42986.33849457961, 0.06, 0.966, -0.06, 192.0, 0.5, 112.0, 15.0, 24.0, 127.0, 16.0, 0.0, 0.0, 0.0, 1.6689764085823395E9, 0.0, 2022-11-20 15:33:28.582
192.0, -23370.067580946397, 10762.923748841733, -44422.95216595557, -44311.93105124606, -33155.907172668834, -36096.94970809814, -32604.087305556215, -15176.566264220031, -33315.11864842399, -9017.096044671065, -37340.824287035975, -40827.65171857497, -32827.8506192983, -20181.770048352486, -31888.339744608373, -42882.20171716234, 0.06, 0.966, -0.06, 192.0, 0.0, 0.0, 0.0, 0.0, 0.0, 0.0, 0.0, 0.0, 0.0, 1.6689764085823455E9, 0.0, 2022-11-20 15:33:28.582
194.0, -23410.7254041106, 10495.686292134082, -44437.950186485075, -44316.24493792593, -33165.54077452907, -36105.37631575779, -32616.134895817628, -15183.875284656917, -33403.16216983344, -9104.737234680324, -37440.378956839915, -40928.502789557315, -32922.979643700084, -20282.084677467905, -31980.116007341865, -42975.229677585325, 0.06, 0.966, -0.06, 192.0, 0.0, 0.0, 0.0, 0.0, 0.0, 0.0, 0.0, 0.0, 0.0, 1.668976408582352E9, 0.0, 2022-11-20 15:33:28.582
196.0, -23379.72353455109, 10707.379663870295, -44436.38556437321, -44330.88533054416, -33173.050960666056, -36112.52887398349, -32619.800581908297, -15188.993834137182, -33314.85042749053, -9022.706332529347, -37346.144002216344, -40840.45926814786, -32828.20824720958, -20192.789458368952, -31896.11815167882, -42889.91306899942, 0.06, 0.966, -0.06, 192.0, 0.0, 0.0, 0.0, 0.0, 0.0, 0.0, 0.0, 0.0, 0.0, 1.668976408582358E9, 0.0, 2022-11-20 15:33:28.582
198.0, -23435.513488711535, 10509.276152762908, -44477.82569859335, -44357.23803725696, -33215.563978620055, -36148.671644767725, -32663.878221974162, -15227.43883460031, -33421.73646947581, -9121.299877321706, -37456.58397157001, -40947.54647583324, -32946.538382355975, -20310.091413270406, -32014.71650775868, -43008.109093679086, 0.06, 0.966, -0.06, 192.0, 0.0, 0.0, 0.0, 0.0, 0.0, 0.0, 0.0, 0.0, 0.0, 1.668976408582366E9, 0.0, 2022-11-20 15:33:28.582
200.0, -23368.502958834524, 10686.369024082307, -44409.25054660446, -44297.89415572812, -33153.51553601212, -36090.154777783726, -32602.20975902197, -15171.045383339571, -33327.07683170758, -9043.538158361693, -37356.850487810436, -40853.065652020654, -32845.30733171789, -20213.397766756745, -31925.242474704086, -42915.05878151164, 0.061, 0.964, -0.056, 192.0, 0.5, 120.0, 15.0, 8.0, 127.0, 48.0, 0.0, 0.0, 0.0, 1.6689764085823736E9, 0.0, 2022-11-20 15:33:28.582
202.0, -23429.813793875433, 10576.465496595561, -44453.46229713706, -44329.25365319892, -33198.19667317828, -36128.71153696913, -32645.79566070982, -15212.284351859613, -33397.99891686427, -9100.155127066986, -37433.181695125306, -40923.58540577715, -32918.46459132011, -20282.01762223454, -31985.81570217797, -42970.58051473863, 0.061, 0.964, -0.056, 192.0, 0.0, 0.0, 0.0, 0.0, 0.0, 0.0, 0.0, 0.0, 0.0, 1.66897640858238E9, 0.0, 2022-11-20 15:33:28.582
204.0, -23341.725568977068, 10670.074602374389, -44378.82982240079, -44266.78052744634, -33131.83434389047, -36060.73988208055, -32578.315744199248, -15145.542042916066, -33318.78433451466, -9025.612059308536, -37338.790278290544, -40837.061802990655, -32829.97403502155, -20190.71074613461, -31900.65555580325, -42884.74981603024, 0.061, 0.964, -0.056, 192.0, 0.0, 0.0, 0.0, 0.0, 0.0, 0.0, 0.0, 0.0, 0.0, 1.6689764085823865E9, 0.0, 2022-11-20 15:33:28.582
206.0, -23427.600971174357, 10621.034875039444, -44467.83446882182, -44351.73950812096, -33220.57076937804, -36147.64346452278, -32662.26889637338, -15228.4446631008, -33387.49359697027, -9087.101708305087, -37417.04373562858, -40907.179225346954, -32914.55303604043, -20272.227558163115, -31972.672876438246, -42962.22096231234, 0.061, 0.964, -0.056, 192.0, 0.0, 0.0, 0.0, 0.0, 0.0, 0.0, 0.0, 0.0, 0.0, 1.6689764085823927E9, 0.0, 2022-11-20 15:33:28.582
208.0, -23340.250353843017, 10626.756921620003, -44387.59170622727, -44272.3014083268, -33141.75851842863, -36073.592135142346, -32587.45760768147, -15152.694601141764, -33335.70460506733, -9040.364210649039, -37352.514249386106, -40846.158962983965, -32853.64453239972, -20213.71069117912, -31925.488343893096, -42914.075304755606, 0.061, 0.964, -0.056, 192.0, 0.0, 0.0, 0.0, 0.0, 0.0, 0.0, 0.0, 0.0, 0.0, 1.668976408582399E9, 0.0, 2022-11-20 15:33:28.582
210.0, -23435.625247433814, 10653.82488415538, -44482.765434117966, -44364.323540249294, -33232.28308347262, -36170.285781656006, -32679.122111692683, -15243.219166185758, -33387.60535569255, -9090.342711251105, -37417.82604668451, -40903.33472530064, -32915.20123662963, -20276.42968612071, -31970.974143859643, -42963.562066979655, 0.0605, 0.963, -0.057999999999999996, 192.0, 0.5, 112.0, 15.0, 8.0, 127.0, 16.0, 0.0, 0.0, 0.0, 1.668976408582405E9, 0.0, 2022-11-20 15:33:28.582
212.0, -23317.831554154345, 10610.216630723076, -44365.530534449885, -44241.45600097848, -33113.26004424811, -36049.76517555299, -32562.021322491328, -15126.967743273706, -33339.25853243572, -9054.736382333802, -37361.030264023575, -40857.960684056365, -32858.15958477969, -20221.57850522739, -31926.069489248934, -42914.92467104491, 0.0605, 0.963, -0.057999999999999996, 192.0, 0.0, 0.0, 0.0, 0.0, 0.0, 0.0, 0.0, 0.0, 0.0, 1.6689764085824115E9, 0.0, 2022-11-20 15:33:28.582
214.0, -23418.101479780853, 10713.302876150952, -44470.42727117864, -44359.20499076903, -33222.42596416783, -36164.317865886434, -32675.679943046565, -15240.671067317853, -33349.24976220724, -9058.60323412457, -37384.85722361293, -40878.65839942198, -32886.32278279338, -20245.271354350014, -31947.12483252583, -42937.81285736714, 0.0605, 0.963, -0.057999999999999996, 192.0, 0.0, 0.0, 0.0, 0.0, 0.0, 0.0, 0.0, 0.0, 0.0, 1.6689764085824177E9, 0.0, 2022-11-20 15:33:28.582
216.0, -23339.646856742726, 10554.247862606986, -44379.74624392346, -44264.67946346754, -33129.50976246712, -36071.42401593018, -32586.138854758607, -15149.453598195745, -33347.10399473953, -9064.74996384978, -37365.232391981175, -40867.08019579413, -32864.462776716086, -20232.68732222168, -31935.8372015759, -42933.81189510964, 0.0605, 0.963, -0.057999999999999996, 192.0, 0.0, 0.0, 0.0, 0.0, 0.0, 0.0, 0.0, 0.0, 0.0, 1.668976408582424E9, 0.0, 2022-11-20 15:33:28.582
218.0, -23404.042232518463, 10748.909205068256, -44457.262093694466, -44347.80560109682, -33206.31035641555, -36150.6833017687, -32662.693579518032, -15231.3950933689, -33353.36248318702, -9061.844237070589, -37380.118653788406, -40874.52332669775, -32875.169262310184, -20244.019656660515, -31941.402785945273, -42939.086906801094, 0.0605, 0.963, -0.057999999999999996, 192.0, 0.0, 0.0, 0.0, 0.0, 0.0, 0.0, 0.0, 0.0, 0.0, 1.6689764085824304E9, 0.0, 2022-11-20 15:33:28.582
220.0, -23342.664342244192, 10524.832966903803, -44373.48775547597, -44252.98950111741, -33116.29988149404, -36060.38225416926, -32579.321572699737, -15145.072656282504, -33347.5733813731, -9065.375812694529, -37366.66290362631, -40867.72839638333, -32860.59592492532, -20232.68732222168, -31936.17247774273, -42933.54367417618, 0.057249999999999995, 0.9644999999999999, -0.055, 192.0, 0.5, 88.0, 15.0, 24.0, 127.0, 48.0, 0.0, 0.0, 0.0, 1.6689764085824366E9, 0.0, 2022-11-20 15:33:28.582
222.0, -23408.33376745388, 10773.630234435825, -44463.58763737531, -44358.0203483129, -33208.92551051683, -36159.19931640617, -32667.454501087013, -15236.468939360255, -33336.285750423165, -9048.232024697307, -37365.41120593682, -40862.453384691886, -32860.484166203045, -20229.6251332313, -31923.45433514766, -42923.865368827035, 0.057249999999999995, 0.9644999999999999, -0.055, 192.0, 0.0, 0.0, 0.0, 0.0, 0.0, 0.0, 0.0, 0.0, 0.0, 1.6689764085824428E9, 0.0, 2022-11-20 15:33:28.582
224.0, -23345.48066204556, 10504.51523119393, -44379.50037473445, -44259.538562242815, -33116.568102427496, -36071.53577465245, -32581.579098889724, -15149.699467384753, -33375.04367530867, -9088.934551350421, -37396.36837200742, -40896.47273975286, -32890.99429738454, -20263.085694680893, -31957.049007063986, -42961.30454078967, 0.057249999999999995, 0.9644999999999999, -0.055, 192.0, 0.0, 0.0, 0.0, 0.0, 0.0, 0.0, 0.0, 0.0, 0.0, 1.6689764085824492E9, 0.0, 2022-11-20 15:33:28.582
226.0, -23396.77791557049, 10795.959627146678, -44461.307759440875, -44356.16515352311, -33203.89636801438, -36165.27899089801, -32664.526422563365, -15238.368837638956, -33322.07004094959, -9029.948297732866, -37350.86022029641, -40838.69348033589, -32843.34037820582, -20216.90699063623, -31896.229910401096, -42909.85082505355, 0.057249999999999995, 0.9644999999999999, -0.055, 192.0, 0.0, 0.0, 0.0, 0.0, 0.0, 0.0, 0.0, 0.0, 0.0, 1.6689764085824554E9, 0.0, 2022-11-20 15:33:28.582
228.0, -23380.39408688475, 10465.958472008524, -44413.340915839784, -44290.18280389104, -33151.03449237758, -36106.0692198359, -32613.139762060615, -15181.57305497802, -33411.27585307072, -9123.982086656342, -37432.064107902544, -40923.898330199525, -32924.030175689484, -20298.423802664736, -31983.736989943623, -42997.62612552955, 0.057249999999999995, 0.9644999999999999, -0.055, 192.0, 0.0, 0.0, 0.0, 0.0, 0.0, 0.0, 0.0, 0.0, 0.0, 1.6689764085824616E9, 0.0, 2022-11-20 15:33:28.582
230.0, -23405.24922671905, 10790.259932310573, -44464.52641064244, -44362.55775243733, -33205.12571395942, -36165.524860087025, -32665.88987897514, -15240.78282604013, -33338.27505567969, -9051.942414276888, -37369.47922342768, -40857.98303580082, -32857.1537562792, -20230.519203009513, -31917.50877112255, -42931.9343485754, 0.057624999999999996, 0.9652499999999999, -0.051500000000000004, 192.0, 0.5, 104.0, 15.0, 24.0, 127.0, 64.0, 0.0, 0.0, 0.0, 1.6689764085824697E9, 0.0, 2022-11-20 15:33:28.582
232.0, -23393.983947513574, 10455.967242237002, -44423.779180500416, -44305.49374884293, -33158.03058839209, -36111.79126641646, -32622.348680776202, -15194.090031872993, -33417.82491419613, -9126.686647735434, -37448.11266042145, -40940.50567632981, -32927.98643445807, -20305.039919023504, -31995.315193571474, -43007.7514657678, 0.057624999999999996, 0.9652499999999999, -0.051500000000000004, 192.0, 0.0, 0.0, 0.0, 0.0, 0.0, 0.0, 0.0, 0.0, 0.0, 1.668976408582476E9, 0.0, 2022-11-20 15:33:28.582
234.0, -23388.418363144203, 10789.790545677013, -44457.396204161196, -44352.74533662145, -33197.97315573373, -36152.11381341384, -32656.569201537277, -15231.976238724737, -33327.054479963124, -9036.69852455837, -37359.845621567445, -40848.93057929642, -32837.350110691805, -20216.05762434693, -31907.8304657734, -42918.00921177974, 0.057624999999999996, 0.9652499999999999, -0.051500000000000004, 192.0, 0.0, 0.0, 0.0, 0.0, 0.0, 0.0, 0.0, 0.0, 0.0, 1.668976408582482E9, 0.0, 2022-11-20 15:33:28.582
236.0, -23379.20944442862, 10484.89039956217, -44421.521654310425, -44291.16628064708, -33156.1753936023, -36103.05173433444, -32617.721869673955, -15186.378680035912, -33415.366222306046, -9129.458264047893, -37450.25842788916, -40936.50471407232, -32934.155515927734, -20303.520000400546, -31998.399734306306, -43001.42592208695, 0.057624999999999996, 0.9652499999999999, -0.051500000000000004, 192.0, 0.0, 0.0, 0.0, 0.0, 0.0, 0.0, 0.0, 0.0, 0.0, 1.6689764085824895E9, 0.0, 2022-11-20 15:33:28.582
238.0, -23372.459217603115, 10796.8984004138, -44437.883131251714, -44324.17980720756, -33179.77883574711, -36132.28781608198, -32636.810259438786, -15211.256171614668, -33314.53750306815, -9023.533347074193, -37345.83107779397, -40829.81983778714, -32833.79618332341, -20198.95853983862, -31892.0277824435, -42890.650676566445, 0.057624999999999996, 0.9652499999999999, -0.051500000000000004, 192.0, 0.0, 0.0, 0.0, 0.0, 0.0, 0.0, 0.0, 0.0, 0.0, 1.6689764085824957E9, 0.0, 2022-11-20 15:33:28.582
240.0, -23406.29975870845, 10493.294655477364, -44433.63629980521, -44301.73865577444, -33168.155928630345, -36114.60758621783, -32623.93565463253, -15193.642996983886, -33424.75395497727, -9125.300839579206, -37458.84149776, -40940.63978679655, -32945.33138815539, -20309.59967489239, -31989.90607141329, -42989.24422135881, 0.0618125, 0.967625, -0.05075, 192.0, 1.0, 8.0, 15.0, 40.0, 127.0, 56.0, 0.0, 0.0, 0.0, 1.668976408582502E9, 0.0, 2022-11-20 15:33:28.582
242.0, -23377.421304872194, 10758.9898418176, -44440.990023731, -44323.75512406291, -33178.88476596889, -36125.67169972321, -32629.903570402097, -15203.34365407749, -33326.54038984065, -9031.64703031147, -37355.41997616529, -40838.738183824804, -32841.08285201584, -20208.90506612123, -31887.222157385608, -42883.98985671876, 0.0618125, 0.967625, -0.05075, 192.0, 0.0, 0.0, 0.0, 0.0, 0.0, 0.0, 0.0, 0.0, 0.0, 1.668976409062193E9, 0.0, 2022-11-20 15:33:29.062
244.0, -23406.00918603053, 10514.0817778208, -44452.7917448034, -44317.18371119305, -33177.454254323755, -36126.6775282237, -32632.541076247824, -15207.344616334989, -33423.01051890976, -9129.838243703633, -37459.37793962693, -40943.16553391999, -32947.49950736755, -20316.68517788472, -31989.570795246458, -42984.259782345274, 0.0618125, 0.967625, -0.05075, 192.0, 0.0, 0.0, 0.0, 0.0, 0.0, 0.0, 0.0, 0.0, 0.0, 1.6689764090622523E9, 0.0, 2022-11-20 15:33:29.062
246.0, -23350.778025481468, 10734.69349559468, -44424.5838433008, -44302.38685636364, -33159.908134926336, -36111.523045483, -32613.475038227447, -15193.285369072602, -33313.129343167464, -9037.972573992321, -37346.45692663872, -40838.44761114688, -32839.20530548159, -20211.43081324468, -31895.872282489814, -42890.42715912189, 0.0618125, 0.967625, -0.05075, 192.0, 0.0, 0.0, 0.0, 0.0, 0.0, 0.0, 0.0, 0.0, 0.0, 1.6689764090622675E9, 0.0, 2022-11-20 15:33:29.062
248.0, -23418.034424547484, 10540.881519422714, -44461.68773909661, -44338.03788876985, -33205.8856732709, -36153.09729016987, -32663.095910918226, -15239.553480095086, -33414.718021716835, -9128.072455891665, -37452.85123024598, -40936.683528027956, -32946.60543758934, -20313.600637149888, -31996.209263349687, -42993.46870106086, 0.0618125, 0.967625, -0.05075, 192.0, 0.0, 0.0, 0.0, 0.0, 0.0, 0.0, 0.0, 0.0, 0.0, 1.668976409062284E9, 0.0, 2022-11-20 15:33:29.062
250.0, -23338.082234630852, 10701.188230656175, -44390.58683998428, -44290.49572831341, -33142.6749399513, -36098.402571487735, -32606.009555579374, -15186.423383524821, -33315.43157284636, -9033.815149523634, -37349.20619120672, -40840.32515768113, -32834.757308334985, -20211.363758011314, -31899.35915462484, -42901.625383094004, 0.06590625, 0.9658125, -0.050375, 192.0, 1.0, 24.0, 15.0, 16.0, 127.0, 56.0, 0.0, 0.0, 0.0, 1.6689764090622892E9, 0.0, 2022-11-20 15:33:29.062
252.0, -23421.186020515685, 10582.321653642852, -44463.14060248621, -44353.68410988857, -33212.79236230759, -36169.861098511356, -32678.42920761457, -15260.295898949613, -33398.62476570901, -9112.716807450868, -37442.94940745227, -40930.62620528057, -32926.84649549085, -20309.711433614666, -31982.440588765217, -42993.15577663849, 0.06590625, 0.9658125, -0.050375, 192.0, 0.0, 0.0, 0.0, 0.0, 0.0, 0.0, 0.0, 0.0, 0.0, 1.6689764090622942E9, 0.0, 2022-11-20 15:33:29.062
254.0, -23335.467080529583, 10661.11155284781, -44393.09023536328, -44283.4996322989, -33142.80905041803, -36104.482245979576, -32609.094096314206, -15192.48070627221, -33323.94758748384, -9050.914234031945, -37352.00015926363, -40849.6905386079, -32845.374386951255, -20233.447281533157, -31909.864474518836, -42925.51939791672, 0.06590625, 0.9658125, -0.050375, 192.0, 0.0, 0.0, 0.0, 0.0, 0.0, 0.0, 0.0, 0.0, 0.0, 1.6689764090622993E9, 0.0, 2022-11-20 15:33:29.062
0.0, -23418.97319781461, 10627.136901275742, -44474.6964543696, -44354.37701396668, -33223.63295836842, -36181.036970739005, -32686.94522225204, -15267.001422286205, -33393.126236573014, -9119.690551720923, -37431.080631146506, -40922.19959762092, -32933.19439091616, -20317.713358129666, -31983.602879476894, -42996.285020862226, 0.06590625, 0.9658125, -0.050375, 192.0, 0.0, 0.0, 0.0, 0.0, 0.0, 0.0, 0.0, 0.0, 0.0, 1.668976409062304E9, 0.0, 2022-11-20 15:33:29.062
2.0, -23312.71300467408, 10640.145616548733, -44359.20499076903, -44243.57941670173, -33115.74108788265, -36070.84287057434, -32571.83373830721, -15151.353496474445, -33315.43157284636, -9050.198978209375, -37340.44430738024, -40839.31932918064, -32850.67175038716, -20233.804909444443, -31903.091895948877, -42912.667144854924, 0.06590625, 0.9658125, -0.050375, 192.0, 0.0, 0.0, 0.0, 0.0, 0.0, 0.0, 0.0, 0.0, 0.0, 1.6689764090623257E9, 0.0, 2022-11-20 15:33:29.062
4.0, -23399.214255716117, 10695.488535820072, -44433.07750619382, -44319.15066470512, -33196.83321676651, -36148.179906389705, -32652.61294276869, -15230.143395679403, -33359.643323378965, -9081.42436521344, -37389.66284867082, -40881.18414654543, -32900.9184719227, -20279.760096044552, -31934.518448653038, -42944.7866016372, 0.063953125, 0.9609062500000001, -0.0491875, 192.0, 0.5, 120.0, 14.5, 112.0, 127.0, 64.0, 0.0, 0.0, 0.0, 1.6689764090623307E9, 0.0, 2022-11-20 15:33:29.062
6.0, -23321.072557100364, 10602.438223652629, -44345.30220571783, -44223.976936814426, -33109.92963432427, -36055.688387833645, -32569.956191772962, -15145.89967082735, -33323.29938689463, -9045.50511187376, -37337.29271141204, -40831.965605254845, -32847.07311952986, -20225.95944714063, -31890.060828931433, -42890.18128993289, 0.063953125, 0.9609062500000001, -0.0491875, 192.0, 0.0, 0.0, 0.0, 0.0, 0.0, 0.0, 0.0, 0.0, 0.0, 1.6689764090623422E9, 0.0, 2022-11-20 15:33:29.062
8.0, -23417.699148380656, 10725.059893734444, -44459.56432337336, -44339.28958645935, -33226.0916502585, -36167.268296154536, -32683.346591394737, -15260.184140227335, -33357.69872161135, -9070.360251708062, -37384.11961604591, -40867.95191382789, -32895.4646462756, -20264.516206326032, -31930.115154995343, -42921.74195310378, 0.063953125, 0.9609062500000001, -0.0491875, 192.0, 0.0, 0.0, 0.0, 0.0, 0.0, 0.0, 0.0, 0.0, 0.0, 1.6689764090623472E9, 0.0, 2022-11-20 15:33:29.062
10.0, -23319.99967336651, 10566.675432524138, -44354.287606988866, -44227.62027116064, -33114.31057623751, -36055.956608767105, -32572.437235407502, -15149.006563306639, -33353.16131748692, -9072.729536620323, -37370.99914205064, -40863.03453004772, -32882.79120716944, -20253.80972073194, -31931.94799804068, -42919.01504028023, 0.063953125, 0.9609062500000001, -0.0491875, 192.0, 0.0, 0.0, 0.0, 0.0, 0.0, 0.0, 0.0, 0.0, 0.0, 1.668976409062352E9, 0.0, 2022-11-20 15:33:29.062
12.0, -23400.57771212789, 10765.047164564987, -44460.391337918205, -44348.58791215276, -33222.35890893447, -36171.00103747857, -32676.819882013788, -15258.373648926456, -33334.13998295546, -9047.583824108104, -37363.31014195802, -40849.19880022989, -32878.857300145304, -20251.596898030868, -31915.631224588305, -42912.667144854924, 0.063953125, 0.9609062500000001, -0.0491875, 192.0, 0.0, 0.0, 0.0, 0.0, 0.0, 0.0, 0.0, 0.0, 0.0, 1.6689764090623572E9, 0.0, 2022-11-20 15:33:29.062
14.0, -23310.209609295085, 10554.314917840353, -44350.77838310938, -44239.22082653294, -33112.142457025344, -36065.70196934962, -32571.96784877394, -15153.968650575716, -33354.34595994306, -9077.043423300198, -37369.836851338965, -40867.37076847205, -32892.46951251859, -20271.936985485198, -31941.671006878736, -42944.85365687057, 0.063953125, 0.9609062500000001, -0.0491875, 192.0, 0.0, 0.0, 0.0, 0.0, 0.0, 0.0, 0.0, 0.0, 0.0, 1.668976409062362E9, 0.0, 2022-11-20 15:33:29.062
16.0, -23373.15212168123, 10817.9537436907, -44436.050288206374, -44336.29445270234, -33203.315222658544, -36162.06033969645, -32663.31942836278, -15247.957736010283, -33313.19639840083, -9032.205823922852, -37335.728089300166, -40825.684765062906, -32856.46085220109, -20242.030351403995, -31900.677907547702, -42912.15305473245, 0.062, 0.9560000000000001, -0.052000000000000005, 192.0, 0.5, 120.0, 14.5, 112.0, 127.0, 48.0, 0.0, 0.0, 0.0, 1.6689764090623672E9, 0.0, 2022-11-20 15:33:29.062
18.0, -23308.756745905488, 10548.928147426623, -44348.09617377474, -44216.198529743975, -33110.4660761912, -36058.52705937947, -32571.073778995727, -15149.073618540004, -33353.74246284276, -9069.26501622975, -37367.19934549324, -40854.2949979657, -32886.345134537834, -20267.556043571956, -31938.631169632816, -42943.89253185899, 0.062, 0.9560000000000001, -0.052000000000000005, 192.0, 0.0, 0.0, 0.0, 0.0, 0.0, 0.0, 0.0, 0.0, 0.0, 1.668976409062372E9, 0.0, 2022-11-20 15:33:29.062
20.0, -23370.492264091048, 10833.041171198032, -44439.425401619126, -44308.28771689984, -33204.61162383695, -36143.39663307627, -32657.21740212648, -15235.843090515506, -33303.8086657296, -9006.478966054794, -37325.312176383995, -40796.69455250437, -32846.156698007195, -20210.201467299637, -31886.730419007592, -42882.738159029264, 0.062, 0.9560000000000001, -0.052000000000000005, 192.0, 0.0, 0.0, 0.0, 0.0, 0.0, 0.0, 0.0, 0.0, 0.0, 1.668976409062377E9, 0.0, 2022-11-20 15:33:29.062
22.0, -23336.830536941354, 10517.859222633746, -44372.92896186459, -44229.72133513944, -33132.303730524036, -36065.43374841616, -32589.424561193537, -15162.23879602418, -33379.69283815537, -9091.505001962782, -37400.7269621762, -40877.272591265755, -32921.012690188014, -20280.76592454504, -31963.687475167215, -42954.86723838654, 0.062, 0.9560000000000001, -0.052000000000000005, 192.0, 0.0, 0.0, 0.0, 0.0, 0.0, 0.0, 0.0, 0.0, 0.0, 1.668976409062382E9, 0.0, 2022-11-20 15:33:29.062
24.0, -23356.634182528756, 10848.463874872194, -44415.97842168551, -44299.324667373265, -33184.651516038364, -36122.22953107709, -32637.592570494722, -15215.927686205827, -33293.862139446996, -9003.886163697978, -37319.76894375908, -40797.275697860205, -32836.88072405824, -20200.299644505936, -31875.688657246672, -42872.255190879725, 0.062, 0.9560000000000001, -0.052000000000000005, 192.0, 0.0, 0.0, 0.0, 0.0, 0.0, 0.0, 0.0, 0.0, 0.0, 1.6689764090623868E9, 0.0, 2022-11-20 15:33:29.062
26.0, -23332.248429328018, 10531.180862329109, -44360.81431636981, -44230.23542526191, -33122.73718389716, -36058.52705937947, -32581.78026458982, -15154.460388953734, -33370.260401995234, -9078.65274890098, -37393.30618301704, -40874.389216231015, -32909.65800400472, -20279.022488477527, -31947.03542554801, -42944.9877673373, 0.064, 0.9580000000000001, -0.048, 192.0, 1.0, 0.0, 14.5, 120.0, 127.0, 64.0, 0.0, 0.0, 0.0, 1.6689764090623918E9, 0.0, 2022-11-20 15:33:29.062
28.0, -23348.47579580257, 10847.122770204875, -44408.04355240388, -44298.45294933951, -33172.626277521405, -36117.66977520821, -32626.64021571162, -15207.814002968551, -33272.15859558089, -8987.412928034417, -37295.13732136933, -40782.54589826416, -32814.417220880656, -20190.017842056495, -31852.264029057507, -42854.6643679934, 0.064, 0.9580000000000001, -0.048, 192.0, 0.0, 0.0, 0.0, 0.0, 0.0, 0.0, 0.0, 0.0, 0.0, 1.6689764090623968E9, 0.0, 2022-11-20 15:33:29.062
30.0, -23379.678831062178, 10505.141080038677, -44409.36230532674, -44275.76592871737, -33163.43971055028, -36104.973984357595, -32618.191256307517, -15196.258151085158, -33400.61407096554, -9115.555478996692, -37422.09522987548, -40909.48145502585, -32938.223533418604, -20313.533581916523, -31978.104350340887, -42980.68350323242, 0.064, 0.9580000000000001, -0.048, 192.0, 0.0, 0.0, 0.0, 0.0, 0.0, 0.0, 0.0, 0.0, 0.0, 1.6689764090624018E9, 0.0, 2022-11-20 15:33:29.062
32.0, -23367.05009544493, 10800.139403359819, -44430.28353813691, -44310.14291168963, -33189.61360330744, -36134.76885971652, -32636.810259438786, -15220.621552541443, -33314.02341294568, -9031.043533211176, -37338.34324340144, -40822.46611386134, -32852.34813122131, -20225.04302561796, -31898.487436591084, -42900.843072038064, 0.064, 0.9580000000000001, -0.048, 192.0, 0.0, 0.0, 0.0, 0.0, 0.0, 0.0, 0.0, 0.0, 0.0, 1.6689764090624068E9, 0.0, 2022-11-20 15:33:29.062
34.0, -23389.468895133603, 10520.876708135213, -44422.482779322, -44290.76394924688, -33175.911983956335, -36121.31310955442, -32630.708233202487, -15208.126927390926, -33405.37499253452, -9119.66819997647, -37437.89791320538, -40918.220987107874, -32947.723024812105, -20324.016550066062, -31994.063495881976, -42999.302506363696, 0.064, 0.9580000000000001, -0.048, 192.0, 0.0, 0.0, 0.0, 0.0, 0.0, 0.0, 0.0, 0.0, 0.0, 1.6689764090624115E9, 0.0, 2022-11-20 15:33:29.062
36.0, -23341.591458510335, 10794.193839334708, -44405.54015702488, -44290.2051556355, -33163.14913787236, -36112.461818750126, -32616.447820240002, -15197.95688366376, -33303.74161049624, -9021.141710417474, -37327.94968222972, -40812.631346301, -32837.86420081427, -20219.388034270767, -31891.8266167434, -42897.222089436305, 0.06, 0.962, -0.04, 192.0, 0.5, 112.0, 15.0, 8.0, 127.0, 96.0, 0.0, 0.0, 0.0, 1.6689764090624168E9, 0.0, 2022-11-20 15:33:29.062
38.0, -23380.796418284943, 10565.736659257014, -44417.07365716382, -44284.88544045513, -33169.65349550885, -36118.20621707514, -32625.768497677866, -15203.187191866302, -33393.327402273106, -9105.720711436357, -37422.87754093141, -40900.473702010364, -32933.686129294176, -20313.31006447197, -31977.634963707325, -42984.7962242122, 0.06, 0.962, -0.04, 192.0, 0.0, 0.0, 0.0, 0.0, 0.0, 0.0, 0.0, 0.0, 0.0, 1.668976409062423E9, 0.0, 2022-11-20 15:33:29.062
40.0, -23329.454461271103, 10766.723545399136, -44379.25450554544, -44263.114841355666, -33134.02481484709, -36090.087722550365, -32589.73748561591, -15172.252377540157, -33284.45205503131, -9020.180585405897, -37307.60959477539, -40794.05704665864, -32816.96531974856, -20202.24424627355, -31867.664380987215, -42873.596295547046, 0.06, 0.962, -0.04, 192.0, 0.0, 0.0, 0.0, 0.0, 0.0, 0.0, 0.0, 0.0, 0.0, 1.668976409062428E9, 0.0, 2022-11-20 15:33:29.062
42.0, -23415.9780640576, 10578.275987896443, -44447.00264298948, -44313.67448731357, -33192.87695799791, -36146.61528427783, -32646.108585132195, -15231.3950933689, -33396.79192266368, -9117.656542975492, -37430.47713404622, -40907.96153640289, -32930.2216089036, -20313.73474761662, -31972.069379337954, -42977.88953517551, 0.06, 0.962, -0.04, 192.0, 0.0, 0.0, 0.0, 0.0, 0.0, 0.0, 0.0, 0.0, 0.0, 1.668976409062433E9, 0.0, 2022-11-20 15:33:29.062
44.0, -23330.929676405154, 10726.021018746022, -44376.05820608833, -44251.13430632762, -33121.75370714113, -36080.85645209032, -32574.62770636412, -15164.317508258524, -33322.33826188305, -9043.26993742823, -37346.12165047188, -40823.27077666173, -32839.04884327041, -20215.52118248, -31888.40679984174, -42892.90820275643, 0.06, 0.962, -0.04, 192.0, 0.0, 0.0, 0.0, 0.0, 0.0, 0.0, 0.0, 0.0, 0.0, 1.668976409062438E9, 0.0, 2022-11-20 15:33:29.062
46.0, -23388.753639311035, 10648.147541063732, -44423.779180500416, -44294.854318482205, -33169.29586759757, -36123.213007833125, -32624.919131388564, -15209.400976824878, -33379.46932071082, -9091.37089149605, -37410.964061136736, -40887.50969022628, -32903.42186730169, -20276.116761698337, -31942.453317934673, -42946.440630726895, 0.064, 0.9580000000000001, -0.038, 192.0, 1.0, 0.0, 14.5, 120.0, 127.0, 104.0, 0.0, 0.0, 0.0, 1.6689764090624428E9, 0.0, 2022-11-20 15:33:29.062
48.0, -23300.352489990295, 10709.950114482655, -44348.29733947484, -44229.967204328444, -33096.51858765109, -36052.08975697634, -32549.52669734081, -15133.80737707703, -33307.11672390899, -9035.849158269068, -37324.194589161234, -40816.34173588058, -32821.45802038408, -20196.075164803882, -31873.006447912034, -42868.50009781124, 0.064, 0.9580000000000001, -0.038, 192.0, 0.0, 0.0, 0.0, 0.0, 0.0, 0.0, 0.0, 0.0, 0.0, 1.6689764090624478E9, 0.0, 2022-11-20 15:33:29.062
50.0, -23377.845988016845, 10703.579867312894, -44428.875378236226, -44308.77945527786, -33173.6321060219, -36128.28685382448, -32628.406003523593, -15211.412633825856, -33354.03303552068, -9074.562379665658, -37380.23041251068, -40869.80710861768, -32879.52785247897, -20252.938002698185, -31924.661329348248, -42918.65741236894, 0.064, 0.9580000000000001, -0.038, 192.0, 0.0, 0.0, 0.0, 0.0, 0.0, 0.0, 0.0, 0.0, 0.0, 1.6689764090624528E9, 0.0, 2022-11-20 15:33:29.062
52.0, -23312.37772850725, 10649.846273642335, -44365.35172049424, -44243.62412019064, -33111.89658783634, -36060.449309402626, -32563.228316691915, -15145.89967082735, -33323.94758748384, -9049.617832853537, -37337.94091200124, -40837.71000357986, -32837.50657290299, -20210.827316144387, -31896.92281447921, -42884.414539863414, 0.064, 0.9580000000000001, -0.038, 192.0, 0.0, 0.0, 0.0, 0.0, 0.0, 0.0, 0.0, 0.0, 0.0, 1.6689764090624576E9, 0.0, 2022-11-20 15:33:29.062
54.0, -23384.05977297542, 10726.579812357404, -44447.114401711755, -44318.278946671366, -33188.630126551405, -36133.15953411574, -32636.251465827405, -15219.10163391848, -33371.15447177344, -9082.65371115848, -37396.9271656188, -40886.7497309148, -32892.3130503074, -20258.235366134093, -31943.906181324266, -42925.92172931692, 0.064, 0.9580000000000001, -0.038, 192.0, 0.0, 0.0, 0.0, 0.0, 0.0, 0.0, 0.0, 0.0, 0.0, 1.6689764090624626E9, 0.0, 2022-11-20 15:33:29.062
56.0, -23280.07945776933, 10636.658744413704, -44339.043717270346, -44207.21312847294, -33082.03465724405, -36024.26183512948, -32532.49466806587, -15112.4167576333, -33318.69492753684, -9036.944393747377, -37334.69990905523, -40831.00448024327, -32830.44342165511, -20194.108211291816, -31893.905328977744, -42872.03167343517, 0.062, 0.9520000000000001, -0.038, 192.0, 0.5, 120.0, 14.5, 96.0, 127.0, 104.0, 0.0, 0.0, 0.0, 1.6689764090624676E9, 0.0, 2022-11-20 15:33:29.062
58.0, -23395.503866136536, 10735.967545028632, -44468.72853860004, -44351.270121487396, -33217.0391937541, -36158.14878441677, -32666.359265608702, -15246.504872620688, -33349.67444535189, -9065.107591761063, -37375.31302873052, -40871.43878596291, -32875.32572452137, -20233.559040255434, -31929.757527084057, -42910.61078436504, 0.062, 0.9520000000000001, -0.038, 192.0, 0.0, 0.0, 0.0, 0.0, 0.0, 0.0, 0.0, 0.0, 0.0, 1.6689764090624726E9, 0.0, 2022-11-20 15:33:29.062
60.0, -23300.263083012473, 10566.116638912754, -44358.24386575745, -44240.740745155905, -33105.235767988655, -36049.92163776417, -32557.305104411258, -15135.796682333552, -33365.097149026056, -9090.432118228928, -37377.92818283179, -40888.67198093796, -32876.59977395532, -20243.19264211567, -31944.576733657927, -42925.608804894546, 0.062, 0.9520000000000001, -0.038, 192.0, 0.0, 0.0, 0.0, 0.0, 0.0, 0.0, 0.0, 0.0, 0.0, 1.6689764090624776E9, 0.0, 2022-11-20 15:33:29.062
62.0, -23367.29596463394, 10776.379499003828, -44447.874361023234, -44339.89308355965, -33199.42601912332, -36146.235304622096, -32647.695558988522, -15230.791596268607, -33331.457773620816, -9049.014335753243, -37360.29265645655, -40863.772137614746, -32857.51138419049, -20222.740795939066, -31916.480590877607, -42902.318287172115, 0.062, 0.9520000000000001, -0.038, 192.0, 0.0, 0.0, 0.0, 0.0, 0.0, 0.0, 0.0, 0.0, 0.0, 1.6689764090624824E9, 0.0, 2022-11-20 15:33:29.062
64.0, -23292.887007342222, 10537.551109498872, -44351.270121487396, -44231.12949504012, -33094.43987541674, -36044.020777227975, -32546.620970561624, -15129.605249119431, -33358.95041930085, -9083.950112336888, -37382.10795904493, -40889.94603037191, -32874.319896020876, -20241.53861302598, -31937.692396365692, -42928.49217992928, 0.062, 0.9520000000000001, -0.038, 192.0, 0.0, 0.0, 0.0, 0.0, 0.0, 0.0, 0.0, 0.0, 0.0, 1.6689764090624874E9, 0.0, 2022-11-20 15:33:29.062
66.0, -23367.72064777859, 10783.465001996161, -44446.66736682265, -44331.08649624426, -33187.42313235082, -36139.35096732986, -32636.98907339443, -15223.10259617598, -33322.13709618296, -9037.570242592126, -37349.27324644008, -40849.087041507606, -32841.038148526924, -20206.647539931244, -31885.903404462744, -42883.36400787401, 0.062, 0.9540000000000001, -0.04, 192.0, 0.5, 120.0, 14.5, 104.0, 127.0, 96.0, 0.0, 0.0, 0.0, 1.668976409062493E9, 0.0, 2022-11-20 15:33:29.062
68.0, -23309.315539516872, 10502.79414687087, -44361.79779312584, -44225.630965904114, -33093.25523296061, -36039.79629752592, -32543.223505404414, -15126.341894428957, -33374.9766200753, -9097.450565987894, -37392.21094753873, -40897.63503046454, -32886.479245004564, -20248.46765380712, -31938.45235567717, -42928.55923516265, 0.062, 0.9540000000000001, -0.04, 192.0, 0.0, 0.0, 0.0, 0.0, 0.0, 0.0, 0.0, 0.0, 0.0, 1.668976409062498E9, 0.0, 2022-11-20 15:33:29.062
70.0, -23361.395104097737, 10791.288112555518, -44432.585767815806, -44321.63170833966, -33170.122882142416, -36122.22953107709, -32615.531398717332, -15202.695453488286, -33310.44713383283, -9022.862794740533, -37335.2139991777, -40839.587550114105, -32827.247122198, -20190.12960077877, -31874.034628156976, -42866.35433034353, 0.062, 0.9540000000000001, -0.04, 192.0, 0.0, 0.0, 0.0, 0.0, 0.0, 0.0, 0.0, 0.0, 0.0, 1.6689764090625043E9, 0.0, 2022-11-20 15:33:29.062
72.0, -23344.22896435606, 10458.560044593816, -44378.2263253005, -44260.0973558542, -33112.12010528089, -36065.478451905066, -32561.596639346677, -15146.704333627742, -33395.56257671864, -9104.22314455785, -37414.78620943859, -40923.69716449943, -32899.57736725538, -20265.454979593156, -31949.538820927006, -42946.083002815605, 0.062, 0.9540000000000001, -0.04, 192.0, 0.0, 0.0, 0.0, 0.0, 0.0, 0.0, 0.0, 0.0, 0.0, 1.6689764090625093E9, 0.0, 2022-11-20 15:33:29.062
74.0, -23361.328048864372, 10777.810010648967, -44426.66255553515, -44331.53353113336, -33171.329876343, -36133.695975982664, -32620.672299942056, -15212.954904193271, -33318.98550021476, -9034.485701857293, -37347.0157202501, -40855.47964042183, -32825.57074136385, -20202.020728828997, -31878.907308448233, -42882.112310184515, 0.062, 0.9540000000000001, -0.04, 192.0, 0.0, 0.0, 0.0, 0.0, 0.0, 0.0, 0.0, 0.0, 0.0, 1.6689764090625143E9, 0.0, 2022-11-20 15:33:29.062
76.0, -23346.48649054605, 10455.274338158886, -44389.089273105776, -44267.83105943574, -33128.32512001099, -36081.43759744616, -32580.81913957824, -15167.267938526624, -33399.831759909604, -9119.936420909933, -37424.866846187935, -40934.53776056025, -32903.332460323865, -20284.25279668007, -31959.88767860981, -42963.58441872412, 0.064, 0.962, -0.038, 192.0, 1.0, 0.0, 15.0, 8.0, 127.0, 104.0, 0.0, 0.0, 0.0, 1.6689764090625193E9, 0.0, 2022-11-20 15:33:29.062
78.0, -23330.99673163852, 10784.22496130764, -44416.24664261897, -44305.739618031934, -33162.970323916714, -36109.779609415484, -32605.786038134822, -15194.738232462196, -33308.83780823205, -9026.819053509123, -37332.442382865236, -40837.486486135305, -32816.20536043708, -20189.168475767194, -31877.476796803094, -42873.37277810249, 0.064, 0.962, -0.038, 192.0, 0.0, 0.0, 0.0, 0.0, 0.0, 0.0, 0.0, 0.0, 0.0, 1.6689764090625243E9, 0.0, 2022-11-20 15:33:29.062
80.0, -23351.090949903843, 10466.383155153175, -44417.23011937501, -44281.46562355347, -33160.51163202663, -36099.27428952149, -32601.382744477123, -15184.165857334836, -33398.445951753376, -9110.906316149989, -37423.816314198535, -40925.507655800306, -32914.93301569617, -20280.229482678114, -31974.751588672592, -42965.596075725094, 0.064, 0.962, -0.038, 192.0, 0.0, 0.0, 0.0, 0.0, 0.0, 0.0, 0.0, 0.0, 0.0, 1.668976409062529E9, 0.0, 2022-11-20 15:33:29.062
82.0, -23314.61290295278, 10766.187103532207, -44412.26803210593, -44292.66384752558, -33162.478585538694, -36106.225682047094, -32599.5946049207, -15188.166819592336, -33306.17795064187, -9018.392445849473, -37328.01673746309, -40829.90924476495, -32825.07900298584, -20188.073240288883, -31890.954898709646, -42880.07830143908, 0.064, 0.962, -0.038, 192.0, 0.0, 0.0, 0.0, 0.0, 0.0, 0.0, 0.0, 0.0, 0.0, 1.668976409062534E9, 0.0, 2022-11-20 15:33:29.062
84.0, -23357.81882498489, 10483.236370472476, -44413.11739839523, -44287.4558910675, -33162.053902394044, -36107.05269659194, -32605.942500346006, -15187.563322492042, -33394.06500984013, -9109.073473104652, -37421.75995370864, -40922.691335998934, -32916.02825117448, -20280.274186167026, -31974.349257272395, -42963.07032860164, 0.064, 0.962, -0.038, 192.0, 0.0, 0.0, 0.0, 0.0, 0.0, 0.0, 0.0, 0.0, 0.0, 1.6689764090625389E9, 0.0, 2022-11-20 15:33:29.062
86.0, -23317.920961132164, 10721.148338454765, -44392.509090007436, -44287.366484089674, -33149.60398073244, -36100.23541453307, -32594.40900020707, -15181.52835148911, -33304.70273550782, -9026.372018620017, -37332.88941775435, -40838.805239058165, -32820.96628200606, -20188.922606578184, -31879.466102059618, -42875.04915893664, 0.069, 0.964, -0.035, 192.0, 1.0, 40.0, 15.0, 24.0, 127.5, 0.0, 0.0, 0.0, 0.0, 1.668976409062544E9, 0.0, 2022-11-20 15:33:29.062
88.0, -23347.268801601986, 10513.970019098524, -44397.11354936523, -44274.31306532778, -33147.92759989829, -36096.368562742304, -32597.515892686355, -15181.662461955842, -33386.621878936516, -9103.127909079541, -37423.950424665265, -40925.23943486684, -32907.71340223711, -20274.77565703102, -31954.187983773707, -42955.64954944248, 0.069, 0.964, -0.035, 192.0, 0.0, 0.0, 0.0, 0.0, 0.0, 0.0, 0.0, 0.0, 0.0, 1.6689764090625489E9, 0.0, 2022-11-20 15:33:29.062
90.0, -23293.065821297863, 10704.518640580016, -44360.05435705833, -44245.56872195825, -33123.474791464185, -36074.508556665016, -32574.135967986105, -15161.121208801414, -33273.94673513732, -8997.940599672866, -37306.44730406372, -40809.07741893261, -32791.6407932807, -20157.496053874023, -31843.077462086378, -42848.31647256809, 0.069, 0.964, -0.035, 192.0, 0.0, 0.0, 0.0, 0.0, 0.0, 0.0, 0.0, 0.0, 0.0, 1.668976409062554E9, 0.0, 2022-11-20 15:33:29.062
92.0, -23362.266822131496, 10534.220699575031, -44411.597479772274, -44285.064254410776, -33175.08496941149, -36126.297548567956, -32630.328253546748, -15214.944209449794, -33390.108751071544, -9101.071548589653, -37419.52477926311, -40915.158798117496, -32911.78141972797, -20280.430648378213, -31956.110233796866, -42962.891514646, 0.069, 0.964, -0.035, 192.0, 0.0, 0.0, 0.0, 0.0, 0.0, 0.0, 0.0, 0.0, 0.0, 1.668976409062559E9, 0.0, 2022-11-20 15:33:29.062
94.0, -23274.98326003352, 10662.005622626022, -44337.23322596947, -44222.85934959166, -33105.995727300135, -36060.9633995251, -32560.6355143351, -15143.843310337463, -33294.04095340263, -9012.491585313272, -37309.7553622431, -40813.61482305704, -32808.13638068872, -20178.79726633993, -31860.265953572507, -42865.23674312076, 0.069, 0.964, -0.035, 192.0, 0.0, 0.0, 0.0, 0.0, 0.0, 0.0, 0.0, 0.0, 0.0, 1.6689764090625637E9, 0.0, 2022-11-20 15:33:29.062
96.0, -23354.15313889422, 10578.007766962977, -44413.74324723998, -44289.31108585728, -33180.248222380666, -36130.52202827001, -32630.79764018031, -15212.753738493175, -33359.285695467675, -9073.221274998341, -37385.34896199095, -40886.5485652147, -32886.92627989367, -20257.810682989442, -31932.260922463054, -42940.65152891297, 0.0675, 0.966, -0.0345, 192.0, 1.0, 8.0, 15.0, 32.0, 127.0, 120.0, 0.0, 0.0, 0.0, 1.668976409062569E9, 0.0, 2022-11-20 15:33:29.062
98.0, -23261.728675571525, 10636.68109615816, -44340.13895274865, -44222.32290772473, -33104.49816042163, -36057.18595471215, -32555.11463345464, -15140.311734713523, -33290.82230220107, -9015.687884770381, -37310.001231432114, -40817.12404693652, -32819.53577036092, -20186.955653066118, -31879.220232870608, -42880.14535667245, 0.0675, 0.966, -0.0345, 192.0, 0.0, 0.0, 0.0, 0.0, 0.0, 0.0, 0.0, 0.0, 0.0, 1.6689764090625737E9, 0.0, 2022-11-20 15:33:29.062
100.0, -23372.302755391927, 10618.978514549555, -44440.90061675318, -44336.58502538026, -33207.24912968268, -36164.317865886434, -32657.93265794905, -15244.023828986148, -33345.80759356113, -9071.567245908647, -37377.749368876146, -40882.25703027929, -32887.35096303832, -20259.911746968242, -31938.251189977076, -42945.34539524858, 0.0675, 0.966, -0.0345, 192.0, 0.0, 0.0, 0.0, 0.0, 0.0, 0.0, 0.0, 0.0, 0.0, 1.6689764090625787E9, 0.0, 2022-11-20 15:33:29.062
102.0, -23280.07945776933, 10608.070863255365, -44341.03302252686, -44241.12072481164, -33108.722640123684, -36065.94783853863, -32563.11655796964, -15149.230080751191, -33321.667709549394, -9054.021126511232, -37342.366557403395, -40851.83630607561, -32843.31802646137, -20222.830202916884, -31901.437866859185, -42910.45432215385, 0.0675, 0.966, -0.0345, 192.0, 0.0, 0.0, 0.0, 0.0, 0.0, 0.0, 0.0, 0.0, 0.0, 1.6689764090625849E9, 0.0, 2022-11-20 15:33:29.062
104.0, -23376.124903693784, 10696.06968117591, -44450.48951512451, -44346.933883063066, -33216.70391758727, -36170.419892122736, -32668.080349931763, -15255.020887258159, -33358.05634952264, -9068.817981340646, -37389.03699982608, -40884.98394310283, -32887.37331478278, -20259.799988245963, -31933.199695730174, -42942.55142719167, 0.0675, 0.966, -0.0345, 192.0, 0.0, 0.0, 0.0, 0.0, 0.0, 0.0, 0.0, 0.0, 0.0, 1.66897640906259E9, 0.0, 2022-11-20 15:33:29.062
106.0, -23272.815140821356, 10588.244865923509, -44345.50337141793, -44231.26360550685, -33108.43206744576, -36055.263704688994, -32557.372159644627, -15141.339914958467, -33330.29548290915, -9058.826751569122, -37353.54242963105, -40857.37953870053, -32856.97494232356, -20226.138261096272, -31913.932492009702, -42915.05878151164, 0.06575, 0.966, -0.03425, 192.0, 1.0, 0.0, 15.0, 24.0, 127.0, 120.0, 0.0, 0.0, 0.0, 1.6689764095422692E9, 0.0, 2022-11-20 15:33:29.542
108.0, -23352.342647593337, 10745.17646374422, -44441.50411385347, -44330.19242646604, -33207.47264712723, -36151.39855759127, -32648.969608422474, -15233.384398625423, -33338.05153823514, -9059.74317309179, -37373.055502540534, -40868.62246616155, -32874.76693090999, -20236.598877501354, -31920.816829301933, -42917.15984549044, 0.06575, 0.966, -0.03425, 192.0, 0.0, 0.0, 0.0, 0.0, 0.0, 0.0, 0.0, 0.0, 0.0, 1.6689764095423067E9, 0.0, 2022-11-20 15:33:29.542
110.0, -23273.485693155017, 10565.66960402365, -44337.97083353649, -44214.23157623191, -33106.30865172251, -36051.843887787334, -32553.30414215376, -15134.5226328996, -33338.83384929107, -9065.442867927894, -37361.186726234766, -40863.12393702554, -32862.428767970654, -20226.6747029632, -31917.151143211264, -42911.99659252127, 0.06575, 0.966, -0.03425, 192.0, 0.0, 0.0, 0.0, 0.0, 0.0, 0.0, 0.0, 0.0, 0.0, 1.6689764095423598E9, 0.0, 2022-11-20 15:33:29.542
112.0, -23363.00442969852, 10775.306615269974, -44440.72180279753, -44325.38680140815, -33219.20731296627, -36168.810566521955, -32663.744111507433, -15250.550538367099, -33329.35670964202, -9044.253414184263, -37360.42676692329, -40852.32804445363, -32864.48512846055, -20228.239325075072, -31908.389259384785, -42908.15209247495, 0.06575, 0.966, -0.03425, 192.0, 0.0, 0.0, 0.0, 0.0, 0.0, 0.0, 0.0, 0.0, 0.0, 1.6689764095424223E9, 0.0, 2022-11-20 15:33:29.542
114.0, -23286.628518894737, 10535.94178389809, -44337.68026085857, -44214.49979716537, -33115.294052993544, -36065.90313504972, -32565.06115973725, -15151.733476130186, -33361.11853851301, -9078.898618089988, -37377.70466538724, -40873.67396040845, -32883.52881473646, -20254.6814387657, -31936.8877335653, -42935.22005501033, 0.06575, 0.966, -0.03425, 192.0, 0.0, 0.0, 0.0, 0.0, 0.0, 0.0, 0.0, 0.0, 0.0, 1.668976409542428E9, 0.0, 2022-11-20 15:33:29.542
116.0, -23343.021970155474, 10809.102452886398, -44432.18343641561, -44322.27990892886, -33208.277309927624, -36156.53945881599, -32651.093024145728, -15237.139491693913, -33314.828075746074, -9035.826806524612, -37339.505534113116, -40831.965605254845, -32846.559029407385, -20218.225743559095, -31891.78191325449, -42892.5729265896, 0.064875, 0.967, -0.038125000000000006, 192.0, 1.0, 0.0, 15.0, 32.0, 127.0, 88.0, 0.0, 0.0, 0.0, 1.6689764095424333E9, 0.0, 2022-11-20 15:33:29.542
118.0, -23288.818989851356, 10521.390798257686, -44363.429470471085, -44231.777695629324, -33123.899474608836, -36059.957571024606, -32568.25745919436, -15144.871490582407, -33371.69091364037, -9098.836374144123, -37395.429598740295, -40894.77400717426, -32905.61233825831, -20268.137188927794, -31961.89933561079, -42950.21807553984, 0.064875, 0.967, -0.038125000000000006, 192.0, 0.0, 0.0, 0.0, 0.0, 0.0, 0.0, 0.0, 0.0, 0.0, 1.6689764095424395E9, 0.0, 2022-11-20 15:33:29.542
120.0, -23327.241638570027, 10825.709799016691, -44436.16204692865, -44315.64144082564, -33196.56499583304, -36129.73971721408, -32632.205800080992, -15212.686683259808, -33301.126456394966, -9011.128128901497, -37331.0118712201, -40820.74502953828, -32838.71356710357, -20191.604815912822, -31889.457331831138, -42872.83633623557, 0.064875, 0.967, -0.038125000000000006, 192.0, 0.0, 0.0, 0.0, 0.0, 0.0, 0.0, 0.0, 0.0, 0.0, 1.6689764095424447E9, 0.0, 2022-11-20 15:33:29.542
122.0, -23290.56242591887, 10522.374275013719, -44368.21274378452, -44229.16254152806, -33120.83728561846, -36049.116974963785, -32558.15447070056, -15132.086292753971, -33378.39643697697, -9081.737289635812, -37402.44804649926, -40887.64380069301, -32907.37812607028, -20252.781540486998, -31961.295838510498, -42938.90809284546, 0.064875, 0.967, -0.038125000000000006, 192.0, 0.0, 0.0, 0.0, 0.0, 0.0, 0.0, 0.0, 0.0, 0.0, 1.6689764095424502E9, 0.0, 2022-11-20 15:33:29.542
124.0, -23301.26891151296, 10842.138331191341, -44408.46823554853, -44291.32274285826, -33167.93241118579, -36105.532777968976, -32606.590700935212, -15187.093935858482, -33286.68722947684, -8993.559657759626, -37309.48714130964, -40799.108540905545, -32819.379308149735, -20167.241414456537, -31871.06184614442, -42851.088088880555, 0.064875, 0.967, -0.038125000000000006, 192.0, 0.0, 0.0, 0.0, 0.0, 0.0, 0.0, 0.0, 0.0, 0.0, 1.6689764095424557E9, 0.0, 2022-11-20 15:33:29.542
126.0, -23307.102716815796, 10509.566725440827, -44378.56160146733, -44243.08767832371, -33136.41645150381, -36066.41722517219, -32575.5888313757, -15150.124150529404, -33377.547070687666, -9092.935513607921, -37393.954383606244, -40890.23660304983, -32910.2167976161, -20258.861214978842, -31958.56892568695, -42937.92461608942, 0.06443750000000001, 0.9644999999999999, -0.0400625, 192.0, 1.0, 0.0, 15.0, 8.0, 127.0, 88.0, 0.0, 0.0, 0.0, 1.668976409542461E9, 0.0, 2022-11-20 15:33:29.542
128.0, -23291.210626508073, 10837.131540433353, -44384.84244165927, -44270.06623388127, -33152.576762745, -36090.42299871719, -32592.330287972723, -15170.978328106205, -33285.323773065065, -8994.118451371009, -37302.04401040602, -40799.95790719485, -32813.5455028469, -20164.335687677347, -31861.092968117355, -42840.582768986555, 0.06443750000000001, 0.9644999999999999, -0.0400625, 192.0, 0.0, 0.0, 0.0, 0.0, 0.0, 0.0, 0.0, 0.0, 0.0, 1.668976409542469E9, 0.0, 2022-11-20 15:33:29.542
130.0, -23316.624559953758, 10530.46560650654, -44377.01933109991, -44249.56968421575, -33141.378538772886, -36084.58919341436, -32591.68208738352, -15166.753848404152, -33390.3322685161, -9098.70226367739, -37415.41205828334, -40906.262803824284, -32915.38005058528, -20272.29461339648, -31957.160765786266, -42945.255988270765, 0.06443750000000001, 0.9644999999999999, -0.0400625, 192.0, 0.0, 0.0, 0.0, 0.0, 0.0, 0.0, 0.0, 0.0, 0.0, 1.6689764095424745E9, 0.0, 2022-11-20 15:33:29.542
