%OpenBCI Raw EEG Data
%Number of channels = 16
%Sample Rate = 125 Hz
%Board = OpenBCI_GUI$BoardCytonSerialDaisy
Sample Index, EXG Channel 0, EXG Channel 1, EXG Channel 2, EXG Channel 3, EXG Channel 4, EXG Channel 5, EXG Channel 6, EXG Channel 7, EXG Channel 8, EXG Channel 9, EXG Channel 10, EXG Channel 11, EXG Channel 12, EXG Channel 13, EXG Channel 14, EXG Channel 15, Accel Channel 0, Accel Channel 1, Accel Channel 2, Other, Other, Other, Other, Other, Other, Other, Analog Channel 0, Analog Channel 1, Analog Channel 2, Timestamp, Other, Timestamp (Formatted)
44.0, -20971.18895902502, -20561.705000603797, -30435.521058502327, -16216.794099425568, -9965.54761714311, -13499.71604343844, 26587.31062260993, -13773.457857782587, -24695.2801579571, -914.9686592779946, -25881.733105389252, -25213.08067000874, -5513.862432701878, 8107.916487206994, -8501.329541364854, -20431.819013574008, 0.0, 0.0, 0.0, 192.0, 0.0, 0.0, 0.0, 0.0, 0.0, 0.0, 0.0, 0.0, 0.0, 1.6620651666580358E9, 0.0, 2022-09-01 16:46:06.658
46.0, -20980.24141552942, -20558.799273824607, -30459.146852391586, -16213.977779624198, -9991.252123266713, -13483.846304875173, 26623.855724794357, -13770.350965303298, -24762.26833608965, -1002.5204423094324, -25962.08762670608, -25296.43032508258, -5572.312244452506, 8019.604744864077, -8546.54712039794, -20508.574904033532, 0.134, 0.8220000000000001, -0.514, 192.0, 2.0, 24.0, 12.5, 88.0, 119.5, 120.0, 0.0, 0.0, 0.0, 1.662065166658043E9, 0.0, 2022-09-01 16:46:06.658
48.0, -20959.744865863904, -20551.467901643267, -30425.64158745308, -16204.321826019506, -9948.359125656978, -13484.42745023101, 26557.515747251007, -13752.871901139248, -24703.907931316848, -910.4983103869332, -25889.243291526236, -25219.115641011675, -5519.9868106826325, 8105.323684850179, -8496.948599451614, -20428.063920505516, 0.134, 0.8220000000000001, -0.514, 192.0, 0.0, 0.0, 0.0, 0.0, 0.0, 0.0, 0.0, 0.0, 0.0, 1.6620651666580486E9, 0.0, 2022-09-01 16:46:06.658
50.0, -21010.43862228854, -20588.08005906106, -30487.645326572103, -16244.130282894408, -10013.760329933206, -13513.596476745186, 26661.049027567988, -13798.022424938968, -24760.748417466693, -1010.8129395023512, -25965.775664541205, -25303.806400752834, -5568.758317084113, 7992.760299773253, -8534.588937114351, -20507.949055188783, 0.134, 0.8220000000000001, -0.514, 192.0, 0.0, 0.0, 0.0, 0.0, 0.0, 0.0, 0.0, 0.0, 0.0, 1.6620651666580548E9, 0.0, 2022-09-01 16:46:06.658
52.0, -20961.53300542033, -20545.455282384788, -30431.341282289184, -16204.50063997515, -9951.108390224981, -13485.76855489833, 26508.699537360615, -13755.934090129625, -24722.2363617702, -923.0152872819051, -25906.521189990188, -25230.55973417279, -5536.124770179364, 8096.628856257064, -8511.96897172558, -20440.402083444846, 0.134, 0.8220000000000001, -0.514, 192.0, 0.0, 0.0, 0.0, 0.0, 0.0, 0.0, 0.0, 0.0, 0.0, 1.6620651666580608E9, 0.0, 2022-09-01 16:46:06.658
54.0, -21023.983779428458, -20602.742803423742, -30501.816332556766, -16262.12343718093, -10027.283135328667, -13528.281572852324, 26685.7477051911, -13816.104986203312, -24769.443246059807, -1013.4951488369882, -25969.173129698414, -25305.192208909062, -5569.965311284699, 7986.680625281409, -8541.182701728667, -20508.68666275581, 0.134, 0.8220000000000001, -0.514, 192.0, 0.0, 0.0, 0.0, 0.0, 0.0, 0.0, 0.0, 0.0, 0.0, 1.6620651666580665E9, 0.0, 2022-09-01 16:46:06.658
56.0, -20947.183185480022, -20531.865421755963, -30420.903017628556, -16192.810677625022, -9947.77798030114, -13470.569368668721, 26470.14277817521, -13747.48513072552, -24738.486079989205, -926.7703803503967, -25916.735937206264, -25238.09227205423, -5550.9216250087775, 8096.941780679439, -8532.040838246447, -20450.974458572204, 0.132, 0.8210000000000001, -0.512, 192.0, 2.0, 8.0, 12.5, 80.0, 120.0, 8.0, 0.0, 0.0, 0.0, 1.6620651666580725E9, 0.0, 2022-09-01 16:46:06.658
58.0, -21015.646578746626, -20593.690346919342, -30492.965041752464, -16255.440265588793, -10022.723379459785, -13522.715988482953, 26712.882722959846, -13815.501489103019, -24735.960332865758, -997.8489277182732, -25939.4229578284, -25280.582938263768, -5547.054773218009, 7992.335616628602, -8526.1623294547, -20488.503037512666, 0.132, 0.8210000000000001, -0.512, 192.0, 0.0, 0.0, 0.0, 0.0, 0.0, 0.0, 0.0, 0.0, 0.0, 1.6620651666580784E9, 0.0, 2022-09-01 16:46:06.658
60.0, -20961.622412398152, -20539.77793929314, -30428.79318342128, -16196.409308482327, -9963.155980486392, -13470.010575057338, 26435.698739969583, -13756.895215141203, -24751.159519095367, -937.5662729223101, -25926.593056511054, -25247.345894258728, -5568.8253723174785, 8080.155620593503, -8547.2176727316, -20464.51961571212, 0.132, 0.8210000000000001, -0.512, 192.0, 0.0, 0.0, 0.0, 0.0, 0.0, 0.0, 0.0, 0.0, 0.0, 1.6620651666580842E9, 0.0, 2022-09-01 16:46:06.658
62.0, -21022.64267476114, -20594.249140530723, -30485.723076548944, -16253.763884754646, -10024.489167271753, -13519.653799492575, 26728.23837140064, -13819.92713450517, -24748.544364994093, -996.1054916507593, -25939.199440383847, -25278.99596440744, -5552.754468054112, 7985.451279336367, -8519.367399140287, -20488.927720657317, 0.132, 0.8210000000000001, -0.512, 192.0, 0.0, 0.0, 0.0, 0.0, 0.0, 0.0, 0.0, 0.0, 0.0, 1.66206516665809E9, 0.0, 2022-09-01 16:46:06.658
64.0, -20944.90330754558, -20519.616665794452, -30405.9273488435, -16173.521122160093, -9946.772151800651, -13444.395475911555, 26426.646283465183, -13740.354924244277, -24749.058455116567, -918.053200012827, -25918.166448851403, -25232.437280707036, -5559.191770457241, 8095.93595217895, -8525.1117974653, -20451.62265916141, 0.132, 0.8210000000000001, -0.512, 192.0, 0.0, 0.0, 0.0, 0.0, 0.0, 0.0, 0.0, 0.0, 0.0, 1.662065166658096E9, 0.0, 2022-09-01 16:46:06.658
66.0, -21019.3122648373, -20598.31715802159, -30476.02241945534, -16254.657954532857, -10012.866260154995, -13525.755825728873, 26743.10228146342, -13819.100119960323, -24738.508431733662, -980.0122356429382, -25926.52600127769, -25266.881318912667, -5539.678697547758, 8008.898259269984, -8497.306227362898, -20472.253319293657, 0.128, 0.8205, -0.511, 192.0, 1.5, 112.0, 12.5, 80.0, 120.0, 8.0, 0.0, 0.0, 0.0, 1.6620651666581016E9, 0.0, 2022-09-01 16:46:06.658
68.0, -20945.015066267857, -20518.096747171494, -30407.648433166556, -16174.146971004842, -9948.314422168067, -13456.733638850885, 26417.92910312761, -13748.133331314724, -24755.65221973088, -932.6265373976872, -25928.671768745397, -25241.5567924448, -5574.078032264475, 8088.559876508699, -8531.526748123973, -20459.177548787302, 0.128, 0.8205, -0.511, 192.0, 0.0, 0.0, 0.0, 0.0, 0.0, 0.0, 0.0, 0.0, 0.0, 1.6620651666581075E9, 0.0, 2022-09-01 16:46:06.658
70.0, -21029.258791119908, -20609.962416882805, -30487.33240214973, -16272.092315207998, -10019.437673024855, -13546.788817261317, 26738.296656405528, -13835.26043120151, -24727.354911250462, -992.1268811377146, -25918.50172501823, -25257.985324619454, -5537.532930080049, 8001.321017899635, -8499.072015174868, -20471.582766959997, 0.128, 0.8205, -0.511, 192.0, 0.0, 0.0, 0.0, 0.0, 0.0, 0.0, 0.0, 0.0, 0.0, 1.6620651666581132E9, 0.0, 2022-09-01 16:46:06.658
72.0, -20945.61856336815, -20515.459241325767, -30411.470581468417, -16182.662985642313, -9953.052991992592, -13451.3245166927, 26428.43442302161, -13745.875805124737, -24768.750341981693, -960.7003284335528, -25948.408359099434, -25260.555775231813, -5590.417157461305, 8061.268396528769, -8546.07773376438, -20481.059906609047, 0.128, 0.8205, -0.511, 192.0, 0.0, 0.0, 0.0, 0.0, 0.0, 0.0, 0.0, 0.0, 0.0, 1.6620651666581192E9, 0.0, 2022-09-01 16:46:06.658
74.0, -21019.66989274858, -20602.541637723643, -30482.951460236487, -16280.071887978542, -10014.095606100036, -13542.474930581444, 26723.969188209678, -13832.868794544793, -24717.47544020122, -962.7343371789858, -25909.203399324822, -25248.396426248128, -5529.709819520691, 8024.924460044439, -8498.669683774673, -20461.077447066004, 0.128, 0.8205, -0.511, 192.0, 0.0, 0.0, 0.0, 0.0, 0.0, 0.0, 0.0, 0.0, 0.0, 1.6620651666581254E9, 0.0, 2022-09-01 16:46:06.658
76.0, -20963.857586843682, -20536.894564258404, -30439.65613122656, -16215.117718591418, -9978.601035905009, -13473.408040214545, 26435.788146947405, -13770.306261814389, -24775.00883042918, -973.3737675397119, -25959.673638304906, -25279.711220230012, -5601.01188433312, 8042.0905997861155, -8569.301196253444, -20510.58656103451, 0.126, 0.82225, -0.5085, 192.0, 1.5, 112.0, 12.5, 96.0, 120.0, 24.0, 0.0, 0.0, 0.0, 1.6620651666581345E9, 0.0, 2022-09-01 16:46:06.658
78.0, -21005.990625141934, -20595.947873109326, -30476.424750855538, -16276.182684443318, -10010.78754792065, -13542.63139279263, 26699.0022896531, -13828.756073565017, -24712.625111654415, -967.2270378145025, -25910.164524336404, -25252.375036761172, -5537.063543446487, 8015.067340739649, -8516.104044449812, -20472.432133249302, 0.126, 0.82225, -0.5085, 192.0, 0.0, 0.0, 0.0, 0.0, 0.0, 0.0, 0.0, 0.0, 0.0, 1.6620651666581404E9, 0.0, 2022-09-01 16:46:06.658
80.0, -20951.05003727079, -20527.998569965195, -30428.21203806544, -16190.597854923948, -9974.287149225134, -13461.04752553076, 26467.169996162655, -13760.449142509598, -24762.313039578563, -970.1327645936924, -25950.732940522783, -25271.37401954818, -5591.713558639713, 8041.800027108196, -8563.713260139617, -20494.67211898233, 0.126, 0.82225, -0.5085, 192.0, 0.0, 0.0, 0.0, 0.0, 0.0, 0.0, 0.0, 0.0, 0.0, 1.6620651666581461E9, 0.0, 2022-09-01 16:46:06.658
82.0, -20997.564017482284, -20581.151018279914, -30457.35871283516, -16248.533576552103, -9990.40275697741, -13524.504128039376, 26677.56696672046, -13813.154555935213, -24693.246149211664, -937.2086450110252, -25882.627175167465, -25218.534495655837, -5520.322086849462, 8047.812646366674, -8493.68524476114, -20432.04253101856, 0.126, 0.82225, -0.5085, 192.0, 0.0, 0.0, 0.0, 0.0, 0.0, 0.0, 0.0, 0.0, 0.0, 1.6620651666581523E9, 0.0, 2022-09-01 16:46:06.658
84.0, -20958.42611294104, -20529.362026376966, -30434.44817476847, -16193.123602047397, -9980.657396394898, -13466.054316288748, 26504.162133236186, -13767.221721079555, -24771.968993183254, -977.3747297972119, -25958.55605108214, -25279.331240574273, -5600.162518043819, 8035.832111338629, -8555.152542013233, -20495.409726549355, 0.126, 0.82225, -0.5085, 192.0, 0.0, 0.0, 0.0, 0.0, 0.0, 0.0, 0.0, 0.0, 0.0, 1.6620651666581674E9, 0.0, 2022-09-01 16:46:06.658
86.0, -20990.34440402322, -20573.417314698378, -30449.826174953723, -16242.163329382342, -9976.231750992745, -13518.513860525354, 26641.692416869693, -13806.58314306535, -24691.16743697732, -907.0561417408159, -25877.35216347601, -25205.61518736067, -5521.260860116585, 8080.021510126771, -8483.269331844966, -20423.682978592275, 0.13, 0.822125, -0.50425, 192.0, 2.0, 24.0, 12.5, 88.0, 120.0, 48.0, 0.0, 0.0, 0.0, 1.662065166658174E9, 0.0, 2022-09-01 16:46:06.658
88.0, -20986.857531888192, -20555.58062262304, -30458.208079124463, -16222.247925072663, -9983.898399340917, -13482.058165318747, 26543.635313944258, -13785.997186422013, -24772.214862372264, -983.4991077779661, -25966.446216874865, -25288.04842091184, -5603.649390178846, 8014.463843639356, -8548.067039020902, -20505.423308065332, 0.13, 0.822125, -0.50425, 192.0, 0.0, 0.0, 0.0, 0.0, 0.0, 0.0, 0.0, 0.0, 0.0, 1.6620651666581812E9, 0.0, 2022-09-01 16:46:06.658
90.0, -20997.273444804367, -20583.855579359006, -30455.481166300913, -16248.64533527438, -9969.63798637843, -13514.91522966805, 26597.637128548282, -13805.309093631398, -24702.83504758299, -922.0094587814164, -25893.26660552819, -25223.049548035808, -5542.495017349126, 8079.55212349321, -8486.018596412969, -20433.741263597163, 0.13, 0.822125, -0.50425, 192.0, 0.0, 0.0, 0.0, 0.0, 0.0, 0.0, 0.0, 0.0, 0.0, 1.662065166658188E9, 0.0, 2022-09-01 16:46:06.658
92.0, -21009.701014721515, -20583.900282847917, -30481.386838124614, -16243.593841027481, -10006.496012985232, -13495.804488158761, 26580.470988806606, -13803.83387849735, -24789.917443980867, -1015.6185645602424, -25992.41894393193, -25319.58673233828, -5623.363628788427, 7987.462936337345, -8557.566530414406, -20523.237648396214, 0.13, 0.822125, -0.50425, 192.0, 0.0, 0.0, 0.0, 0.0, 0.0, 0.0, 0.0, 0.0, 0.0, 1.6620651666581936E9, 0.0, 2022-09-01 16:46:06.658
94.0, -20984.890578376126, -20569.3045937186, -30444.17118360653, -16236.798910713067, -9969.861503822984, -13500.09602309418, 26561.62846823078, -13791.003977180002, -24707.283044729596, -917.3379441902572, -25893.020736339182, -25216.545190399313, -5542.696183049225, 8110.755158752819, -8487.717328991572, -20416.66453083331, 0.13, 0.822125, -0.50425, 192.0, 0.0, 0.0, 0.0, 0.0, 0.0, 0.0, 0.0, 0.0, 0.0, 1.6620651666581995E9, 0.0, 2022-09-01 16:46:06.658
96.0, -21009.902180421614, -20583.07326830307, -30481.140968935608, -16250.053495175063, -10018.454196268822, -13506.153345841569, 26624.280407939008, -13812.886335001747, -24777.512225808172, -1009.7400557684965, -25976.19157745738, -25305.974519965, -5605.079901823986, 7991.262732894747, -8547.955280298625, -20504.10455514247, 0.136, 0.8200625, -0.505125, 192.0, 2.0, 56.0, 12.5, 72.0, 120.0, 24.0, 0.0, 0.0, 0.0, 1.6620651666582055E9, 0.0, 2022-09-01 16:46:06.658
98.0, -20980.934319607535, -20563.96252679378, -30432.6823869565, -16225.198355340763, -9959.222073462257, -13492.496429979377, 26516.81322059789, -13785.684261999639, -24718.101289045968, -914.5216243888884, -25904.2636638002, -25226.6034754042, -5553.581482598959, 8094.036053900249, -8510.069073446879, -20422.766557069608, 0.136, 0.8200625, -0.505125, 192.0, 0.0, 0.0, 0.0, 0.0, 0.0, 0.0, 0.0, 0.0, 0.0, 1.6620651666582112E9, 0.0, 2022-09-01 16:46:06.658
100.0, -21021.033349160356, -20595.79141089814, -30486.25951841587, -16255.8873004779, -10015.704931700819, -13512.411834289054, 26663.463015969162, -13824.531593862963, -24759.47436803274, -1006.0296661889156, -25965.798016285662, -25298.687851272567, -5584.605703902925, 7988.155840415459, -8533.136073724756, -20490.82761893602, 0.136, 0.8200625, -0.505125, 192.0, 0.0, 0.0, 0.0, 0.0, 0.0, 0.0, 0.0, 0.0, 0.0, 1.6620651666582177E9, 0.0, 2022-09-01 16:46:06.658
102.0, -20962.315316476266, -20544.53886086212, -30424.993386863876, -16204.388881252871, -9952.807122803584, -13470.077630290703, 26485.18550219363, -13775.916549672671, -24723.353948992964, -911.4594353985113, -25908.59990222453, -25223.76480385838, -5564.399726915327, 8107.022417428782, -8514.651181060217, -20423.75003382564, 0.136, 0.8200625, -0.505125, 192.0, 0.0, 0.0, 0.0, 0.0, 0.0, 0.0, 0.0, 0.0, 0.0, 1.6620651666582239E9, 0.0, 2022-09-01 16:46:06.658
104.0, -21031.06928242079, -20605.425012758376, -30490.707515562477, -16266.79495177209, -10029.78653070766, -13518.804433203273, 26698.175275108253, -13838.143806236245, -24757.015676142655, -1000.8217097308291, -25958.824272015605, -25291.602348280234, -5587.444375448749, 7997.230648664314, -8529.537442867451, -20481.797514176073, 0.136, 0.8200625, -0.505125, 192.0, 0.0, 0.0, 0.0, 0.0, 0.0, 0.0, 0.0, 0.0, 0.0, 1.66206516665823E9, 0.0, 2022-09-01 16:46:06.658
106.0, -20982.49894171941, -20558.754570335695, -30427.474430498416, -16216.68234070329, -9968.363936944477, -13476.202008271457, 26454.787129734414, -13785.460744555086, -24743.738739936205, -924.244633226947, -25924.42493729889, -25239.74630114392, -5582.571695157492, 8101.322722592679, -8524.68711432065, -20432.064882763014, 0.136, 0.8190312500000001, -0.5045625, 192.0, 2.0, 32.0, 12.5, 72.0, 120.0, 32.0, 0.0, 0.0, 0.0, 1.6620651666582355E9, 0.0, 2022-09-01 16:46:06.658
108.0, -21038.959448213514, -20612.33170179507, -30491.08749521822, -16275.288614665105, -10039.88951920146, -13527.387503074111, 26724.595037054427, -13848.64912613024, -24771.253737360687, -1010.0753319353262, -25967.407341886443, -25302.219426896507, -5594.529878441082, 7981.62913103451, -8533.560756869407, -20482.780990932108, 0.136, 0.8190312500000001, -0.5045625, 192.0, 0.0, 0.0, 0.0, 0.0, 0.0, 0.0, 0.0, 0.0, 0.0, 1.6620651666582427E9, 0.0, 2022-09-01 16:46:06.658
110.0, -20977.693316661516, -20551.624363854455, -30421.059479839743, -16205.461764986727, -9971.984919546238, -13468.200083756457, 26436.212830092056, -13779.850456696804, -24760.36843781095, -924.7140198605085, -25930.906943190927, -25244.52957445736, -5588.472555693693, 8095.913600434495, -8536.287669692954, -20432.6236763744, 0.136, 0.8190312500000001, -0.5045625, 192.0, 0.0, 0.0, 0.0, 0.0, 0.0, 0.0, 0.0, 0.0, 0.0, 1.662065166658249E9, 0.0, 2022-09-01 16:46:06.658
112.0, -21040.166442414098, -20616.17620184138, -30483.242032914408, -16274.08162046452, -10027.394894050944, -13526.135805384614, 26748.42199664378, -13838.143806236245, -24755.316943564052, -995.6137532727425, -25945.122652664504, -25282.57224352029, -5565.986700771654, 7983.8643054800405, -8513.801814770915, -20455.869490607918, 0.136, 0.8190312500000001, -0.5045625, 192.0, 0.0, 0.0, 0.0, 0.0, 0.0, 0.0, 0.0, 0.0, 0.0, 1.6620651666582544E9, 0.0, 2022-09-01 16:46:06.658
114.0, -20952.324086704743, -20528.87028799895, -30403.87098835361, -16189.05558455653, -9950.393134402411, -13446.675353845998, 26433.08358586831, -13761.790247176916, -24754.534632508115, -932.2018542530363, -25932.51626879171, -25248.41877799258, -5586.43854694826, 8086.436460785444, -8535.818283059392, -20433.607153130433, 0.136, 0.8190312500000001, -0.5045625, 192.0, 0.0, 0.0, 0.0, 0.0, 0.0, 0.0, 0.0, 0.0, 0.0, 1.6620651666582603E9, 0.0, 2022-09-01 16:46:06.658
116.0, -21024.49786955093, -20611.527038994675, -30477.855262500678, -16275.668594320847, -10014.989675878249, -13529.890898453104, 26751.126557722877, -13848.202091241134, -24715.46378320024, -967.3611482812344, -25912.444402270845, -25255.37017051818, -5544.104342949909, 8023.516300143755, -8489.751337737005, -20432.84719381895, 0.134, 0.8205156250000001, -0.50528125, 192.0, 2.0, 16.0, 12.5, 88.0, 120.0, 24.0, 0.0, 0.0, 0.0, 1.6620651666582663E9, 0.0, 2022-09-01 16:46:06.658
118.0, -20957.599098396196, -20538.05685497008, -30415.695061170467, -16197.661006171824, -9963.468904908766, -13460.578138897197, 26424.724033442028, -13784.097288143312, -24762.178929111833, -940.4049444681341, -25944.787376497672, -25258.85704265321, -5597.860288364922, 8077.093431603126, -8541.965012784602, -20453.768426629118, 0.134, 0.8205156250000001, -0.50528125, 192.0, 0.0, 0.0, 0.0, 0.0, 0.0, 0.0, 0.0, 0.0, 0.0, 1.6620651666582725E9, 0.0, 2022-09-01 16:46:06.658
120.0, -21047.92249774009, -20631.50949853772, -30493.143855708106, -16297.08156550903, -10031.351152819534, -13557.472951110954, 26732.596961569427, -13879.963920112124, -24726.50554496116, -981.4203955436225, -25922.41328029791, -25262.723894443978, -5551.301604664517, 8005.813718535152, -8498.133241907744, -20451.868528350416, 0.134, 0.8205156250000001, -0.50528125, 192.0, 0.0, 0.0, 0.0, 0.0, 0.0, 0.0, 0.0, 0.0, 0.0, 1.6620651666582785E9, 0.0, 2022-09-01 16:46:06.658
122.0, -20979.68262191804, -20554.53009063364, -30431.810668922746, -16215.832974413988, -9974.331852714045, -13471.731659380397, 26429.641417222192, -13796.278988871454, -24788.486932335727, -968.2999215483572, -25969.217833187322, -25285.52267378839, -5614.802910662045, 8041.6212131525535, -8551.755076856027, -20482.512769998644, 0.134, 0.8205156250000001, -0.50528125, 192.0, 0.0, 0.0, 0.0, 0.0, 0.0, 0.0, 0.0, 0.0, 0.0, 1.662065166658285E9, 0.0, 2022-09-01 16:46:06.658
124.0, -21038.624172046682, -20623.59698100054, -30476.8941374891, -16286.822114804045, -10012.195707821335, -13536.350552600688, 26721.71166201969, -13852.203053498633, -24732.65227468637, -979.274628075913, -25923.17323960939, -25264.512034000403, -5550.854569775412, 8002.148032444482, -8486.577390024351, -20444.850080591452, 0.134, 0.8205156250000001, -0.50528125, 192.0, 0.0, 0.0, 0.0, 0.0, 0.0, 0.0, 0.0, 0.0, 0.0, 1.6620651666582909E9, 0.0, 2022-09-01 16:46:06.658
126.0, -20980.956671351993, -20552.004343510194, -30430.000177621863, -16215.117718591418, -9970.934387556837, -13461.718077864418, 26460.33036235933, -13782.800886964904, -24780.12737990944, -964.5448284798657, -25959.718341793818, -25281.879339442177, -5607.203317547241, 8055.792219137218, -8533.091370235845, -20469.168778558826, 0.134, 0.8205156250000001, -0.50528125, 192.0, 0.0, 0.0, 0.0, 0.0, 0.0, 0.0, 0.0, 0.0, 0.0, 1.6620651666582973E9, 0.0, 2022-09-01 16:46:06.658
128.0, -21028.67764576407, -20613.583399484563, -30466.16530015055, -16282.865856035454, -9993.889629112438, -13528.035703663314, 26707.42889731275, -13838.993172525546, -24723.868039115434, -955.1347440641814, -25907.16939057939, -25249.04462683733, -5544.529026094559, 8030.4453409249, -8475.781497452439, -20431.014350773617, 0.134, 0.8220000000000001, -0.506, 192.0, 2.0, 24.0, 12.5, 88.0, 120.0, 24.0, 0.0, 0.0, 0.0, 1.662065166658304E9, 0.0, 2022-09-01 16:46:06.658
130.0, -20977.089819561224, -20550.01503825367, -30438.15856434805, -16217.419948270315, -9975.538846914631, -13455.99603128386, 26499.602377367304, -13786.734793989039, -24787.794028257613, -982.4932792774772, -25966.62503083051, -25289.34482209025, -5618.803872919545, 8034.736875860319, -8533.314887680399, -20476.85777865145, 0.134, 0.8220000000000001, -0.506, 192.0, 0.0, 0.0, 0.0, 0.0, 0.0, 0.0, 0.0, 0.0, 0.0, 1.6620651666583102E9, 0.0, 2022-09-01 16:46:06.658
132.0, -21007.711709464995, -20595.523189964675, -30456.844622712688, -16262.45871334776, -9978.712794627285, -13507.919133653539, 26680.47269349965, -13826.096215974834, -24709.786440108594, -935.1746362655922, -25892.908977616906, -25226.62582714866, -5543.791418527534, 8057.982690093839, -8462.236340312522, -20403.61111207141, 0.134, 0.8220000000000001, -0.506, 192.0, 0.0, 0.0, 0.0, 0.0, 0.0, 0.0, 0.0, 0.0, 0.0, 1.662065166658316E9, 0.0, 2022-09-01 16:46:06.658
134.0, -20978.900310862104, -20550.618535353966, -30447.16631736354, -16224.103119862453, -9974.935349814337, -13461.494560419866, 26540.88604937626, -13791.294549857921, -24770.80670247158, -986.628352001709, -25964.56867034062, -25289.72480174599, -5610.489023982171, 8025.72912284483, -8526.92228876618, -20468.699391925264, 0.134, 0.8220000000000001, -0.506, 192.0, 0.0, 0.0, 0.0, 0.0, 0.0, 0.0, 0.0, 0.0, 0.0, 1.6620651666583219E9, 0.0, 2022-09-01 16:46:06.658
136.0, -20994.18890406953, -20582.11214329149, -30450.36261682065, -16263.464541848249, -9969.056841022593, -13510.57899124372, 26643.391149448296, -13821.357646150309, -24702.678585371803, -925.5857378942654, -25887.79042813664, -25225.776460859357, -5539.835159758944, 8074.1430013350255, -8469.366546793764, -20404.773402783085, 0.134, 0.8220000000000001, -0.506, 192.0, 0.0, 0.0, 0.0, 0.0, 0.0, 0.0, 0.0, 0.0, 0.0, 1.6620651666583276E9, 0.0, 2022-09-01 16:46:06.658
138.0, -20996.088802348233, -20573.171445509368, -30467.88638447361, -16251.17108239783, -10001.466870482787, -13492.898761379573, 26579.800436472946, -13820.30711416091, -24768.504472792683, -999.3464945967788, -25964.23339417379, -25298.263168127916, -5611.427797249294, 7999.577581832121, -8538.142864482745, -20484.613833977444, 0.134, 0.8180000000000001, -0.498, 192.0, 2.0, 24.0, 12.5, 72.0, 120.0, 56.0, 0.0, 0.0, 0.0, 1.6620651666583335E9, 0.0, 2022-09-01 16:46:06.658
140.0, -21002.01201462889, -20591.678689918364, -30451.860183699155, -16264.31390813755, -9975.091812025525, -13515.854002935172, 26607.717765297624, -13827.660838086706, -24708.937073819292, -930.9725083079944, -25893.087791572547, -25228.078690538252, -5558.945901268233, 8066.766925664774, -8494.802831983905, -20420.307865179526, 0.134, 0.8180000000000001, -0.498, 192.0, 0.0, 0.0, 0.0, 0.0, 0.0, 0.0, 0.0, 0.0, 0.0, 1.6620651666583412E9, 0.0, 2022-09-01 16:46:06.658
142.0, -21011.53385776685, -20586.60484392701, -30473.496672331894, -16261.341126124995, -10005.199611806824, -13500.788927172296, 26626.582637617903, -13829.471329387587, -24779.635641531426, -1012.8469482477842, -25973.688182078386, -25310.891903745163, -5621.150806087352, 7977.963444943839, -8545.206015730622, -20498.784839962107, 0.134, 0.8180000000000001, -0.498, 192.0, 0.0, 0.0, 0.0, 0.0, 0.0, 0.0, 0.0, 0.0, 0.0, 1.6620651666583471E9, 0.0, 2022-09-01 16:46:06.658
144.0, -20986.63401444364, -20576.814779855584, -30433.97878813491, -16248.466521318738, -9955.958718771783, -13501.615941717142, 26564.377732798785, -13812.618114068284, -24710.054661042057, -929.0726100292934, -25895.300614273623, -25229.822126605766, -5565.763183327101, 8081.250856071813, -8495.406329084199, -20414.675225576786, 0.134, 0.8180000000000001, -0.498, 192.0, 0.0, 0.0, 0.0, 0.0, 0.0, 0.0, 0.0, 0.0, 0.0, 1.662065166658353E9, 0.0, 2022-09-01 16:46:06.658
146.0, -21030.15286089812, -20605.961454625303, -30490.7969225403, -16278.79783854459, -10019.594135236042, -13517.999770402881, 26666.949888104187, -13848.40325694123, -24765.531690780128, -1021.3853146297115, -25964.635725573986, -25306.71212753202, -5606.800986147045, 7986.01007294775, -8528.509262622507, -20481.886921153895, 0.134, 0.8180000000000001, -0.498, 192.0, 0.0, 0.0, 0.0, 0.0, 0.0, 0.0, 0.0, 0.0, 0.0, 1.6620651666583593E9, 0.0, 2022-09-01 16:46:06.658
148.0, -20998.145162838122, -20581.732163635752, -30448.663884242047, -16250.768750997633, -9969.548579400609, -13498.397290515577, 26525.48569744655, -13811.567582078886, -24738.329617778018, -940.8072758683296, -25920.33456806357, -25247.032969836353, -5585.924456825788, 8071.080812344649, -8516.484024105552, -20423.682978592275, 0.138, 0.8180000000000001, -0.5, 192.0, 2.0, 40.0, 12.5, 72.0, 120.0, 48.0, 0.0, 0.0, 0.0, 1.6620651666583648E9, 0.0, 2022-09-01 16:46:06.658
150.0, -21046.760207028416, -20621.630027488474, -30509.9523675385, -16297.550952142592, -10040.09068490156, -13531.05318916478, 26702.936196677234, -13861.859007103325, -24780.70852526528, -1039.601986360787, -25979.164359469934, -25323.118307962217, -5615.96520137372, 7960.6184912465205, -8544.893091308248, -20487.474857267724, 0.138, 0.8180000000000001, -0.5, 192.0, 0.0, 0.0, 0.0, 0.0, 0.0, 0.0, 0.0, 0.0, 0.0, 1.6620651666583707E9, 0.0, 2022-09-01 16:46:06.658
152.0, -20990.947901123513, -20576.144227521923, -30447.613352252647, -16256.960184211754, -9972.431954435344, -13494.709252680452, 26483.062086470378, -13814.763881535993, -24744.31988529204, -940.5167031904106, -25918.83700118506, -25250.65395243811, -5590.350102227939, 8074.411222268489, -8520.59674508533, -20428.287437950068, 0.138, 0.8180000000000001, -0.5, 192.0, 0.0, 0.0, 0.0, 0.0, 0.0, 0.0, 0.0, 0.0, 0.0, 1.6620651666583939E9, 0.0, 2022-09-01 16:46:06.658
154.0, -21050.872928008193, -20632.56003052712, -30504.520893635858, -16313.532449428136, -10031.55231851963, -13543.167834659558, 26724.19270565423, -13867.357536239331, -24771.052571660588, -1039.3784689162337, -25973.598775100563, -25330.896715032664, -5609.01380884812, 7957.891578422974, -8535.103027236823, -20504.126906886926, 0.138, 0.8180000000000001, -0.5, 192.0, 0.0, 0.0, 0.0, 0.0, 0.0, 0.0, 0.0, 0.0, 0.0, 1.6620651666583996E9, 0.0, 2022-09-01 16:46:06.658
156.0, -20981.895444619113, -20567.427047184356, -30435.990445135885, -16252.579242298514, -9961.16667522987, -13495.402156758566, 26454.27303961194, -13801.26342788499, -24746.756225437668, -946.4846189599775, -25921.250989586235, -25261.94158338804, -5587.466727193204, 8074.053594357204, -8518.763902039993, -20449.163967271325, 0.138, 0.8180000000000001, -0.5, 192.0, 0.0, 0.0, 0.0, 0.0, 0.0, 0.0, 0.0, 0.0, 0.0, 1.6620651666584055E9, 0.0, 2022-09-01 16:46:06.658
158.0, -21047.810739017816, -20632.51532703821, -30506.577254125747, -16316.639341907425, -10032.468740042299, -13556.78004703284, 26738.296656405528, -13863.043649559457, -24758.110911620966, -1025.498035609488, -25952.14110042347, -25313.73057529099, -5587.243209748651, 7958.785648201186, -8520.842614274337, -20499.67890974032, 0.132, 0.8260000000000001, -0.506, 192.0, 2.0, 16.0, 12.5, 104.0, 120.0, 24.0, 0.0, 0.0, 0.0, 1.6620651666584115E9, 0.0, 2022-09-01 16:46:06.658
160.0, -20968.506749690387, -20548.49511963071, -30431.49774450037, -16230.026332143108, -9961.010213018682, -13479.867694362129, 26433.821193435335, -13779.96221541908, -24756.255716831176, -953.4136597411227, -25932.02453041369, -25262.545080488337, -5591.065358050509, 8066.901036131506, -8536.39942841523, -20467.71591516923, 0.132, 0.8260000000000001, -0.506, 192.0, 0.0, 0.0, 0.0, 0.0, 0.0, 0.0, 0.0, 0.0, 0.0, 1.662065166658418E9, 0.0, 2022-09-01 16:46:06.658
162.0, -21042.513375581908, -20621.853544933027, -30500.251710444896, -16301.551914400092, -10025.36088530551, -13545.738285271918, 26745.896249520334, -13844.134073750267, -24736.51912647714, -1010.6788290356194, -25933.119765892003, -25281.29819408634, -5564.757354826612, 7981.830296734607, -8510.963143225092, -20484.993813633184, 0.132, 0.8260000000000001, -0.506, 192.0, 0.0, 0.0, 0.0, 0.0, 0.0, 0.0, 0.0, 0.0, 0.0, 1.662065166658424E9, 0.0, 2022-09-01 16:46:06.658
164.0, -20966.271575244853, -20540.470843371255, -30429.59784622167, -16217.911686648333, -9955.73520132723, -13462.366278453623, 26424.008777619456, -13754.928261629137, -24758.80381569908, -956.3864417536786, -25936.651341515942, -25256.063074596295, -5588.226686504685, 8072.623082712064, -8540.333335439365, -20471.023973348616, 0.132, 0.8260000000000001, -0.506, 192.0, 0.0, 0.0, 0.0, 0.0, 0.0, 0.0, 0.0, 0.0, 0.0, 1.66206516665843E9, 0.0, 2022-09-01 16:46:06.658
0.0, -10506.616295172727, -10303.99773168537, -15244.962602253272, -8133.84451077515, -5012.1328249136, -6766.498895466197, 13379.865989669084, -6917.261411817242, -12389.504896343338, -498.35449437552626, -12985.76003143311, -12651.959079737555, -2800.4947662943323, 4011.7805018163326, -4281.119022502783, -10262.378783509586, 0.134, 0.8220000000000001, -0.51, 192.0, 2.0, 24.0, 12.5, 88.0, 120.0, 8.0, 0.0, 0.0, 0.0, 1.6620651672370307E9, 0.0, 2022-09-01 16:46:07.237
2.0, -20932.90042077308, -20526.143375175405, -30409.01188957833, -16179.556093163026, -9941.675954064842, -13451.70449634844, 26447.90279244218, -13749.407380748677, -24745.03514111461, -946.886950360173, -25917.920579662394, -25244.350760501715, -5571.909913052311, 8081.630835727554, -8542.322640695887, -20461.591537188477, 0.134, 0.8220000000000001, -0.51, 192.0, 0.0, 0.0, 0.0, 0.0, 0.0, 0.0, 0.0, 0.0, 0.0, 1.6620651672371264E9, 0.0, 2022-09-01 16:46:07.237
4.0, -21015.15484036861, -20608.286036048656, -30482.16914918055, -16270.482989607215, -10011.681617698863, -13540.351514858188, 26764.515252651603, -13834.88045154577, -24721.94578909228, -982.0685961328264, -25908.309329546613, -25253.403217006115, -5535.655383545803, 8003.623247578532, -8508.370340868276, -20461.81505463303, 0.134, 0.8220000000000001, -0.51, 192.0, 0.0, 0.0, 0.0, 0.0, 0.0, 0.0, 0.0, 0.0, 0.0, 1.6620651672371309E9, 0.0, 2022-09-01 16:46:07.237
6.0, -20943.18222322252, -20524.556401319078, -30416.700889670956, -16192.989491580665, -9960.965509529771, -13460.175807497002, 26446.51698428595, -13763.354869288787, -24770.493778049207, -965.1706773246143, -25939.490013061764, -25259.639353709146, -5593.702863896235, 8060.530788961743, -8566.93191134118, -20486.58078748951, 0.134, 0.8220000000000001, -0.51, 192.0, 0.0, 0.0, 0.0, 0.0, 0.0, 0.0, 0.0, 0.0, 0.0, 1.6620651672371385E9, 0.0, 2022-09-01 16:46:07.237
8.0, -20992.40076451311, -20588.392983483434, -30458.83392796921, -16256.200224900274, -9991.967379089283, -13522.24660184939, 26751.8641652899, -13820.731797305561, -24708.55709416355, -966.176505825103, -25886.561082191598, -25235.074786552763, -5527.809921241989, 8023.87392805504, -8509.242058902033, -20453.544909184566, 0.132, 0.8240000000000001, -0.508, 192.0, 2.0, 16.0, 12.5, 96.0, 120.0, 16.0, 0.0, 0.0, 0.0, 1.6620651672371428E9, 0.0, 2022-09-01 16:46:07.237
10.0, -20953.70989486097, -20545.477634129245, -30429.419032266025, -16204.947674864254, -9962.664242108374, -13465.651984888553, 26468.08641768532, -13770.82035193686, -24768.549176281595, -970.0433576158712, -25937.165431638412, -25265.29434505634, -5589.612494660913, 8053.646451669509, -8560.427553704685, -20491.87815092542, 0.132, 0.8240000000000001, -0.508, 192.0, 0.0, 0.0, 0.0, 0.0, 0.0, 0.0, 0.0, 0.0, 0.0, 1.662065167237147E9, 0.0, 2022-09-01 16:46:07.237
12.0, -21008.941055410036, -20611.527038994675, -30476.312992133262, -16281.189475201307, -9998.069405325581, -13540.709142769474, 26729.91475223479, -13834.142843978745, -24712.75922212115, -971.6526832166534, -25892.79721889463, -25246.72004541398, -5532.682601533246, 8024.320962944146, -8509.44322460213, -20461.14450229937, 0.132, 0.8240000000000001, -0.508, 192.0, 0.0, 0.0, 0.0, 0.0, 0.0, 0.0, 0.0, 0.0, 0.0, 1.6620651672371511E9, 0.0, 2022-09-01 16:46:07.237
14.0, -20956.593269895708, -20547.15401496339, -30451.457852298958, -16219.073977360009, -9979.36099521649, -13474.682089648497, 26498.52949363345, -13782.979700920547, -24774.38298158443, -987.567125268832, -25953.728074279796, -25291.892920958155, -5602.531802956081, 8023.762169332764, -8574.442097478164, -20508.418441822345, 0.132, 0.8240000000000001, -0.508, 192.0, 0.0, 0.0, 0.0, 0.0, 0.0, 0.0, 0.0, 0.0, 0.0, 1.6620651672371552E9, 0.0, 2022-09-01 16:46:07.237
16.0, -20989.159761567087, -20593.913864363894, -30472.379085109125, -16269.924195995833, -9994.984864590748, -13529.86854670865, 26701.595092009913, -13825.40331189672, -24698.92349230331, -952.5866451962764, -25883.230672267757, -25238.919286599077, -5526.737037508135, 8047.119742288559, -8513.220669415077, -20446.526461425598, 0.132, 0.8240000000000001, -0.508, 192.0, 0.0, 0.0, 0.0, 0.0, 0.0, 0.0, 0.0, 0.0, 0.0, 1.6620651672371593E9, 0.0, 2022-09-01 16:46:07.237
18.0, -20958.157892007577, -20543.82360503955, -30432.727090445413, -16206.288779531573, -9979.383346960944, -13460.779304597296, 26538.226191786074, -13770.842703681315, -24768.325658837042, -1004.4650440770441, -25943.669789274907, -25284.695659243545, -5595.91568659731, 8019.87296579754, -8569.658824164728, -20492.593406747987, 0.134, 0.8240000000000001, -0.506, 192.0, 2.0, 24.0, 12.5, 96.0, 120.0, 24.0, 0.0, 0.0, 0.0, 1.6620651672371633E9, 0.0, 2022-09-01 16:46:07.237
20.0, -21000.737965194938, -20595.74670740923, -30438.02445388132, -16250.187605641797, -9978.824553349561, -13512.545944755788, 26665.832300881422, -13809.913552989192, -24700.55516964855, -937.3651072222123, -25867.584451149043, -25210.8007920743, -5516.119958891864, 8063.727088418853, -8490.913628448681, -20405.89099000585, 0.134, 0.8240000000000001, -0.506, 192.0, 0.0, 0.0, 0.0, 0.0, 0.0, 0.0, 0.0, 0.0, 0.0, 1.6620651672371676E9, 0.0, 2022-09-01 16:46:07.237
22.0, -20994.971215125468, -20581.12866653546, -30450.273209842828, -16234.541384523081, -9996.370672746978, -13486.90849386555, 26567.819901444902, -13801.39753835172, -24793.314909138073, -1020.6030035737758, -25968.077894220103, -25308.25439789944, -5602.487099467171, 7992.425023606423, -8566.395469474253, -20498.91895042884, 0.134, 0.8240000000000001, -0.506, 192.0, 0.0, 0.0, 0.0, 0.0, 0.0, 0.0, 0.0, 0.0, 0.0, 1.6620651672371716E9, 0.0, 2022-09-01 16:46:07.237
24.0, -20994.747697680916, -20597.89247487694, -30449.781471464812, -16264.492722093193, -9975.963530059282, -13521.129014626626, 26612.232817677595, -13821.670570572684, -24709.205294752755, -942.5954154247542, -25879.699096643817, -25227.497545182414, -5525.373581096361, 8061.782486651241, -8501.06132043139, -20431.774310085097, 0.134, 0.8240000000000001, -0.506, 192.0, 0.0, 0.0, 0.0, 0.0, 0.0, 0.0, 0.0, 0.0, 0.0, 1.662065167237176E9, 0.0, 2022-09-01 16:46:07.237
26.0, -20993.563055224786, -20581.374535724466, -30466.567631550748, -16251.104027164463, -10002.495050727732, -13496.631502703609, 26606.086087952386, -13818.653085071217, -24782.519016566162, -1030.0577914783707, -25964.94864999636, -25314.468182858014, -5597.033273820076, 7978.611645533043, -8561.589844416361, -20522.790613507106, 0.134, 0.8240000000000001, -0.506, 192.0, 0.0, 0.0, 0.0, 0.0, 0.0, 0.0, 0.0, 0.0, 0.0, 1.66206516723718E9, 0.0, 2022-09-01 16:46:07.237
28.0, -20968.372639223653, -20572.120913519968, -30433.822325923724, -16237.760035724645, -9956.696326338808, -13495.893895136584, 26575.73241898208, -13803.364491863787, -24707.059527285044, -933.2523862424358, -25874.40173320791, -25222.155478257595, -5529.195729398219, 8084.961245651394, -8497.082709918346, -20428.37684492789, 0.14, 0.8220000000000001, -0.508, 192.0, 2.0, 48.0, 12.5, 88.0, 120.0, 16.0, 0.0, 0.0, 0.0, 1.6620651672371843E9, 0.0, 2022-09-01 16:46:07.237
30.0, -20996.647595959617, -20583.006213069704, -30474.502500832383, -16244.800835228067, -10006.02662635167, -13501.347720783679, 26651.102501285375, -13822.229364184066, -24769.532653037626, -1019.2171954175468, -25944.206231141834, -25293.658708770123, -5585.253904492129, 7983.841953735585, -8541.249756962032, -20500.997662663183, 0.14, 0.8220000000000001, -0.508, 192.0, 0.0, 0.0, 0.0, 0.0, 0.0, 0.0, 0.0, 0.0, 0.0, 1.6620651672371883E9, 0.0, 2022-09-01 16:46:07.237
32.0, -20954.693371617006, -20553.92659353335, -30420.232465294896, -16210.625017955903, -9937.518529596155, -13474.883255348595, 26541.377787754274, -13776.542398517418, -24724.02450132662, -921.3612581922124, -25878.939137332338, -25209.41498391807, -5546.004241228609, 8082.726071205863, -8507.342160623331, -20420.441975646256, 0.14, 0.8220000000000001, -0.508, 192.0, 0.0, 0.0, 0.0, 0.0, 0.0, 0.0, 0.0, 0.0, 0.0, 1.6620651672371924E9, 0.0, 2022-09-01 16:46:07.237
34.0, -21015.691282235537, -20600.35116676702, -30484.65019281509, -16256.401390600371, -9998.851716381516, -13495.826839903217, 26695.873045429355, -13814.808585024904, -24762.0448186451, -1002.0734074203262, -25948.833042244085, -25289.121304645694, -5575.240322976151, 7983.8643054800405, -8532.73374232456, -20472.76740941613, 0.14, 0.8220000000000001, -0.508, 192.0, 0.0, 0.0, 0.0, 0.0, 0.0, 0.0, 0.0, 0.0, 0.0, 1.6620651672371964E9, 0.0, 2022-09-01 16:46:07.237
36.0, -20977.15687479459, -20567.53880590663, -30437.01862538083, -16225.131300107398, -9942.167692442858, -13466.680165133497, 26503.133952991244, -13779.716346230072, -24734.619228198437, -919.5954703802432, -25905.381251022965, -25230.000940561407, -5551.681584320258, 8088.135193364048, -8517.534556094952, -20407.23209467317, 0.14, 0.8220000000000001, -0.508, 192.0, 0.0, 0.0, 0.0, 0.0, 0.0, 0.0, 0.0, 0.0, 0.0, 1.6620651672372005E9, 0.0, 2022-09-01 16:46:07.237
38.0, -21047.49781459544, -20634.28111485018, -30521.262350232882, -16300.859010321978, -10031.418208052899, -13529.443863564, 26709.038222913532, -13863.066001303912, -24782.38490609943, -1030.884806023217, -25974.917528023427, -25324.459412629538, -5591.110061539419, 7953.175360342903, -8550.123399510789, -20488.81596193504, 0.138, 0.8260000000000001, -0.504, 192.0, 2.0, 40.0, 12.5, 104.0, 120.0, 32.0, 0.0, 0.0, 0.0, 1.6620651672372057E9, 0.0, 2022-09-01 16:46:07.237
40.0, -20974.362906737675, -20568.54463440712, -30446.763985963345, -16234.78725371209, -9959.4008874179, -13477.945444338971, 26456.865841968756, -13798.06712842788, -24756.635696486916, -946.8422468712624, -25927.777698967184, -25263.170929333082, -5580.20241024523, 8075.014719368783, -8545.653050619729, -20444.939487569274, 0.138, 0.8260000000000001, -0.504, 192.0, 0.0, 0.0, 0.0, 0.0, 0.0, 0.0, 0.0, 0.0, 0.0, 1.66206516723721E9, 0.0, 2022-09-01 16:46:07.237
42.0, -21024.87784920667, -20616.377367541478, -30509.103001249197, -16292.007719517676, -10022.656324226418, -13525.152328628581, 26737.9613802387, -13853.253585488033, -24764.70467623528, -1026.7720850434405, -25955.784434769685, -25307.96382522152, -5585.008035303121, 7965.714688982331, -8539.528672638973, -20492.72751721472, 0.138, 0.8260000000000001, -0.504, 192.0, 0.0, 0.0, 0.0, 0.0, 0.0, 0.0, 0.0, 0.0, 0.0, 1.662065167237214E9, 0.0, 2022-09-01 16:46:07.237
44.0, -20943.00340926688, -20535.44170086881, -30415.02450883681, -16205.908799875833, -9939.194910430302, -13451.570385881709, 26454.496557056496, -13767.020555379459, -24735.088614832, -921.8082930813185, -25911.550332492632, -25236.885277853642, -5572.803982830523, 8084.4695072733775, -8530.856195790315, -20440.71500786722, 0.138, 0.8260000000000001, -0.504, 192.0, 0.0, 0.0, 0.0, 0.0, 0.0, 0.0, 0.0, 0.0, 0.0, 1.662065167237218E9, 0.0, 2022-09-01 16:46:07.237
46.0, -21028.632942275162, -20621.56297225511, -30486.237166671417, -16285.7939345591, -10007.859469397006, -13526.269915851346, 26774.126502767387, -13841.585974882362, -24729.500678718174, -997.8936312071838, -25921.653320986432, -25273.609193993714, -5555.570787855481, 7981.852648479063, -8500.97191345357, -20459.043438320572, 0.138, 0.8260000000000001, -0.504, 192.0, 0.0, 0.0, 0.0, 0.0, 0.0, 0.0, 0.0, 0.0, 0.0, 1.6620651672372222E9, 0.0, 2022-09-01 16:46:07.237
48.0, -20962.896461832104, -20559.44747441381, -30430.894247400076, -16222.314980306028, -9952.740067570217, -13459.95229005245, 26453.557783789372, -13775.111886872279, -24753.41704528535, -963.4272412571004, -25932.315103091612, -25263.349743288727, -5586.706767881724, 8056.753344148797, -8534.387771414253, -20445.99001955867, 0.136, 0.8260000000000001, -0.5, 192.0, 2.0, 32.0, 12.5, 104.0, 120.0, 48.0, 0.0, 0.0, 0.0, 1.6620651672372265E9, 0.0, 2022-09-01 16:46:07.237
50.0, -21021.078052649267, -20627.95557116933, -30492.562710352267, -16291.471277650748, -10010.161699075901, -13521.330180326722, 26780.362639470415, -13844.335239450365, -24724.158611793355, -1016.177358171625, -25926.45894604432, -25286.550854033336, -5554.140276210342, 7965.29000583768, -8510.516108335985, -20456.741208641673, 0.136, 0.8260000000000001, -0.5, 192.0, 0.0, 0.0, 0.0, 0.0, 0.0, 0.0, 0.0, 0.0, 0.0, 1.6620651672372303E9, 0.0, 2022-09-01 16:46:07.237
52.0, -20949.038380269812, -20547.98102950824, -30430.536619488794, -16209.216858055219, -9951.913053025371, -13441.333286921179, 26459.03396118092, -13770.44037228112, -24729.634789184904, -957.5487324653545, -25922.32387332009, -25257.694751941533, -5580.738852112157, 8071.17021932247, -8538.567547627395, -20438.636295632878, 0.136, 0.8260000000000001, -0.5, 192.0, 0.0, 0.0, 0.0, 0.0, 0.0, 0.0, 0.0, 0.0, 0.0, 1.6620651672372344E9, 0.0, 2022-09-01 16:46:07.237
54.0, -21024.721386995483, -20628.916696180906, -30496.80954179878, -16291.65009160639, -10009.379388019966, -13524.168851872546, 26770.997258543644, -13852.538329665464, -24713.474477943717, -1006.5437563113876, -25924.916675676905, -25278.727743473977, -5552.553302354015, 7990.05573869416, -8515.724064794073, -20451.510900439134, 0.136, 0.8260000000000001, -0.5, 192.0, 0.0, 0.0, 0.0, 0.0, 0.0, 0.0, 0.0, 0.0, 0.0, 1.6620651672372386E9, 0.0, 2022-09-01 16:46:07.237
56.0, -20959.454293185987, -20554.328924933547, -30432.59297997868, -16211.720253434212, -9963.670070608863, -13447.18944396847, 26459.145719903197, -13785.259578854988, -24747.493833004693, -981.7333199659968, -25943.13334740798, -25274.033877138365, -5595.468651708205, 8033.552233404188, -8556.381887958276, -20462.262089522137, 0.136, 0.8260000000000001, -0.5, 192.0, 0.0, 0.0, 0.0, 0.0, 0.0, 0.0, 0.0, 0.0, 0.0, 1.6620651672372427E9, 0.0, 2022-09-01 16:46:07.237
58.0, -21009.902180421614, -20620.959475154814, -30470.12155891914, -16281.41299264586, -10003.16560306139, -13518.558564014265, 26762.19067122825, -13850.1690447532, -24698.677623114305, -978.984055397994, -25895.255910784712, -25248.57524020377, -5545.736020295146, 8025.974992033839, -8501.798927998416, -20427.75099608314, 0.137, 0.8230000000000001, -0.503, 192.0, 2.0, 40.0, 12.5, 80.0, 120.0, 24.0, 0.0, 0.0, 0.0, 1.6620651672372468E9, 0.0, 2022-09-01 16:46:07.237
60.0, -20959.76721760836, -20560.31919244757, -30423.6299304521, -16220.370378538417, -9964.899416553906, -13462.813313342729, 26497.747182577514, -13788.902913201204, -24749.237269072208, -1006.72257026703, -25933.253876358736, -25285.63443251067, -5599.424910476793, 8006.372512146535, -8544.35664944132, -20466.77714190211, 0.137, 0.8230000000000001, -0.503, 192.0, 0.0, 0.0, 0.0, 0.0, 0.0, 0.0, 0.0, 0.0, 0.0, 1.662065167237251E9, 0.0, 2022-09-01 16:46:07.237
62.0, -21017.88175319216, -20628.469661291798, -30473.340210120707, -16295.293425952606, -9997.756480903206, -13537.043456678803, 26743.95164775272, -13857.969803568103, -24699.571692892518, -984.3484740672677, -25890.807913638106, -25254.632562951156, -5546.071296461975, 8021.459939653867, -8490.690111004127, -20426.119318737903, 0.137, 0.8230000000000001, -0.503, 192.0, 0.0, 0.0, 0.0, 0.0, 0.0, 0.0, 0.0, 0.0, 0.0, 1.662065167237255E9, 0.0, 2022-09-01 16:46:07.237
64.0, -20969.378467724142, -20573.171445509368, -30444.707625473457, -16238.743512480678, -9973.638948635931, -13487.020252587827, 26531.408909727208, -13813.132204190757, -24764.1458826239, -1023.307564652868, -25958.04196095967, -25308.366156621716, -5612.165404816318, 7983.283160124202, -8549.519902410497, -20490.67115672483, 0.137, 0.8230000000000001, -0.503, 192.0, 0.0, 0.0, 0.0, 0.0, 0.0, 0.0, 0.0, 0.0, 0.0, 1.6620651672372591E9, 0.0, 2022-09-01 16:46:07.237
66.0, -21002.86138091819, -20612.75638493972, -30475.12834967713, -16292.834734062522, -9992.794393634129, -13536.864642723162, 26709.61936826937, -13858.662707646217, -24689.89338754337, -971.2503518164577, -25880.07907629956, -25241.7579581449, -5543.254976660607, 8022.219898965347, -8484.20810511209, -20430.79083332906, 0.137, 0.8230000000000001, -0.503, 192.0, 0.0, 0.0, 0.0, 0.0, 0.0, 0.0, 0.0, 0.0, 0.0, 1.6620651672372632E9, 0.0, 2022-09-01 16:46:07.237
68.0, -20963.365848465666, -20561.034448270137, -30447.07691038572, -16243.057399160552, -9978.913960327383, -13493.591665457687, 26571.999677658045, -13822.586992095352, -24761.86600468946, -1033.4105531466666, -25949.168318410913, -25304.96869146451, -5612.388922260871, 7977.941093199384, -8554.414934446208, -20508.887828455907, 0.1345, 0.8225, -0.5015000000000001, 192.0, 2.0, 16.0, 12.5, 88.0, 120.0, 48.0, 0.0, 0.0, 0.0, 1.6620651672372682E9, 0.0, 2022-09-01 16:46:07.237
70.0, -20994.032441858344, -20602.139306323446, -30458.252782613374, -16284.877513036432, -9981.551466173109, -13528.05805540777, 26671.152016061787, -13851.443094187152, -24683.12080897341, -952.2513690294468, -25864.11993075847, -25221.976664301954, -5531.7885317550345, 8043.856387598084, -8484.72219523456, -20426.052263504538, 0.1345, 0.8225, -0.5015000000000001, 192.0, 0.0, 0.0, 0.0, 0.0, 0.0, 0.0, 0.0, 0.0, 0.0, 1.6620651672372732E9, 0.0, 2022-09-01 16:46:07.237
72.0, -21002.72727045146, -20602.496934234732, -30461.918468704043, -16274.685117564812, -9999.231696037257, -13514.95993315696, 26607.091916452875, -13843.307059205421, -24770.158501882375, -1045.5251986414432, -25962.109978450535, -25317.61977882621, -5614.914669384321, 7967.569883772121, -8562.349803727842, -20518.25320938268, 0.1345, 0.8225, -0.5015000000000001, 192.0, 0.0, 0.0, 0.0, 0.0, 0.0, 0.0, 0.0, 0.0, 0.0, 1.6620651672372775E9, 0.0, 2022-09-01 16:46:07.237
74.0, -20991.1043633347, -20603.145134823935, -30433.86702941263, -16267.465504105749, -9966.441686921322, -13511.607171488664, 26629.89069579729, -13830.700675332628, -24698.968195792222, -967.7187761925193, -25874.93817507484, -25239.56748718828, -5542.38325862685, 8050.338393490124, -8494.44520407262, -20426.633408860376, 0.1345, 0.8225, -0.5015000000000001, 192.0, 0.0, 0.0, 0.0, 0.0, 0.0, 0.0, 0.0, 0.0, 0.0, 1.6620651672372825E9, 0.0, 2022-09-01 16:46:07.237
76.0, -21000.983834383947, -20599.74766966673, -30463.058407671262, -16265.275033149128, -9997.085928569548, -13511.383654044112, 26652.13068153032, -13840.915422548704, -24758.55794651007, -1038.953785771583, -25944.38504509748, -25311.428345612094, -5595.20043077474, 7976.9352646988955, -8546.860044820314, -20495.745002716187, 0.1345, 0.8225, -0.5015000000000001, 192.0, 0.0, 0.0, 0.0, 0.0, 0.0, 0.0, 0.0, 0.0, 0.0, 1.6620651672372866E9, 0.0, 2022-09-01 16:46:07.237
78.0, -20967.85854910118, -20575.31721297708, -30437.242142825384, -16252.959221954254, -9954.751724571195, -13502.085328350704, 26570.055075890432, -13817.759015293004, -24692.64265211137, -952.9666248520166, -25870.758398861697, -25227.117565526674, -5538.516406836082, 8062.3412802626235, -8505.621076300273, -20426.7228158382, 0.13325, 0.82525, -0.50075, 192.0, 2.0, 16.0, 12.5, 112.0, 120.0, 48.0, 0.0, 0.0, 0.0, 1.6620651672372909E9, 0.0, 2022-09-01 16:46:07.237
80.0, -20982.9012731196, -20578.669974645374, -30478.07877994523, -16274.729821053723, -9992.50382095621, -13514.62465699013, 26681.65733595578, -13828.331390420366, -24745.86215565946, -1031.309489167868, -25948.006027699237, -25301.280653629383, -5589.634846405369, 7982.165572901437, -8557.722992625593, -20518.40967159387, 0.13325, 0.82525, -0.50075, 192.0, 0.0, 0.0, 0.0, 0.0, 0.0, 0.0, 0.0, 0.0, 0.0, 1.662065167237295E9, 0.0, 2022-09-01 16:46:07.237
82.0, -20945.86443255716, -20547.265773685667, -30438.940875403987, -16248.958259696754, -9945.699268066797, -13489.456592733455, 26526.089194546843, -13785.684261999639, -24675.029477480588, -920.5118919029107, -25859.046084767117, -25202.75416407039, -5520.210328127186, 8086.436460785444, -8512.058378703401, -20441.162042756325, 0.13325, 0.82525, -0.50075, 192.0, 0.0, 0.0, 0.0, 0.0, 0.0, 0.0, 0.0, 0.0, 0.0, 1.6620651672372987E9, 0.0, 2022-09-01 16:46:07.237
84.0, -21008.136392609646, -20608.64366395994, -30509.259463460385, -16308.860934836977, -10012.978018877271, -13547.01233470587, 26700.00811815359, -13843.441169672153, -24744.476347503227, -1038.8643787937617, -25950.196498655856, -25306.443906598557, -5575.799116587534, 7989.273427638224, -8571.089335809867, -20547.623401596953, 0.13325, 0.82525, -0.50075, 192.0, 0.0, 0.0, 0.0, 0.0, 0.0, 0.0, 0.0, 0.0, 0.0, 1.6620651672373028E9, 0.0, 2022-09-01 16:46:07.237
86.0, -20954.358095450174, -20562.755532593197, -30448.30625633076, -16255.395562099882, -9946.213358189269, -13496.653854448065, 26476.982411978533, -13782.085631142334, -24704.22085573922, -957.9287121210948, -25892.573701450077, -25241.512088955893, -5535.834197501445, 8070.857294900095, -8545.206015730622, -20492.4369445368, 0.13325, 0.82525, -0.50075, 192.0, 0.0, 0.0, 0.0, 0.0, 0.0, 0.0, 0.0, 0.0, 0.0, 1.6620651672373075E9, 0.0, 2022-09-01 16:46:07.237
88.0, -21015.087785135245, -20618.009044886716, -30500.676393589547, -16299.048519021097, -10009.98288512026, -13539.77036950235, 26734.988598226144, -13829.806605554415, -24741.36945502394, -1035.2657479364573, -25944.921486964406, -25310.020185711408, -5555.3249186664725, 7999.465823109845, -8555.30900422442, -20544.650619584398, 0.132625, 0.825625, -0.499375, 192.0, 2.0, 16.0, 12.5, 104.0, 120.0, 56.0, 0.0, 0.0, 0.0, 1.662065167237312E9, 0.0, 2022-09-01 16:46:07.237
90.0, -20951.407665182076, -20557.525224390654, -30429.888418899587, -16221.376207038906, -9942.72648605424, -13474.123296037114, 26451.926106444134, -13755.844683151805, -24718.25775125715, -951.6478719291536, -25900.866198642994, -25247.56941170328, -5531.833235243945, 8084.1789345954585, -8541.182701728667, -20485.686717711298, 0.132625, 0.825625, -0.499375, 192.0, 0.0, 0.0, 0.0, 0.0, 0.0, 0.0, 0.0, 0.0, 0.0, 1.662065167237316E9, 0.0, 2022-09-01 16:46:07.237
92.0, -21027.045968418835, -20632.001236915738, -30507.381916926137, -16293.37117592945, -10017.98480963526, -13546.475892838944, 26751.32772342297, -13829.605439854318, -24750.734835950716, -1030.8401025343064, -25950.55412656714, -25307.941473477065, -5551.301604664517, 7994.034349207205, -8554.437286190663, -20535.173479935347, 0.132625, 0.825625, -0.499375, 192.0, 0.0, 0.0, 0.0, 0.0, 0.0, 0.0, 0.0, 0.0, 0.0, 1.66206516723732E9, 0.0, 2022-09-01 16:46:07.237
94.0, -20930.821708538737, -20532.11129094497, -30419.047822838766, -16191.268407257607, -9930.857709748472, -13458.879406318594, 26440.99610340549, -13732.330647984822, -24729.053643829066, -957.95106386555, -25908.868123157994, -25247.256487280905, -5540.930395237255, 8087.621103241576, -8550.59278614435, -20488.52538925712, 0.132625, 0.825625, -0.499375, 192.0, 0.0, 0.0, 0.0, 0.0, 0.0, 0.0, 0.0, 0.0, 0.0, 1.6620651672373557E9, 0.0, 2022-09-01 16:46:07.237
96.0, -21006.48236351995, -20613.65045471793, -30505.437315158528, -16277.859065277466, -10008.641780452941, -13542.67609628154, 26767.890366064355, -13818.474271115574, -24714.055623299555, -1002.4757388205218, -25917.004158139727, -25272.960993404507, -5523.361924095384, 8028.500739157288, -8534.812454558903, -20506.25032261018, 0.132625, 0.825625, -0.499375, 192.0, 0.0, 0.0, 0.0, 0.0, 0.0, 0.0, 0.0, 0.0, 0.0, 1.6620651672373605E9, 0.0, 2022-09-01 16:46:07.237
98.0, -20909.855772239658, -20515.705110514773, -30425.82040140872, -16177.119753017398, -9930.567137070553, -13449.983412025382, 26438.13508011521, -13727.726188627028, -24723.577466437517, -962.4437645010668, -25911.013890625705, -25255.414874007092, -5547.837084273945, 8073.405393768, -8568.474181708596, -20502.070546397037, 0.1353125, 0.8228125000000001, -0.4976875, 192.0, 2.0, 40.0, 12.5, 80.0, 120.0, 64.0, 0.0, 0.0, 0.0, 1.6620651672373643E9, 0.0, 2022-09-01 16:46:07.237
100.0, -20988.176284811056, -20600.12764932247, -30490.327535906737, -16259.150655168374, -9995.722472157773, -13528.348628085689, 26764.425845673784, -13808.527744832963, -24680.88563452788, -974.9383896515834, -25880.816683866586, -25248.105853570207, -5497.3891970383165, 8049.511378945277, -8528.844538789337, -20483.697412454774, 0.1353125, 0.8228125000000001, -0.4976875, 192.0, 0.0, 0.0, 0.0, 0.0, 0.0, 0.0, 0.0, 0.0, 0.0, 1.6620651672373688E9, 0.0, 2022-09-01 16:46:07.237
102.0, -20942.466967399952, -20549.54565162011, -30430.491915999883, -16196.208142782229, -9951.264852436168, -13466.702516877953, 26435.095242869287, -13747.261613280967, -24735.289780532097, -981.4874507769885, -25917.294730817644, -25270.14467360314, -5551.681584320258, 8062.3412802626235, -8581.1252690703, -20513.00054943568, 0.1353125, 0.8228125000000001, -0.4976875, 192.0, 0.0, 0.0, 0.0, 0.0, 0.0, 0.0, 0.0, 0.0, 0.0, 1.6620651672373738E9, 0.0, 2022-09-01 16:46:07.237
104.0, -21022.53091603886, -20633.87878344998, -30486.88536726062, -16278.529617611126, -10003.031492594659, -13542.541985814809, 26750.254839689118, -13821.849384528326, -24710.300530231063, -1004.9791341995161, -25908.018756868692, -25276.358458561714, -5515.225889113652, 8033.373419448545, -8537.718181338094, -20502.24936035268, 0.1353125, 0.8228125000000001, -0.4976875, 192.0, 0.0, 0.0, 0.0, 0.0, 0.0, 0.0, 0.0, 0.0, 0.0, 1.662065167237378E9, 0.0, 2022-09-01 16:46:07.237
106.0, -20954.693371617006, -20556.340581934524, -30425.46277349744, -16193.414174725316, -9944.648736077397, -13461.338098208678, 26458.117539658255, -13744.780569646427, -24751.651257473382, -1004.2638783769463, -25942.105167163038, -25290.95414769103, -5560.108191979908, 8042.001192808294, -8571.424611976698, -20521.225991395237, 0.1353125, 0.8228125000000001, -0.4976875, 192.0, 0.0, 0.0, 0.0, 0.0, 0.0, 0.0, 0.0, 0.0, 0.0, 1.662065167237382E9, 0.0, 2022-09-01 16:46:07.237
108.0, -21004.04602337432, -20612.75638493972, -30472.73671302041, -16254.590899299492, -9976.209399248291, -13525.331142584222, 26736.553220338013, -13801.598704051818, -24700.689280115283, -990.048168903371, -25899.435686997855, -25259.57229847578, -5502.395987796305, 8040.5036259297885, -8513.220669415077, -20481.52929324261, 0.13665625, 0.82040625, -0.49784375000000003, 192.0, 2.0, 40.0, 12.5, 72.0, 120.0, 56.0, 0.0, 0.0, 0.0, 1.662065167237386E9, 0.0, 2022-09-01 16:46:07.237
110.0, -20949.977153536936, -20552.74195107722, -30444.484108028904, -16195.20231428174, -9953.790599559617, -13477.252540260857, 26488.42650513965, -13754.570633717853, -24749.103158605478, -1003.8615469767508, -25943.33451310808, -25286.90848194462, -5555.816657044489, 8039.341335218112, -8562.93094908368, -20523.72938677423, 0.13665625, 0.82040625, -0.49784375000000003, 192.0, 0.0, 0.0, 0.0, 0.0, 0.0, 0.0, 0.0, 0.0, 0.0, 1.6620651672373905E9, 0.0, 2022-09-01 16:46:07.237
112.0, -20986.365793510176, -20600.485277233754, -30471.350904864183, -16249.31588760804, -9968.810971833584, -13521.956029171472, 26709.753478736104, -13794.1555731482, -24694.520198645616, -976.4136047856338, -25884.437666468344, -25243.389635490137, -5496.13749934882, 8045.979803321338, -8514.673532804673, -20475.650784450863, 0.13665625, 0.82040625, -0.49784375000000003, 192.0, 0.0, 0.0, 0.0, 0.0, 0.0, 0.0, 0.0, 0.0, 0.0, 1.6620651672373943E9, 0.0, 2022-09-01 16:46:07.237
114.0, -20946.91496454656, -20548.651581841896, -30439.902000415565, -16198.420965483305, -9954.215282704268, -13471.016403557827, 26531.96770333859, -13751.016706349457, -24742.017655613145, -1001.2016893865692, -25929.208210612323, -25279.8676824412, -5549.200540685719, 8044.750457376297, -8557.49947518104, -20519.616665794452, 0.13665625, 0.82040625, -0.49784375000000003, 192.0, 0.0, 0.0, 0.0, 0.0, 0.0, 0.0, 0.0, 0.0, 0.0, 1.6620651672373986E9, 0.0, 2022-09-01 16:46:07.237
116.0, -20987.081049332744, -20599.6135592, -30459.54918379178, -16245.516091050637, -9967.06753576607, -13516.77042445784, 26669.922670116746, -13793.082689414347, -24691.74858233316, -967.405851770145, -25869.21612849428, -25233.443109207525, -5502.03835988502, 8064.509399474789, -8513.511242092996, -20473.34855477197, 0.13665625, 0.82040625, -0.49784375000000003, 192.0, 0.0, 0.0, 0.0, 0.0, 0.0, 0.0, 0.0, 0.0, 0.0, 1.6620651672374036E9, 0.0, 2022-09-01 16:46:07.237
118.0, -20978.542682950818, -20577.395925211422, -30457.805747724266, -16214.983608124687, -9971.493181168222, -13481.298206007268, 26563.68482872067, -13770.48507577003, -24753.305286563074, -1017.853739005773, -25938.66299851692, -25295.268034370903, -5560.24230244664, 8018.129529730026, -8557.901806581236, -20533.40769212338, 0.13432812500000002, 0.821203125, -0.499921875, 192.0, 2.0, 16.0, 12.5, 88.0, 120.0, 40.0, 0.0, 0.0, 0.0, 1.6620651672374077E9, 0.0, 2022-09-01 16:46:07.237
120.0, -20990.992604612424, -20604.70975693581, -30461.739654748402, -16237.938849680288, -9963.334794442033, -13503.806412673763, 26617.59723634687, -13787.450049811609, -24712.446297698774, -977.6876542195862, -25890.383230493455, -25245.490699468937, -5518.086912403931, 8064.017661096771, -8518.853309017815, -20470.599290203965, 0.13432812500000002, 0.821203125, -0.499921875, 192.0, 0.0, 0.0, 0.0, 0.0, 0.0, 0.0, 0.0, 0.0, 0.0, 1.6620651677164774E9, 0.0, 2022-09-01 16:46:07.716
122.0, -20977.223930027954, -20577.77590486716, -30466.36646585065, -16212.480212745693, -9971.202608490303, -13473.89977859256, 26604.58852107388, -13771.669718226161, -24766.00107741369, -1027.3308786548232, -25954.063350446624, -25304.9239879756, -5567.216046716696, 8007.44539588039, -8562.640376405761, -20528.758529276674, 0.13432812500000002, 0.821203125, -0.499921875, 192.0, 0.0, 0.0, 0.0, 0.0, 0.0, 0.0, 0.0, 0.0, 0.0, 1.6620651677165308E9, 0.0, 2022-09-01 16:46:07.716
124.0, -20982.230720785945, -20594.003271341717, -30460.331494847716, -16234.697846734269, -9953.142398970414, -13502.621770217631, 26577.0735236494, -13786.466573055575, -24704.75729760615, -946.8422468712624, -25882.716582145284, -25224.770632358868, -5507.514537276571, 8080.133268849047, -8521.669628819183, -20460.6304121769, 0.13432812500000002, 0.821203125, -0.499921875, 192.0, 0.0, 0.0, 0.0, 0.0, 0.0, 0.0, 0.0, 0.0, 0.0, 1.6620651677165496E9, 0.0, 2022-09-01 16:46:07.716
126.0, -20995.351194781208, -20597.06546033209, -30494.239091186417, -16245.180814883808, -9996.996521591725, -13510.735453454907, 26638.116137756842, -13804.884410486748, -24762.737722723214, -1043.334727684823, -25957.974905726303, -25307.673252543602, -5566.165514727297, 7996.470689352834, -8579.828867891893, -20549.366837664467, 0.13432812500000002, 0.821203125, -0.499921875, 192.0, 0.0, 0.0, 0.0, 0.0, 0.0, 0.0, 0.0, 0.0, 0.0, 1.6620651677165787E9, 0.0, 2022-09-01 16:46:07.716
128.0, -20966.62920315614, -20578.893492089926, -30448.909753431053, -16230.048683887564, -9941.228919175735, -13500.09602309418, 26530.1125085488, -13778.308186329388, -24710.009957553146, -954.8218196418071, -25885.97993683576, -25234.04660630782, -5526.737037508135, 8072.399565267511, -8541.294460450943, -20484.770296188628, 0.13432812500000002, 0.821203125, -0.499921875, 192.0, 0.0, 0.0, 0.0, 0.0, 0.0, 0.0, 0.0, 0.0, 0.0, 1.662065167716583E9, 0.0, 2022-09-01 16:46:07.716
130.0, -21001.117944850677, -20608.688367448853, -30488.80761728378, -16256.334335367006, -9984.88187609695, -13511.316598810745, 26678.639850454314, -13804.236209897545, -24752.478272018227, -1043.2453207070018, -25946.821385243107, -25308.723784533, -5557.67185183428, 7976.421174576423, -8556.31483272491, -20543.153052705893, 0.126, 0.8220000000000001, -0.502, 192.0, 1.5, 120.0, 12.5, 88.0, 120.0, 40.0, 0.0, 0.0, 0.0, 1.6620651677165875E9, 0.0, 2022-09-01 16:46:07.716
132.0, -20958.38140945213, -20573.59612865402, -30435.8339829247, -16216.190602325274, -9927.81787250255, -13482.728717652408, 26496.316670932374, -13766.39470653471, -24715.03910005559, -953.6148254412205, -25888.773904892674, -25237.645237165125, -5522.266688617074, 8091.152678865515, -8526.251736432521, -20472.588595460486, 0.126, 0.8220000000000001, -0.502, 192.0, 0.0, 0.0, 0.0, 0.0, 0.0, 0.0, 0.0, 0.0, 0.0, 1.6620651677165933E9, 0.0, 2022-09-01 16:46:07.716
134.0, -21014.10430837921, -20621.495917021744, -30499.335288922226, -16262.436361603304, -9994.671940168375, -13520.972552415438, 26710.24521711412, -13817.110814703801, -24748.544364994093, -1039.914910783161, -25944.76502475322, -25305.751002520443, -5547.4571046182045, 7974.878904209007, -8546.658879120218, -20531.48544210022, 0.126, 0.8220000000000001, -0.502, 192.0, 0.0, 0.0, 0.0, 0.0, 0.0, 0.0, 0.0, 0.0, 0.0, 1.6620651677166197E9, 0.0, 2022-09-01 16:46:07.716
136.0, -20957.554394907285, -20572.813817598086, -30440.70666321596, -16210.602666211447, -9931.930593482328, -13475.3302902377, 26461.0456181819, -13762.81842742186, -24724.42683272682, -965.1706773246143, -25899.92742537587, -25241.825013378268, -5536.080066690453, 8092.493783532833, -8544.580166885873, -20470.264014037137, 0.126, 0.8220000000000001, -0.502, 192.0, 0.0, 0.0, 0.0, 0.0, 0.0, 0.0, 0.0, 0.0, 0.0, 1.6620651677166352E9, 0.0, 2022-09-01 16:46:07.716
138.0, -21014.55134326832, -20631.353036326534, -30500.98931801192, -16274.97569024273, -9995.342492502034, -13530.114415897659, 26731.680540046757, -13822.184660695155, -24728.964236851247, -1043.5358933849209, -25929.81170771262, -25298.173761150094, -5532.101456177408, 7973.493096052778, -8545.898919808737, -20514.475764569732, 0.126, 0.8220000000000001, -0.502, 192.0, 0.0, 0.0, 0.0, 0.0, 0.0, 0.0, 0.0, 0.0, 0.0, 1.6620651677166405E9, 0.0, 2022-09-01 16:46:07.716
140.0, -20938.8906882871, -20557.949907535305, -30416.45502048195, -16198.376261994394, -9921.24645963269, -13462.053354031248, 26440.794937705392, -13748.71447667056, -24718.816544868536, -971.7197384500192, -25898.183989308356, -25246.47417622497, -5535.09658993442, 8080.759117693797, -8547.2176727316, -20478.690621696787, 0.128, 0.8200000000000001, -0.502, 192.0, 2.0, 0.0, 12.5, 80.0, 120.0, 40.0, 0.0, 0.0, 0.0, 1.6620651677166457E9, 0.0, 2022-09-01 16:46:07.716
142.0, -21003.91191290759, -20619.37250129849, -30479.621050312646, -16261.83286450301, -9988.994597076726, -13522.648933249586, 26747.19265069874, -13815.54619259193, -24701.963329549235, -1029.9236810116388, -25905.98474812326, -25273.698600971533, -5513.2365838571295, 7992.380320117512, -8517.087521205845, -20498.740136473196, 0.128, 0.8200000000000001, -0.502, 192.0, 0.0, 0.0, 0.0, 0.0, 0.0, 0.0, 0.0, 0.0, 0.0, 1.6620651677166514E9, 0.0, 2022-09-01 16:46:07.716
144.0, -20943.85277555618, -20556.340581934524, -30421.282997284296, -16192.117773546908, -9934.389285372412, -13457.247728973358, 26430.26726606694, -13750.033229593424, -24714.54736167757, -975.3183693073237, -25901.60380621002, -25242.696731412023, -5540.058677203498, 8072.734841434341, -8542.657916862718, -20476.209578062248, 0.128, 0.8200000000000001, -0.502, 192.0, 0.0, 0.0, 0.0, 0.0, 0.0, 0.0, 0.0, 0.0, 0.0, 1.6620651677166572E9, 0.0, 2022-09-01 16:46:07.716
146.0, -20994.457125002995, -20614.54452449614, -30480.001029968385, -16255.239099888695, -9986.82647786456, -13519.050302392281, 26751.10420597842, -13813.623942568773, -24698.632919625394, -1030.4154193896557, -25898.027527097172, -25266.72485670148, -5509.414435555272, 8009.725273814831, -8514.137090937746, -20486.11140085595, 0.128, 0.8200000000000001, -0.502, 192.0, 0.0, 0.0, 0.0, 0.0, 0.0, 0.0, 0.0, 0.0, 0.0, 1.6620651677166626E9, 0.0, 2022-09-01 16:46:07.716
148.0, -20916.89657174308, -20535.419349124357, -30423.96520661893, -16180.807790852523, -9934.679858050331, -13452.486807404377, 26424.56757123084, -13747.52983421443, -24707.41715519633, -980.1016426207594, -25888.617442681487, -25237.37701623166, -5533.979002711654, 8088.537524764243, -8548.916405310203, -20474.086162338994, 0.128, 0.8200000000000001, -0.502, 192.0, 0.0, 0.0, 0.0, 0.0, 0.0, 0.0, 0.0, 0.0, 0.0, 1.662065167716668E9, 0.0, 2022-09-01 16:46:07.716
150.0, -21007.73406120945, -20635.778681728683, -30499.201178455496, -16287.447963648792, -10006.540716474143, -13554.92485224305, 26734.49685984813, -13840.93777429316, -24682.673774084305, -1014.5903843152981, -25879.922614088373, -25255.75015017392, -5501.054883128987, 7999.309360898657, -8526.83288178836, -20491.118191613936, 0.13, 0.8200000000000001, -0.498, 192.0, 2.0, 8.0, 12.5, 80.0, 120.0, 56.0, 0.0, 0.0, 0.0, 1.6620651677166736E9, 0.0, 2022-09-01 16:46:07.716
152.0, -20954.38044719463, -20570.623346641463, -30439.812593437746, -16219.073977360009, -9956.428105405344, -13484.047470575271, 26432.1895160901, -13769.836875180827, -24747.315019049052, -1013.62925930372, -25930.12463213499, -25285.455618555025, -5562.835104803456, 8035.362724705068, -8581.885228381781, -20526.76922402015, 0.13, 0.8200000000000001, -0.498, 192.0, 0.0, 0.0, 0.0, 0.0, 0.0, 0.0, 0.0, 0.0, 0.0, 1.6620651677166789E9, 0.0, 2022-09-01 16:46:07.716
154.0, -21009.991587399436, -20634.92931543938, -30487.198291682995, -16285.995100259199, -9984.658358652398, -13536.328200856233, 26725.936141721744, -13820.731797305561, -24693.98375677869, -1019.8430442622954, -25895.770000907185, -25270.85992942571, -5500.3843307953275, 7989.876924738518, -8518.87566076227, -20492.615758492444, 0.13, 0.8200000000000001, -0.498, 192.0, 0.0, 0.0, 0.0, 0.0, 0.0, 0.0, 0.0, 0.0, 0.0, 1.662065167716683E9, 0.0, 2022-09-01 16:46:07.716
156.0, -20968.015011312367, -20580.480465946253, -30461.806709981767, -16222.471442517215, -9960.4514194073, -13473.966833825927, 26457.13406290222, -13767.177017590646, -24751.539498751106, -1022.0335152189155, -25949.391835855466, -25298.71020301702, -5565.763183327101, 8044.862216098573, -8574.240931778066, -20520.913066972862, 0.13, 0.8200000000000001, -0.498, 192.0, 0.0, 0.0, 0.0, 0.0, 0.0, 0.0, 0.0, 0.0, 0.0, 1.662065167716687E9, 0.0, 2022-09-01 16:46:07.716
158.0, -21009.67866297706, -20632.112995638014, -30501.45870464548, -16278.306100166572, -9993.263780267689, -13540.932660214026, 26697.14709486331, -13821.558811850407, -24704.198503994765, -1009.0471516903821, -25906.968224879292, -25271.15050210363, -5520.836176971934, 8018.420102407945, -8535.013620259002, -20488.72655495722, 0.13, 0.8200000000000001, -0.498, 192.0, 0.0, 0.0, 0.0, 0.0, 0.0, 0.0, 0.0, 0.0, 0.0, 1.6620651677166913E9, 0.0, 2022-09-01 16:46:07.716
160.0, -20953.77695009434, -20560.855634314496, -30473.11669267615, -16212.659026701336, -9975.181219003347, -13471.28462449129, 26486.079571971844, -13767.221721079555, -24750.354856294973, -1019.597175073287, -25947.581344554586, -25296.09504891575, -5571.619340374392, 8034.669820626953, -8589.03778660748, -20519.661369283363, 0.13, 0.81, -0.506, 192.0, 2.0, 8.0, 12.5, 40.0, 120.0, 24.0, 0.0, 0.0, 0.0, 1.6620651677166953E9, 0.0, 2022-09-01 16:46:07.716
162.0, -20979.928491107046, -20604.352129024523, -30483.89023350361, -16252.26631787614, -9978.064594038082, -13519.72085472594, 26665.877004370333, -13801.866924985281, -24678.717515315715, -978.3805582977008, -25875.586375664043, -25237.801699376312, -5505.681694231235, 8051.791256879718, -8536.622945859785, -20457.635278419886, 0.13, 0.81, -0.506, 192.0, 0.0, 0.0, 0.0, 0.0, 0.0, 0.0, 0.0, 0.0, 0.0, 1.6620651677166996E9, 0.0, 2022-09-01 16:46:07.716
164.0, -20976.419267227564, -20582.782695625152, -30476.312992133262, -16226.15948035234, -9988.033472065148, -13482.14757229657, 26522.691729389637, -13781.437430553131, -24752.43356852932, -1033.432904891122, -25956.052655703148, -25305.505133331437, -5575.173267742785, 8015.849651795585, -8597.866725667325, -20530.68077929983, 0.13, 0.81, -0.506, 192.0, 0.0, 0.0, 0.0, 0.0, 0.0, 0.0, 0.0, 0.0, 0.0, 1.662065167716704E9, 0.0, 2022-09-01 16:46:07.716
166.0, -20997.519313993373, -20613.583399484563, -30471.730884519922, -16258.54715806808, -9973.393079446922, -13520.905497182071, 26629.9353992862, -13802.470422085575, -24693.492018400673, -981.822726943818, -25888.550387448122, -25245.84832738022, -5505.212307597674, 8077.585169981143, -8532.621983602285, -20463.357325000445, 0.13, 0.81, -0.506, 192.0, 0.0, 0.0, 0.0, 0.0, 0.0, 0.0, 0.0, 0.0, 0.0, 1.6620651677167091E9, 0.0, 2022-09-01 16:46:07.716
168.0, -20990.97025286797, -20595.903169620415, -30484.806655026277, -16237.06713164653, -9991.766213389184, -13491.870581134628, 26565.31650606591, -13794.244980126023, -24763.452978545785, -1050.8449138218061, -25968.524929109208, -25318.267979415417, -5568.154819983819, 8011.513413371255, -8590.602408719351, -20539.643828826407, 0.13, 0.81, -0.506, 192.0, 0.0, 0.0, 0.0, 0.0, 0.0, 0.0, 0.0, 0.0, 0.0, 1.6620651677167137E9, 0.0, 2022-09-01 16:46:07.716
170.0, -20974.161741037577, -20592.34924225202, -30468.154605407075, -16240.621059014924, -9961.121971740959, -13502.465308006444, 26587.198863887654, -13794.87082897077, -24689.155779976343, -967.986997125983, -25886.874006613973, -25231.498507439916, -5502.306580818485, 8080.155620593503, -8541.294460450943, -20463.066752322527, 0.134, 0.8180000000000001, -0.508, 192.0, 2.0, 24.0, 12.5, 72.0, 120.0, 16.0, 0.0, 0.0, 0.0, 1.6620651677167175E9, 0.0, 2022-09-01 16:46:07.716
172.0, -20986.924587121557, -20593.153905052415, -30499.536454622325, -16239.83874795899, -10001.377463504967, -13487.28847352129, 26608.45537286465, -13803.140974419233, -24751.964181895757, -1050.6437481217085, -25961.081798205592, -25305.885112987176, -5566.165514727297, 7993.408500362457, -8596.860897166836, -20536.31341890257, 0.134, 0.8180000000000001, -0.508, 192.0, 0.0, 0.0, 0.0, 0.0, 0.0, 0.0, 0.0, 0.0, 0.0, 1.662065167716722E9, 0.0, 2022-09-01 16:46:07.716
174.0, -20965.556319422285, -20581.776867124663, -30459.34801809168, -16228.148785608862, -9954.148227470903, -13487.19906654347, 26550.385540769763, -13784.432564310142, -24690.385125921384, -961.6391017006757, -25886.22580602477, -25225.12826027015, -5516.678752503247, 8095.779489967763, -8554.750210613038, -20454.23781326268, 0.134, 0.8180000000000001, -0.508, 192.0, 0.0, 0.0, 0.0, 0.0, 0.0, 0.0, 0.0, 0.0, 0.0, 1.662065167716726E9, 0.0, 2022-09-01 16:46:07.716
176.0, -20984.53295046484, -20591.633986429453, -30483.39849512559, -16238.40823631385, -9990.872143610972, -13487.757860154852, 26656.019885065543, -13801.330483118354, -24744.632809714414, -1044.20644571858, -25950.062388189126, -25297.570264049802, -5558.476514634671, 7987.217067148336, -8589.484821496586, -20525.048139697094, 0.134, 0.8180000000000001, -0.508, 192.0, 0.0, 0.0, 0.0, 0.0, 0.0, 0.0, 0.0, 0.0, 0.0, 1.6620651677167313E9, 0.0, 2022-09-01 16:46:07.716
178.0, -20966.360982222675, -20584.54848343712, -30446.115785374142, -16225.555983252048, -9952.896529781405, -13486.103831065158, 26516.500296175516, -13786.667738755672, -24687.65821309784, -953.9501016080501, -25871.138378517437, -25213.013614775376, -5507.46983378766, 8102.015626670794, -8546.055382019924, -20443.15134801285, 0.134, 0.8180000000000001, -0.508, 192.0, 0.0, 0.0, 0.0, 0.0, 0.0, 0.0, 0.0, 0.0, 0.0, 1.6620651677167351E9, 0.0, 2022-09-01 16:46:07.716
180.0, -20994.613587214182, -20598.69713767733, -30482.146797436097, -16245.873718961922, -9999.365806503989, -13498.821973660228, 26698.845827441914, -13812.68516930165, -24745.593934725995, -1055.2482074795018, -25944.340341608568, -25301.39241235166, -5559.0800117349645, 7980.355081600557, -8579.940626614169, -20523.52822107413, 0.13, 0.8160000000000001, -0.51, 192.0, 2.0, 8.0, 12.5, 64.0, 120.0, 8.0, 0.0, 0.0, 0.0, 1.6620651677167394E9, 0.0, 2022-09-01 16:46:07.716
182.0, -20948.233717469422, -20561.79440758162, -30430.380157277606, -16210.490907489171, -9939.664297063864, -13470.85994134664, 26487.934766761635, -13768.182846091135, -24689.49105614317, -945.9705288375055, -25866.533919159643, -25211.493696152414, -5513.817729212968, 8095.488917289844, -8534.007791758513, -20434.434167675277, 0.13, 0.8160000000000001, -0.51, 192.0, 0.0, 0.0, 0.0, 0.0, 0.0, 0.0, 0.0, 0.0, 0.0, 1.6620651677167437E9, 0.0, 2022-09-01 16:46:07.716
184.0, -21017.59118051424, -20628.715530480808, -30506.532550636835, -16281.189475201307, -10012.061597354603, -13530.58380253122, 26721.264627130586, -13836.623887613285, -24726.550248450072, -1055.9634633020717, -25932.56097228062, -25295.91623496011, -5542.2938516490285, 7977.248189121269, -8554.191417001655, -20507.881999955418, 0.13, 0.8160000000000001, -0.51, 192.0, 0.0, 0.0, 0.0, 0.0, 0.0, 0.0, 0.0, 0.0, 0.0, 1.662065167716748E9, 0.0, 2022-09-01 16:46:07.716
186.0, -20939.89651678759, -20560.92268954786, -30427.899113643067, -16208.546305721558, -9925.403884101377, -13467.127200022604, 26452.395493077696, -13765.098305356301, -24709.875847086412, -986.918924679628, -25903.101373088524, -25244.95425760201, -5538.337592880439, 8068.845637899118, -8557.36536471431, -20462.351496499956, 0.13, 0.8160000000000001, -0.51, 192.0, 0.0, 0.0, 0.0, 0.0, 0.0, 0.0, 0.0, 0.0, 0.0, 1.662065167716752E9, 0.0, 2022-09-01 16:46:07.716
188.0, -21026.598933529727, -20642.014818431715, -30518.6024926427, -16294.533466641125, -10016.040207867647, -13544.128959671136, 26732.507554591604, -13853.74532386605, -24714.83793435549, -1049.4367539211219, -25928.157678622923, -25290.77533373539, -5537.309412635495, 7967.122848883016, -8549.36344019931, -20500.30475858507, 0.13, 0.8160000000000001, -0.51, 192.0, 0.0, 0.0, 0.0, 0.0, 0.0, 0.0, 0.0, 0.0, 0.0, 1.662065167716756E9, 0.0, 2022-09-01 16:46:07.716
190.0, -20953.15110124959, -20568.54463440712, -30442.807727194755, -16219.409253526837, -9945.92278551135, -13477.766630383328, 26430.244914322488, -13776.989433406525, -24732.384053752907, -992.082177648804, -25925.207248354825, -25263.260336310905, -5569.093593250942, 8057.446248226911, -8577.75015565755, -20482.15514208736, 0.132, 0.8180000000000001, -0.512, 192.0, 2.0, 16.0, 12.5, 72.0, 120.0, 0.0, 0.0, 0.0, 0.0, 1.6620651677167604E9, 0.0, 2022-09-01 16:46:07.716
192.0, -21002.0567181178, -20621.004178643725, -30493.613242341668, -16280.384812400916, -9996.951818102816, -13531.969610687449, 26753.272325190585, -13833.584050367363, -24703.88557957239, -1043.5135416404655, -25913.673748215886, -25281.186435364063, -5534.604851556403, 7974.34246234208, -8538.88047204977, -20487.54191250109, 0.132, 0.8180000000000001, -0.512, 192.0, 0.0, 0.0, 0.0, 0.0, 0.0, 0.0, 0.0, 0.0, 0.0, 1.662065167716775E9, 0.0, 2022-09-01 16:46:07.716
194.0, -20946.646743613095, -20560.4533029143, -30437.286846314295, -16209.283913288584, -9944.447570377299, -13471.642252402575, 26427.47329801003, -13768.540474002419, -24723.64452167088, -990.9645904260386, -25914.41135578291, -25254.543155973337, -5563.662119348302, 8075.327643791157, -8561.992175816558, -20473.706182683254, 0.132, 0.8180000000000001, -0.512, 192.0, 0.0, 0.0, 0.0, 0.0, 0.0, 0.0, 0.0, 0.0, 0.0, 1.6620651677167792E9, 0.0, 2022-09-01 16:46:07.716
196.0, -21024.49786955093, -20638.639705018963, -30500.47522788945, -16286.93387352632, -10003.545582717132, -13550.119227185158, 26750.947743767232, -13845.36341969531, -24701.717460360225, -1034.4610851360662, -25912.019719126194, -25270.99403989244, -5531.900290477311, 7982.322035112624, -8526.944640510636, -20478.064772852038, 0.132, 0.8180000000000001, -0.512, 192.0, 0.0, 0.0, 0.0, 0.0, 0.0, 0.0, 0.0, 0.0, 0.0, 1.6620651677167833E9, 0.0, 2022-09-01 16:46:07.716
198.0, -20950.312429703765, -20563.090808760026, -30437.420956781025, -16206.981683609687, -9944.089942466015, -13471.441086702478, 26432.725957957027, -13770.149799603201, -24747.583239982516, -1006.6778667781194, -25940.294675862155, -25275.509092272412, -5580.9176660677995, 8047.1420940330145, -8571.55872244343, -20491.229950336212, 0.132, 0.8180000000000001, -0.512, 192.0, 0.0, 0.0, 0.0, 0.0, 0.0, 0.0, 0.0, 0.0, 0.0, 1.6620651677167885E9, 0.0, 2022-09-01 16:46:07.716
200.0, -20997.206389570998, -20621.540620510652, -30479.151663679084, -16272.807571030567, -9977.97518706026, -13532.617811276652, 26748.10907222141, -13827.034989241958, -24686.339460174975, -1008.0636749343486, -25892.081963072058, -25254.744321673432, -5512.633086756836, 8010.127605215026, -8509.756149024504, -20461.65859242184, 0.133, 0.8160000000000001, -0.511, 192.0, 2.0, 24.0, 12.5, 56.0, 120.0, 8.0, 0.0, 0.0, 0.0, 1.6620651677167928E9, 0.0, 2022-09-01 16:46:07.716
202.0, -20944.65743835657, -20557.480520901743, -30435.811631180244, -16210.334445277984, -9946.034544233626, -13467.820104100718, 26455.94942044609, -13768.808694935882, -24727.46666997274, -999.0112184299492, -25920.647492485943, -25264.37792353367, -5563.170380970286, 8056.462771470878, -8553.87849257928, -20477.90831064085, 0.133, 0.8160000000000001, -0.511, 192.0, 0.0, 0.0, 0.0, 0.0, 0.0, 0.0, 0.0, 0.0, 0.0, 1.6620651677167969E9, 0.0, 2022-09-01 16:46:07.716
204.0, -21011.131526366655, -20632.671789249398, -30488.718210305957, -16286.50919038167, -9990.603922677508, -13547.146445172602, 26723.410394598293, -13839.999001026035, -24684.394858407362, -1008.6224685457312, -25883.610651923496, -25249.491661726435, -5515.516461791571, 8017.414273907456, -8510.627867058261, -20456.115359796928, 0.133, 0.8160000000000001, -0.511, 192.0, 0.0, 0.0, 0.0, 0.0, 0.0, 0.0, 0.0, 0.0, 0.0, 1.662065167716801E9, 0.0, 2022-09-01 16:46:07.716
206.0, -20965.802188611295, -20576.434800199844, -30461.762006492856, -16221.935000650288, -9971.493181168222, -13483.108697308147, 26475.194272422108, -13789.327596345855, -24756.211013342265, -1032.5835386018205, -25956.052655703148, -25295.49155181546, -5591.579448172981, 8021.772864076241, -8583.203981304643, -20507.34555808849, 0.133, 0.8160000000000001, -0.511, 192.0, 0.0, 0.0, 0.0, 0.0, 0.0, 0.0, 0.0, 0.0, 0.0, 1.662065167716818E9, 0.0, 2022-09-01 16:46:07.716
208.0, -21002.19082858453, -20623.395815300442, -30488.94172775051, -16276.540312354604, -9985.060690052593, -13545.425360849544, 26698.063516385977, -13839.864890559304, -24685.087762485477, -1001.3581515977564, -25892.953681105817, -25246.407120991604, -5520.2773833605515, 8027.941945545906, -8517.40044562822, -20448.51576668212, 0.133, 0.8160000000000001, -0.511, 192.0, 0.0, 0.0, 0.0, 0.0, 0.0, 0.0, 0.0, 0.0, 0.0, 1.6620651677168224E9, 0.0, 2022-09-01 16:46:07.716
210.0, -20962.829406598736, -20571.875044330962, -30463.192518137996, -16220.280971560594, -9975.672957381363, -13483.041642074782, 26515.62857814176, -13791.830991724848, -24755.629867986427, -1046.7098410975743, -25961.685295305884, -25303.91815947511, -5588.763128371612, 8012.519241871744, -8577.951321357647, -20504.305720842567, 0.1335, 0.8150000000000001, -0.5085, 192.0, 2.0, 24.0, 12.5, 56.0, 120.0, 24.0, 0.0, 0.0, 0.0, 1.6620651677168264E9, 0.0, 2022-09-01 16:46:07.716
212.0, -20989.696203434018, -20607.324911037078, -30463.527794304824, -16249.919384708332, -9976.343509715023, -13518.603267503175, 26670.481463728127, -13817.311980403898, -24675.655326325337, -972.3902907836784, -25872.390076206935, -25220.724966612455, -5510.308505333484, 8061.469562228866, -8505.419910600176, -20419.614961101408, 0.1335, 0.8150000000000001, -0.5085, 192.0, 0.0, 0.0, 0.0, 0.0, 0.0, 0.0, 0.0, 0.0, 0.0, 1.6620651677168307E9, 0.0, 2022-09-01 16:46:07.716
214.0, -20980.934319607535, -20586.046050315625, -30458.56570703575, -16218.537535493082, -9985.954759830805, -13476.604339671654, 26563.774235698493, -13795.004939437502, -24754.489929019204, -1030.527178111932, -25947.737806765774, -25289.34482209025, -5589.321921982994, 8022.622230365543, -8566.753097385537, -20485.66436596684, 0.1335, 0.8150000000000001, -0.5085, 192.0, 0.0, 0.0, 0.0, 0.0, 0.0, 0.0, 0.0, 0.0, 0.0, 1.6620651677168348E9, 0.0, 2022-09-01 16:46:07.716
216.0, -20996.401726770608, -20614.835097174062, -30458.49865180238, -16249.449998074771, -9974.242445736223, -13516.233982590913, 26628.2366667076, -13822.698750817628, -24697.582387635994, -976.6147704857315, -25880.995497822227, -25230.09034753923, -5534.314278878484, 8065.582283208643, -8515.96993398308, -20422.475984391687, 0.1335, 0.8150000000000001, -0.5085, 192.0, 0.0, 0.0, 0.0, 0.0, 0.0, 0.0, 0.0, 0.0, 0.0, 1.6620651677168388E9, 0.0, 2022-09-01 16:46:07.716
218.0, -20994.278311047354, -20603.83803890205, -30476.916489233554, -16246.074884662019, -10001.73509141625, -13501.593589972686, 26593.0773726794, -13831.862966044304, -24756.52393776464, -1049.235588221024, -25955.80678651414, -25301.63828154067, -5595.960390086221, 7991.5533055726655, -8567.200132274644, -20494.895636426885, 0.1335, 0.8150000000000001, -0.5085, 192.0, 0.0, 0.0, 0.0, 0.0, 0.0, 0.0, 0.0, 0.0, 0.0, 1.662065167716843E9, 0.0, 2022-09-01 16:46:07.716
220.0, -20968.86437760167, -20593.64564343043, -30438.873820170622, -16242.588012526992, -9957.925672283849, -13507.986188886904, 26584.091971408365, -13817.982532737558, -24687.546454375562, -975.698348963064, -25881.06255305559, -25225.687053881535, -5534.671906789769, 8070.007928610794, -8514.360608382298, -20427.035740260573, 0.13475, 0.8155000000000001, -0.50725, 192.0, 2.0, 32.0, 12.5, 64.0, 120.0, 24.0, 0.0, 0.0, 0.0, 1.6620651677168472E9, 0.0, 2022-09-01 16:46:07.716
222.0, -20974.29585150431, -20584.72729739276, -30453.35775057766, -16224.125471606909, -9986.580608675553, -13489.724813666919, 26648.867326839845, -13812.171079179177, -24734.239248542697, -1048.7438498430074, -25938.685350261374, -25287.37786857818, -5571.10525025192, 7993.386148618001, -8540.489797650553, -20489.53121775761, 0.13475, 0.8155000000000001, -0.50725, 192.0, 0.0, 0.0, 0.0, 0.0, 0.0, 0.0, 0.0, 0.0, 0.0, 1.6620651677168512E9, 0.0, 2022-09-01 16:46:07.716
224.0, -20948.61369712516, -20568.991669296225, -30408.497799455858, -16201.080823073486, -9938.881986007927, -13476.537284438287, 26565.9200031662, -13782.577369520352, -24665.351172131443, -931.665412386109, -25848.250192195203, -25188.449047618993, -5509.4814907886375, 8105.837774972651, -8489.527820292453, -20393.709289277707, 0.13475, 0.8155000000000001, -0.50725, 192.0, 0.0, 0.0, 0.0, 0.0, 0.0, 0.0, 0.0, 0.0, 0.0, 1.6620651677168553E9, 0.0, 2022-09-01 16:46:07.716
226.0, -21007.801116442814, -20621.853544933027, -30473.295506631795, -16253.987402199198, -10007.434786252355, -13512.657703478064, 26701.14805712081, -13831.795910810937, -24731.624094441428, -1039.7808003164293, -25924.60375125453, -25282.795760964844, -5565.986700771654, 7991.598009061577, -8535.661820848205, -20476.09781933997, 0.13475, 0.8155000000000001, -0.50725, 192.0, 0.0, 0.0, 0.0, 0.0, 0.0, 0.0, 0.0, 0.0, 0.0, 1.6620651677168596E9, 0.0, 2022-09-01 16:46:07.716
228.0, -20977.91683410607, -20602.921617379383, -30437.532715503305, -16235.480157790204, -9959.043259506614, -13496.34093002569, 26520.30009273292, -13800.816392995883, -24706.634844140393, -979.9898838984828, -25888.438628725842, -25237.488774953938, -5554.520255866081, 8083.977768895361, -8525.469425376587, -20425.582876870976, 0.13475, 0.8155000000000001, -0.50725, 192.0, 0.0, 0.0, 0.0, 0.0, 0.0, 0.0, 0.0, 0.0, 0.0, 1.6620651677168643E9, 0.0, 2022-09-01 16:46:07.716
230.0, -21024.8107939733, -20637.27624860719, -30500.743448822912, -16281.480047879226, -10021.941068403848, -13528.885069952616, 26722.248103886617, -13849.498492419541, -24740.85536490147, -1066.0888035403257, -25947.04490268766, -25310.24370315596, -5583.421061446794, 7962.9654244143285, -8547.955280298625, -20492.280482325612, 0.13637500000000002, 0.8167500000000001, -0.507625, 192.0, 2.0, 40.0, 12.5, 72.0, 120.0, 16.0, 0.0, 0.0, 0.0, 1.6620651677168694E9, 0.0, 2022-09-01 16:46:07.716
232.0, -20948.792511080803, -20564.342506449524, -30415.35978500364, -16205.72998592019, -9933.964602227761, -13463.99795579886, 26489.924072018155, -13773.72607871605, -24704.243207483676, -969.0598808598377, -25890.897320615928, -25231.409100462093, -5559.728212324168, 8084.558914251199, -8525.06709397639, -20426.56635362701, 0.13637500000000002, 0.8167500000000001, -0.507625, 192.0, 0.0, 0.0, 0.0, 0.0, 0.0, 0.0, 0.0, 0.0, 0.0, 1.6620651677168736E9, 0.0, 2022-09-01 16:46:07.716
234.0, -21021.659198005105, -20634.32581833909, -30492.965041752464, -16270.55004484058, -10015.168489833892, -13522.268953593846, 26755.328685680473, -13842.412989427208, -24720.090594302488, -1048.4085736761779, -25926.168373366403, -25282.393429564647, -5567.663081605802, 7982.232628134803, -8518.249811917522, -20465.458388979245, 0.13637500000000002, 0.8167500000000001, -0.507625, 192.0, 0.0, 0.0, 0.0, 0.0, 0.0, 0.0, 0.0, 0.0, 0.0, 1.6620651677168777E9, 0.0, 2022-09-01 16:46:07.716
236.0, -20943.04811275579, -20563.22491922676, -30420.74655541737, -16196.16343929332, -9939.373724385945, -13459.035868529782, 26470.075722941845, -13766.998203635003, -24711.485172687197, -966.5117819919327, -25897.245216041236, -25231.498507439916, -5572.088727007953, 8092.426728299467, -8529.090407978345, -20426.09696699345, 0.13637500000000002, 0.8167500000000001, -0.507625, 192.0, 0.0, 0.0, 0.0, 0.0, 0.0, 0.0, 0.0, 0.0, 0.0, 1.6620651677168818E9, 0.0, 2022-09-01 16:46:07.716
238.0, -21016.1606688691, -20636.069254406604, -30497.636556343623, -16280.250701934185, -10011.927486887871, -13533.82480547724, 26772.181900999774, -13850.012582542013, -24711.70869013175, -1038.4173439046556, -25914.858390672016, -25277.498397528936, -5562.589235614448, 7983.797250246675, -8518.45097761762, -20460.451598221254, 0.13637500000000002, 0.8167500000000001, -0.507625, 192.0, 0.0, 0.0, 0.0, 0.0, 0.0, 0.0, 0.0, 0.0, 0.0, 1.6620651677168858E9, 0.0, 2022-09-01 16:46:07.716
240.0, -20959.454293185987, -20575.473675188266, -30433.285884056793, -16221.420910527815, -9947.44270413431, -13475.151476282059, 26452.90958320017, -13787.58416027834, -24720.962312336247, -979.8334216872958, -25909.516323747197, -25252.553850716813, -5581.230590490173, 8071.594902467121, -8543.909614552214, -20448.649877148855, 0.13818750000000002, 0.8153750000000001, -0.5088125, 192.0, 2.0, 48.0, 12.5, 56.0, 120.0, 8.0, 0.0, 0.0, 0.0, 1.662065168197432E9, 0.0, 2022-09-01 16:46:08.197
242.0, -21020.07222414878, -20638.3714840855, -30489.008782983874, -16286.8444665485, -9996.705948913806, -13529.86854670865, 26775.713476623714, -13847.196262740645, -24708.154762763355, -1038.0820677378258, -25917.40648953992, -25281.387601064158, -5554.117924465886, 7982.031462434705, -8515.92523049417, -20466.732438413197, 0.13818750000000002, 0.8153750000000001, -0.5088125, 192.0, 0.0, 0.0, 0.0, 0.0, 0.0, 0.0, 0.0, 0.0, 0.0, 1.6620651681975296E9, 0.0, 2022-09-01 16:46:08.197
244.0, -20962.605889154183, -20576.59126241103, -30424.725165930413, -16207.048738843054, -9938.077323207537, -13450.788074825774, 26456.66467626866, -13770.48507577003, -24733.166364808843, -994.6749800056195, -25926.481297788778, -25264.37792353367, -5587.109099281919, 8072.958358878895, -8542.210881973611, -20448.04638004856, 0.13818750000000002, 0.8153750000000001, -0.5088125, 192.0, 0.0, 0.0, 0.0, 0.0, 0.0, 0.0, 0.0, 0.0, 0.0, 1.662065168197588E9, 0.0, 2022-09-01 16:46:08.197
246.0, -21037.663047035105, -20660.00797271824, -30486.192463182506, -16287.045632248597, -10000.304579771111, -13533.131901399125, 26771.82427308849, -13849.051457530435, -24699.012899281133, -1034.9528235140829, -25909.203399324822, -25275.397333550136, -5539.991621970132, 8016.453148895878, -8490.645407515218, -20436.244658976157, 0.13818750000000002, 0.8153750000000001, -0.5088125, 192.0, 0.0, 0.0, 0.0, 0.0, 0.0, 0.0, 0.0, 0.0, 0.0, 1.6620651681975925E9, 0.0, 2022-09-01 16:46:08.197
248.0, -20969.35611597969, -20583.36384098099, -30427.87676189861, -16206.087613831474, -9958.238596706224, -13457.80652258474, 26462.34201936031, -13782.018575908969, -24741.99530386869, -1008.7118755235524, -25936.69604500485, -25279.510054529914, -5597.614419175914, 8050.472503956856, -8539.193396472145, -20453.924888840305, 0.13818750000000002, 0.8153750000000001, -0.5088125, 192.0, 0.0, 0.0, 0.0, 0.0, 0.0, 0.0, 0.0, 0.0, 0.0, 1.6620651681975968E9, 0.0, 2022-09-01 16:46:08.197
250.0, -21023.626151517172, -20647.490995823264, -30477.65409680058, -16282.687042079813, -9998.404681492411, -13531.611982776163, 26762.749464839635, -13849.252623230532, -24699.0799545145, -1019.3289541398233, -25895.546483462633, -25261.71806594349, -5542.964403982688, 8007.758320302763, -8494.422852328164, -20434.456519419735, 0.13809375000000002, 0.8156875000000001, -0.50840625, 192.0, 2.0, 40.0, 12.5, 64.0, 120.0, 16.0, 0.0, 0.0, 0.0, 1.662065168197601E9, 0.0, 2022-09-01 16:46:08.197
252.0, -20968.193825268012, -20570.936271063838, -30433.375291034616, -16216.436471514282, -9958.193893217313, -13457.694763862464, 26488.828836539848, -13784.365509076777, -24746.555059737573, -1016.6914482940971, -25934.170297881403, -25283.376906320682, -5597.368549986905, 8036.077980527638, -8549.721068110593, -20465.77131340162, 0.13809375000000002, 0.8156875000000001, -0.50840625, 192.0, 0.0, 0.0, 0.0, 0.0, 0.0, 0.0, 0.0, 0.0, 0.0, 1.6620651681976054E9, 0.0, 2022-09-01 16:46:08.197
254.0, -21029.951695198026, -20644.160585899423, -30480.850396257687, -16289.7948968166, -9991.095661055526, -13531.902555454082, 26735.681502304258, -13846.704524362627, -24691.614471866425, -1007.370770856234, -25889.13153280396, -25252.352685016715, -5535.118941678875, 8039.140169518015, -8493.305265105399, -20425.024083259595, 0.13809375000000002, 0.8156875000000001, -0.50840625, 192.0, 0.0, 0.0, 0.0, 0.0, 0.0, 0.0, 0.0, 0.0, 0.0, 1.66206516819761E9, 0.0, 2022-09-01 16:46:08.197
0.0, -20983.013031841878, -20586.82836137156, -30451.16727962104, -16225.35481755195, -9969.548579400609, -13470.301147735257, 26516.366185708786, -13789.148782390212, -24761.173100611344, -1043.0665067513594, -25957.974905726303, -25300.38658385117, -5610.77959666009, 8021.72816058733, -8555.64428039125, -20479.29411879708, 0.13809375000000002, 0.8156875000000001, -0.50840625, 192.0, 0.0, 0.0, 0.0, 0.0, 0.0, 0.0, 0.0, 0.0, 0.0, 1.6620651681976142E9, 0.0, 2022-09-01 16:46:08.197
2.0, -21012.763203711893, -20626.726225224284, -30468.60164029618, -16267.353745383472, -9967.268701466168, -13514.512898267854, 26702.66797574377, -13817.513146103996, -24689.08872474298, -990.1599276256476, -25884.30355600161, -25237.37701623166, -5536.3035841350065, 8038.313154973168, -8488.92432319216, -20421.98424601367, 0.13809375000000002, 0.8156875000000001, -0.50840625, 192.0, 0.0, 0.0, 0.0, 0.0, 0.0, 0.0, 0.0, 0.0, 0.0, 1.6620651681976185E9, 0.0, 2022-09-01 16:46:08.197
4.0, -20996.53583723734, -20597.333681265554, -30468.40047459608, -16243.258564860651, -9977.68461438234, -13488.33900551069, 26536.68392141866, -13795.541381304429, -24749.50549000567, -1032.6058903462756, -25943.89330671946, -25287.48962730046, -5596.228611019685, 8019.0235995082385, -8543.462579663108, -20483.965633388238, 0.13904687500000001, 0.8168437500000001, -0.511203125, 192.0, 2.0, 48.0, 12.5, 72.0, 119.5, 120.0, 0.0, 0.0, 0.0, 1.6620651681976228E9, 0.0, 2022-09-01 16:46:08.197
6.0, -21008.561075754296, -20625.09454787905, -30467.327590862227, -16284.631643847424, -9974.935349814337, -13533.422474077044, 26645.380454704817, -13822.855213028815, -24693.40261142285, -1001.5593172978541, -25885.063515313093, -25241.04270232233, -5544.685488305747, 8042.3811724640345, -8508.504451335008, -20452.13674928388, 0.13904687500000001, 0.8168437500000001, -0.511203125, 192.0, 0.0, 0.0, 0.0, 0.0, 0.0, 0.0, 0.0, 0.0, 0.0, 1.6620651681976316E9, 0.0, 2022-09-01 16:46:08.197
8.0, -20998.54749423832, -20605.402661013923, -30468.333419362716, -16256.446094089282, -9986.245332508723, -13496.81031665925, 26564.623601987794, -13791.808639980394, -24754.869908674948, -1064.9935680620156, -25956.09735919206, -25309.908426989132, -5600.2295732771845, 7990.346311372079, -8563.512094439518, -20528.177383920836, 0.13904687500000001, 0.8168437500000001, -0.511203125, 192.0, 0.0, 0.0, 0.0, 0.0, 0.0, 0.0, 0.0, 0.0, 0.0, 1.662065168197636E9, 0.0, 2022-09-01 16:46:08.197
10.0, -20994.34536628072, -20611.996425628236, -30458.811576224754, -16261.341126124995, -9961.077268252047, -13501.705348694963, 26611.56226534394, -13785.751317233005, -24679.186901949277, -977.821764686318, -25871.16073026189, -25224.010673047385, -5521.3949705833165, 8090.392719554034, -8501.240134387033, -20441.2738014786, 0.13904687500000001, 0.8168437500000001, -0.511203125, 192.0, 0.0, 0.0, 0.0, 0.0, 0.0, 0.0, 0.0, 0.0, 0.0, 1.6620651681976404E9, 0.0, 2022-09-01 16:46:08.197
12.0, -21005.454183275007, -20613.493992506745, -30491.489826618414, -16261.475236591727, -10001.332760016056, -13509.327293554223, 26617.9325125137, -13794.848477226315, -24761.46367328926, -1068.0557570523927, -25961.551184839154, -25313.90938924663, -5592.875849351389, 8013.972105261339, -8574.397393989253, -20536.000494480195, 0.13904687500000001, 0.8168437500000001, -0.511203125, 192.0, 0.0, 0.0, 0.0, 0.0, 0.0, 0.0, 0.0, 0.0, 0.0, 1.6620651681976447E9, 0.0, 2022-09-01 16:46:08.197
14.0, -20972.463008458973, -20587.767134638685, -30453.156584877564, -16233.7814252116, -9956.02577400515, -13489.277778777812, 26567.886956678267, -13764.941843145114, -24693.55907363404, -972.7702704394187, -25879.58733792154, -25229.84447835022, -5533.174339911264, 8082.971940394872, -8527.88341377776, -20460.339839498978, 0.13904687500000001, 0.8168437500000001, -0.511203125, 192.0, 0.0, 0.0, 0.0, 0.0, 0.0, 0.0, 0.0, 0.0, 0.0, 1.6620651681976492E9, 0.0, 2022-09-01 16:46:08.197
16.0, -20972.9994503259, -20583.140323536438, -30461.20321288147, -16234.384922311894, -9976.142344014925, -13486.930845610004, 26668.648620682794, -13767.221721079555, -24721.968140836736, -1030.147198456192, -25917.65235872893, -25279.95708941902, -5553.469723876682, 8039.453093940389, -8550.391620444254, -20510.005415678672, 0.134, 0.8220000000000001, -0.506, 192.0, 2.0, 24.0, 12.5, 88.0, 120.0, 24.0, 0.0, 0.0, 0.0, 1.6620651681976535E9, 0.0, 2022-09-01 16:46:08.197
18.0, -20960.70599087548, -20579.474637445765, -30427.183857820495, -16215.452994758249, -9941.765361042662, -13480.00180482886, 26532.034758571954, -13750.346154015799, -24682.405553150842, -955.0900405752708, -25860.78952083463, -25217.79688808881, -5512.52132803456, 8102.350902837623, -8522.653105575217, -20457.18824353078, 0.134, 0.8220000000000001, -0.506, 192.0, 0.0, 0.0, 0.0, 0.0, 0.0, 0.0, 0.0, 0.0, 0.0, 1.662065168197658E9, 0.0, 2022-09-01 16:46:08.197
20.0, -21017.322959580775, -20631.66596074891, -30485.477207359938, -16253.160387654352, -10000.952780360316, -13524.81705246175, 26703.89732168881, -13798.044776683424, -24737.882582888913, -1055.7175941130631, -25939.557068295133, -25302.711165274523, -5552.441543631738, 8024.63388736652, -8556.963033314114, -20528.40090136539, 0.134, 0.8220000000000001, -0.506, 192.0, 0.0, 0.0, 0.0, 0.0, 0.0, 0.0, 0.0, 0.0, 0.0, 1.6620651681976638E9, 0.0, 2022-09-01 16:46:08.197
22.0, -20964.662249644072, -20585.42020147088, -30438.516192259336, -16198.39861373885, -9940.625422075442, -13480.71706065143, 26495.44495289862, -13748.669773181651, -24714.055623299555, -1001.3805033422117, -25894.920634617883, -25246.742397158432, -5538.76227602509, 8082.614312483587, -8546.055382019924, -20480.09878159747, 0.134, 0.8220000000000001, -0.506, 192.0, 0.0, 0.0, 0.0, 0.0, 0.0, 0.0, 0.0, 0.0, 0.0, 1.6620651681976688E9, 0.0, 2022-09-01 16:46:08.197
24.0, -21022.21799161649, -20636.73980674026, -30510.354698938692, -16255.306155122062, -10007.4124345079, -13534.048322921792, 26729.937103979246, -13809.15359367771, -24740.363626523453, -1055.11409701277, -25940.629952028987, -25295.91623496011, -5554.252034932618, 8014.955582017373, -8554.638451890762, -20523.952904218782, 0.134, 0.8220000000000001, -0.506, 192.0, 0.0, 0.0, 0.0, 0.0, 0.0, 0.0, 0.0, 0.0, 0.0, 1.662065168197673E9, 0.0, 2022-09-01 16:46:08.197
26.0, -20944.031589511826, -20563.247270971213, -30432.391814278584, -16186.351023477439, -9926.476767835233, -13467.820104100718, 26460.33036235933, -13734.789339874906, -24715.352024477965, -984.2590670894465, -25897.446381741334, -25243.255525023407, -5541.533892337548, 8092.002045154816, -8551.509207667019, -20480.612871719943, 0.134, 0.8180000000000001, -0.506, 192.0, 2.0, 24.0, 12.5, 72.0, 120.0, 24.0, 0.0, 0.0, 0.0, 1.6620651681976776E9, 0.0, 2022-09-01 16:46:08.197
28.0, -21015.557171768807, -20630.61542875951, -30501.682222090036, -16254.657954532857, -9994.850754124016, -13532.126072898636, 26752.892345534845, -13804.057395941902, -24721.386995480898, -1046.7321928420297, -25924.112012876514, -25289.30011860134, -5541.600947570914, 8023.493948399299, -8543.574338385384, -20513.604046535977, 0.134, 0.8180000000000001, -0.506, 192.0, 0.0, 0.0, 0.0, 0.0, 0.0, 0.0, 0.0, 0.0, 0.0, 1.662065168197682E9, 0.0, 2022-09-01 16:46:08.197
30.0, -20936.43199639702, -20553.233689455235, -30420.12070657262, -16166.927357545777, -9916.887869463906, -13452.084476004182, 26447.925144186636, -13721.847679835282, -24706.388974951384, -987.1200903797258, -25897.69225093034, -25241.087405811242, -5539.566938825481, 8101.210963870402, -8543.082600007368, -20471.403953004356, 0.134, 0.8180000000000001, -0.506, 192.0, 0.0, 0.0, 0.0, 0.0, 0.0, 0.0, 0.0, 0.0, 0.0, 1.662065168197686E9, 0.0, 2022-09-01 16:46:08.197
32.0, -21010.595084499728, -20633.3199898386, -30490.66281207357, -16248.801797485567, -9985.798297619618, -13526.828709462729, 26773.52300566709, -13798.87179122827, -24701.560998149038, -1031.8459310347953, -25908.689309202353, -25268.96003114701, -5522.534909550537, 8041.732971874831, -8522.273125919477, -20487.072525867527, 0.134, 0.8180000000000001, -0.506, 192.0, 0.0, 0.0, 0.0, 0.0, 0.0, 0.0, 0.0, 0.0, 0.0, 1.6620651681976905E9, 0.0, 2022-09-01 16:46:08.197
34.0, -20942.80224356678, -20562.241442470724, -30427.206209564953, -16176.158628005818, -9927.974334713737, -13462.209816242435, 26441.80076620588, -13729.737845628006, -24728.628960684415, -1005.1802998996139, -25910.03041386967, -25257.04655135233, -5551.972156998177, 8071.55019897821, -8552.269166978498, -20481.32812754251, 0.134, 0.8180000000000001, -0.506, 192.0, 0.0, 0.0, 0.0, 0.0, 0.0, 0.0, 0.0, 0.0, 0.0, 1.6620651681976948E9, 0.0, 2022-09-01 16:46:08.197
36.0, -21016.719462480483, -20643.199460887845, -30497.904777277086, -16265.31973663804, -9995.990693091237, -13540.843253236206, 26768.33740095346, -13811.813451267893, -24706.433678440295, -1038.3502886712895, -25901.447343998832, -25271.105798614717, -5529.620412542869, 8019.9623727753615, -8523.25660267551, -20486.647842722876, 0.132, 0.8220000000000001, -0.512, 192.0, 2.0, 16.0, 12.5, 88.0, 120.0, 0.0, 0.0, 0.0, 0.0, 1.6620651681976993E9, 0.0, 2022-09-01 16:46:08.197
38.0, -20941.908173788568, -20564.40956168289, -30422.73586067389, -16175.465723927704, -9927.281430635623, -13451.637441115075, 26440.236144094008, -13727.122691526734, -24731.0876525745, -1017.0043727164714, -25912.243236570746, -25267.306002057318, -5562.231607703163, 8055.725163903852, -8553.07382977889, -20493.420421292834, 0.132, 0.8220000000000001, -0.512, 192.0, 0.0, 0.0, 0.0, 0.0, 0.0, 0.0, 0.0, 0.0, 0.0, 1.662065168197705E9, 0.0, 2022-09-01 16:46:08.197
40.0, -21021.10040439372, -20646.306353367134, -30495.826065042744, -16256.468445833738, -9990.201591277313, -13527.789834474306, 26761.475415405683, -13804.191506408633, -24708.914722074835, -1036.1598177146695, -25903.101373088524, -25266.836615423756, -5524.56891829597, 8042.4482276974, -8517.154576439212, -20481.730458942708, 0.132, 0.8220000000000001, -0.512, 192.0, 0.0, 0.0, 0.0, 0.0, 0.0, 0.0, 0.0, 0.0, 0.0, 1.662065168197709E9, 0.0, 2022-09-01 16:46:08.197
42.0, -20933.95095276248, -20547.265773685667, -30420.992424606375, -16158.545453375036, -9922.229936388723, -13430.04565597125, 26463.37019960525, -13710.783566329905, -24738.128452077923, -1018.8148640173512, -25923.75438496523, -25268.37888579117, -5561.918683280788, 8056.082791815137, -8554.83961759086, -20491.542874758587, 0.132, 0.8220000000000001, -0.512, 192.0, 0.0, 0.0, 0.0, 0.0, 0.0, 0.0, 0.0, 0.0, 0.0, 1.6620651681977136E9, 0.0, 2022-09-01 16:46:08.197
44.0, -21012.87496243417, -20633.27528634969, -30496.74248656541, -16252.914518465344, -9984.412489463388, -13519.00559890337, 26746.790319298547, -13795.519029559975, -24681.913814772823, -992.1939363710806, -25872.54653841812, -25230.224458005963, -5491.667150457758, 8074.344167035123, -8492.545305793918, -20441.162042756325, 0.132, 0.8220000000000001, -0.512, 192.0, 0.0, 0.0, 0.0, 0.0, 0.0, 0.0, 0.0, 0.0, 0.0, 1.662065168197718E9, 0.0, 2022-09-01 16:46:08.197
46.0, -20962.00239205389, -20576.97124206677, -30467.081721673218, -16200.745546906657, -9961.658413607885, -13468.691822134475, 26467.974658963045, -13754.168302317656, -24767.319830336553, -1047.4250969201444, -25957.192594670367, -25301.951205963043, -5584.404538202827, 8027.070227512148, -8594.379853532297, -20527.082148442525, 0.134, 0.8160000000000001, -0.518, 192.0, 2.0, 24.0, 12.5, 64.0, 119.5, 104.0, 0.0, 0.0, 0.0, 1.6620651681977224E9, 0.0, 2022-09-01 16:46:08.197
48.0, -21005.610645486195, -20630.727187481785, -30501.57046336776, -16257.74249526769, -9988.458155209799, -13523.230078605424, 26700.14222862032, -13806.046701198424, -24693.514370145127, -1005.1355964107033, -25892.484294472255, -25246.56358320279, -5520.076217660453, 8063.5035709743, -8537.82994006037, -20474.75671467265, 0.134, 0.8160000000000001, -0.518, 192.0, 0.0, 0.0, 0.0, 0.0, 0.0, 0.0, 0.0, 0.0, 0.0, 1.6620651681977267E9, 0.0, 2022-09-01 16:46:08.197
50.0, -20956.682676873526, -20572.746762364717, -30452.955419177466, -16188.653253156335, -9953.92471002635, -13465.987261055383, 26505.592644881326, -13752.33545927232, -24755.451054030786, -1041.0324980059265, -25950.88940273397, -25292.786990736367, -5585.745642870145, 8036.4579601833775, -8591.407071519741, -20525.249305397192, 0.134, 0.8160000000000001, -0.518, 192.0, 0.0, 0.0, 0.0, 0.0, 0.0, 0.0, 0.0, 0.0, 0.0, 1.662065168197731E9, 0.0, 2022-09-01 16:46:08.197
52.0, -20998.659252960595, -20621.764137955208, -30464.667733272046, -16234.183756611796, -9961.54665488561, -13511.71893021094, 26676.158806819774, -13787.517105044975, -24679.87980602739, -995.4125875726447, -25870.847805839516, -25227.139917271128, -5505.905211675788, 8072.2654548007795, -8509.845556002327, -20441.318504967512, 0.134, 0.8160000000000001, -0.518, 192.0, 0.0, 0.0, 0.0, 0.0, 0.0, 0.0, 0.0, 0.0, 0.0, 1.6620651681977353E9, 0.0, 2022-09-01 16:46:08.197
54.0, -20994.725345936462, -20605.536771480653, -30474.949535721487, -16219.565715738025, -9975.941178314826, -13494.061052091249, 26546.272819789985, -13781.705651486594, -24763.9447169238, -1072.950789088105, -25962.266440661722, -25313.81998226881, -5586.997340559643, 8006.417215635445, -8579.203019047143, -20520.57779080603, 0.134, 0.8160000000000001, -0.518, 192.0, 0.0, 0.0, 0.0, 0.0, 0.0, 0.0, 0.0, 0.0, 0.0, 1.6620651681977396E9, 0.0, 2022-09-01 16:46:08.197
56.0, -20999.1062878497, -20622.479393777776, -30477.542338078303, -16245.516091050637, -9964.385326431433, -13517.48568028041, 26627.968445774135, -13796.927189460659, -24695.88365505739, -996.7536922399631, -25887.79042813664, -25240.036873821842, -5514.734150735635, 8071.4384402559335, -8524.485948620551, -20448.493414937668, 0.134, 0.8180000000000001, -0.512, 192.0, 2.0, 24.0, 12.5, 72.0, 120.0, 0.0, 0.0, 0.0, 0.0, 1.662065168197744E9, 0.0, 2022-09-01 16:46:08.197
58.0, -20982.364831252675, -20598.49597197723, -30483.689067803512, -16231.83682344399, -9985.820649364072, -13501.325369039223, 26584.69546850866, -13789.327596345855, -24761.843652945, -1067.3852047187336, -25965.105112207548, -25316.926874748096, -5586.684416137268, 7992.112099184049, -8587.294350539965, -20532.468918856255, 0.134, 0.8180000000000001, -0.512, 192.0, 0.0, 0.0, 0.0, 0.0, 0.0, 0.0, 0.0, 0.0, 0.0, 1.6620651681977484E9, 0.0, 2022-09-01 16:46:08.197
60.0, -20970.473703202453, -20595.925521364872, -30460.443253569993, -16231.59095425498, -9954.058820493081, -13503.068805106737, 26581.11918939581, -13783.829067209848, -24683.187864206775, -982.7615002109409, -25872.188910506837, -25227.43048994905, -5516.7011042477025, 8073.763021679285, -8526.251736432521, -20446.95114457025, 0.134, 0.8180000000000001, -0.512, 192.0, 0.0, 0.0, 0.0, 0.0, 0.0, 0.0, 0.0, 0.0, 0.0, 1.6620651681977537E9, 0.0, 2022-09-01 16:46:08.197
62.0, -20994.412421514087, -20609.60478897152, -30489.344059150706, -16237.827090958011, -9989.352224988012, -13504.499316751877, 26623.811021305446, -13797.128355160756, -24754.33346680802, -1071.1179460427697, -25957.125539437002, -25311.49540084546, -5578.190753244252, 7993.743776529286, -8576.0737748234, -20524.310532130068, 0.134, 0.8180000000000001, -0.512, 192.0, 0.0, 0.0, 0.0, 0.0, 0.0, 0.0, 0.0, 0.0, 0.0, 1.662065168197758E9, 0.0, 2022-09-01 16:46:08.197
64.0, -20964.930470577536, -20590.292881762136, -30447.903924930564, -16211.832012156488, -9937.272660407145, -13475.062069304237, 26534.91813360669, -13762.773723932949, -24691.212140466232, -983.7449769669745, -25881.06255305559, -25228.793946360824, -5523.317220606473, 8077.585169981143, -8526.698771321628, -20435.931734553782, 0.134, 0.8180000000000001, -0.512, 192.0, 0.0, 0.0, 0.0, 0.0, 0.0, 0.0, 0.0, 0.0, 0.0, 1.6620651681977623E9, 0.0, 2022-09-01 16:46:08.197
66.0, -21003.777802440858, -20619.70777746532, -30499.804675555788, -16249.204128885762, -9992.950855845316, -13507.919133653539, 26665.206452036677, -13801.643407540729, -24743.872850402935, -1067.4075564631887, -25948.09543467706, -25301.325357118294, -5569.0041862731205, 8021.795215820696, -8558.259434492522, -20502.24936035268, 0.134, 0.8180000000000001, -0.51, 192.0, 2.0, 24.0, 12.5, 72.0, 120.0, 8.0, 0.0, 0.0, 0.0, 1.6620651681977668E9, 0.0, 2022-09-01 16:46:08.197
68.0, -20953.978115794434, -20576.88183508895, -30446.45106154097, -16203.07012833001, -9941.318326153556, -13471.351679724656, 26492.449819141606, -13755.665869196162, -24696.911835302333, -984.9743229120163, -25884.37061123498, -25227.788117860335, -5533.464912589182, 8083.910713661995, -8530.632678345763, -20435.19412698676, 0.134, 0.8180000000000001, -0.51, 192.0, 0.0, 0.0, 0.0, 0.0, 0.0, 0.0, 0.0, 0.0, 0.0, 1.662065168197772E9, 0.0, 2022-09-01 16:46:08.197
70.0, -21016.473593291474, -20634.07994915008, -30513.103963506695, -16262.726934281223, -10012.866260154995, -13528.192165874501, 26691.268586071565, -13820.620038583284, -24739.201335811777, -1062.6019314052978, -25943.222754385803, -25298.91136871712, -5566.1878664717515, 7998.951732987372, -8552.805608845427, -20501.221180107736, 0.134, 0.8180000000000001, -0.51, 192.0, 0.0, 0.0, 0.0, 0.0, 0.0, 0.0, 0.0, 0.0, 0.0, 1.6620651681977773E9, 0.0, 2022-09-01 16:46:08.197
72.0, -20945.61856336815, -20566.957660550794, -30431.676558456013, -16196.006977082132, -9930.813006259563, -13466.635461644586, 26457.648153024693, -13748.53566271492, -24712.870980843425, -998.0947969072815, -25898.586320708553, -25247.167080303083, -5549.424058130272, 8061.916597117973, -8546.569472142395, -20464.072580823016, 0.134, 0.8180000000000001, -0.51, 192.0, 0.0, 0.0, 0.0, 0.0, 0.0, 0.0, 0.0, 0.0, 0.0, 1.6620651681977816E9, 0.0, 2022-09-01 16:46:08.197
74.0, -21016.58535201375, -20638.84087071906, -30509.013594271375, -16274.059268720064, -10007.434786252355, -13533.757750243873, 26720.594074796925, -13822.564640350896, -24714.525009933117, -1048.8109050763733, -25921.787431453162, -25287.131999389174, -5541.444485359727, 8016.095520984593, -8536.69000109315, -20497.510790528155, 0.134, 0.8180000000000001, -0.51, 192.0, 0.0, 0.0, 0.0, 0.0, 0.0, 0.0, 0.0, 0.0, 0.0, 1.662065168197786E9, 0.0, 2022-09-01 16:46:08.197
76.0, -20936.029664996822, -20555.066532500572, -30428.144982832073, -16184.987567065666, -9926.230898646225, -13456.286603961778, 26437.33041731482, -13740.71255215556, -24715.84376285598, -994.5855730277983, -25901.581454465566, -25248.597591948223, -5548.015898229587, 8076.668748458475, -8551.285690222465, -20473.214444305235, 0.136, 0.8160000000000001, -0.512, 192.0, 2.0, 32.0, 12.5, 64.0, 120.0, 0.0, 0.0, 0.0, 0.0, 1.6620651681977904E9, 0.0, 2022-09-01 16:46:08.197
78.0, -21006.59412224223, -20627.30737058012, -30495.691954576014, -16256.468445833738, -9982.892570840428, -13525.442901306498, 26753.697008335235, -13809.913552989192, -24700.912797559835, -1030.661288578664, -25904.978919622772, -25264.221461322482, -5522.870185717366, 8032.456997925878, -8519.367399140287, -20480.59051997549, 0.136, 0.8160000000000001, -0.512, 192.0, 0.0, 0.0, 0.0, 0.0, 0.0, 0.0, 0.0, 0.0, 0.0, 1.662065168197795E9, 0.0, 2022-09-01 16:46:08.197
80.0, -20943.204574966978, -20567.94113730683, -30437.376253292117, -16192.900084602845, -9923.459282333766, -13463.081534276193, 26429.61906547774, -13745.406418491177, -24716.536666934095, -1002.3416283537899, -25906.49883824573, -25254.252583295416, -5551.905101764811, 8064.576454708154, -8548.938757054659, -20477.125999584914, 0.136, 0.8160000000000001, -0.512, 192.0, 0.0, 0.0, 0.0, 0.0, 0.0, 0.0, 0.0, 0.0, 0.0, 1.662065168197799E9, 0.0, 2022-09-01 16:46:08.197
82.0, -21020.3627968267, -20645.79226324466, -30515.205027485496, -16281.681213579324, -9999.835193137551, -13544.888918982617, 26758.994371771143, -13828.152576464723, -24709.89819883087, -1044.139390485214, -25913.383175537965, -25277.878377184676, -5533.1966916557185, 8018.285991941213, -8525.089445720845, -20492.146371858882, 0.136, 0.8160000000000001, -0.512, 192.0, 0.0, 0.0, 0.0, 0.0, 0.0, 0.0, 0.0, 0.0, 0.0, 1.6620651681978035E9, 0.0, 2022-09-01 16:46:08.197
84.0, -20955.20746173948, -20572.098561775514, -30450.049692398276, -16201.281988773584, -9943.106465709981, -13472.849246603162, 26422.42180376313, -13754.794151162405, -24738.687245689303, -1009.7624075129519, -25924.201419854337, -25270.681115470066, -5565.606721115914, 8047.633832411031, -8560.248739749044, -20497.220217850234, 0.136, 0.8160000000000001, -0.512, 192.0, 0.0, 0.0, 0.0, 0.0, 0.0, 0.0, 0.0, 0.0, 0.0, 1.662065168197808E9, 0.0, 2022-09-01 16:46:08.197
86.0, -21028.72234925298, -20654.3753331155, -30518.356623453692, -16283.424649646837, -10013.246239810735, -13542.452578836988, 26747.25970593211, -13833.1146637338, -24720.157649535853, -1034.3269746693343, -25914.657224971917, -25273.184510849063, -5536.504749835104, 8010.462881381855, -8529.49273937854, -20489.642976479885, 0.137, 0.8140000000000001, -0.513, 192.0, 2.0, 40.0, 12.5, 48.0, 119.5, 120.0, 0.0, 0.0, 0.0, 1.6620651681978123E9, 0.0, 2022-09-01 16:46:08.197
88.0, -20941.349380177187, -20559.715695347273, -30438.672654470523, -16179.377279207383, -9936.937384240317, -13445.13308347858, 26432.1895160901, -13736.28690675341, -24746.778577182125, -1025.9897739875048, -25930.214039112812, -25273.743304460444, -5577.609607888414, 8041.196530007903, -8570.083507309379, -20496.01322364965, 0.137, 0.8140000000000001, -0.513, 192.0, 0.0, 0.0, 0.0, 0.0, 0.0, 0.0, 0.0, 0.0, 0.0, 1.6620651681978164E9, 0.0, 2022-09-01 16:46:08.197
90.0, -21010.72919496646, -20638.930277696883, -30499.245881944407, -16258.12247492343, -9986.334739486545, -13517.977418658427, 26745.471566375683, -13808.438337855141, -24692.17326547781, -1019.1501401841808, -25888.03629732565, -25244.820147135277, -5515.605868769392, 8038.313154973168, -8507.386864112243, -20452.941412084274, 0.137, 0.8140000000000001, -0.513, 192.0, 0.0, 0.0, 0.0, 0.0, 0.0, 0.0, 0.0, 0.0, 0.0, 1.662065168197821E9, 0.0, 2022-09-01 16:46:08.197
92.0, -20955.833310584225, -20571.249195486213, -30452.620143010634, -16191.290759002062, -9948.225015190246, -13459.795827841263, 26453.982466934023, -13753.475398239541, -24756.054551131077, -1036.0927624813037, -25938.84181247256, -25283.265147598406, -5581.767032357101, 8047.857349855584, -8567.088373552368, -20498.158991117358, 0.137, 0.8140000000000001, -0.513, 192.0, 0.0, 0.0, 0.0, 0.0, 0.0, 0.0, 0.0, 0.0, 0.0, 1.6620651681978252E9, 0.0, 2022-09-01 16:46:08.197
94.0, -21022.21799161649, -20644.31704811061, -30507.6501378596, -16270.617100073947, -9993.755518645707, -13534.093026410703, 26718.962397451687, -13824.464538629598, -24712.669815143327, -1012.3775616142228, -25894.205378795312, -25249.290496026337, -5522.803130484001, 8037.083809028127, -8510.605515313806, -20457.747037142162, 0.137, 0.8140000000000001, -0.513, 192.0, 0.0, 0.0, 0.0, 0.0, 0.0, 0.0, 0.0, 0.0, 0.0, 1.6620651681978295E9, 0.0, 2022-09-01 16:46:08.197
96.0, -20974.832293371237, -20586.493085204733, -30475.955364221976, -16216.30236104755, -9973.840114336028, -13479.778287384306, 26483.28560391493, -13774.418982794165, -24778.607461286483, -1052.20837023358, -25959.13719643798, -25301.370060607205, -5600.095462810453, 8009.993494748294, -8576.431402734686, -20515.01220643666, 0.1355, 0.8150000000000001, -0.5135000000000001, 192.0, 2.0, 24.0, 12.5, 64.0, 119.5, 120.0, 0.0, 0.0, 0.0, 1.662065168197834E9, 0.0, 2022-09-01 16:46:08.197
98.0, -21002.548456495817, -20624.51340252321, -30479.866919501656, -16253.003925443165, -9972.767230602174, -13514.267029078846, 26694.28607157303, -13800.995206951524, -24702.969158049724, -1003.1239394097257, -25887.4104484809, -25242.584972689747, -5527.944031708722, 8047.186797521926, -8508.169175168177, -20448.404007959845, 0.1355, 0.8150000000000001, -0.5135000000000001, 192.0, 0.0, 0.0, 0.0, 0.0, 0.0, 0.0, 0.0, 0.0, 0.0, 1.6620651681978383E9, 0.0, 2022-09-01 16:46:08.197
100.0, -20986.745773165916, -20599.702966177818, -30467.41699784005, -16219.856288415944, -9967.603977632998, -13478.548941439265, 26525.664511402192, -13772.004994392992, -24772.37132458345, -1051.5378178999208, -25956.812615014627, -25305.594540309256, -5594.574581929992, 8007.44539588039, -8562.305100238931, -20506.742060988196, 0.1355, 0.8150000000000001, -0.5135000000000001, 192.0, 0.0, 0.0, 0.0, 0.0, 0.0, 0.0, 0.0, 0.0, 0.0, 1.6620651681978426E9, 0.0, 2022-09-01 16:46:08.197
102.0, -21019.82635495977, -20645.054655677635, -30480.6939340465, -16255.395562099882, -9967.000480532704, -13511.24954357738, 26656.46691995465, -13802.649236041218, -24707.931245318803, -996.373712584223, -25885.689364157843, -25242.204993034007, -5521.171453138763, 8056.775695893252, -8500.502526820008, -20436.691693865265, 0.1355, 0.8150000000000001, -0.5135000000000001, 192.0, 0.0, 0.0, 0.0, 0.0, 0.0, 0.0, 0.0, 0.0, 0.0, 1.662065168197848E9, 0.0, 2022-09-01 16:46:08.197
104.0, -21020.1616311266, -20636.270420106703, -30478.726980534433, -16227.902916419855, -9974.823591092061, -13486.4838107209, 26566.054113632934, -13788.791154478928, -24781.71435376577, -1071.8332018653396, -25962.24408891727, -25313.752927035443, -5588.830183604978, 7997.118889942038, -8557.901806581236, -20506.67500575483, 0.1355, 0.8150000000000001, -0.5135000000000001, 192.0, 0.0, 0.0, 0.0, 0.0, 0.0, 0.0, 0.0, 0.0, 0.0, 1.6620651686768744E9, 0.0, 2022-09-01 16:46:08.676
106.0, -21052.236384419964, -20673.240205435777, -30468.60164029618, -16241.69394274878, -9960.943157785316, -13504.253447562867, 26612.724556055615, -13798.223590639067, -24731.981722352713, -1011.662305791653, -25892.97603285027, -25243.881373868153, -5531.922642221766, 8056.395716237512, -8500.927209964659, -20430.924943795795, 0.13175, 0.8155000000000001, -0.51475, 192.0, 2.0, 0.0, 12.5, 64.0, 119.5, 112.0, 0.0, 0.0, 0.0, 1.6620651686769853E9, 0.0, 2022-09-01 16:46:08.676
108.0, -21084.668765624618, -20696.82129583613, -30487.73473354992, -16243.772654983122, -9991.654454666908, -13506.510973752855, 26605.41553561873, -13811.947561734625, -24814.638473348437, -1103.3268098028673, -25975.61043210154, -25330.00264525445, -5600.453090721738, 7978.633997277499, -8556.270129236, -20509.78189823412, 0.13175, 0.8155000000000001, -0.51475, 192.0, 0.0, 0.0, 0.0, 0.0, 0.0, 0.0, 0.0, 0.0, 0.0, 1.662065168677032E9, 0.0, 2022-09-01 16:46:08.677
110.0, -21077.06917250981, -20699.347042959576, -30452.486032543904, -16234.563736267537, -9946.25806167818, -13494.038700346793, 26567.21640434461, -13789.931093446148, -24751.51714700665, -1027.4873408660103, -25898.005175352715, -25255.347818773727, -5540.863340003889, 8048.729067889341, -8500.837802986838, -20430.410853673322, 0.13175, 0.8155000000000001, -0.51475, 192.0, 0.0, 0.0, 0.0, 0.0, 0.0, 0.0, 0.0, 0.0, 0.0, 1.6620651686770363E9, 0.0, 2022-09-01 16:46:08.677
112.0, -21111.669672926626, -20726.750281661785, -30487.622974827646, -16254.903823721867, -9986.044166808626, -13506.779194686318, 26656.51162344356, -13808.550096577419, -24809.206999445796, -1114.5473855194314, -25973.397609400465, -25333.176592967106, -5588.181983015774, 7973.694261752876, -8534.946565025635, -20502.51758128614, 0.13175, 0.8155000000000001, -0.51475, 192.0, 0.0, 0.0, 0.0, 0.0, 0.0, 0.0, 0.0, 0.0, 0.0, 1.6620651686770403E9, 0.0, 2022-09-01 16:46:08.677
114.0, -21095.151733774153, -20715.30618850067, -30451.36844532114, -16232.619134499924, -9945.654564577886, -13485.701499664963, 26532.034758571954, -13779.023442151958, -24761.843652945, -1038.819675304851, -25908.04110861315, -25262.52272874388, -5546.2277586731625, 8051.254815012791, -8500.100195419813, -20429.04739726155, 0.13175, 0.8155000000000001, -0.51475, 192.0, 0.0, 0.0, 0.0, 0.0, 0.0, 0.0, 0.0, 0.0, 0.0, 1.6620651686770444E9, 0.0, 2022-09-01 16:46:08.677
116.0, -21144.571440764837, -20759.003848910794, -30511.449934417004, -16282.999966502186, -10005.870164140482, -13523.721816983441, 26687.714658703168, -13829.538384620952, -24824.562647886592, -1134.7310107625738, -25984.886406050493, -25347.21348848504, -5596.429776719782, 7958.472723778811, -8541.674440106683, -20506.518543543643, 0.13187500000000002, 0.8147500000000001, -0.515375, 192.0, 2.0, 16.0, 12.5, 56.0, 119.5, 112.0, 0.0, 0.0, 0.0, 1.6620651686770494E9, 0.0, 2022-09-01 16:46:08.677
118.0, -21096.962225075036, -20717.16138329046, -30457.13519539061, -16242.811529971545, -9940.893643008905, -13479.308900750746, 26485.163150449178, -13778.598759007307, -24784.91065322288, -1061.6631581381748, -25930.012873412714, -25286.595557522247, -5569.585331628959, 8038.760189862274, -8522.697809064128, -20447.800510859553, 0.13187500000000002, 0.8147500000000001, -0.515375, 192.0, 0.0, 0.0, 0.0, 0.0, 0.0, 0.0, 0.0, 0.0, 0.0, 1.6620651686770537E9, 0.0, 2022-09-01 16:46:08.677
120.0, -21145.8901936877, -20762.669535001463, -30514.28860596283, -16297.394489931405, -9995.610713435497, -13518.178584358524, 26720.683481774748, -13826.02916074147, -24819.891133295434, -1143.1576184222245, -25983.344135683077, -25351.54972690937, -5586.416195203805, 7965.468819793323, -8535.617117359296, -20501.757621974662, 0.13187500000000002, 0.8147500000000001, -0.515375, 192.0, 0.0, 0.0, 0.0, 0.0, 0.0, 0.0, 0.0, 0.0, 0.0, 1.6620651686770575E9, 0.0, 2022-09-01 16:46:08.677
122.0, -21094.54823667386, -20714.389766977998, -30470.300372874783, -16250.098198663974, -9944.939308755316, -13471.508141935843, 26455.23416462352, -13773.547264760407, -24784.553025311594, -1063.6077599057867, -25942.12751890749, -25296.49738031595, -5568.132468239363, 8055.54634994821, -8529.090407978345, -20451.868528350416, 0.13187500000000002, 0.8147500000000001, -0.515375, 192.0, 0.0, 0.0, 0.0, 0.0, 0.0, 0.0, 0.0, 0.0, 0.0, 1.662065168677062E9, 0.0, 2022-09-01 16:46:08.677
124.0, -21148.170071622142, -20773.599538040107, -30535.835687617742, -16313.51009768368, -10009.044111853136, -13531.209651375968, 26740.800051784525, -13837.853233558326, -24805.138981954933, -1127.6455077702412, -25984.372315928023, -25352.22027924303, -5584.58335215847, 7982.612607790543, -8540.087466250357, -20495.00739514916, 0.13187500000000002, 0.8147500000000001, -0.515375, 192.0, 0.0, 0.0, 0.0, 0.0, 0.0, 0.0, 0.0, 0.0, 0.0, 1.662065168677066E9, 0.0, 2022-09-01 16:46:08.677
