%OpenBCI Raw EEG Data
%Number of channels = 16
%Sample Rate = 125 Hz
%Board = OpenBCI_GUI$BoardCytonSerialDaisy
Sample Index, EXG Channel 0, EXG Channel 1, EXG Channel 2, EXG Channel 3, EXG Channel 4, EXG Channel 5, EXG Channel 6, EXG Channel 7, EXG Channel 8, EXG Channel 9, EXG Channel 10, EXG Channel 11, EXG Channel 12, EXG Channel 13, EXG Channel 14, EXG Channel 15, Accel Channel 0, Accel Channel 1, Accel Channel 2, Other, Other, Other, Other, Other, Other, Other, Analog Channel 0, Analog Channel 1, Analog Channel 2, Timestamp, Other, Timestamp (Formatted)
180.0, -15534.797672605238, 51791.96468495902, -37318.181969902755, -36622.662737686966, -28617.631330207747, -30344.05772019121, -24523.507001818063, -4179.6644544201445, -27235.7794327473, -4496.36632160739, -30326.221028115873, -34784.34351496023, -27450.847917896263, -12425.22298398292, -23805.47956293578, -36434.662215073375, 0.082, 0.9560000000000001, -0.124, 192.0, 1.0, 72.0, 14.5, 112.0, 126.0, 16.0, 0.0, 0.0, 0.0, 1.668976661203807E9, 0.0, 2022-11-20 15:37:41.203
182.0, -15614.2357723994, 52672.7351752204, -37384.16431953482, -36706.25826194981, -28687.458179886125, -30417.147924560064, -24598.519456210073, -4244.216292407071, -27092.571806022144, -4349.113029135827, -30187.237881092773, -34644.80157432575, -27312.73648890692, -12288.989101527823, -23664.82003507853, -36298.47303610719, 0.082, 0.9560000000000001, -0.124, 192.0, 0.0, 0.0, 0.0, 0.0, 0.0, 0.0, 0.0, 0.0, 0.0, 1.668976661203814E9, 0.0, 2022-11-20 15:37:41.203
184.0, -15557.03765833827, 52080.101022732386, -37333.89524625483, -36637.28077856074, -28629.99184489153, -30355.479461607873, -24537.320379891444, -4191.153251070172, -27230.213848377927, -4485.883353457851, -30325.10344089311, -34782.33185795925, -27449.506813228945, -12421.467890914428, -23799.355184955024, -36432.67290981685, 0.082, 0.9560000000000001, -0.124, 192.0, 0.0, 0.0, 0.0, 0.0, 0.0, 0.0, 0.0, 0.0, 0.0, 1.6689766612038195E9, 0.0, 2022-11-20 15:37:41.203
186.0, -15600.981187937403, 52368.97496807277, -37378.46462469872, -36697.49637812333, -28668.950935477133, -30397.09840978365, -24576.05595303249, -4221.529271784934, -27088.63789899801, -4341.915767421218, -30185.181520602888, -34641.87349580211, -27301.381802723623, -12275.578054854639, -23660.05911350955, -36295.90258549483, 0.082, 0.9560000000000001, -0.124, 192.0, 0.0, 0.0, 0.0, 0.0, 0.0, 0.0, 0.0, 0.0, 0.0, 1.6689766612038248E9, 0.0, 2022-11-20 15:37:41.203
188.0, -15554.869539126104, 52345.460932905786, -37345.98754000515, -36649.976569411345, -28632.361129803794, -30357.982856986866, -24536.605124068872, -4187.196992301582, -27225.832906464686, -4473.4557835407, -30325.930455437956, -34778.91204105759, -27440.074377068806, -12417.064597256733, -23797.47763842078, -36439.35608140899, 0.082, 0.9560000000000001, -0.124, 192.0, 0.0, 0.0, 0.0, 0.0, 0.0, 0.0, 0.0, 0.0, 0.0, 1.6689766612038302E9, 0.0, 2022-11-20 15:37:41.203
190.0, -15590.408812810043, 52052.16134216325, -37372.78728160707, -36691.59551758713, -28662.021894695987, -30386.660145123024, -24571.071514018957, -4214.041437392407, -27077.26086107026, -4324.593165468355, -30173.223337319298, -34628.26128342882, -27288.484846172913, -12267.151447194989, -23655.25348845166, -36292.125140681885, 0.09, 0.9540000000000001, -0.134, 192.0, 1.0, 104.0, 14.5, 104.0, 125.5, 104.0, 0.0, 0.0, 0.0, 1.6689766612038355E9, 0.0, 2022-11-20 15:37:41.203
192.0, -15594.096850645168, 52647.45535224144, -37375.73771187517, -36677.08923543563, -28663.653572041225, -30387.084828267674, -24573.060819275477, -4221.439864807113, -27241.34501711667, -4483.871696456873, -30341.86724923459, -34792.434846453056, -27460.213298823037, -12434.208385253953, -23819.6729206649, -36450.12962223645, 0.09, 0.9540000000000001, -0.134, 192.0, 0.0, 0.0, 0.0, 0.0, 0.0, 0.0, 0.0, 0.0, 0.0, 1.6689766612038407E9, 0.0, 2022-11-20 15:37:41.203
194.0, -15565.084286342179, 51761.85688517772, -37338.36559514589, -36649.30601707769, -28630.595341991826, -30358.139319198053, -24543.355350894377, -4187.1746405571275, -27080.12188436054, -4332.036296371973, -30171.122273340497, -34625.37790839409, -27292.508160174868, -12269.14075245151, -23656.281668696603, -36282.670352777284, 0.09, 0.9540000000000001, -0.134, 192.0, 0.0, 0.0, 0.0, 0.0, 0.0, 0.0, 0.0, 0.0, 0.0, 1.668976661203846E9, 0.0, 2022-11-20 15:37:41.203
196.0, -15626.551583594273, 52926.9415649106, -37398.24591854166, -36696.57995660066, -28691.705011332633, -30414.555122203248, -24600.620520188873, -4249.55835933189, -27233.6783687685, -4478.730795232153, -30336.033443931752, -34781.48249166995, -27458.983952877996, -12428.329876462207, -23810.307539738125, -36433.611683083975, 0.09, 0.9540000000000001, -0.134, 192.0, 0.0, 0.0, 0.0, 0.0, 0.0, 0.0, 0.0, 0.0, 0.0, 1.6689766612038512E9, 0.0, 2022-11-20 15:37:41.203
198.0, -15549.460416967919, 51508.61162049909, -37317.71258326919, -36625.61316795506, -28611.90928362719, -30339.8108887447, -24524.356368107365, -4171.841343860787, -27099.098515403097, -4348.4201250577125, -30185.60620374754, -34639.86183880113, -27311.060108072772, -12279.221389200853, -23671.59261364849, -36294.293259894046, 0.09, 0.9540000000000001, -0.134, 192.0, 0.0, 0.0, 0.0, 0.0, 0.0, 0.0, 0.0, 0.0, 0.0, 1.6689766612038567E9, 0.0, 2022-11-20 15:37:41.203
200.0, -15637.883918033114, 53148.98379432962, -37412.5286832486, -36720.13869525656, -28702.16562773772, -30433.598808479168, -24612.466944750184, -4267.216237451582, -27212.6230254916, -4455.26146355408, -30318.040289645232, -34765.9033257846, -27444.455318982044, -12411.901344287557, -23795.309519208615, -36424.69333704631, 0.08600000000000001, 0.9560000000000001, -0.132, 192.0, 1.0, 88.0, 14.5, 112.0, 125.5, 112.0, 0.0, 0.0, 0.0, 1.668976661203863E9, 0.0, 2022-11-20 15:37:41.203
202.0, -15539.893870341048, 51318.82295832908, -37306.17908313025, -36623.53445572072, -28600.688707910624, -30334.37941484206, -24513.09108890189, -4165.247579246471, -27108.37448935205, -4369.587227056888, -30199.039602165176, -34658.79376635477, -27322.07951808924, -12280.562493868172, -23682.232044009215, -36318.45549565023, 0.08600000000000001, 0.9560000000000001, -0.132, 192.0, 0.0, 0.0, 0.0, 0.0, 0.0, 0.0, 0.0, 0.0, 0.0, 1.6689766612038684E9, 0.0, 2022-11-20 15:37:41.203
204.0, -15647.942203038003, 53329.585889528506, -37410.78524718109, -36722.195055746444, -28707.574749895903, -30436.079852113708, -24619.038357620044, -4269.384356663747, -27204.218769576404, -4456.69197519922, -30311.24535933082, -34758.728415814454, -27438.397996234657, -12424.105396760155, -23779.104504478517, -36419.01599395466, 0.08600000000000001, 0.9560000000000001, -0.132, 192.0, 0.0, 0.0, 0.0, 0.0, 0.0, 0.0, 0.0, 0.0, 0.0, 1.6689766612038736E9, 0.0, 2022-11-20 15:37:41.203
206.0, -15531.690780125951, 51186.90296255386, -37293.43858879073, -36607.46355145735, -28595.123123541252, -30319.20258035691, -24505.692661487185, -4154.786962841387, -27114.454163843893, -4375.510439337545, -30201.967680688824, -34655.21748724193, -27328.293303047813, -12310.312665738185, -23681.29327074209, -36318.18727471677, 0.08600000000000001, 0.9560000000000001, -0.132, 192.0, 0.0, 0.0, 0.0, 0.0, 0.0, 0.0, 0.0, 0.0, 0.0, 1.6689766612038789E9, 0.0, 2022-11-20 15:37:41.203
208.0, -15670.584520171229, 53451.80522821012, -37437.450878316275, -36745.15029730205, -28737.8837153773, -30457.35871283516, -24643.334703842964, -4292.5631156639, -27195.009850860817, -4437.044791823005, -30300.985908625833, -34740.690558039016, -27434.777013632898, -12401.351320904652, -23772.488388119746, -36404.84498797, 0.08600000000000001, 0.9560000000000001, -0.132, 192.0, 0.0, 0.0, 0.0, 0.0, 0.0, 0.0, 0.0, 0.0, 0.0, 1.668976661203884E9, 0.0, 2022-11-20 15:37:41.203
210.0, -15514.770509573284, 51126.08386589097, -37280.429873517736, -36587.79401633669, -28582.226166990542, -30303.109324349087, -24488.682983956693, -4142.761724324432, -27133.47549837536, -4386.909829009751, -30219.871427997525, -34674.976429340415, -27356.143576639126, -12333.826700905169, -23706.036651854116, -36337.365071459426, 0.084, 0.9580000000000001, -0.13, 192.0, 1.0, 80.0, 14.5, 120.0, 125.5, 120.0, 0.0, 0.0, 0.0, 1.6689766612039113E9, 0.0, 2022-11-20 15:37:41.203
212.0, -15685.336671511732, 53485.22108617081, -37438.32259635003, -36753.06281483923, -28741.437642745692, -30465.5394513058, -24646.285134111065, -4296.586429665856, -27169.506510437313, -4410.379160687824, -30274.61085016857, -34719.05406940628, -27409.09485925375, -12381.279454383786, -23740.994780182216, -36376.25710681166, 0.084, 0.9580000000000001, -0.13, 192.0, 0.0, 0.0, 0.0, 0.0, 0.0, 0.0, 0.0, 0.0, 0.0, 1.6689766612039204E9, 0.0, 2022-11-20 15:37:41.203
214.0, -15532.160166759511, 51162.91954075331, -37287.38126604334, -36598.947536819884, -28586.67416413715, -30312.452353531404, -24493.84623692587, -4147.567349382323, -27176.077923307173, -4426.11478878436, -30261.825652340136, -34714.42725830404, -27389.42532413308, -12366.192026876453, -23733.618704511966, -36372.524365487625, 0.084, 0.9580000000000001, -0.13, 192.0, 0.0, 0.0, 0.0, 0.0, 0.0, 0.0, 0.0, 0.0, 0.0, 1.6689766612039256E9, 0.0, 2022-11-20 15:37:41.203
216.0, -15664.348383468197, 53438.32712630357, -37422.29639557558, -36739.36119548812, -28716.068412788918, -30444.84173594019, -24624.715700711695, -4267.08212698485, -27151.647466617524, -4383.825288274919, -30255.500108659282, -34693.997763871885, -27382.429228118566, -12353.138608114554, -23718.531277004633, -36361.549658960066, 0.084, 0.9580000000000001, -0.13, 192.0, 0.0, 0.0, 0.0, 0.0, 0.0, 0.0, 0.0, 0.0, 0.0, 1.6689766612039309E9, 0.0, 2022-11-20 15:37:41.203
218.0, -15509.45079439292, 51230.86884389745, -37271.80210015799, -36582.20608022286, -28565.41765516015, -30289.094780575608, -24470.51101571453, -4115.9172792336085, -27165.393789457536, -4411.541451399499, -30252.482623157815, -34702.35731629817, -27375.4107803596, -12351.618689491594, -23733.70811148979, -36372.658475954355, 0.084, 0.9580000000000001, -0.13, 192.0, 0.0, 0.0, 0.0, 0.0, 0.0, 0.0, 0.0, 0.0, 0.0, 1.6689766612039363E9, 0.0, 2022-11-20 15:37:41.203
220.0, -15671.702107393994, 53327.39541857188, -37424.26334908764, -36755.43209975149, -28724.003282070553, -30453.424805811028, -24630.817726947993, -4271.306606686903, -27127.32876865015, -4367.597921800366, -30228.879181013013, -34676.13872005209, -27353.12609113766, -12326.361218257096, -23705.053175098084, -36345.14347852987, 0.082, 0.96, -0.127, 192.0, 1.0, 64.0, 15.0, 8.0, 126.0, 16.0, 0.0, 0.0, 0.0, 1.6689766612039416E9, 0.0, 2022-11-20 15:37:41.203
222.0, -15532.428387692975, 51423.40677063546, -37293.349181812904, -36617.32067076214, -28587.9482135711, -30320.90131293551, -24494.740306704083, -4141.53237837939, -27203.078830609185, -4456.4237542657565, -30292.08991433262, -34748.98305523194, -27408.446658664547, -12394.466983612418, -23771.37080089698, -36416.132618919924, 0.082, 0.96, -0.127, 192.0, 0.0, 0.0, 0.0, 0.0, 0.0, 0.0, 0.0, 0.0, 0.0, 1.6689766612039468E9, 0.0, 2022-11-20 15:37:41.203
224.0, -15660.950918310991, 53167.312224782974, -37424.59862525447, -36757.53316373029, -28718.147125023264, -30449.960285420453, -24624.670997222784, -4262.231798438049, -27120.578541824645, -4365.295692121469, -30222.97832047681, -34675.42346422952, -27339.960913653485, -12323.164918799988, -23695.777201149132, -36340.00257730515, 0.082, 0.96, -0.127, 192.0, 0.0, 0.0, 0.0, 0.0, 0.0, 0.0, 0.0, 0.0, 0.0, 1.668976661203952E9, 0.0, 2022-11-20 15:37:41.203
226.0, -15538.239841251356, 51661.76577350686, -37311.56585354398, -36630.619958713054, -28597.537111942427, -30330.91489445149, -24505.536199275997, -4151.657718617645, -27216.6239877491, -4467.398460793312, -30308.741963951823, -34768.809052563796, -27423.24351349396, -12404.994655250866, -23784.13364698096, -36425.4979998467, 0.082, 0.96, -0.127, 192.0, 0.0, 0.0, 0.0, 0.0, 0.0, 0.0, 0.0, 0.0, 0.0, 1.668976661203957E9, 0.0, 2022-11-20 15:37:41.203
228.0, -15644.723551836438, 52939.59265227231, -37410.941709392275, -36744.09976531265, -28700.601005625846, -30439.11968935963, -24610.29882553802, -4249.178379676149, -27109.42502134145, -4356.399697828258, -30209.231997636798, -34670.86370836064, -27325.611093713178, -12308.636284904038, -23681.78500912011, -36321.94236778526, 0.082, 0.96, -0.127, 192.0, 0.0, 0.0, 0.0, 0.0, 0.0, 0.0, 0.0, 0.0, 0.0, 1.6689766612039626E9, 0.0, 2022-11-20 15:37:41.203
230.0, -15542.285506997767, 51933.71944829458, -37316.68440302425, -36630.619958713054, -28605.024946334954, -30336.8604584766, -24510.45358305616, -4154.272872718915, -27224.000063419353, -4475.869771941873, -30316.69918497791, -34785.55050916082, -27433.681778154587, -12418.383350179596, -23791.84499881804, -36427.64376731441, 0.083, 0.958, -0.1275, 192.0, 1.0, 80.0, 14.5, 112.0, 126.0, 0.0, 0.0, 0.0, 0.0, 1.668976661203968E9, 0.0, 2022-11-20 15:37:41.203
232.0, -15590.162943621033, 52640.43690448248, -37363.891287313854, -36693.40600888801, -28656.679827771168, -30388.582395146183, -24564.187176726722, -4199.602210474278, -27078.6913727154, -4318.848767143341, -30168.97650587279, -34636.173800966004, -27292.016421796852, -12267.57613033964, -23652.079540739007, -36283.162091155304, 0.083, 0.958, -0.1275, 192.0, 0.0, 0.0, 0.0, 0.0, 0.0, 0.0, 0.0, 0.0, 0.0, 1.6689766612039733E9, 0.0, 2022-11-20 15:37:41.203
234.0, -15552.36614374711, 52227.75664660414, -37329.938987486246, -36648.76957521076, -28621.878161654255, -30355.613572074602, -24530.65956004376, -4175.417622973636, -27215.52875227079, -4453.9650623756725, -30302.14819933751, -34771.20068922051, -27430.95486533104, -12409.956742519946, -23789.47571390578, -36419.82065675505, 0.083, 0.958, -0.1275, 192.0, 0.0, 0.0, 0.0, 0.0, 0.0, 0.0, 0.0, 0.0, 0.0, 1.6689766612039783E9, 0.0, 2022-11-20 15:37:41.203
236.0, -15595.639121012584, 52372.797116374626, -37362.32666520198, -36699.66449733549, -28658.19974639413, -30396.338450472173, -24573.61961288686, -4209.481681523524, -27080.993602394297, -4322.04506660045, -30165.467281993304, -34639.23598995638, -27293.17871250853, -12265.542121594206, -23651.96778201673, -36288.52650982458, 0.083, 0.958, -0.1275, 192.0, 0.0, 0.0, 0.0, 0.0, 0.0, 0.0, 0.0, 0.0, 0.0, 1.6689766612039838E9, 0.0, 2022-11-20 15:37:41.203
238.0, -15564.771361919806, 52540.83753118963, -37341.29367366954, -36661.64418001702, -28633.545772259924, -30365.224822190386, -24546.149318951288, -4185.252390533971, -27224.849429708654, -4468.806620693997, -30313.972272154366, -34791.33961097475, -27443.717711415018, -12443.707876647459, -23798.930501810373, -36435.33276740703, 0.083, 0.958, -0.1275, 192.0, 0.0, 0.0, 0.0, 0.0, 0.0, 0.0, 0.0, 0.0, 0.0, 1.6689766612039893E9, 0.0, 2022-11-20 15:37:41.203
240.0, -15575.991937636369, 52077.95525526467, -37348.937970273255, -36681.380770371055, -28638.261990339994, -30371.706828082424, -24553.301877176986, -4185.766480656443, -27077.37261979254, -4321.709790433621, -30161.131043568977, -34641.918199291016, -27290.11652351815, -12279.28844443422, -23654.471177395724, -36285.30785862301, 0.0825, 0.954, -0.12575, 192.0, 1.0, 72.0, 14.5, 88.0, 126.0, 16.0, 0.0, 0.0, 0.0, 1.6689766612039945E9, 0.0, 2022-11-20 15:37:41.203
242.0, -15591.951083177459, 52837.914566745116, -37370.06036878352, -36685.717008795385, -28657.216269638095, -30385.20728173343, -24569.641002373817, -4205.413664032658, -27217.89803718305, -4457.139010088326, -30317.7050134784, -34794.64766915413, -27443.963580604028, -12428.396931695574, -23806.10541178053, -36432.359985394476, 0.0825, 0.954, -0.12575, 192.0, 0.0, 0.0, 0.0, 0.0, 0.0, 0.0, 0.0, 0.0, 0.0, 1.6689766612039995E9, 0.0, 2022-11-20 15:37:41.203
244.0, -15556.881196127082, 51793.35049311525, -37324.52986532806, -36646.06501413167, -28608.891798125722, -30334.29000786424, -24521.361234350352, -4147.656756360145, -27078.847834926586, -4311.562098450911, -30161.443967991352, -34639.593617867664, -27290.585910151713, -12263.530464593228, -23655.25348845166, -36274.13198639536, 0.0825, 0.954, -0.12575, 192.0, 0.0, 0.0, 0.0, 0.0, 0.0, 0.0, 0.0, 0.0, 0.0, 1.6689766612040064E9, 0.0, 2022-11-20 15:37:41.204
246.0, -15622.215345169943, 53098.89353500528, -37395.11667431792, -36701.60909910311, -28674.985906480066, -30401.00996506333, -24585.197816514712, -4215.851928693286, -27222.837772707677, -4438.4082482347785, -30314.508714021293, -34781.21427073649, -27449.5291649734, -12407.341588418674, -23799.489295421758, -36416.73611602022, 0.0825, 0.954, -0.12575, 192.0, 0.0, 0.0, 0.0, 0.0, 0.0, 0.0, 0.0, 0.0, 0.0, 1.668976661204012E9, 0.0, 2022-11-20 15:37:41.204
248.0, -15540.273849996789, 51558.567769356705, -37310.33650759894, -36625.56846446615, -28594.787847374424, -30325.77399322677, -24509.335995833397, -4136.8161602993205, -27098.852646214087, -4319.027581098983, -30171.099921596044, -34646.56736213772, -27308.31084350477, -12267.978461739835, -23669.804474092063, -36289.75585576962, 0.0825, 0.954, -0.12575, 192.0, 0.0, 0.0, 0.0, 0.0, 0.0, 0.0, 0.0, 0.0, 0.0, 1.6689766612040172E9, 0.0, 2022-11-20 15:37:41.204
250.0, -15638.53211862232, 53326.03196216011, -37407.83481691299, -36716.45065742143, -28694.096647989354, -30424.07696534121, -24608.35422377041, -4239.231853393538, -27213.986481903376, -4423.58904166091, -30303.154027837998, -34772.228869465456, -27444.500022470955, -12397.68563481398, -23791.75559184022, -36415.41736309735, 0.08025, 0.9510000000000001, -0.12587500000000001, 192.0, 1.0, 56.0, 14.5, 80.0, 126.0, 8.0, 0.0, 0.0, 0.0, 1.6689766612040224E9, 0.0, 2022-11-20 15:37:41.204
252.0, -15518.212678219401, 51373.092993866565, -37279.08876885042, -36600.91449033195, -28568.770416828447, -30301.499998748306, -24485.285518799486, -4116.297258889349, -27104.21706488336, -4330.628136471288, -30176.956078643332, -34660.44779544447, -27315.575160452743, -12278.57318861165, -23671.45850318176, -36303.010440231614, 0.08025, 0.9510000000000001, -0.12587500000000001, 192.0, 0.0, 0.0, 0.0, 0.0, 0.0, 0.0, 0.0, 0.0, 0.0, 1.6689766612040277E9, 0.0, 2022-11-20 15:37:41.204
254.0, -15647.785740826816, 53464.9704056943, -37408.55007273556, -36730.08522153917, -28700.8245230704, -30431.6318549671, -24615.39502327383, -4244.953899974096, -27184.37042050009, -4399.896192538285, -30275.32610599114, -34752.380520389146, -27413.028766277883, -12372.852846724136, -23755.299896633613, -36390.67398198533, 0.08025, 0.9510000000000001, -0.12587500000000001, 192.0, 0.0, 0.0, 0.0, 0.0, 0.0, 0.0, 0.0, 0.0, 0.0, 1.668976661204033E9, 0.0, 2022-11-20 15:37:41.204
0.0, -15526.907506812515, 51267.72687050425, -37288.744722455114, -36609.788132880705, -28580.66154487867, -30312.072373875664, -24495.65672822675, -4125.729695049488, -27130.346254151616, -4357.561988539933, -30201.744163244268, -34688.320420780234, -27339.804451442298, -12302.601313901105, -23691.97740459173, -36328.111449254924, 0.08025, 0.9510000000000001, -0.12587500000000001, 192.0, 0.0, 0.0, 0.0, 0.0, 0.0, 0.0, 0.0, 0.0, 0.0, 1.668976661204038E9, 0.0, 2022-11-20 15:37:41.204
2.0, -15654.33480195222, 53562.379308030526, -37416.79786643957, -36736.544875686755, -28708.29000571847, -30438.113860859143, -24622.771098944082, -4250.9218157436635, -27186.67265017899, -4397.079872736916, -30275.504919946783, -34747.66430230907, -27416.42623143509, -12371.802314734736, -23759.23380365775, -36392.59623200849, 0.08025, 0.9510000000000001, -0.12587500000000001, 192.0, 0.0, 0.0, 0.0, 0.0, 0.0, 0.0, 0.0, 0.0, 0.0, 1.6689766612040431E9, 0.0, 2022-11-20 15:37:41.204
4.0, -15490.518866839275, 51209.67939015382, -37259.01690232955, -36578.272173198726, -28551.51487010895, -30277.695390903402, -24467.672344168706, -4096.180688879573, -27125.78649828273, -4354.589206527377, -30194.233977107288, -34680.89964162107, -27336.474041518457, -12287.737403838326, -23697.36417500546, -36325.250425964645, 0.080125, 0.9525000000000001, -0.1279375, 192.0, 1.0, 64.0, 14.5, 104.0, 125.5, 120.0, 0.0, 0.0, 0.0, 1.6689766612040486E9, 0.0, 2022-11-20 15:37:41.204
6.0, -15651.406723428576, 53566.93906389941, -37425.71621247724, -36744.010358334825, -28717.990662812077, -30436.817459680733, -24629.63308449186, -4250.005394220995, -27148.89820204952, -4362.188799642182, -30236.03173923871, -34713.421429803544, -27386.47489386498, -12334.921936383478, -23734.89275394592, -36361.549658960066, 0.080125, 0.9525000000000001, -0.1279375, 192.0, 0.0, 0.0, 0.0, 0.0, 0.0, 0.0, 0.0, 0.0, 0.0, 1.6689766612040539E9, 0.0, 2022-11-20 15:37:41.204
8.0, -15506.030977491258, 51270.47613507225, -37286.04016137602, -36592.040847783195, -28577.46524542156, -30294.593309711614, -24487.766562434026, -4113.257421643427, -27155.737835852844, -4381.143078940282, -30227.35926239005, -34709.82279894624, -27376.885995493652, -12338.229994562864, -23736.435024313334, -36358.107490313945, 0.080125, 0.9525000000000001, -0.1279375, 192.0, 0.0, 0.0, 0.0, 0.0, 0.0, 0.0, 0.0, 0.0, 0.0, 1.6689766612040591E9, 0.0, 2022-11-20 15:37:41.204
10.0, -15656.346458953198, 53515.26183071874, -37430.05245090157, -36741.8198873782, -28724.249151259562, -30444.327645817717, -24639.512555541107, -4262.455315882601, -27147.37828342656, -4356.24323561707, -30236.54582936118, -34704.68189772152, -27386.22902467597, -12333.558479971705, -23736.055044657594, -36355.894667612876, 0.080125, 0.9525000000000001, -0.1279375, 192.0, 0.0, 0.0, 0.0, 0.0, 0.0, 0.0, 0.0, 0.0, 0.0, 1.6689766612040644E9, 0.0, 2022-11-20 15:37:41.204
12.0, -15496.464430864387, 51377.138659612974, -37266.39297799981, -36576.6851993424, -28563.875384792733, -30289.072428831154, -24483.36326877633, -4115.716113533511, -27174.37919072857, -4396.0293407475165, -30243.407814908962, -34723.39030783061, -27392.308699167814, -12348.802369690226, -23750.002533197705, -36372.725531187716, 0.080125, 0.9525000000000001, -0.1279375, 192.0, 0.0, 0.0, 0.0, 0.0, 0.0, 0.0, 0.0, 0.0, 0.0, 1.6689766612040696E9, 0.0, 2022-11-20 15:37:41.204
14.0, -15628.295019661788, 53348.16018917086, -37391.33922950497, -36716.16008474351, -28690.766238065513, -30422.378232762607, -24612.086965094444, -4240.863530738775, -27112.956596965385, -4323.252060801036, -30191.64117475047, -34669.612010671146, -27342.352550310203, -12299.539124910729, -23687.596462678488, -36323.23876896367, 0.08006250000000001, 0.95625, -0.12796875000000002, 192.0, 1.0, 64.0, 15.0, 0.0, 126.0, 0.0, 0.0, 0.0, 0.0, 1.6689766612040749E9, 0.0, 2022-11-20 15:37:41.204
16.0, -15510.88130603806, 51546.319013395194, -37285.52607125355, -36595.37125770703, -28582.717905368558, -30311.71474596438, -24496.863722427337, -4130.736485807477, -27176.390847729548, -4396.588134358899, -30243.251352697775, -34729.49233406691, -27392.107533467715, -12358.659488995016, -23745.59923954001, -36385.667191227345, 0.08006250000000001, 0.95625, -0.12796875000000002, 192.0, 0.0, 0.0, 0.0, 0.0, 0.0, 0.0, 0.0, 0.0, 0.0, 1.66897666120408E9, 0.0, 2022-11-20 15:37:41.204
18.0, -15640.700237834482, 53164.65236719279, -37408.997107624666, -36728.83352384967, -28708.804095840944, -30436.236314324895, -24620.58062798746, -4243.590443562322, -27118.589236568125, -4329.577604481889, -30202.191198133376, -34676.11636830764, -27351.248544603415, -12311.698473894416, -23698.34765176149, -36333.31940571301, 0.08006250000000001, 0.95625, -0.12796875000000002, 192.0, 0.0, 0.0, 0.0, 0.0, 0.0, 0.0, 0.0, 0.0, 0.0, 1.668976661204085E9, 0.0, 2022-11-20 15:37:41.204
20.0, -15524.717035855894, 51787.74020525697, -37296.88075743685, -36599.81925485364, -28595.547806685903, -30313.23466458734, -24502.965748663635, -4130.535320107379, -27204.978728887887, -4423.164358516259, -30280.71287640487, -34759.37661640366, -27424.85283909474, -12379.804239249735, -23776.534053866155, -36407.482493815725, 0.08006250000000001, 0.95625, -0.12796875000000002, 192.0, 0.0, 0.0, 0.0, 0.0, 0.0, 0.0, 0.0, 0.0, 0.0, 1.6689766612040925E9, 0.0, 2022-11-20 15:37:41.204
22.0, -15616.694464289483, 52895.313846506346, -37383.56082243453, -36704.26895669329, -28686.497054874548, -30400.361764474128, -24593.19974102971, -4215.561356015367, -27090.44839029889, -4308.365798993802, -30172.508081496726, -34649.71895810592, -27320.760765166375, -12274.818095543158, -23667.59165139099, -36297.444855862246, 0.08006250000000001, 0.95625, -0.12796875000000002, 192.0, 0.0, 0.0, 0.0, 0.0, 0.0, 0.0, 0.0, 0.0, 0.0, 1.6689766612040975E9, 0.0, 2022-11-20 15:37:41.204
24.0, -15555.562443204219, 52068.478115615624, -37326.18389441775, -36631.335214535626, -28623.576894232858, -30335.966388698387, -24529.60902805436, -4156.664509375633, -27213.137115614074, -4437.313012756469, -30292.08991433262, -34775.82750032276, -27443.24832478146, -12396.053957468745, -23789.341603439047, -36414.746810763696, 0.08003125, 0.955125, -0.129984375, 192.0, 1.0, 64.0, 14.5, 104.0, 125.5, 112.0, 0.0, 0.0, 0.0, 1.6689766612041028E9, 0.0, 2022-11-20 15:37:41.204
26.0, -15628.831461528714, 52637.397067236554, -37394.15554930634, -36710.34863118513, -28690.542720620957, -30406.039107565775, -24600.173485299765, -4220.411684562169, -27105.93814920642, -4322.603860211832, -30186.992011903767, -34666.169842025025, -27337.904553163597, -12285.591636370616, -23682.857892853965, -36302.65281232033, 0.08003125, 0.955125, -0.129984375, 192.0, 0.0, 0.0, 0.0, 0.0, 0.0, 0.0, 0.0, 0.0, 0.0, 1.6689766612041085E9, 0.0, 2022-11-20 15:37:41.204
28.0, -15576.684841714483, 52384.35296825803, -37348.82621155098, -36650.15538336699, -28638.28434208445, -30361.067397721697, -24548.205679441176, -4178.211591030549, -27241.30031362776, -4457.742507188619, -30321.795382713724, -34801.28613725735, -27471.702095473065, -12423.36778919313, -23814.75553688473, -36435.48922961822, 0.08003125, 0.955125, -0.129984375, 192.0, 0.0, 0.0, 0.0, 0.0, 0.0, 0.0, 0.0, 0.0, 0.0, 1.6689766612041135E9, 0.0, 2022-11-20 15:37:41.204
30.0, -15609.251333385866, 52340.431790403345, -37370.90973507282, -36687.84042451864, -28662.066598184898, -30386.43662767847, -24574.37957219834, -4195.310675538859, -27092.30358508868, -4312.858499629319, -30170.474072751294, -34651.976484295905, -27317.83268664273, -12253.494531332795, -23662.62956412191, -36286.29133537905, 0.08003125, 0.955125, -0.129984375, 192.0, 0.0, 0.0, 0.0, 0.0, 0.0, 0.0, 0.0, 0.0, 0.0, 1.6689766612041187E9, 0.0, 2022-11-20 15:37:41.204
32.0, -15592.688690744484, 52688.20258238347, -37353.87770579788, -36655.20687761389, -28643.80522296491, -30361.62619133308, -24552.720731821148, -4178.859791619753, -27245.122461929615, -4465.096231114416, -30329.082051406152, -34808.68456467206, -27473.87021468523, -12436.577670166216, -23810.486353693766, -36432.62820632794, 0.08003125, 0.955125, -0.129984375, 192.0, 0.0, 0.0, 0.0, 0.0, 0.0, 0.0, 0.0, 0.0, 0.0, 1.6689766612041242E9, 0.0, 2022-11-20 15:37:41.204
34.0, -15599.304807103254, 52051.37903110732, -37347.73097607267, -36673.24473538932, -28637.524382772972, -30363.19081344495, -24552.273696932043, -4173.785945628399, -27091.253053099284, -4320.368685766302, -30168.998857617244, -34657.206792498444, -27308.064974315763, -12275.510999621272, -23649.173813959816, -36275.51779455159, 0.08003125, 0.955125, -0.129984375, 192.0, 0.0, 0.0, 0.0, 0.0, 0.0, 0.0, 0.0, 0.0, 0.0, 1.6689766612041295E9, 0.0, 2022-11-20 15:37:41.204
36.0, -15623.75761553736, 52975.6013125898, -37379.895136343854, -36693.87539552157, -28664.838214497355, -30390.012906791322, -24576.838264088427, -4202.105605853272, -27243.602543306657, -4469.253655583102, -30334.401766586518, -34822.56499797881, -27468.72931346051, -12434.163681765043, -23802.37267045649, -36438.17143895286, 0.08600000000000001, 0.9540000000000001, -0.136, 192.0, 1.0, 88.0, 14.5, 104.0, 125.5, 96.0, 0.0, 0.0, 0.0, 1.6689766612041352E9, 0.0, 2022-11-20 15:37:41.204
38.0, -15549.147492545546, 51749.51872223839, -37302.53574878404, -36620.78519115272, -28588.596414160304, -30308.04905987371, -24501.37877480731, -4121.795788025354, -27090.180169365427, -4315.0266188414835, -30165.19906105984, -34657.922048321016, -27300.35362247868, -12261.42940061443, -23645.97751450271, -36280.27871612057, 0.08600000000000001, 0.9540000000000001, -0.136, 192.0, 0.0, 0.0, 0.0, 0.0, 0.0, 0.0, 0.0, 0.0, 0.0, 1.668976661204142E9, 0.0, 2022-11-20 15:37:41.204
40.0, -15644.81295881426, 53211.27810612656, -37405.778456423104, -36709.901596296026, -28687.704049075135, -30399.33358422918, -24594.607900930394, -4216.857757193775, -27222.971883174407, -4432.373277231846, -30311.535932008737, -34790.64670689663, -27448.81390915083, -12395.40575687954, -23783.28428069166, -36409.74002000571, 0.08600000000000001, 0.9540000000000001, -0.136, 192.0, 0.0, 0.0, 0.0, 0.0, 0.0, 0.0, 0.0, 0.0, 0.0, 1.6689766612041492E9, 0.0, 2022-11-20 15:37:41.204
42.0, -15541.525547686286, 51534.092609178144, -37301.48521679464, -36616.76187715076, -28587.143550770706, -30297.923719635455, -24494.67325147072, -4113.995029210452, -27108.195675396404, -4322.00036311154, -30178.006610632732, -34665.543993180276, -27317.78798315382, -12262.591691326106, -23667.032857779606, -36288.973544713685, 0.08600000000000001, 0.9540000000000001, -0.136, 192.0, 0.0, 0.0, 0.0, 0.0, 0.0, 0.0, 0.0, 0.0, 0.0, 1.6689766612041564E9, 0.0, 2022-11-20 15:37:41.204
44.0, -15663.2978514788, 53424.5584517191, -37427.57140726702, -36737.863628609615, -28714.816715099423, -30424.658110697048, -24620.602979731917, -4240.327088871848, -27213.62885399209, -4425.533643428522, -30303.601062727103, -34785.88578532765, -27444.656484682142, -12394.422280123506, -23783.84307430304, -36404.174435636334, 0.08600000000000001, 0.9540000000000001, -0.136, 192.0, 0.0, 0.0, 0.0, 0.0, 0.0, 0.0, 0.0, 0.0, 0.0, 1.6689766612041633E9, 0.0, 2022-11-20 15:37:41.204
44.0, -7803.575134703534, 25970.827158788106, -18633.822337844653, -18286.252711564626, -14292.06303263462, -15145.18441500478, -12260.267109902754, -2052.515989841937, -27213.62885399209, -4425.533643428522, -30303.601062727103, -34785.88578532765, -27444.656484682142, -12394.422280123506, -23783.84307430304, -36404.174435636334, 0.08, 0.9530000000000001, -0.137, 192.0, 1.0, 40.0, 14.5, 96.0, 125.5, 88.0, 0.0, 0.0, 0.0, 1.6689766617906413E9, 0.0, 2022-11-20 15:37:41.790
2.0, -15671.769162627359, 52227.62253613741, -37328.53082758556, -36648.791926955215, -28643.291132842438, -30354.943019740942, -24585.421333959264, -4161.961872811541, -27084.07814312913, -4295.267676742992, -30156.01249408871, -34665.76751062483, -27291.368221207646, -12254.366249366552, -23674.36422996095, -36282.02215218808, 0.08, 0.9530000000000001, -0.137, 192.0, 0.0, 0.0, 0.0, 0.0, 0.0, 0.0, 0.0, 0.0, 0.0, 1.6689766617906756E9, 0.0, 2022-11-20 15:37:41.790
4.0, -15720.808889962304, 53327.685991249804, -37381.61622066692, -36694.992982744334, -28692.554377621935, -30407.60372967765, -24632.069424637488, -4213.817919947854, -27232.270208867816, -4438.028268579039, -30320.56603676868, -34831.23747482747, -27453.351313275256, -12416.014065267333, -23835.43090050589, -36442.82060179956, 0.08, 0.9530000000000001, -0.137, 192.0, 0.0, 0.0, 0.0, 0.0, 0.0, 0.0, 0.0, 0.0, 0.0, 1.6689766617906928E9, 0.0, 2022-11-20 15:37:41.790
6.0, -15647.67398210454, 51987.56480068741, -37301.61932726137, -36630.3964412685, -28619.799449419912, -30342.113118423596, -24565.975316283148, -4143.6781458471, -27084.726343718332, -4310.779787394976, -30159.834642390568, -34689.57211846973, -27290.340040962703, -12259.596557569093, -23687.104724300472, -36305.71500131071, 0.08, 0.9530000000000001, -0.137, 192.0, 0.0, 0.0, 0.0, 0.0, 0.0, 0.0, 0.0, 0.0, 0.0, 1.668976661790718E9, 0.0, 2022-11-20 15:37:41.790
8.0, -15728.20731737701, 53574.13632561402, -37379.64926715485, -36690.746151297826, -28700.466895159116, -30418.846657138667, -24642.35122708693, -4223.228004363537, -27206.14101959956, -4420.593907903899, -30293.34161202212, -34816.84295139825, -27429.278484496892, -12396.791565035768, -23817.080118308084, -36440.16074420938, 0.078, 0.9520000000000001, -0.134, 192.0, 1.0, 56.0, 14.5, 96.0, 125.5, 104.0, 0.0, 0.0, 0.0, 1.6689766617907236E9, 0.0, 2022-11-20 15:37:41.790
10.0, -15644.880014047625, 51799.20665016254, -37285.324905553454, -36594.5889466511, -28607.505989969493, -30318.844952445623, -24549.792653297503, -4127.696648561555, -27100.484323559325, -4311.763264151009, -30166.49546223825, -34691.695534192986, -27301.247692256893, -12267.486723361817, -23692.916177858853, -36310.25240543514, 0.078, 0.9520000000000001, -0.134, 192.0, 0.0, 0.0, 0.0, 0.0, 0.0, 0.0, 0.0, 0.0, 0.0, 1.6689766617907293E9, 0.0, 2022-11-20 15:37:41.790
12.0, -15759.07507646979, 53778.43126993552, -37399.005877853146, -36707.0629247502, -28718.057718045442, -30425.26160779734, -24658.109206927922, -4235.700277769599, -27214.366461559115, -4412.077893266427, -30297.744905679814, -34811.3667740067, -27434.888772355174, -12388.432012609484, -23802.70794662332, -36412.75750550717, 0.078, 0.9520000000000001, -0.134, 192.0, 0.0, 0.0, 0.0, 0.0, 0.0, 0.0, 0.0, 0.0, 0.0, 1.6689766617907348E9, 0.0, 2022-11-20 15:37:41.790
14.0, -15614.66045554405, 51647.32654658873, -37256.379396483826, -36573.80182430766, -28569.284506950917, -30278.678867659437, -24510.65474875626, -4087.3070463308154, -27112.822486498655, -4326.917746891707, -30178.006610632732, -34707.38645880061, -27314.59168369671, -12273.834618787125, -23686.68004115582, -36292.058085448516, 0.078, 0.9520000000000001, -0.134, 192.0, 0.0, 0.0, 0.0, 0.0, 0.0, 0.0, 0.0, 0.0, 0.0, 1.6689766617907405E9, 0.0, 2022-11-20 15:37:41.790
16.0, -15754.984707234467, 53872.53211409237, -37399.58702320898, -36720.96570980141, -28709.027613285496, -30423.741689174378, -24647.425073078284, -4225.284364853426, -27175.720295395888, -4383.802936530464, -30263.74790236329, -34788.6126981512, -27402.679908595077, -12355.597300004638, -23756.37278036747, -36368.4339962523, 0.078, 0.9520000000000001, -0.134, 192.0, 0.0, 0.0, 0.0, 0.0, 0.0, 0.0, 0.0, 0.0, 0.0, 1.6689766617907457E9, 0.0, 2022-11-20 15:37:41.790
18.0, -15608.156097907557, 51563.23928394786, -37256.62526567284, -36577.95924877635, -28565.372951671237, -30285.205577040386, -24506.050289398467, -4084.9824649074635, -27124.288931404226, -4343.458037788634, -30192.15526487294, -34728.77707824434, -27331.020215871362, -12284.76462182577, -23703.89088438641, -36318.56725437251, 0.078, 0.9480000000000001, -0.134, 192.0, 1.0, 56.0, 14.5, 80.0, 125.5, 104.0, 0.0, 0.0, 0.0, 1.6689766617907512E9, 0.0, 2022-11-20 15:37:41.790
20.0, -15759.723277058993, 53893.38629166917, -37406.06902910102, -36721.21157899041, -28713.92264532121, -30426.155677575553, -24652.051884180535, -4225.105550897783, -27161.839862089142, -4357.986671684584, -30245.441823654393, -34768.27261069687, -27388.620661332687, -12337.738256184848, -23755.478710589257, -36363.53896421659, 0.078, 0.9480000000000001, -0.134, 192.0, 0.0, 0.0, 0.0, 0.0, 0.0, 0.0, 0.0, 0.0, 0.0, 1.6689766617907567E9, 0.0, 2022-11-20 15:37:41.790
22.0, -15615.599228811174, 51550.521141352794, -37264.627190187835, -36572.2819056847, -28571.497329651993, -30273.225042012342, -24507.346690576876, -4081.3391305612486, -27145.61249561459, -4353.762191982531, -30209.053183681153, -34742.00931096188, -27352.16496612608, -12319.610991431593, -23735.205678368293, -36329.18433298878, 0.078, 0.9480000000000001, -0.134, 192.0, 0.0, 0.0, 0.0, 0.0, 0.0, 0.0, 0.0, 0.0, 0.0, 1.6689766617907622E9, 0.0, 2022-11-20 15:37:41.790
24.0, -15760.974974748491, 53844.100695145215, -37407.678354701806, -36719.15521850052, -28712.670947631712, -30414.935101858988, -24649.906116712824, -4219.02587640594, -27143.287914191238, -4335.187892340171, -30226.733413545302, -34747.954874986994, -27368.392332600633, -12322.427311232963, -23739.966599937274, -36332.58179814599, 0.078, 0.9480000000000001, -0.134, 192.0, 0.0, 0.0, 0.0, 0.0, 0.0, 0.0, 0.0, 0.0, 0.0, 1.6689766617907677E9, 0.0, 2022-11-20 15:37:41.790
26.0, -15617.722644534428, 51625.91357540055, -37266.97412335564, -36571.2313736953, -28572.145530241196, -30272.30862048967, -24510.252417356067, -4085.0718718852845, -27162.957449311907, -4365.832133988397, -30232.991901992787, -34763.39993040561, -27368.884070978653, -12324.662485678493, -23751.500100076213, -36345.54580993007, 0.078, 0.9480000000000001, -0.134, 192.0, 0.0, 0.0, 0.0, 0.0, 0.0, 0.0, 0.0, 0.0, 0.0, 1.6689766617907732E9, 0.0, 2022-11-20 15:37:41.790
28.0, -15779.906902302135, 53756.88418828061, -37423.90572117636, -36737.14837278704, -28732.8322211304, -30436.616293980635, -24672.302564657042, -4243.813961006876, -27134.88365827604, -4330.717543449109, -30223.42535536592, -34746.32319764176, -27360.099835407716, -12308.837450604136, -23730.6012190105, -36333.09588826846, 0.078, 0.9480000000000001, -0.136, 192.0, 1.0, 56.0, 14.5, 80.0, 125.5, 96.0, 0.0, 0.0, 0.0, 1.6689766617907786E9, 0.0, 2022-11-20 15:37:41.790
30.0, -15611.955894464958, 51785.88501046718, -37258.122832551344, -36556.12159444352, -28573.151358741685, -30276.935431591923, -24511.124135389822, -4088.2681713423935, -27183.833978633163, -4388.094471465883, -30254.002541780777, -34784.03059053786, -27394.253300935427, -12346.142512100043, -23772.778960797663, -36377.66526671234, 0.078, 0.9480000000000001, -0.136, 192.0, 0.0, 0.0, 0.0, 0.0, 0.0, 0.0, 0.0, 0.0, 0.0, 1.668976661790784E9, 0.0, 2022-11-20 15:37:41.790
32.0, -15753.30832640032, 53574.806877947674, -37386.488900958175, -36699.44097989094, -28709.742869108068, -30417.147924560064, -24649.816709735, -4218.601193261289, -27105.89344571751, -4298.8216041113865, -30181.806407190135, -34707.67703147853, -27331.4001955271, -12277.76852581126, -23698.884093628418, -36306.60907108892, 0.078, 0.9480000000000001, -0.136, 192.0, 0.0, 0.0, 0.0, 0.0, 0.0, 0.0, 0.0, 0.0, 0.0, 1.6689766617907896E9, 0.0, 2022-11-20 15:37:41.790
34.0, -15621.365978880642, 51997.936010114674, -37251.81964061494, -36551.964169974824, -28575.9453267986, -30284.020934584256, -24519.036652927003, -4094.1466801341394, -27189.28780428026, -4390.2178871891365, -30252.37086443554, -34789.08208478476, -27400.22121670499, -12349.741142957348, -23775.6623358324, -36385.018990638135, 0.078, 0.9480000000000001, -0.136, 192.0, 0.0, 0.0, 0.0, 0.0, 0.0, 0.0, 0.0, 0.0, 0.0, 1.668976661790795E9, 0.0, 2022-11-20 15:37:41.790
36.0, -15748.346239131242, 53345.12035192494, -37366.01470303711, -36678.63150580305, -28692.86730204431, -30403.20043601995, -24641.904192197824, -4207.671190222644, -27086.31331757466, -4289.769147606987, -30162.136872069466, -34694.71301969445, -27306.232131270426, -12265.743287294305, -23677.046439295584, -36283.095035921935, 0.078, 0.9480000000000001, -0.136, 192.0, 0.0, 0.0, 0.0, 0.0, 0.0, 0.0, 0.0, 0.0, 0.0, 1.6689766617908006E9, 0.0, 2022-11-20 15:37:41.790
38.0, -15647.986906526914, 52280.4397082853, -37273.791405414515, -36577.46751039833, -28598.252367764995, -30307.66908021797, -24543.891792761304, -4119.828834513287, -27206.99038588886, -4420.459797437167, -30278.03066707023, -34814.65248044163, -27420.918932070606, -12386.196838163953, -23791.934405795862, -36396.999525666186, 0.08, 0.9560000000000001, -0.134, 192.0, 1.0, 64.0, 14.5, 112.0, 125.5, 104.0, 0.0, 0.0, 0.0, 1.6689766617908077E9, 0.0, 2022-11-20 15:37:41.790
40.0, -15753.621250822694, 53123.1898812282, -37372.27319148459, -36696.55760485621, -28700.466895159116, -30412.8787413691, -24646.888631211357, -4212.990905403007, -27086.447428041392, -4298.754548878021, -30158.53824121216, -34694.33304003871, -27307.72969814893, -12270.303043163187, -23669.11157001395, -36278.93761145325, 0.08, 0.9560000000000001, -0.134, 192.0, 0.0, 0.0, 0.0, 0.0, 0.0, 0.0, 0.0, 0.0, 0.0, 1.6689766617908132E9, 0.0, 2022-11-20 15:37:41.790
42.0, -15676.597139429707, 52617.30284897123, -37298.66889699327, -36614.750220149785, -28623.71100469959, -30334.222952630873, -24564.72361859365, -4141.152398723651, -27235.645322280565, -4445.672565182754, -30301.56705398167, -34841.921608677105, -27451.60787720774, -12417.64574261257, -23810.709871138322, -36419.775953266144, 0.08, 0.9560000000000001, -0.134, 192.0, 0.0, 0.0, 0.0, 0.0, 0.0, 0.0, 0.0, 0.0, 0.0, 1.6689766617908187E9, 0.0, 2022-11-20 15:37:41.790
44.0, -15715.846802693226, 52825.397589850145, -37338.96909224619, -36668.863793476085, -28659.898478972733, -30370.030447248275, -24602.72158416767, -4169.650872904167, -27080.5912709941, -4294.2394964980485, -30150.11163355251, -34694.78007492782, -27297.358488721668, -12260.624737814038, -23661.333162943505, -36275.763663740596, 0.08, 0.9560000000000001, -0.134, 192.0, 0.0, 0.0, 0.0, 0.0, 0.0, 0.0, 0.0, 0.0, 0.0, 1.6689766617908244E9, 0.0, 2022-11-20 15:37:41.790
46.0, -15684.889636622625, 52899.58302969731, -37320.01481294809, -36633.95036863689, -28632.942275159632, -30340.727310267368, -24573.19492974221, -4146.785038326388, -27220.692005239966, -4425.958326573173, -30297.499036490804, -34839.3735098092, -27441.236667780482, -12396.970378991411, -23811.559237427624, -36423.95572947928, 0.08, 0.9560000000000001, -0.134, 192.0, 0.0, 0.0, 0.0, 0.0, 0.0, 0.0, 0.0, 0.0, 0.0, 1.66897666179083E9, 0.0, 2022-11-20 15:37:41.790
48.0, -15685.180209300544, 52492.758928866264, -37316.61734779088, -36643.8521914306, -28632.47288852607, -30345.24236264734, -24580.77217111256, -4146.293299948371, -27061.838157396098, -4272.424193909668, -30132.274941477175, -34679.5361852093, -27278.091285001196, -12236.75307473577, -23660.573203632022, -36273.528489295066, 0.078, 0.9560000000000001, -0.133, 192.0, 1.0, 48.0, 14.5, 112.0, 125.5, 112.0, 0.0, 0.0, 0.0, 1.6689766617908351E9, 0.0, 2022-11-20 15:37:41.790
50.0, -15707.330788055753, 53181.46087902319, -37348.28976968405, -36654.26810434677, -28666.849871498333, -30371.19273795995, -24609.1588865708, -4176.982245085507, -27213.76296445882, -4413.687218867209, -30288.245414286306, -34826.87888465868, -27441.840164880774, -12397.417413880517, -23820.768156143207, -36426.01208996917, 0.078, 0.9560000000000001, -0.133, 192.0, 0.0, 0.0, 0.0, 0.0, 0.0, 0.0, 0.0, 0.0, 0.0, 1.6689766617908409E9, 0.0, 2022-11-20 15:37:41.790
52.0, -15696.512543739385, 52236.607937408444, -37325.647452550824, -36640.477078017844, -28649.57197303438, -30353.132528440063, -24593.445610218718, -4155.993957041974, -27089.46491354286, -4297.636961655255, -30150.558668441616, -34691.65083070408, -27309.517837705356, -12260.065944202655, -23690.21161677976, -36290.649925547834, 0.078, 0.9560000000000001, -0.133, 192.0, 0.0, 0.0, 0.0, 0.0, 0.0, 0.0, 0.0, 0.0, 0.0, 1.6689766617908463E9, 0.0, 2022-11-20 15:37:41.790
54.0, -15745.64167805215, 53470.26776913021, -37358.05748201102, -36668.3049998647, -28685.312412418418, -30388.135360257074, -24627.107337368412, -4191.130899325717, -27236.44998508096, -4430.83100686443, -30312.295891320216, -34841.027538898896, -27465.220089581024, -12390.086041699176, -23826.400795745947, -36427.464953358765, 0.078, 0.9560000000000001, -0.133, 192.0, 0.0, 0.0, 0.0, 0.0, 0.0, 0.0, 0.0, 0.0, 0.0, 1.6689766617908518E9, 0.0, 2022-11-20 15:37:41.790
56.0, -15673.445543461508, 51977.260646493516, -37273.12085308085, -36594.477187928824, -28600.778114888446, -30304.495132505315, -24542.90831600527, -4105.277848872883, -27089.04023039821, -4294.977104065073, -30154.40316848793, -34692.23197605991, -27294.810389853763, -12261.272938403243, -23662.942488544286, -36270.578059026964, 0.078, 0.9560000000000001, -0.133, 192.0, 0.0, 0.0, 0.0, 0.0, 0.0, 0.0, 0.0, 0.0, 0.0, 1.6689766617908573E9, 0.0, 2022-11-20 15:37:41.790
58.0, -15775.749477833448, 53690.7230246929, -37382.77851137859, -36695.4623693779, -28702.34444169336, -30408.83307562269, -24641.926543942278, -4212.052132135884, -27220.647301751054, -4414.357771200868, -30303.042269115722, -34834.858457429225, -27441.638999180675, -12387.582646320183, -23792.80612382962, -36405.023801925636, 0.08299999999999999, 0.9550000000000001, -0.1305, 192.0, 1.0, 96.0, 14.5, 104.0, 126.0, 0.0, 0.0, 0.0, 0.0, 1.6689766617908628E9, 0.0, 2022-11-20 15:37:41.790
60.0, -15657.911081065069, 51800.14542342966, -37274.216088559166, -36588.598679137074, -28593.200873518097, -30303.243434815817, -24536.42631011323, -4104.495537816946, -27111.88371323153, -4326.671877702699, -30177.917203654913, -34724.194970631004, -27317.07272733125, -12280.76365956827, -23685.249529510682, -36301.8705012644, 0.08299999999999999, 0.9550000000000001, -0.1305, 192.0, 0.0, 0.0, 0.0, 0.0, 0.0, 0.0, 0.0, 0.0, 0.0, 1.6689766617908683E9, 0.0, 2022-11-20 15:37:41.790
62.0, -15757.666916569106, 53854.22603538347, -37388.90288935934, -36687.70631405191, -28705.406630683738, -30410.218883778918, -24645.905154455326, -4211.001600146485, -27193.71344968241, -4397.169279714737, -30276.957783336376, -34811.67969842908, -27425.27752223939, -12377.92669271549, -23784.804199314618, -36393.132673875414, 0.08299999999999999, 0.9550000000000001, -0.1305, 192.0, 0.0, 0.0, 0.0, 0.0, 0.0, 0.0, 0.0, 0.0, 0.0, 1.668976661790874E9, 0.0, 2022-11-20 15:37:41.790
64.0, -15627.020970227835, 51678.663692315065, -37264.02369308755, -36570.00202775026, -28584.97543155854, -30287.261937530275, -24525.47395533013, -4088.961075420508, -27101.60191078209, -4317.440607242657, -30163.41092150342, -34712.795580958795, -27320.760765166375, -12273.76756355376, -23695.55368370458, -36295.813178517004, 0.08299999999999999, 0.9550000000000001, -0.1305, 192.0, 0.0, 0.0, 0.0, 0.0, 0.0, 0.0, 0.0, 0.0, 0.0, 1.6689766617908795E9, 0.0, 2022-11-20 15:37:41.790
66.0, -15767.635794596172, 53964.19661810358, -37396.0777993295, -36711.0638870077, -28721.6787006472, -30424.21107580794, -24660.143215673354, -4222.713914241065, -27174.066266306196, -4375.353977126358, -30252.16969873544, -34792.2113290085, -27413.85578082273, -12359.151227373031, -23773.024829986673, -36376.19005157829, 0.08299999999999999, 0.9550000000000001, -0.1305, 192.0, 0.0, 0.0, 0.0, 0.0, 0.0, 0.0, 0.0, 0.0, 0.0, 1.6689766617908857E9, 0.0, 2022-11-20 15:37:41.790
68.0, -15623.042359714791, 51633.55787200426, -37251.01497781456, -36570.69493182837, -28573.665448864158, -30280.064675815665, -24512.353481334863, -4076.1535258476174, -27129.36277739558, -4342.183988354682, -30187.68491598188, -34739.997653960905, -27343.246620088416, -12292.677139362948, -23711.06579435656, -36317.8743502944, 0.08449999999999999, 0.9545000000000001, -0.13325, 192.0, 1.0, 88.0, 14.5, 104.0, 125.5, 96.0, 0.0, 0.0, 0.0, 1.6689766617908912E9, 0.0, 2022-11-20 15:37:41.790
70.0, -15778.722259846005, 53981.20629563407, -37409.51119774714, -36731.60514016213, -28734.665064175733, -30437.01862538083, -24669.061561711023, -4229.844120722309, -27158.352989954114, -4356.2879391059805, -30238.959817762356, -34778.21913697948, -27394.09683872424, -12337.58179397366, -23743.02878892765, -36358.44276648078, 0.08449999999999999, 0.9545000000000001, -0.13325, 192.0, 0.0, 0.0, 0.0, 0.0, 0.0, 0.0, 0.0, 0.0, 0.0, 1.668976661790898E9, 0.0, 2022-11-20 15:37:41.790
72.0, -15604.043376927779, 51638.09527612868, -37245.44939344518, -36556.70273979935, -28568.435140661615, -30269.984039066323, -24502.764582963537, -4068.062194354796, -27145.903068292508, -4359.037203673984, -30208.15911390294, -34759.48837512593, -27364.190204643037, -12314.425386717963, -23730.869439943963, -36347.40100471985, 0.08449999999999999, 0.9545000000000001, -0.13325, 192.0, 0.0, 0.0, 0.0, 0.0, 0.0, 0.0, 0.0, 0.0, 0.0, 1.6689766617909036E9, 0.0, 2022-11-20 15:37:41.790
74.0, -15767.211111451521, 53890.748785823445, -37408.46066575774, -36722.8656080801, -28731.781689141, -30433.97878813491, -24667.385180876874, -4226.625469520744, -27119.46095460188, -4324.704924190632, -30200.894796954966, -34741.49522083941, -27361.485643563945, -12304.300046479708, -23727.673140486855, -36340.47196393871, 0.08449999999999999, 0.9545000000000001, -0.13325, 192.0, 0.0, 0.0, 0.0, 0.0, 0.0, 0.0, 0.0, 0.0, 0.0, 1.6689766617909093E9, 0.0, 2022-11-20 15:37:41.790
76.0, -15613.788737510293, 51713.39830319861, -37253.160745282265, -36561.64247532398, -28580.192158245107, -30284.71383866237, -24516.80147848147, -4082.613179995201, -27158.397693443025, -4375.644549804277, -30222.531285587705, -34772.988828776935, -27385.42436187558, -12335.145453828032, -23767.481597361755, -36376.502976000666, 0.08449999999999999, 0.9545000000000001, -0.13325, 192.0, 0.0, 0.0, 0.0, 0.0, 0.0, 0.0, 0.0, 0.0, 0.0, 1.6689766617909148E9, 0.0, 2022-11-20 15:37:41.790
78.0, -15775.458905155529, 53750.24572017738, -37408.37125877992, -36723.31264296921, -28738.800136899965, -30440.773718449323, -24678.27048042661, -4235.007373691485, -27106.228721884338, -4309.438682727657, -30185.673258980903, -34723.32325259725, -27349.058073646793, -12294.130002752543, -23724.007454396185, -36330.27956846709, 0.08625, 0.9532500000000002, -0.133625, 192.0, 1.0, 96.0, 14.5, 96.0, 125.5, 104.0, 0.0, 0.0, 0.0, 1.6689766617909205E9, 0.0, 2022-11-20 15:37:41.790
80.0, -15641.61665935715, 51911.971200939566, -37281.480405507136, -36574.1818039634, -28606.23194053554, -30304.18220808294, -24545.344656150897, -4105.724883761988, -27197.267377050804, -4403.606582117865, -30265.46898668635, -34804.14716054763, -27420.673062881597, -12366.393192576552, -23803.6690716349, -36402.05101991308, 0.08625, 0.9532500000000002, -0.133625, 192.0, 0.0, 0.0, 0.0, 0.0, 0.0, 0.0, 0.0, 0.0, 0.0, 1.6689766617909257E9, 0.0, 2022-11-20 15:37:41.790
82.0, -15766.69702132905, 53579.70190998339, -37395.429598740295, -36695.37296240008, -28720.091726790874, -30422.042956595775, -24662.244279652154, -4215.829576948831, -27113.850666743598, -4310.37745599478, -30193.921052684913, -34723.12208689715, -27346.331160823247, -12285.837505559624, -23717.25722757068, -36310.788847302065, 0.08625, 0.9532500000000002, -0.133625, 192.0, 0.0, 0.0, 0.0, 0.0, 0.0, 0.0, 0.0, 0.0, 0.0, 1.6689766617909312E9, 0.0, 2022-11-20 15:37:41.790
84.0, -15641.370790168143, 52137.8579304049, -37273.12085308085, -36563.631780580494, -28592.060934550875, -30301.85762665959, -24537.05215895798, -4102.796805238343, -27201.134228841573, -4403.271305951036, -30271.45925420037, -34804.92947160357, -27421.61183614872, -12347.908299912013, -23785.787676070653, -36388.28234532861, 0.08625, 0.9532500000000002, -0.133625, 192.0, 0.0, 0.0, 0.0, 0.0, 0.0, 0.0, 0.0, 0.0, 0.0, 1.6689766617909367E9, 0.0, 2022-11-20 15:37:41.790
86.0, -15757.711620058015, 53336.358468098464, -37385.34896199095, -36692.847215276626, -28703.99847078305, -30415.02450883681, -24649.280267868075, -4208.744073956499, -27088.995526909297, -4290.104423773816, -30167.143662827453, -34701.6420604756, -27323.532381478835, -12280.875418290547, -23674.67715438332, -36286.447797590234, 0.08625, 0.9532500000000002, -0.133625, 192.0, 0.0, 0.0, 0.0, 0.0, 0.0, 0.0, 0.0, 0.0, 0.0, 1.6689766617909424E9, 0.0, 2022-11-20 15:37:41.790
88.0, -15667.589386414218, 52419.19933786384, -37300.278222594054, -36607.17297877943, -28614.077402839353, -30327.696243249924, -24560.141510980313, -4129.954174751541, -27225.788202975775, -4433.937899343718, -30298.90719639149, -34841.45222204355, -27455.072397598316, -12406.425166896006, -23808.273530992694, -36432.918779005864, 0.082125, 0.950625, -0.1338125, 192.0, 1.0, 56.0, 14.5, 80.0, 125.5, 104.0, 0.0, 0.0, 0.0, 1.668976661790948E9, 0.0, 2022-11-20 15:37:41.790
90.0, -15726.285067353854, 53045.964604135115, -37363.891287313854, -36689.98619198635, -28675.187072180164, -30388.06830502371, -24623.53105825556, -4183.039567832896, -27073.908099401964, -4284.538839404445, -30147.071796306587, -34691.85199640417, -27306.25448301488, -12266.927929750434, -23664.931793800806, -36293.175672671285, 0.082125, 0.950625, -0.1338125, 192.0, 0.0, 0.0, 0.0, 0.0, 0.0, 0.0, 0.0, 0.0, 0.0, 1.6689766617909532E9, 0.0, 2022-11-20 15:37:41.790
92.0, -15669.62339515965, 52700.47369008943, -37328.5084758411, -36631.4469732579, -28636.18327810565, -30339.274446877775, -24578.134665266833, -4141.465323146024, -27215.43934529297, -4423.074951538438, -30292.08991433262, -34835.95369290754, -27452.61370570823, -12406.067538984722, -23818.890609608963, -36436.003319740696, 0.082125, 0.950625, -0.1338125, 192.0, 0.0, 0.0, 0.0, 0.0, 0.0, 0.0, 0.0, 0.0, 0.0, 1.668976661790959E9, 0.0, 2022-11-20 15:37:41.790
94.0, -15703.575694987261, 52738.829283574734, -37357.25281921063, -36667.187412641935, -28671.789607022954, -30368.71169432541, -24614.54565698453, -4169.472058948524, -27071.02472436723, -4279.129717246261, -30147.58588642906, -34689.035676602805, -27312.714137162464, -12251.885205732013, -23685.540102188603, -36289.241765647144, 0.082125, 0.950625, -0.1338125, 192.0, 0.0, 0.0, 0.0, 0.0, 0.0, 0.0, 0.0, 0.0, 0.0, 1.6689766617909644E9, 0.0, 2022-11-20 15:37:41.790
96.0, -15679.72638365345, 52983.64794059371, -37333.33645264345, -36622.3945167535, -28647.984999178054, -30344.750624269323, -24587.477694449153, -4152.127105251206, -27209.270263823306, -4412.077893266427, -30293.833350400135, -34828.86818991521, -27455.921763887618, -12385.570989319205, -23822.980978844284, -36419.53008407713, 0.082125, 0.950625, -0.1338125, 192.0, 0.0, 0.0, 0.0, 0.0, 0.0, 0.0, 0.0, 0.0, 0.0, 1.6689766617909698E9, 0.0, 2022-11-20 15:37:41.790
98.0, -15682.162723799078, 52420.60749776453, -37325.647452550824, -36629.77059242375, -28645.6604177547, -30347.09755743713, -24588.684688649737, -4148.416715671625, -27053.523308458723, -4253.9169495006745, -30128.698662364324, -34662.34769372317, -27289.133046762116, -12219.631638483006, -23659.29915419807, -36259.31277982149, 0.08006250000000001, 0.9503125000000001, -0.13490625, 192.0, 1.0, 56.0, 14.5, 88.0, 125.5, 96.0, 0.0, 0.0, 0.0, 1.668976661790975E9, 0.0, 2022-11-20 15:37:41.790
100.0, -15714.170421859077, 53284.65888317334, -37361.29848495704, -36655.385691569536, -28685.312412418418, -30380.44636016445, -24623.39694778883, -4187.107585323762, -27224.24593260836, -4418.358733458368, -30304.13750459403, -34834.3220155623, -27469.466921027535, -12399.183201692487, -23827.29486552416, -36430.191866182315, 0.08006250000000001, 0.9503125000000001, -0.13490625, 192.0, 0.0, 0.0, 0.0, 0.0, 0.0, 0.0, 0.0, 0.0, 0.0, 1.6689766617909808E9, 0.0, 2022-11-20 15:37:41.790
102.0, -15656.055886275279, 52155.29229108003, -37296.54548127002, -36604.87074910054, -28625.94617914512, -30313.324071565163, -24566.24353721661, -4121.86284325872, -27067.381390021015, -4261.6059495933, -30132.878438577467, -34669.41084497105, -27302.767610879855, -12234.830824712613, -23667.72576185772, -36273.77435848407, 0.08006250000000001, 0.9503125000000001, -0.13490625, 192.0, 0.0, 0.0, 0.0, 0.0, 0.0, 0.0, 0.0, 0.0, 0.0, 1.6689766617909877E9, 0.0, 2022-11-20 15:37:41.790
104.0, -15731.783596489859, 53537.56887168514, -37367.4228629378, -36662.87352596206, -28697.337650935373, -30377.808854318722, -24631.443575792742, -4189.789794658398, -27204.33052829868, -4385.613427831344, -30285.8984811185, -34814.250149041436, -27450.892621385174, -12377.300843870742, -23805.546618169144, -36414.188017152315, 0.08006250000000001, 0.9503125000000001, -0.13490625, 192.0, 0.0, 0.0, 0.0, 0.0, 0.0, 0.0, 0.0, 0.0, 0.0, 1.6689766617909932E9, 0.0, 2022-11-20 15:37:41.790
106.0, -15649.462121660963, 51924.77875051246, -37279.49110025062, -36575.07587374161, -28606.43310623564, -30290.36883000956, -24544.271772417043, -4101.209831382016, -27077.12675060353, -4268.132658974249, -30146.557706184114, -34679.1338538091, -27306.835628370718, -12233.310906089653, -23673.559567160555, -36280.6139922874, 0.08006250000000001, 0.9503125000000001, -0.13490625, 192.0, 0.0, 0.0, 0.0, 0.0, 0.0, 0.0, 0.0, 0.0, 0.0, 1.6689766617909987E9, 0.0, 2022-11-20 15:37:41.790
108.0, -15758.248061924944, 53749.77633354382, -37391.36158124943, -36673.31179062269, -28712.648595887258, -30404.943872087464, -24652.07423592499, -4214.711989726065, -27195.076906094186, -4370.391889857279, -30280.042324071208, -34795.87701509917, -27440.364949746723, -12358.592433761649, -23793.163751740904, -36398.05005765558, 0.07703125, 0.9491562500000001, -0.136453125, 192.0, 1.0, 40.0, 14.5, 80.0, 125.5, 88.0, 0.0, 0.0, 0.0, 1.6689766617910056E9, 0.0, 2022-11-20 15:37:41.791
110.0, -15642.846005302192, 51765.9696061575, -37285.86134742038, -36577.46751039833, -28606.36605100227, -30302.058792359687, -24549.1444527083, -4112.318648376304, -27102.6971462604, -4297.189926766148, -30169.334133784072, -34694.64596446109, -27331.869582160663, -12257.294327890198, -23698.705279672777, -36301.71403905321, 0.07703125, 0.9491562500000001, -0.136453125, 192.0, 0.0, 0.0, 0.0, 0.0, 0.0, 0.0, 0.0, 0.0, 0.0, 1.668976661791011E9, 0.0, 2022-11-20 15:37:41.791
112.0, -15753.30832640032, 53888.781832311375, -37406.78428492359, -36700.64797409153, -28726.663139660734, -30423.920503130023, -24666.401704120843, -4228.83829222182, -27178.581318686167, -4364.312215365436, -30265.536041919717, -34785.81873009428, -27434.933475844085, -12358.950061672935, -23796.18123724237, -36396.19486286579, 0.07703125, 0.9491562500000001, -0.136453125, 192.0, 0.0, 0.0, 0.0, 0.0, 0.0, 0.0, 0.0, 0.0, 0.0, 1.6689766617910168E9, 0.0, 2022-11-20 15:37:41.791
114.0, -15611.665321787039, 51625.935927145, -37260.715634908156, -36559.85433576755, -28579.588661144815, -30276.66721065846, -24522.389414595298, -4083.5966567512346, -27092.258881599773, -4296.832298854863, -30161.55572671363, -34697.0376011178, -27327.26512280287, -12265.698583805393, -23709.165896077862, -36308.66543157881, 0.07703125, 0.9491562500000001, -0.136453125, 192.0, 0.0, 0.0, 0.0, 0.0, 0.0, 0.0, 0.0, 0.0, 0.0, 1.6689766617910223E9, 0.0, 2022-11-20 15:37:41.791
116.0, -15772.620233609705, 53939.6320509472, -37415.0320786276, -36718.95405280043, -28735.961465354143, -30429.530790988305, -24676.258823425633, -4233.353344601792, -27149.792271827733, -4339.568834253411, -30240.03270149621, -34764.115186228184, -27400.6682515941, -12312.413729716985, -23770.007344485206, -36367.204650307256, 0.07703125, 0.9491562500000001, -0.136453125, 192.0, 0.0, 0.0, 0.0, 0.0, 0.0, 0.0, 0.0, 0.0, 0.0, 1.6689766617910278E9, 0.0, 2022-11-20 15:37:41.791
118.0, -15620.315446891243, 51586.73096737039, -37255.820602872445, -36556.300408399155, -28582.226166990542, -30267.458291942872, -24518.679025015717, -4077.1817060925614, -27123.61837907057, -4328.281203303481, -30193.898700940455, -34727.77124974385, -27348.83455620224, -12297.773337098759, -23727.94136142032, -36321.92001604081, 0.078515625, 0.9475781250000002, -0.1342265625, 192.0, 1.0, 64.0, 14.5, 72.0, 125.5, 112.0, 0.0, 0.0, 0.0, 1.6689766617910342E9, 0.0, 2022-11-20 15:37:41.791
120.0, -15775.369498177708, 53922.60002167225, -37407.387782023885, -36707.4652561504, -28732.96633159713, -30419.025471094308, -24667.899270999347, -4226.2678416094595, -27144.338446180638, -4339.054744130939, -30232.120183959032, -34753.16283144508, -27387.547777598833, -12334.854881150113, -23747.70030351881, -36343.936484329286, 0.078515625, 0.9475781250000002, -0.1342265625, 192.0, 0.0, 0.0, 0.0, 0.0, 0.0, 0.0, 0.0, 0.0, 0.0, 1.6689766622712264E9, 0.0, 2022-11-20 15:37:42.271
122.0, -15626.953914994469, 51628.8863574131, -37261.16266979727, -36546.48799258328, -28582.829664090834, -30269.67111464395, -24518.14258314879, -4081.920275917086, -27137.007073999295, -4342.228691843592, -30209.969605203823, -34736.93546497053, -27361.37388484167, -12304.836488346637, -23728.58956200952, -36330.793658589566, 0.078515625, 0.9475781250000002, -0.1342265625, 192.0, 0.0, 0.0, 0.0, 0.0, 0.0, 0.0, 0.0, 0.0, 0.0, 1.6689766622713184E9, 0.0, 2022-11-20 15:37:42.271
124.0, -15788.154696006144, 53851.70028826002, -37414.1827123383, -36709.72278234038, -28732.40753798575, -30425.30631128625, -24668.703933799738, -4227.072504409851, -27133.810774542188, -4325.308421290925, -30226.912227500943, -34740.6011510612, -27375.70135303752, -12308.122194781567, -23731.31647483307, -36329.00551903314, 0.078515625, 0.9475781250000002, -0.1342265625, 192.0, 0.0, 0.0, 0.0, 0.0, 0.0, 0.0, 0.0, 0.0, 0.0, 1.668976662271324E9, 0.0, 2022-11-20 15:37:42.271
126.0, -15631.37956039662, 51738.208739544, -37256.35704473937, -36557.082719455095, -28571.497329651993, -30277.203652525386, -24512.845219712883, -4078.768679948888, -27157.838899831644, -4365.899189221763, -30235.49529737178, -34766.707988584996, -27376.103684437716, -12322.24849727732, -23744.548707550613, -36351.08904255498, 0.078515625, 0.9475781250000002, -0.1342265625, 192.0, 0.0, 0.0, 0.0, 0.0, 0.0, 0.0, 0.0, 0.0, 0.0, 1.6689766622713296E9, 0.0, 2022-11-20 15:37:42.271
128.0, -15780.800972080347, 53684.53159147878, -37399.005877853146, -36721.90448306852, -28720.047023301962, -30430.35780553315, -24664.367695375407, -4225.351420086792, -27112.88954173202, -4317.954697365129, -30205.722773757312, -34735.86258123667, -27346.062939889784, -12297.214543487376, -23711.423422267846, -36332.80531559054, 0.078515625, 0.9475781250000002, -0.1342265625, 192.0, 0.0, 0.0, 0.0, 0.0, 0.0, 0.0, 0.0, 0.0, 0.0, 1.668976662271335E9, 0.0, 2022-11-20 15:37:42.271
130.0, -15628.04915047278, 51914.251078874004, -37260.76033839707, -36571.0302079952, -28574.98420178702, -30283.70801016188, -24522.411766339752, -4089.363406820704, -27171.04878080473, -4388.25093367707, -30252.59438188009, -34791.78664586385, -27391.213463689503, -12352.535111014262, -23767.8615770175, -36388.88584242891, 0.078, 0.9500000000000001, -0.134, 192.0, 1.0, 56.0, 14.5, 88.0, 125.5, 104.0, 0.0, 0.0, 0.0, 1.6689766622713404E9, 0.0, 2022-11-20 15:37:42.271
132.0, -15763.098390471745, 53450.28530958716, -37395.40724699584, -36712.53910214175, -28703.529084149493, -30406.933177343988, -24653.236526636665, -4208.878184423231, -27072.008201123263, -4287.511621417001, -30168.037732605666, -34699.384534285615, -27308.10967780467, -12265.743287294305, -23681.49443644219, -36295.50025409464, 0.078, 0.9500000000000001, -0.134, 192.0, 0.0, 0.0, 0.0, 0.0, 0.0, 0.0, 0.0, 0.0, 0.0, 1.668976662271346E9, 0.0, 2022-11-20 15:37:42.271
134.0, -15667.119999780656, 52152.587730000945, -37301.753437728104, -36604.691935144896, -28603.99676609001, -30297.38727776853, -24547.982161996624, -4111.938668720564, -27197.915577640008, -4411.653210121776, -30286.300812518697, -34818.83225665477, -27423.4223274496, -12374.484524069372, -23794.32604245258, -36407.750714749185, 0.078, 0.9500000000000001, -0.134, 192.0, 0.0, 0.0, 0.0, 0.0, 0.0, 0.0, 0.0, 0.0, 0.0, 1.6689766622713597E9, 0.0, 2022-11-20 15:37:42.271
136.0, -15776.64354761166, 53198.26939085357, -37403.99031686668, -36715.623642876584, -28708.35706095184, -30393.902110326544, -24652.431863836275, -4204.653704721178, -27102.85360847159, -4302.442586713146, -30191.9764509173, -34718.13764788362, -27330.103794348695, -12272.828790286636, -23692.558549947567, -36297.221338417694, 0.078, 0.9500000000000001, -0.134, 192.0, 0.0, 0.0, 0.0, 0.0, 0.0, 0.0, 0.0, 0.0, 0.0, 1.6689766622713652E9, 0.0, 2022-11-20 15:37:42.271
138.0, -15686.409555245586, 52437.28189912819, -37325.66980429528, -36623.422696998445, -28628.650740224213, -30315.022804143766, -24569.998630285103, -4129.708305562533, -27224.804726219743, -4426.427713206735, -30310.37364129706, -34841.161649365626, -27448.165708561624, -12390.443669610462, -23811.156906027427, -36404.26384261416, 0.078, 0.9500000000000001, -0.134, 192.0, 0.0, 0.0, 0.0, 0.0, 0.0, 0.0, 0.0, 0.0, 0.0, 1.6689766622713704E9, 0.0, 2022-11-20 15:37:42.271
140.0, -15747.49687284194, 52900.61120994225, -37384.052560812546, -36697.183453700956, -28688.39695315325, -30385.34139220016, -24633.38817756035, -4187.509916723957, -27082.602927995078, -4290.998493552029, -30168.328305283583, -34699.56334824125, -27313.45174472949, -12260.870607003048, -23684.869549854942, -36279.3622945979, 0.078, 0.9560000000000001, -0.13, 192.0, 1.0, 56.0, 14.5, 112.0, 125.5, 120.0, 0.0, 0.0, 0.0, 1.668976662271376E9, 0.0, 2022-11-20 15:37:42.271
142.0, -15700.58056123025, 52733.68838235002, -37340.37725214687, -36631.84930465809, -28642.62058050878, -30342.38133935706, -24585.28722349253, -4147.276776704404, -27228.135136143585, -4432.775608632041, -30314.86634193258, -34839.90995167613, -27463.16372909114, -12404.994655250866, -23830.446461492356, -36431.98000573874, 0.078, 0.9560000000000001, -0.13, 192.0, 0.0, 0.0, 0.0, 0.0, 0.0, 0.0, 0.0, 0.0, 0.0, 1.6689766622713811E9, 0.0, 2022-11-20 15:37:42.271
144.0, -15716.427948049064, 52587.776194545775, -37342.098336469935, -36645.57327575365, -28648.990827678543, -30351.366740628095, -24594.742011397127, -4151.30009070636, -27063.894517885987, -4271.12779273126, -30145.127194538974, -34671.95894383895, -27292.709325874966, -12237.580089280616, -23660.796721076575, -36259.08926237694, 0.078, 0.9560000000000001, -0.13, 192.0, 0.0, 0.0, 0.0, 0.0, 0.0, 0.0, 0.0, 0.0, 0.0, 1.6689766622713864E9, 0.0, 2022-11-20 15:37:42.271
146.0, -15724.943962686535, 53036.509816230515, -37352.42484240828, -36644.41098504198, -28660.367865606295, -30360.396845388037, -24601.849866133914, -4167.259236247449, -27224.46945005291, -4427.031210307027, -30311.55828375319, -34834.21025684002, -27458.849842411262, -12404.391158150573, -23816.789545630163, -36416.08791543102, 0.078, 0.9560000000000001, -0.13, 192.0, 0.0, 0.0, 0.0, 0.0, 0.0, 0.0, 0.0, 0.0, 0.0, 1.6689766622713919E9, 0.0, 2022-11-20 15:37:42.271
148.0, -15703.86626766518, 52310.01106619967, -37321.24415889313, -36634.24094131481, -28633.76928970448, -30339.52031606678, -24581.107447279388, -4141.53237837939, -27067.44844525438, -4277.565095134389, -30143.719034638292, -34675.31170550724, -27293.223415997436, -12240.239946870799, -23648.078578481505, -36260.65388448881, 0.078, 0.9560000000000001, -0.13, 192.0, 0.0, 0.0, 0.0, 0.0, 0.0, 0.0, 0.0, 0.0, 0.0, 1.668976662271397E9, 0.0, 2022-11-20 15:37:42.271
150.0, -15751.184910677066, 53333.83272097501, -37366.75231060413, -36673.624715045065, -28678.24926117054, -30381.832168320678, -24624.626293733872, -4188.873373135731, -27229.967979188918, -4429.4451987082, -30313.68169947645, -34838.39003305317, -27468.30463031586, -12390.331910888186, -23808.117068781507, -36432.4493923723, 0.08, 0.9560000000000001, -0.132, 192.0, 1.0, 64.0, 14.5, 112.0, 125.5, 112.0, 0.0, 0.0, 0.0, 1.6689766622714024E9, 0.0, 2022-11-20 15:37:42.271
152.0, -15691.52810472585, 52059.00097596657, -37298.91476618228, -36617.566539951156, -28613.116277827776, -30315.022804143766, -24564.47774940464, -4121.058180458329, -27078.847834926586, -4286.058758027406, -30146.624761417483, -34676.42929273001, -27299.012517811363, -12263.776333782236, -23655.924040785318, -36276.2106986297, 0.08, 0.9560000000000001, -0.132, 192.0, 0.0, 0.0, 0.0, 0.0, 0.0, 0.0, 0.0, 0.0, 0.0, 1.6689766622714078E9, 0.0, 2022-11-20 15:37:42.271
154.0, -15787.1265157612, 53594.14113690152, -37400.525796476104, -36708.716953839896, -28704.959595794633, -30412.387002991083, -24654.197651648243, -4220.45638805108, -27230.951455944953, -4426.4947684401, -30313.43583028744, -34832.01978588341, -27464.907165158653, -12411.677826843004, -23814.152039784436, -36431.33180514954, 0.08, 0.9560000000000001, -0.132, 192.0, 0.0, 0.0, 0.0, 0.0, 0.0, 0.0, 0.0, 0.0, 0.0, 1.668976662271413E9, 0.0, 2022-11-20 15:37:42.271
156.0, -15669.802209115292, 51833.36011569025, -37286.48719626513, -36600.86978684304, -28584.483693180526, -30295.93441437893, -24532.358292622364, -4095.8230609682873, -27096.148085134995, -4307.292915259947, -30168.194194816853, -34695.62944121712, -27311.194218539506, -12261.742325036803, -23674.610099149955, -36296.28256515057, 0.08, 0.9560000000000001, -0.132, 192.0, 0.0, 0.0, 0.0, 0.0, 0.0, 0.0, 0.0, 0.0, 0.0, 1.6689766622714186E9, 0.0, 2022-11-20 15:37:42.271
158.0, -15782.365594192219, 53758.11353422565, -37408.080686101996, -36716.24949172133, -28703.14910449375, -30410.196532034464, -24648.63206727887, -4213.728512970032, -27191.925310125986, -4394.86705003584, -30286.881957874535, -34806.29292801535, -27430.61958916421, -12375.825628736691, -23785.810027815107, -36406.81194148206, 0.08, 0.9560000000000001, -0.132, 192.0, 0.0, 0.0, 0.0, 0.0, 0.0, 0.0, 0.0, 0.0, 0.0, 1.668976662271424E9, 0.0, 2022-11-20 15:37:42.271
160.0, -15646.377580926131, 51666.929026476035, -37274.23844030362, -36582.586059878595, -28574.6936291091, -30278.0977223036, -24524.624589040828, -4088.7822614648658, -27098.94205319191, -4313.350238007336, -30173.469206508307, -34702.804351187275, -27318.682052932032, -12269.43132512943, -23693.944358103796, -36309.85007403494, 0.084, 0.9560000000000001, -0.136, 192.0, 1.0, 80.0, 14.5, 112.0, 125.5, 96.0, 0.0, 0.0, 0.0, 1.6689766622714293E9, 0.0, 2022-11-20 15:37:42.271
162.0, -15778.185817979076, 53863.52436107688, -37404.660869200336, -36704.380715415566, -28709.92168306371, -30403.49100869787, -24658.623297050395, -4217.662419994166, -27166.734894124857, -4364.62513978781, -30255.41070168146, -34768.36201767469, -27406.747926085944, -12349.15999760151, -23766.498120605724, -36374.826595166516, 0.084, 0.9560000000000001, -0.136, 192.0, 0.0, 0.0, 0.0, 0.0, 0.0, 0.0, 0.0, 0.0, 0.0, 1.6689766622714348E9, 0.0, 2022-11-20 15:37:42.271
164.0, -15643.024819257835, 51578.282007966285, -37268.09171057841, -36569.39853064997, -28579.678068122634, -30266.765387864758, -24532.134775177812, -4093.006741166919, -27111.63784404252, -4322.805025911931, -30182.0746281236, -34706.80531344478, -27334.03770137283, -12273.901674020492, -23703.957939619773, -36301.6693355643, 0.084, 0.9560000000000001, -0.136, 192.0, 0.0, 0.0, 0.0, 0.0, 0.0, 0.0, 0.0, 0.0, 0.0, 1.6689766622714403E9, 0.0, 2022-11-20 15:37:42.271
166.0, -15800.783431623393, 53925.88572810718, -37417.669584473326, -36726.48659068187, -28735.06739557593, -30419.047822838766, -24687.233529953188, -4248.083144197839, -27161.392827200038, -4360.445363574668, -30252.66143711346, -34769.859584553196, -27406.770277830397, -12338.945250385434, -23761.334867636546, -36358.86744962543, 0.084, 0.9560000000000001, -0.136, 192.0, 0.0, 0.0, 0.0, 0.0, 0.0, 0.0, 0.0, 0.0, 0.0, 1.6689766622714477E9, 0.0, 2022-11-20 15:37:42.271
168.0, -15645.550566381286, 51577.96908354391, -37262.3473122534, -36561.553068346155, -28570.200928473587, -30252.884954558012, -24521.115365161346, -4084.3789678071703, -27137.52116412177, -4346.162598867726, -30208.8296662366, -34734.43206959153, -27359.451634818513, -12294.420575430462, -23719.91708516086, -36315.34860317095, 0.084, 0.9560000000000001, -0.136, 192.0, 0.0, 0.0, 0.0, 0.0, 0.0, 0.0, 0.0, 0.0, 0.0, 1.668976662271453E9, 0.0, 2022-11-20 15:37:42.271
170.0, -15814.194478296577, 53907.222021487, -37424.48686653219, -36728.25237849383, -28730.217067029127, -30418.041994338277, -24678.44929438225, -4239.2989086269035, -27150.32871369466, -4342.385154054779, -30242.156117219463, -34750.145345943616, -27391.86166427871, -12315.520622196273, -23733.484594045236, -36326.23390272068, 0.076, 0.9540000000000001, -0.134, 192.0, 1.0, 48.0, 14.5, 104.0, 125.5, 104.0, 0.0, 0.0, 0.0, 1.668976662271458E9, 0.0, 2022-11-20 15:37:42.271
172.0, -15647.584575126717, 51651.88630245761, -37258.45810871817, -36555.831021765596, -28570.737370340514, -30265.267820986253, -24516.84618197038, -4088.2458195979384, -27161.638696389044, -4368.24612238957, -30232.164887447943, -34750.950008744, -27382.675097307576, -12314.20186927341, -23735.78682372413, -36338.393251704365, 0.076, 0.9540000000000001, -0.134, 192.0, 0.0, 0.0, 0.0, 0.0, 0.0, 0.0, 0.0, 0.0, 0.0, 1.6689766622714634E9, 0.0, 2022-11-20 15:37:42.271
174.0, -15797.631835655195, 53801.07358706875, -37409.60060472496, -36715.33307019866, -28727.31134024994, -30428.50261074336, -24677.55522460404, -4243.903367984697, -27123.730137792845, -4317.954697365129, -30208.136762158487, -34716.52832228283, -27367.27474537787, -12289.950226539402, -23713.16685833536, -36329.161981244324, 0.076, 0.9540000000000001, -0.134, 192.0, 0.0, 0.0, 0.0, 0.0, 0.0, 0.0, 0.0, 0.0, 0.0, 1.6689766622714689E9, 0.0, 2022-11-20 15:37:42.271
176.0, -15632.944182508492, 51791.24942913645, -37258.189887784705, -36553.774661275704, -28574.872443064745, -30273.00152456779, -24528.469089087142, -4097.7229592469885, -27166.198452257926, -4374.594017814877, -30238.445727639883, -34753.0510727228, -27397.5166556259, -12323.991933344834, -23763.03360021515, -36379.00637137966, 0.076, 0.9540000000000001, -0.134, 192.0, 0.0, 0.0, 0.0, 0.0, 0.0, 0.0, 0.0, 0.0, 0.0, 1.668976662271474E9, 0.0, 2022-11-20 15:37:42.271
178.0, -15774.631890610683, 53627.601698351114, -37401.084590087485, -36709.49926489583, -28714.97317731061, -30412.07407856871, -24671.855529767934, -4229.240623622015, -27082.669983228447, -4283.957694048607, -30173.40215127494, -34680.31849626524, -27332.473079260955, -12257.406086612475, -23695.30781451557, -36308.17369320079, 0.076, 0.9540000000000001, -0.134, 192.0, 0.0, 0.0, 0.0, 0.0, 0.0, 0.0, 0.0, 0.0, 0.0, 1.6689766622714794E9, 0.0, 2022-11-20 15:37:42.271
180.0, -15640.521423878841, 51987.5200971985, -37275.1995653152, -36569.867917283525, -28580.37097220075, -30272.57684142314, -24535.018150212545, -4100.807499981821, -27174.066266306196, -4379.042014961483, -30253.98019003632, -34767.87027929667, -27410.547722643343, -12339.526395741272, -23782.4125626579, -36389.53404301811, 0.08, 0.9520000000000001, -0.13, 192.0, 1.0, 64.0, 14.5, 96.0, 125.5, 120.0, 0.0, 0.0, 0.0, 1.6689766622714849E9, 0.0, 2022-11-20 15:37:42.271
182.0, -15780.309233702332, 53403.92779158685, -37405.04084885608, -36719.84812257864, -28711.44160168667, -30410.30829075674, -24669.620355322404, -4229.307678855381, -27073.706933701866, -4273.094746243328, -30163.142700569955, -34671.556612438755, -27319.486715732422, -12223.878469929514, -23685.58480567751, -36295.99199247265, 0.08, 0.9520000000000001, -0.13, 192.0, 0.0, 0.0, 0.0, 0.0, 0.0, 0.0, 0.0, 0.0, 0.0, 1.66897666227149E9, 0.0, 2022-11-20 15:37:42.271
184.0, -15669.66809864856, 52261.12780107591, -37295.740818469625, -36597.09234203009, -28605.628443435246, -30305.255091816794, -24560.745008080605, -4132.949308508552, -27205.269301565804, -4415.475358423634, -30285.540853207214, -34800.77204713489, -27444.09769107076, -12387.426184108996, -23808.85467634853, -36422.05583120058, 0.08, 0.9520000000000001, -0.13, 192.0, 0.0, 0.0, 0.0, 0.0, 0.0, 0.0, 0.0, 0.0, 0.0, 1.6689766622714953E9, 0.0, 2022-11-20 15:37:42.271
186.0, -15738.243250637443, 53124.687448106706, -37358.39275817785, -36672.46242433339, -28677.6681158147, -30375.193700217453, -24630.996540903634, -4196.204745317072, -27051.958686346854, -4261.695356571121, -30135.314778723096, -34643.862801058625, -27296.732639876922, -12231.522766533228, -23655.499357640667, -36265.4595095467, 0.08, 0.9520000000000001, -0.13, 192.0, 0.0, 0.0, 0.0, 0.0, 0.0, 0.0, 0.0, 0.0, 0.0, 1.6689766622715008E9, 0.0, 2022-11-20 15:37:42.271
188.0, -15679.52521795335, 52537.93180441044, -37302.82632146196, -36598.23228099731, -28618.346586030315, -30314.46401053238, -24570.378609940843, -4141.800599312854, -27193.154656071027, -4403.293657695492, -30274.56614667966, -34782.73418935945, -27437.48157471199, -12361.632271007571, -23793.52137965219, -36401.22400536823, 0.08, 0.9520000000000001, -0.13, 192.0, 0.0, 0.0, 0.0, 0.0, 0.0, 0.0, 0.0, 0.0, 0.0, 1.668976662271506E9, 0.0, 2022-11-20 15:37:42.271
190.0, -15729.727235999972, 52816.94863044604, -37338.164429445795, -36652.32350257916, -28655.249316126028, -30358.07226396469, -24610.231770304654, -4176.602265429767, -27047.823613622622, -4256.487400113035, -30127.357557697007, -34635.5256003768, -27287.7919420948, -12216.07771111461, -23648.480909881702, -36259.1563176103, 0.082, 0.9500000000000001, -0.14, 192.0, 1.0, 72.0, 14.5, 88.0, 125.5, 80.0, 0.0, 0.0, 0.0, 1.6689766622715113E9, 0.0, 2022-11-20 15:37:42.271
192.0, -15722.619381263183, 52844.329517403785, -37336.66686256729, -36636.25259831579, -28652.500051558025, -30352.551383084225, -24603.705060923705, -4177.250466018971, -27207.86210392262, -4416.011800290561, -30288.8489113866, -34797.84396861124, -27445.572906204812, -12377.993747948856, -23803.42320244589, -36414.947976463794, 0.082, 0.9500000000000001, -0.14, 192.0, 0.0, 0.0, 0.0, 0.0, 0.0, 0.0, 0.0, 0.0, 0.0, 1.6689766622715166E9, 0.0, 2022-11-20 15:37:42.271
194.0, -15730.822471478281, 52540.41284804498, -37334.56579858849, -36648.99309265531, -28656.501013815527, -30354.09365345164, -24610.924674382768, -4175.864657862742, -27066.97905862082, -4278.816792823886, -30141.05917704811, -34650.8812488176, -27301.180637023528, -12231.478063044318, -23663.4342269223, -36272.343846838936, 0.082, 0.9500000000000001, -0.14, 192.0, 0.0, 0.0, 0.0, 0.0, 0.0, 0.0, 0.0, 0.0, 0.0, 1.668976662271522E9, 0.0, 2022-11-20 15:37:42.271
196.0, -15733.571736046284, 53155.24228277711, -37342.992406248144, -36640.9464646514, -28666.738112776056, -30356.909973253012, -24621.139421598844, -4188.0016551019735, -27223.53067678579, -4424.974849817139, -30303.33284179364, -34804.75065764793, -27464.638944225186, -12389.504896343338, -23820.23171427628, -36425.63211031343, 0.082, 0.9500000000000001, -0.14, 192.0, 0.0, 0.0, 0.0, 0.0, 0.0, 0.0, 0.0, 0.0, 0.0, 1.6689766622715273E9, 0.0, 2022-11-20 15:37:42.271
198.0, -15692.019843103868, 52257.05978358505, -37299.38415281584, -36603.4402374554, -28633.32225481537, -30317.056812889197, -24588.885854349835, -4148.684936605088, -27056.20551779336, -4261.7847635489425, -30126.15056349642, -34628.976539251395, -27291.88231133012, -12212.568487235128, -23654.76175007364, -36259.02220714357, 0.082, 0.9500000000000001, -0.14, 192.0, 0.0, 0.0, 0.0, 0.0, 0.0, 0.0, 0.0, 0.0, 0.0, 1.668976662271534E9, 0.0, 2022-11-20 15:37:42.271
200.0, -15728.25202086592, 53417.49530047123, -37351.530772630074, -36641.23703732932, -28679.72447630459, -30362.63201983357, -24631.868258937393, -4198.596381973789, -27188.684307179967, -4386.194573187181, -30270.542832677704, -34765.523346128866, -27444.544725959866, -12356.938404671957, -23801.74682161174, -36402.67686875783, 0.083, 0.9520000000000001, -0.139, 192.0, 1.0, 80.0, 14.5, 104.0, 125.5, 88.0, 0.0, 0.0, 0.0, 1.6689766622715392E9, 0.0, 2022-11-20 15:37:42.271
202.0, -15669.176360270545, 51999.65709443773, -37293.7515132131, -36598.50050193078, -28616.22317030706, -30308.540798251724, -24574.37957219834, -4136.883215532686, -27047.197764777873, -4259.638996081233, -30115.801705813614, -34622.069850214706, -27290.898834574087, -12207.002902865757, -23665.177662989816, -36270.5110037936, 0.083, 0.9520000000000001, -0.139, 192.0, 0.0, 0.0, 0.0, 0.0, 0.0, 0.0, 0.0, 0.0, 0.0, 1.6689766622715447E9, 0.0, 2022-11-20 15:37:42.271
204.0, -15763.657184083128, 53650.42282943998, -37389.618145181914, -36688.242755918836, -28704.289043460973, -30401.38994471907, -24657.773930761094, -4226.1560828871825, -27197.71441193991, -4393.5035936240665, -30277.47187345885, -34775.156947989104, -27448.076301583806, -12371.936425201468, -23810.151077526938, -36423.061659701074, 0.083, 0.9520000000000001, -0.139, 192.0, 0.0, 0.0, 0.0, 0.0, 0.0, 0.0, 0.0, 0.0, 0.0, 1.66897666227155E9, 0.0, 2022-11-20 15:37:42.271
206.0, -15649.61858387215, 51793.39519660416, -37270.97508561314, -36578.80861506565, -28586.47299843705, -30285.406742740484, -24539.734368292615, -4106.328380862282, -27072.7905121792, -4283.756528348509, -30138.332264224562, -34644.645112114566, -27301.761782379366, -12232.573298522628, -23673.87249158293, -36288.30299238003, 0.083, 0.9520000000000001, -0.139, 192.0, 0.0, 0.0, 0.0, 0.0, 0.0, 0.0, 0.0, 0.0, 0.0, 1.6689766622715552E9, 0.0, 2022-11-20 15:37:42.271
208.0, -15768.954547519035, 53816.67510469855, -37391.719209160714, -36689.44975011942, -28706.7253836066, -30397.076058039198, -24654.242355137154, -4215.494300782001, -27177.016696574297, -4371.129497424305, -30262.295038973694, -34752.62638957815, -27425.121060028203, -12341.24748006433, -23780.669126590386, -36388.37175230643, 0.083, 0.9520000000000001, -0.139, 192.0, 0.0, 0.0, 0.0, 0.0, 0.0, 0.0, 0.0, 0.0, 0.0, 1.6689766622715607E9, 0.0, 2022-11-20 15:37:42.271
210.0, -15631.513670863353, 51657.36247984916, -37250.32207373644, -36553.171164175415, -28566.31172493836, -30262.585611651615, -24517.762603493047, -4077.2487613259273, -27081.552396005678, -4283.46595567059, -30147.697645151336, -34643.39341442507, -27309.383727238623, -12226.337161819598, -23678.901634085374, -36279.87638472037, 0.0845, 0.9550000000000001, -0.1355, 192.0, 1.0, 88.0, 14.5, 120.0, 125.5, 112.0, 0.0, 0.0, 0.0, 1.668976662271566E9, 0.0, 2022-11-20 15:37:42.271
212.0, -15778.275224956898, 53917.928507081095, -37392.36740974992, -36699.01629674629, -28714.392031954772, -30409.503627956346, -24664.188881419766, -4219.852890950786, -27146.595972370622, -4335.679630718188, -30230.667320569435, -34713.354374570175, -27392.196940445538, -12303.67419763496, -23753.824681499565, -36355.872315868415, 0.0845, 0.9550000000000001, -0.1355, 192.0, 0.0, 0.0, 0.0, 0.0, 0.0, 0.0, 0.0, 0.0, 0.0, 1.6689766622715712E9, 0.0, 2022-11-20 15:37:42.271
214.0, -15637.593345355195, 51609.57445020371, -37251.46201270366, -36553.439385108875, -28570.357390684774, -30264.016123296755, -24522.970559951136, -4078.388700293148, -27101.22193112635, -4306.644714670743, -30166.9201453829, -34663.644094901574, -27324.31469253477, -12244.106798661567, -23708.20477106628, -36309.20187344574, 0.0845, 0.9550000000000001, -0.1355, 192.0, 0.0, 0.0, 0.0, 0.0, 0.0, 0.0, 0.0, 0.0, 0.0, 1.6689766622715766E9, 0.0, 2022-11-20 15:37:42.271
216.0, -15792.312120474831, 53969.3375193283, -37408.68418320229, -36699.68684907995, -28721.566941924924, -30412.945796602464, -24672.45902686823, -4221.953954929585, -27147.17711772646, -4332.259813816526, -30231.04730022518, -34715.790714715804, -27387.681888065566, -12293.727671352348, -23755.925745478362, -36354.620618178924, 0.0845, 0.9550000000000001, -0.1355, 192.0, 0.0, 0.0, 0.0, 0.0, 0.0, 0.0, 0.0, 0.0, 0.0, 1.668976662271582E9, 0.0, 2022-11-20 15:37:42.271
218.0, -15622.215345169943, 51630.138055102594, -37249.13743128031, -36533.76984998821, -28557.236916689508, -30248.727530089323, -24507.525504532518, -4059.769697161877, -27123.216047670372, -4317.0159240980065, -30186.924956670402, -34682.37485675512, -27343.447785788514, -12249.18064465292, -23720.006492138684, -36318.76842007261, 0.0845, 0.9550000000000001, -0.1355, 192.0, 0.0, 0.0, 0.0, 0.0, 0.0, 0.0, 0.0, 0.0, 0.0, 1.6689766622715871E9, 0.0, 2022-11-20 15:37:42.271
220.0, -15784.064326770822, 53910.99946629995, -37406.203139567755, -36705.83357880516, -28710.435773186182, -30405.525017443302, -24660.322029629, -4210.576917001834, -27114.185942910426, -4294.842993598341, -30197.29616609766, -34687.493406235386, -27355.584783027745, -12255.796761011692, -23717.234875826227, -36319.23780670617, 0.08225, 0.9575, -0.13075, 192.0, 1.0, 64.0, 15.0, 0.0, 126.0, 8.0, 0.0, 0.0, 0.0, 1.6689766622715926E9, 0.0, 2022-11-20 15:37:42.271
222.0, -15638.688580833505, 51727.94928883902, -37268.85166988989, -36570.44906263937, -28570.98323952952, -30270.60988791107, -24522.970559951136, -4079.550991004824, -27152.094501506628, -4340.798180198452, -30215.334023873096, -34720.573988029246, -27370.806321001808, -12278.036746744723, -23744.16872789487, -36357.05695832455, 0.08225, 0.9575, -0.13075, 192.0, 0.0, 0.0, 0.0, 0.0, 0.0, 0.0, 0.0, 0.0, 0.0, 1.668976662271598E9, 0.0, 2022-11-20 15:37:42.271
224.0, -15798.660015900137, 53815.66927619807, -37422.206988597754, -36738.55653268773, -28727.177229783207, -30429.441384010483, -24680.371544405407, -4227.631298021233, -27115.951730722398, -4299.402749467225, -30194.815122463126, -34696.858787162164, -27355.160099883095, -12263.686926804416, -23729.774204465655, -36342.729490128695, 0.08225, 0.9575, -0.13075, 192.0, 0.0, 0.0, 0.0, 0.0, 0.0, 0.0, 0.0, 0.0, 0.0, 1.668976662271603E9, 0.0, 2022-11-20 15:37:42.271
226.0, -15652.501958906885, 51908.886660204735, -37275.06545484847, -36581.893155800484, -28578.135797755218, -30275.37080948005, -24529.921952476736, -4082.56847650629, -27172.971030827885, -4370.727166024109, -30241.485564885807, -34756.4038343911, -27398.65659459312, -12291.760717840281, -23783.820722558587, -36389.981077907214, 0.08225, 0.9575, -0.13075, 192.0, 0.0, 0.0, 0.0, 0.0, 0.0, 0.0, 0.0, 0.0, 0.0, 1.6689766622716084E9, 0.0, 2022-11-20 15:37:42.271
228.0, -15775.436553411075, 53622.59490759312, -37388.45585447024, -36700.82678804717, -28697.896444546754, -30386.123703256097, -24651.627201035884, -4193.008445859962, -27087.20738735287, -4280.359063191302, -30169.49059599526, -34682.799539899774, -27325.387576268626, -12234.875528201525, -23701.58865470751, -36302.49635010915, 0.08225, 0.9575, -0.13075, 192.0, 0.0, 0.0, 0.0, 0.0, 0.0, 0.0, 0.0, 0.0, 0.0, 1.6689766622716138E9, 0.0, 2022-11-20 15:37:42.271
230.0, -15646.28817394831, 52111.86285160337, -37263.3978442428, -36556.14394618797, -28577.353486699285, -30262.831480840625, -24529.51962107654, -4078.634569482156, -27171.71933313839, -4362.479372320101, -30241.373806163527, -34760.136575715136, -27400.265920193902, -12311.094976794122, -23776.355239910514, -36363.20368804976, 0.080125, 0.9557500000000001, -0.13037500000000002, 192.0, 1.0, 56.0, 14.5, 104.0, 125.5, 120.0, 0.0, 0.0, 0.0, 1.6689766622716205E9, 0.0, 2022-11-20 15:37:42.271
232.0, -15771.100314986745, 53388.505087912694, -37376.9223543313, -36690.0085437308, -28702.187979482173, -30391.555177158738, -24654.376465603884, -4198.708140696066, -27071.382352278513, -4254.31928090087, -30143.07083404909, -34654.12225176361, -27310.143686550105, -12211.003865123257, -23678.83457885201, -36266.75591072511, 0.080125, 0.9557500000000001, -0.13037500000000002, 192.0, 0.0, 0.0, 0.0, 0.0, 0.0, 0.0, 0.0, 0.0, 0.0, 1.6689766622716255E9, 0.0, 2022-11-20 15:37:42.271
234.0, -15675.501903951395, 52400.2674103102, -37278.17234732775, -36583.10015000107, -28605.293167268417, -30295.040344600722, -24556.14054872281, -4109.547032063846, -27201.648318964046, -4389.167355199737, -30263.010294796266, -34782.26480272589, -27434.82171712181, -12336.419503261985, -23801.32213846709, -36393.75852272016, 0.080125, 0.9557500000000001, -0.13037500000000002, 192.0, 0.0, 0.0, 0.0, 0.0, 0.0, 0.0, 0.0, 0.0, 0.0, 1.6689766622716312E9, 0.0, 2022-11-20 15:37:42.271
236.0, -15752.481311855474, 53116.46200614715, -37354.34709243144, -36668.88614522054, -28677.15402569223, -30365.58245010167, -24630.325988569974, -4175.372919484726, -27059.915907372942, -4247.79257151992, -30125.457659418305, -34643.39341442507, -27297.045564299297, -12195.491754471273, -23660.126168742918, -36250.595599483924, 0.080125, 0.9557500000000001, -0.13037500000000002, 192.0, 0.0, 0.0, 0.0, 0.0, 0.0, 0.0, 0.0, 0.0, 0.0, 1.6689766622716365E9, 0.0, 2022-11-20 15:37:42.271
238.0, -15690.946959370014, 52702.50769883487, -37309.7553622431, -36605.85422585657, -28621.587588976337, -30314.374603554563, -24575.38540069883, -4131.541148607868, -27203.972900387398, -4395.716416325142, -30273.627373412535, -34793.50773018691, -27444.164746304126, -12342.610936476105, -23801.255083233726, -36393.57970876452, 0.080125, 0.9557500000000001, -0.13037500000000002, 192.0, 0.0, 0.0, 0.0, 0.0, 0.0, 0.0, 0.0, 0.0, 0.0, 1.6689766622716417E9, 0.0, 2022-11-20 15:37:42.271
240.0, -15716.137375371145, 52818.08856941326, -37334.72226079968, -36649.23896184433, -28642.77704271997, -30349.82447026068, -24603.59330220143, -4156.955082053552, -27043.21915426483, -4245.915024985674, -30114.23708370174, -34640.10770799014, -27285.757933349363, -12192.116641058523, -23649.285572682093, -36252.6072564849, 0.08206250000000001, 0.9548750000000001, -0.1311875, 192.0, 1.0, 80.0, 14.5, 104.0, 125.5, 112.0, 0.0, 0.0, 0.0, 1.6689766627514741E9, 0.0, 2022-11-20 15:37:42.751
242.0, -15687.01305234588, 52995.85199306632, -37316.61734779088, -36615.86780737255, -28630.170658847175, -30334.133545653054, -24587.14241828232, -4146.740334837476, -27185.733876911865, -4389.927314511217, -30262.362094207063, -34787.83038709526, -27435.8275456223, -12343.549709743227, -23803.937292568364, -36418.032517198626, 0.08206250000000001, 0.9548750000000001, -0.1311875, 192.0, 0.0, 0.0, 0.0, 0.0, 0.0, 0.0, 0.0, 0.0, 0.0, 1.6689766627515545E9, 0.0, 2022-11-20 15:37:42.751
244.0, -15678.497037708406, 52513.389588998514, -37299.160635371285, -36611.66567941495, -28628.471926268572, -30327.47272580537, -24585.24252000362, -4134.268061431416, -27021.984997032287, -4226.089027653817, -30084.643374042917, -34609.396411108544, -27267.988296507396, -12175.68810888387, -23648.905593026353, -36265.615971757885, 0.08206250000000001, 0.9548750000000001, -0.1311875, 192.0, 0.0, 0.0, 0.0, 0.0, 0.0, 0.0, 0.0, 0.0, 0.0, 1.6689766627515996E9, 0.0, 2022-11-20 15:37:42.751
246.0, -15704.425061276563, 53289.01747334212, -37326.76503977359, -36620.47226673034, -28653.952914947622, -30349.62330456058, -24607.191933058733, -4161.559541411346, -27181.040010576253, -4377.097413193871, -30248.392253922495, -34768.45142465251, -27437.213353778527, -12340.35341028612, -23812.632121161478, -36423.553398079086, 0.08206250000000001, 0.9548750000000001, -0.1311875, 192.0, 0.0, 0.0, 0.0, 0.0, 0.0, 0.0, 0.0, 0.0, 0.0, 1.6689766627516491E9, 0.0, 2022-11-20 15:37:42.751
248.0, -15662.560243911774, 52236.29501298607, -37279.33463803943, -36583.72599884582, -28605.09200156832, -30301.544702237214, -24560.789711569516, -4108.183575652072, -27028.802279091156, -4232.794550990409, -30087.39263861092, -34612.59271056565, -27270.759912819853, -12172.782382104682, -23645.39636914687, -36253.188401840736, 0.08206250000000001, 0.9548750000000001, -0.1311875, 192.0, 0.0, 0.0, 0.0, 0.0, 0.0, 0.0, 0.0, 0.0, 0.0, 1.6689766627516568E9, 0.0, 2022-11-20 15:37:42.751
250.0, -15736.477462825475, 53560.345299285094, -37359.44329016725, -36655.2515811028, -28679.322144904396, -30374.031409505777, -24631.845907192936, -4182.905457366163, -27186.382077501068, -4376.896247493773, -30258.718759860847, -34776.11807300068, -27442.711882914533, -12334.988991616845, -23796.67297562039, -36402.654517013376, 0.08003125, 0.9554375000000002, -0.13059375, 192.0, 1.0, 56.0, 14.5, 112.0, 125.5, 120.0, 0.0, 0.0, 0.0, 1.6689766627516646E9, 0.0, 2022-11-20 15:37:42.751
252.0, -15669.556339926285, 52020.041885380975, -37290.24228933362, -36598.63461239751, -28602.767420144966, -30299.957728380887, -24557.9957435126, -4103.221488382994, -27065.950878375876, -4266.9480165181185, -30124.96592104029, -34651.931780807, -27301.761782379366, -12199.582123706596, -23667.12226475743, -36265.32539907997, 0.08003125, 0.9554375000000002, -0.13059375, 192.0, 0.0, 0.0, 0.0, 0.0, 0.0, 0.0, 0.0, 0.0, 0.0, 1.6689766627516725E9, 0.0, 2022-11-20 15:37:42.751
254.0, -15782.991443036968, 53796.73734864442, -37400.99518310966, -36713.85785506461, -28711.285139475483, -30405.770886632312, -24664.121826186398, -4211.202765846582, -27201.53656024177, -4394.330608168913, -30281.13755954952, -34803.90129135863, -27451.026731851904, -12341.694514953437, -23806.060708291618, -36406.81194148206, 0.08003125, 0.9554375000000002, -0.13059375, 192.0, 0.0, 0.0, 0.0, 0.0, 0.0, 0.0, 0.0, 0.0, 0.0, 1.66897666275168E9, 0.0, 2022-11-20 15:37:42.751
0.0, -15665.845950346704, 51852.98494732201, -37276.33950428242, -36596.220623996334, -28591.904472339687, -30285.205577040386, -24546.1940224402, -4090.257476598916, -27095.07520140114, -4306.845880370842, -30161.73454066927, -34698.64692671859, -27326.616922213667, -12234.1379206345, -23698.77233490614, -36297.51191109561, 0.08003125, 0.9554375000000002, -0.13059375, 192.0, 0.0, 0.0, 0.0, 0.0, 0.0, 0.0, 0.0, 0.0, 0.0, 1.6689766627516878E9, 0.0, 2022-11-20 15:37:42.751
2.0, -15763.388963149664, 53938.827388146805, -37376.63178165338, -36689.58386058615, -28695.527159634494, -30387.8224358347, -24646.59805853344, -4191.980265615019, -27167.293687736237, -4366.0332996884945, -30248.12403298903, -34774.91107880009, -27419.175496003092, -12322.002628088312, -23779.663298089898, -36374.737188188694, 0.08003125, 0.9554375000000002, -0.13059375, 192.0, 0.0, 0.0, 0.0, 0.0, 0.0, 0.0, 0.0, 0.0, 0.0, 1.6689766627516954E9, 0.0, 2022-11-20 15:37:42.751
4.0, -15654.155987996577, 51737.605242443715, -37268.829318145436, -36572.103091729055, -28587.054143792888, -30282.9480508504, -24540.695493304192, -4087.9328951755638, -27091.476570543837, -4299.894487845241, -30148.859935863013, -34683.20187129997, -27323.35356752319, -12208.65693195545, -23694.369041248447, -36285.486672578656, 0.08201562500000001, 0.9547187500000001, -0.131296875, 192.0, 1.0, 80.0, 14.5, 104.0, 125.5, 112.0, 0.0, 0.0, 0.0, 1.6689766627517033E9, 0.0, 2022-11-20 15:37:42.751
6.0, -15774.430724910586, 54020.99240076452, -37389.88636611538, -36685.62760181756, -28710.25695923054, -30404.8768168541, -24661.64078255186, -4207.000637888985, -27156.073112019672, -4344.910901178229, -30233.41658513744, -34751.821726777765, -27408.04432726435, -12304.85884009109, -23763.12300719297, -36353.90536235635, 0.08201562500000001, 0.9547187500000001, -0.131296875, 192.0, 0.0, 0.0, 0.0, 0.0, 0.0, 0.0, 0.0, 0.0, 0.0, 1.6689766627517216E9, 0.0, 2022-11-20 15:37:42.751
8.0, -15634.464101131452, 51682.03880572782, -37240.97904455412, -36541.481201825285, -28566.71405633856, -30267.011257053764, -24522.277655873022, -4070.0738513557735, -27108.12862016304, -4313.931383363174, -30164.01441860371, -34697.261118562354, -27337.569276996768, -12248.085409174611, -23703.399146008393, -36297.08722795096, 0.08201562500000001, 0.9547187500000001, -0.131296875, 192.0, 0.0, 0.0, 0.0, 0.0, 0.0, 0.0, 0.0, 0.0, 0.0, 1.6689766627517295E9, 0.0, 2022-11-20 15:37:42.751
10.0, -15788.534675661884, 54023.004057765495, -37396.21190979623, -36699.93271826896, -28716.627206400302, -30419.964244361432, -24673.576614090995, -4218.735303728021, -27132.13439370804, -4325.464883502113, -30208.20381739185, -34730.408755589575, -27383.703277552522, -12283.110592736077, -23737.530259791645, -36340.60607440544, 0.08201562500000001, 0.9547187500000001, -0.131296875, 192.0, 0.0, 0.0, 0.0, 0.0, 0.0, 0.0, 0.0, 0.0, 0.0, 1.668976662751737E9, 0.0, 2022-11-20 15:37:42.751
12.0, -15639.269726189343, 51717.24280324493, -37255.23945751661, -36557.41799562192, -28568.010457516964, -30273.51561469026, -24526.09980417488, -4079.2380665824494, -27128.155783194994, -4336.2160725851145, -30189.003668904745, -34719.67991825103, -27362.089140664237, -12262.032897714722, -23727.270809086658, -36338.549713915556, 0.08201562500000001, 0.9547187500000001, -0.131296875, 192.0, 0.0, 0.0, 0.0, 0.0, 0.0, 0.0, 0.0, 0.0, 0.0, 1.6689766627517447E9, 0.0, 2022-11-20 15:37:42.751
14.0, -15809.858239872246, 53969.941016428595, -37424.53157002111, -36739.58471293267, -28736.274389776518, -30442.11482311664, -24693.8272945675, -4238.829521993342, -27134.190754197927, -4322.670915445199, -30214.775230261712, -34730.565217800766, -27386.921928754084, -12284.071717747656, -23736.65854175789, -36353.368920489425, 0.08201562500000001, 0.9547187500000001, -0.131296875, 192.0, 0.0, 0.0, 0.0, 0.0, 0.0, 0.0, 0.0, 0.0, 0.0, 1.6689766627517526E9, 0.0, 2022-11-20 15:37:42.751
16.0, -15639.739112822905, 51837.51754015894, -37258.16753604025, -36563.05063522466, -28572.592565130304, -30269.402893710485, -24527.61972279784, -4075.706490958511, -27163.18096675646, -4368.424936345213, -30223.85003851057, -34752.715796555975, -27399.148332971137, -12305.976427313857, -23758.049161201616, -36369.59628696398, 0.082, 0.9540000000000001, -0.14400000000000002, 192.0, 1.0, 72.0, 14.5, 104.0, 125.5, 64.0, 0.0, 0.0, 0.0, 1.6689766627517602E9, 0.0, 2022-11-20 15:37:42.751
18.0, -15796.827172854802, 53829.303840315806, -37391.92037486081, -36710.30392769622, -28722.77393612551, -30413.906921614045, -24678.40459089334, -4215.203728104082, -27095.499884545792, -4291.244362741037, -30168.037732605666, -34690.95792662596, -27351.74028298143, -12248.0407056857, -23700.87339888494, -36304.843283276954, 0.082, 0.9540000000000001, -0.14400000000000002, 192.0, 0.0, 0.0, 0.0, 0.0, 0.0, 0.0, 0.0, 0.0, 0.0, 1.668976662751768E9, 0.0, 2022-11-20 15:37:42.751
20.0, -15655.47474091944, 52031.86595819783, -37247.3939952128, -36553.55114383115, -28581.153283256685, -30272.196861767396, -24536.828641513424, -4080.3780055496704, -27175.250908762326, -4380.606637073354, -30232.522515359226, -34763.288171683336, -27414.727498856486, -12312.81606111718, -23768.777998540165, -36366.5340979736, 0.082, 0.9540000000000001, -0.14400000000000002, 192.0, 0.0, 0.0, 0.0, 0.0, 0.0, 0.0, 0.0, 0.0, 0.0, 1.6689766627517755E9, 0.0, 2022-11-20 15:37:42.751
22.0, -15791.50745767444, 53641.28096595776, -37381.9738485782, -36695.10474146661, -28706.47951441759, -30401.121723785607, -24664.144177930855, -4201.949143642085, -27089.062582142662, -4286.505792916512, -30161.220450546796, -34679.446778231475, -27338.820974686263, -12229.824033954625, -23686.970613833742, -36282.9162219663, 0.082, 0.9540000000000001, -0.14400000000000002, 192.0, 0.0, 0.0, 0.0, 0.0, 0.0, 0.0, 0.0, 0.0, 0.0, 1.6689766627517817E9, 0.0, 2022-11-20 15:37:42.751
24.0, -15657.57580489824, 52259.36201326395, -37264.560134954474, -36553.34997813105, -28575.498291909495, -30262.138576762507, -24531.62068505534, -4073.739537446444, -27186.89616762354, -4386.999235987572, -30253.868431314044, -34772.18416597655, -27424.33874897227, -12313.017226817277, -23782.569024869088, -36365.595324706475, 0.082, 0.9540000000000001, -0.14400000000000002, 192.0, 0.0, 0.0, 0.0, 0.0, 0.0, 0.0, 0.0, 0.0, 0.0, 1.6689766627517884E9, 0.0, 2022-11-20 15:37:42.751
26.0, -15765.512378872918, 53370.93661677082, -37365.94764780375, -36669.154366154, -28679.635069326767, -30365.49304312385, -24634.371654316386, -4169.896742093175, -27059.938259117396, -4258.7896297919315, -30135.717110123293, -34652.24470522937, -27306.768573137353, -12191.960178847336, -23664.127131000416, -36241.565494723975, 0.082, 0.9540000000000001, -0.14200000000000002, 192.0, 1.0, 72.0, 14.5, 104.0, 125.5, 72.0, 0.0, 0.0, 0.0, 1.6689766627517953E9, 0.0, 2022-11-20 15:37:42.751
28.0, -15693.875037893658, 52545.5537492697, -37294.04208589102, -36587.39168493649, -28614.81501040638, -30299.197769069408, -24562.48844414812, -4106.440139584558, -27198.072039851195, -4402.06431175045, -30267.592402409602, -34790.534948174354, -27440.275542768904, -12327.478805479861, -23795.17540874188, -36378.872260912925, 0.082, 0.9540000000000001, -0.14200000000000002, 192.0, 0.0, 0.0, 0.0, 0.0, 0.0, 0.0, 0.0, 0.0, 0.0, 1.6689766627518024E9, 0.0, 2022-11-20 15:37:42.751
30.0, -15755.722314801493, 53104.77204379703, -37349.20619120672, -36669.489642320834, -28679.612717582313, -30370.611592604113, -24628.91782866929, -4164.487619934991, -27067.135520832006, -4269.093783985828, -30134.934799067356, -34658.79376635477, -27316.245712786404, -12203.292513286176, -23668.485721169203, -36269.974561926676, 0.082, 0.9540000000000001, -0.14200000000000002, 192.0, 0.0, 0.0, 0.0, 0.0, 0.0, 0.0, 0.0, 0.0, 0.0, 1.6689766627518096E9, 0.0, 2022-11-20 15:37:42.751
32.0, -15703.665101965084, 52855.75125882045, -37303.74274298462, -36612.47034221534, -28630.03654838044, -30330.49021130684, -24580.213377501175, -4126.936689250075, -27205.403412032538, -4411.966134544151, -30274.722608890846, -34804.50478845892, -27453.172499319615, -12349.115294112598, -23804.116106524005, -36423.82161901255, 0.082, 0.9540000000000001, -0.14200000000000002, 192.0, 0.0, 0.0, 0.0, 0.0, 0.0, 0.0, 0.0, 0.0, 0.0, 1.6689766627518163E9, 0.0, 2022-11-20 15:37:42.751
34.0, -15713.477517780962, 52799.08958662624, -37313.13047565585, -36637.81722042766, -28643.693464242635, -30345.599990558625, -24598.899435865813, -4138.604299855745, -27049.41058747895, -4254.900426256708, -30116.002871513712, -34643.41576616952, -27293.469285186446, -12193.256580025743, -23650.894898282873, -36272.58971602794, 0.082, 0.9540000000000001, -0.14200000000000002, 192.0, 0.0, 0.0, 0.0, 0.0, 0.0, 0.0, 0.0, 0.0, 0.0, 1.6689766627518227E9, 0.0, 2022-11-20 15:37:42.751
36.0, -15719.803061461815, 53160.33848051292, -37327.6591095518, -36642.28756931872, -28656.14338590424, -30358.564002342704, -24611.57287497197, -4157.513875664935, -27187.030278090275, -4390.575515100421, -30261.0433412842, -34786.131654516656, -27441.482536969488, -12340.621631219583, -23799.243426232748, -36416.08791543102, 0.078, 0.9500000000000001, -0.14, 192.0, 1.0, 56.0, 14.5, 88.0, 125.5, 80.0, 0.0, 0.0, 0.0, 1.6689766627518296E9, 0.0, 2022-11-20 15:37:42.751
38.0, -15706.928456655558, 52514.12719656553, -37296.9031091813, -36631.178752324435, -28636.98794090604, -30335.47465032037, -24590.45047646171, -4127.696648561555, -27054.372674748025, -4266.210408951093, -30116.561665125093, -34649.16016449453, -27301.694727145998, -12200.409138251442, -23664.954145545264, -36273.68495150626, 0.078, 0.9500000000000001, -0.14, 192.0, 0.0, 0.0, 0.0, 0.0, 0.0, 0.0, 0.0, 0.0, 0.0, 1.6689766627518375E9, 0.0, 2022-11-20 15:37:42.751
40.0, -15731.627134278671, 53437.20953908081, -37319.14309491433, -36642.82401118565, -28659.272630127984, -30356.038255219253, -24611.43876450524, -4154.7199076080215, -27188.416086246503, -4387.960360999151, -30255.678922614927, -34782.13069225916, -27445.03646433788, -12337.78295967376, -23792.26968196269, -36399.34645883399, 0.078, 0.9500000000000001, -0.14, 192.0, 0.0, 0.0, 0.0, 0.0, 0.0, 0.0, 0.0, 0.0, 0.0, 1.668976662751845E9, 0.0, 2022-11-20 15:37:42.751
42.0, -15693.316244282276, 52241.95000433326, -37281.70392295169, -36606.3906677235, -28616.37963251825, -30313.122905865064, -24568.85869131788, -4106.082511673273, -27047.91302060044, -4254.3863361342355, -30104.111743463487, -34636.732594577385, -27290.943538062995, -12185.858152611036, -23649.26322093764, -36255.15535535281, 0.078, 0.9500000000000001, -0.14, 192.0, 0.0, 0.0, 0.0, 0.0, 0.0, 0.0, 0.0, 0.0, 0.0, 1.668976662751862E9, 0.0, 2022-11-20 15:37:42.751
44.0, -15763.903053272135, 53698.210859085426, -37365.94764780375, -36665.75690099679, -28691.548549121446, -30381.273374709297, -24639.870183452393, -4179.284474764404, -27197.490894495357, -4385.971055742629, -30272.08510304512, -34787.808035350805, -27457.01699936593, -12339.861671908102, -23801.433897189367, -36404.889691458906, 0.078, 0.9500000000000001, -0.14, 192.0, 0.0, 0.0, 0.0, 0.0, 0.0, 0.0, 0.0, 0.0, 0.0, 1.6689766627518682E9, 0.0, 2022-11-20 15:37:42.751
46.0, -15677.334746996732, 52031.24010935308, -37279.178175828245, -36582.89898430097, -28609.80821964839, -30289.497111975805, -24560.47678714714, -4090.033959154363, -27065.59325046459, -4266.456278140102, -30127.983406541756, -34649.49544066137, -27313.161172051572, -12195.55880970464, -23672.26316598215, -36267.5605735255, 0.076, 0.9500000000000001, -0.14, 192.0, 1.0, 48.0, 14.5, 88.0, 125.5, 80.0, 0.0, 0.0, 0.0, 1.6689766627518747E9, 0.0, 2022-11-20 15:37:42.751
48.0, -15791.64156814117, 53917.34736172526, -37390.51221496012, -36691.17083444248, -28720.516409935524, -30400.16059877403, -24672.347268145953, -4204.877222165731, -27191.701792681433, -4379.310235894947, -30269.380541966028, -34780.27549746937, -27457.218165066024, -12331.949154370923, -23800.986862300262, -36392.84210119749, 0.076, 0.9500000000000001, -0.14, 192.0, 0.0, 0.0, 0.0, 0.0, 0.0, 0.0, 0.0, 0.0, 0.0, 1.6689766627518828E9, 0.0, 2022-11-20 15:37:42.751
50.0, -15653.798360085293, 51871.67100568664, -37254.30068424949, -36561.88834451298, -28574.917146553656, -30265.200765752885, -24532.201830411177, -4066.676386198567, -27088.66025074247, -4283.935342304152, -30146.177726528374, -34665.275772246816, -27331.534305993835, -12213.574315735617, -23679.840407352498, -36278.7140940087, 0.076, 0.9500000000000001, -0.14, 192.0, 0.0, 0.0, 0.0, 0.0, 0.0, 0.0, 0.0, 0.0, 0.0, 1.6689766627518897E9, 0.0, 2022-11-20 15:37:42.751
52.0, -15786.008928538435, 54029.374304935256, -37391.33922950497, -36694.16596819949, -28702.97029053811, -30396.271395238808, -24661.79724476305, -4195.914172639153, -27154.03910327424, -4342.340450565869, -30233.617750837537, -34744.13272668514, -27418.214370991514, -12298.510944665784, -23750.13664366444, -36353.95006584526, 0.076, 0.9500000000000001, -0.14, 192.0, 0.0, 0.0, 0.0, 0.0, 0.0, 0.0, 0.0, 0.0, 0.0, 1.6689766627518969E9, 0.0, 2022-11-20 15:37:42.751
54.0, -15666.114171280167, 51780.58764703127, -37270.32688502394, -36573.06421674063, -28579.65571637818, -30276.689562402913, -24540.494327604098, -4080.288598571849, -27104.351175350093, -4309.349275749836, -30172.44102626336, -34690.75676092586, -27345.235925344936, -12235.456673557363, -23694.570206948545, -36299.389457629855, 0.076, 0.9500000000000001, -0.14, 192.0, 0.0, 0.0, 0.0, 0.0, 0.0, 0.0, 0.0, 0.0, 0.0, 1.668976662751904E9, 0.0, 2022-11-20 15:37:42.751
56.0, -15804.762042136437, 54108.3206663514, -37410.40526752535, -36717.165913244, -28725.925532093708, -30419.78543040579, -24683.32197467351, -4219.629373506234, -27160.096426021628, -4345.559101767433, -30250.001579523276, -34752.26876166687, -27426.395109462155, -12301.416671444973, -23763.70415254881, -36373.61960096593, 0.082, 0.9540000000000001, -0.136, 192.0, 1.0, 72.0, 14.5, 104.0, 125.5, 96.0, 0.0, 0.0, 0.0, 1.6689766627519112E9, 0.0, 2022-11-20 15:37:42.751
58.0, -15636.833386043714, 51753.49733275144, -37240.37554745383, -36548.36553911752, -28565.551765626882, -30255.678922614927, -24524.579885551917, -4062.9436448745305, -27116.21995165586, -4306.309438503914, -30180.8229304341, -34690.220319058935, -27359.69750400752, -12246.632545785016, -23714.55266649159, -36325.876274809394, 0.082, 0.9540000000000001, -0.136, 192.0, 0.0, 0.0, 0.0, 0.0, 0.0, 0.0, 0.0, 0.0, 0.0, 1.6689766627519178E9, 0.0, 2022-11-20 15:37:42.751
60.0, -15793.116783275222, 54078.168163081195, -37389.37227599291, -36712.44969516393, -28719.73409887959, -30412.655223924547, -24680.70682057224, -4213.549699014389, -27119.729175535344, -4302.979028580074, -30200.872445210513, -34705.57596749973, -27383.636222319154, -12266.726764050338, -23728.477803287245, -36341.03075755009, 0.082, 0.9540000000000001, -0.136, 192.0, 0.0, 0.0, 0.0, 0.0, 0.0, 0.0, 0.0, 0.0, 0.0, 1.6689766627519248E9, 0.0, 2022-11-20 15:37:42.751
62.0, -15630.61960108514, 51805.64395256567, -37239.77205035354, -36549.77369901821, -28564.83650980431, -30257.601172638082, -24527.50796407556, -4063.971825119475, -27127.84285877262, -4325.084903846372, -30187.707267726335, -34706.89472042259, -27373.46617859199, -12263.195188426398, -23723.82864044054, -36338.37089995991, 0.082, 0.9540000000000001, -0.136, 192.0, 0.0, 0.0, 0.0, 0.0, 0.0, 0.0, 0.0, 0.0, 0.0, 1.6689766627519317E9, 0.0, 2022-11-20 15:37:42.751
64.0, -15796.290730987876, 54003.89331625621, -37402.58215696599, -36718.66348012251, -28726.21610477163, -30421.484162984394, -24690.251015454654, -4222.646859007699, -27108.17332365195, -4294.798290109431, -30186.813197948122, -34693.39426677159, -27376.41660886009, -12255.260319144765, -23714.46325951377, -36326.63623412087, 0.082, 0.9540000000000001, -0.136, 192.0, 0.0, 0.0, 0.0, 0.0, 0.0, 0.0, 0.0, 0.0, 0.0, 1.6689766627519374E9, 0.0, 2022-11-20 15:37:42.751
66.0, -15627.289191161299, 51939.62030883078, -37227.25507345856, -36536.943797700864, -28552.453643376073, -30243.452518397873, -24512.979330179613, -4050.7172406574778, -27146.484213648346, -4348.196607613159, -30208.472038325315, -34725.87135146515, -27394.27565267988, -12278.148505467, -23734.959809179283, -36348.69740589827, 0.08, 0.9580000000000001, -0.134, 192.0, 1.0, 64.0, 14.5, 120.0, 125.5, 104.0, 0.0, 0.0, 0.0, 1.6689766627519438E9, 0.0, 2022-11-20 15:37:42.751
68.0, -15793.78733560888, 53833.01422989539, -37386.22068002471, -36704.02308750428, -28711.307491219937, -30399.06536329572, -24670.15679718933, -4198.730492440521, -27078.087875615107, -4270.278426441959, -30155.476052221784, -34664.26994374632, -27341.011445642886, -12218.268182071231, -23666.384657190403, -36276.27775386307, 0.08, 0.9580000000000001, -0.134, 192.0, 0.0, 0.0, 0.0, 0.0, 0.0, 0.0, 0.0, 0.0, 0.0, 1.6689766627519493E9, 0.0, 2022-11-20 15:37:42.751
70.0, -15665.398915457597, 52148.96674739919, -37267.845841389404, -36569.175013205415, -28584.66250713617, -30270.22990825533, -24545.031731728523, -4080.1097846162065, -27185.599766445135, -4382.9982737300725, -30252.41556792445, -34767.177375218555, -27433.614722921222, -12314.179517528954, -23769.64971657392, -36371.69735094278, 0.08, 0.9580000000000001, -0.134, 192.0, 0.0, 0.0, 0.0, 0.0, 0.0, 0.0, 0.0, 0.0, 0.0, 1.668976662751956E9, 0.0, 2022-11-20 15:37:42.751
72.0, -15792.915617575125, 53629.211023951895, -37393.21677603922, -36702.704334581416, -28713.162686009728, -30397.59014816167, -24675.40945713633, -4200.183355830116, -27075.45036976938, -4265.629263595255, -30152.950305098333, -34655.91039132004, -27335.177640340047, -12216.547097748173, -23671.726724115222, -36273.28262010606, 0.08, 0.9580000000000001, -0.134, 192.0, 0.0, 0.0, 0.0, 0.0, 0.0, 0.0, 0.0, 0.0, 0.0, 1.6689766627519612E9, 0.0, 2022-11-20 15:37:42.751
74.0, -15688.354157013198, 52424.78727397767, -37295.22672834715, -36591.258536727255, -28615.463210995582, -30298.79543766921, -24577.66527863327, -4110.7540262644325, -27210.5219615128, -4397.549259370478, -30278.209481025875, -34780.342552702736, -27461.755569190453, -12340.308706797208, -23803.80318210163, -36402.296889102094, 0.08, 0.9580000000000001, -0.134, 192.0, 0.0, 0.0, 0.0, 0.0, 0.0, 0.0, 0.0, 0.0, 0.0, 1.6689766627519665E9, 0.0, 2022-11-20 15:37:42.751
76.0, -15751.095503699245, 53366.220398690755, -37350.480240640674, -36666.18158414144, -28687.704049075135, -30369.76222631481, -24648.386198089862, -4173.584779928301, -27062.285192285206, -4244.752734273999, -30133.548990911127, -34631.74815556385, -27321.94540762251, -12198.464536483829, -23664.283593211603, -36265.37010256888, 0.084, 0.9580000000000001, -0.134, 192.0, 1.0, 80.0, 14.5, 120.0, 125.5, 104.0, 0.0, 0.0, 0.0, 1.6689766627519715E9, 0.0, 2022-11-20 15:37:42.751
78.0, -15673.646709161605, 52692.44941382998, -37272.85263214739, -36573.17597546292, -28615.977301118055, -30292.46989398836, -24574.02194428706, -4104.562593050313, -27186.00209784533, -4370.704814279654, -30252.281457457717, -34752.67109306707, -27449.61857195122, -12323.67900892246, -23791.37561218448, -36395.166682620846, 0.084, 0.9580000000000001, -0.134, 192.0, 0.0, 0.0, 0.0, 0.0, 0.0, 0.0, 0.0, 0.0, 0.0, 1.6689766627519765E9, 0.0, 2022-11-20 15:37:42.751
80.0, -15740.858404738714, 53076.228866127596, -37325.24512115063, -36649.61894150006, -28671.09670294484, -30355.792386030244, -24636.852697950926, -4161.268968733427, -27040.604000163556, -4228.301850354892, -30106.458676631293, -34606.60244305163, -27301.247692256893, -12181.83483860908, -23644.703465068756, -36251.7578901956, 0.084, 0.9580000000000001, -0.134, 192.0, 0.0, 0.0, 0.0, 0.0, 0.0, 0.0, 0.0, 0.0, 0.0, 1.6689766627519817E9, 0.0, 2022-11-20 15:37:42.751
82.0, -15687.191866301522, 52981.569228359374, -37278.84289966141, -36595.527719918224, -28619.62063546427, -30312.072373875664, -24585.086057792432, -4119.091226946262, -27184.8174553892, -4379.019663217028, -30253.488451658304, -34759.06369198128, -27446.91401087213, -12311.564363427684, -23784.535978381155, -36402.27453735763, 0.084, 0.9580000000000001, -0.134, 192.0, 0.0, 0.0, 0.0, 0.0, 0.0, 0.0, 0.0, 0.0, 0.0, 1.668976662751987E9, 0.0, 2022-11-20 15:37:42.751
84.0, -15709.498907267918, 52749.044030790814, -37297.73012372615, -36623.221531298346, -28634.216324593584, -30331.607798529603, -24603.369784756876, -4132.77049455291, -27022.566142388125, -4217.9976961609955, -30086.655031043894, -34595.80655047972, -27278.515968145846, -12169.451972180841, -23620.63063629039, -36238.83858190043, 0.084, 0.9580000000000001, -0.134, 192.0, 0.0, 0.0, 0.0, 0.0, 0.0, 0.0, 0.0, 0.0, 0.0, 1.6689766627519937E9, 0.0, 2022-11-20 15:37:42.751
86.0, -15724.273410352876, 53276.74636563616, -37318.606653047405, -36625.233188299324, -28647.157984633206, -30344.840031247146, -24613.651587206317, -4150.316613950326, -27188.550196713233, -4377.812669016441, -30262.04916978469, -34762.17058446057, -27451.071435340815, -12343.884985910057, -23784.670088847888, -36396.418380310344, 0.084, 0.962, -0.132, 192.0, 1.0, 80.0, 15.0, 8.0, 125.5, 112.0, 0.0, 0.0, 0.0, 1.6689766627520003E9, 0.0, 2022-11-20 15:37:42.752
88.0, -15694.590293716228, 52467.07677448711, -37290.37639980035, -36600.95919382086, -28620.112373842287, -30311.647690731013, -24585.10840953689, -4113.8609187437205, -27044.604962421057, -4230.469969567057, -30106.033993486642, -34603.249681383335, -27298.721945133442, -12180.180809519388, -23639.853136521953, -36243.84537265842, 0.084, 0.962, -0.132, 192.0, 0.0, 0.0, 0.0, 0.0, 0.0, 0.0, 0.0, 0.0, 0.0, 1.6689766627520175E9, 0.0, 2022-11-20 15:37:42.752
90.0, -15748.122721686688, 53565.15092434298, -37353.81065056451, -36644.79096469772, -28681.736133305567, -30366.454168135428, -24640.92071544179, -4172.981282828007, -27189.95835661392, -4365.34039561038, -30263.770254107745, -34747.93252324254, -27459.743912189475, -12328.01524734679, -23794.907187808418, -36389.06465638455, 0.084, 0.962, -0.132, 192.0, 0.0, 0.0, 0.0, 0.0, 0.0, 0.0, 0.0, 0.0, 0.0, 1.668976662752024E9, 0.0, 2022-11-20 15:37:42.752
92.0, -15675.01016557338, 52205.80723354903, -37280.295763051006, -36575.2323359528, -28604.734373657036, -30287.910138119478, -24566.467054661163, -4096.203040624027, -27049.432939223403, -4232.12399865675, -30111.7560400672, -34599.87456797058, -27306.053317314785, -12173.207065249333, -23654.76175007364, -36249.187439583235, 0.084, 0.962, -0.132, 192.0, 0.0, 0.0, 0.0, 0.0, 0.0, 0.0, 0.0, 0.0, 0.0, 1.668976662752031E9, 0.0, 2022-11-20 15:37:42.752
94.0, -15760.796160792848, 53774.765583844855, -37359.420938422794, -36648.61311299958, -28681.803188538932, -30364.800139045736, -24641.233639864164, -4173.316558994837, -27172.85927210561, -4341.491084276568, -30251.74501559079, -34730.54286605631, -27443.76241490393, -12298.130965010043, -23777.428123644368, -36375.40774052236, 0.084, 0.962, -0.132, 192.0, 0.0, 0.0, 0.0, 0.0, 0.0, 0.0, 0.0, 0.0, 0.0, 1.6689766627520375E9, 0.0, 2022-11-20 15:37:42.752
96.0, -15680.553398198295, 51994.315027512916, -37268.29287627851, -36570.69493182837, -28593.22322526255, -30285.026763084745, -24559.00157201309, -4089.028130653874, -27069.862433655555, -4250.877112254752, -30129.77154609818, -34618.40416412403, -27320.380785510635, -12182.281873498187, -23660.59555537648, -36264.90071593532, 0.084, 0.9590000000000001, -0.129, 192.0, 1.0, 80.0, 14.5, 112.0, 126.0, 8.0, 0.0, 0.0, 0.0, 1.6689766627520466E9, 0.0, 2022-11-20 15:37:42.752
98.0, -15778.386983679175, 53955.881769166204, -37368.942781560756, -36667.612095786586, -28696.376525923795, -30386.324868956195, -24660.702009284738, -4192.270838292938, -27164.387960957047, -4332.95271789464, -30240.390329407495, -34721.66922350755, -27434.15116478815, -12291.33603469563, -23763.234765915247, -36371.183260820304, 0.084, 0.9590000000000001, -0.129, 192.0, 0.0, 0.0, 0.0, 0.0, 0.0, 0.0, 0.0, 0.0, 0.0, 1.6689766627520547E9, 0.0, 2022-11-20 15:37:42.752
100.0, -15663.38725845662, 51860.18220903662, -37251.640826659306, -36561.66482706843, -28590.205739761084, -30279.148254293, -24556.54288012301, -4085.138927118651, -27085.463951285357, -4260.644824581722, -30141.707377637314, -34629.892960774065, -27339.938561909028, -12206.064129598633, -23683.21552076525, -36290.739332525656, 0.084, 0.9590000000000001, -0.129, 192.0, 0.0, 0.0, 0.0, 0.0, 0.0, 0.0, 0.0, 0.0, 0.0, 1.668976662752061E9, 0.0, 2022-11-20 15:37:42.752
102.0, -15778.923425546101, 54086.415956785204, -37363.82423208049, -36671.2554301328, -28710.7263458641, -30397.50074118385, -24676.34823040345, -4203.312600053859, -27144.159632224993, -4304.543650691945, -30218.172695418918, -34688.476882991425, -27420.114269270216, -12282.90942703598, -23748.393207596924, -36359.023911836615, 0.084, 0.9590000000000001, -0.129, 192.0, 0.0, 0.0, 0.0, 0.0, 0.0, 0.0, 0.0, 0.0, 0.0, 1.6689766627520697E9, 0.0, 2022-11-20 15:37:42.752
104.0, -15629.90434526257, 51776.29611209585, -37214.3357651634, -36513.98855614526, -28559.69560857959, -30244.637160854003, -24527.597371053384, -4055.4111069930923, -27075.428018024926, -4249.379545376247, -30127.290502463642, -34602.73559126086, -27329.56735248177, -12197.41400449443, -23668.664535124844, -36278.73644575315, 0.084, 0.9590000000000001, -0.129, 192.0, 0.0, 0.0, 0.0, 0.0, 0.0, 0.0, 0.0, 0.0, 0.0, 1.6689766632323709E9, 0.0, 2022-11-20 15:37:43.232
106.0, -15795.64253039867, 54129.95715498414, -37380.25276425514, -36681.581936071154, -28721.186962269185, -30409.749497145356, -24687.41234390883, -4214.1755478591385, -27122.18786742543, -4288.5621534064, -30196.335041086084, -34667.063911803234, -27398.79070505985, -12259.216577913354, -23722.97927415124, -36330.74895510065, 0.083, 0.9565000000000001, -0.1295, 192.0, 1.0, 72.0, 14.5, 104.0, 125.5, 120.0, 0.0, 0.0, 0.0, 1.6689766632324648E9, 0.0, 2022-11-20 15:37:43.232
108.0, -15655.966479297458, 51801.62063856371, -37246.49992543458, -36545.01277744923, -28581.13093151223, -30274.18616702392, -24548.451548630186, -4079.3945287936367, -27115.191771410915, -4295.3570837208135, -30172.06104660762, -34657.206792498444, -27371.365114613192, -12236.060170657656, -23712.943340890808, -36320.13187648438, 0.083, 0.9565000000000001, -0.1295, 192.0, 0.0, 0.0, 0.0, 0.0, 0.0, 0.0, 0.0, 0.0, 0.0, 1.6689766632325182E9, 0.0, 2022-11-20 15:37:43.232
110.0, -15802.280998501898, 54095.24489584505, -37392.568575450015, -36700.73738106935, -28725.0314623155, -30416.522075715315, -24692.329727688997, -4219.495263039501, -27114.051832443696, -4284.628246382266, -30193.07168639561, -34669.72376939342, -27392.778085801376, -12251.840502243103, -23726.399091052903, -36332.20181849025, 0.083, 0.9565000000000001, -0.1295, 192.0, 0.0, 0.0, 0.0, 0.0, 0.0, 0.0, 0.0, 0.0, 0.0, 1.668976663232551E9, 0.0, 2022-11-20 15:37:43.232
112.0, -15648.635107116117, 51878.890619145706, -37248.198658013185, -36547.24795189476, -28575.051257020386, -30264.194937252396, -24541.94719099369, -4072.644301968134, -27129.630998329045, -4308.455205971623, -30192.22232010631, -34676.56340319674, -27389.00064098843, -12250.812321998159, -23734.780995223642, -36342.79654536206, 0.083, 0.9565000000000001, -0.1295, 192.0, 0.0, 0.0, 0.0, 0.0, 0.0, 0.0, 0.0, 0.0, 0.0, 1.6689766632325585E9, 0.0, 2022-11-20 15:37:43.232
114.0, -15779.817495324314, 53962.49788552498, -37373.50253742964, -36671.389540599535, -28699.081087002887, -30381.318078198205, -24666.602869820937, -4187.956951613063, -27088.5931955091, -4242.763429017476, -30167.322476783094, -34630.317643918715, -27361.84327147523, -12213.127280846511, -23694.056116826072, -36298.338925640455, 0.083, 0.9565000000000001, -0.1295, 192.0, 0.0, 0.0, 0.0, 0.0, 0.0, 0.0, 0.0, 0.0, 0.0, 1.668976663232566E9, 0.0, 2022-11-20 15:37:43.232
116.0, -15650.71381935046, 51999.277114781995, -37245.00235855608, -36523.8233237056, -28565.730579582523, -30245.307713187663, -24532.22418215563, -4056.551045960313, -27132.782594297245, -4293.3007232309255, -30197.92201494241, -34665.745158880374, -27390.118228211195, -12222.358551306552, -23731.808213211087, -36317.89670203885, 0.0835, 0.95625, -0.13275, 192.0, 1.0, 80.0, 14.5, 112.0, 125.5, 96.0, 0.0, 0.0, 0.0, 1.6689766632325733E9, 0.0, 2022-11-20 15:37:43.232
118.0, -15810.03705382789, 53791.48468869743, -37392.30035451655, -36684.48766285034, -28714.749659866055, -30395.131456271585, -24684.55132061855, -4203.245544820493, -27082.44646578389, -4235.9014434696965, -30158.180613300876, -34619.85702751363, -27350.7568062254, -12211.070920356622, -23683.17081727634, -36262.687893234244, 0.0835, 0.95625, -0.13275, 192.0, 0.0, 0.0, 0.0, 0.0, 0.0, 0.0, 0.0, 0.0, 0.0, 1.6689766632325816E9, 0.0, 2022-11-20 15:37:43.232
120.0, -15679.636976675629, 52235.5797571635, -37263.06256807596, -36554.10993744254, -28592.485617695525, -30277.829501370135, -24563.024886015046, -4093.09614814474, -27178.603670430624, -4345.916729678718, -30244.145422475987, -34718.24940660589, -27435.648731666653, -12299.025034788256, -23773.22599568677, -36363.069577583025, 0.0835, 0.95625, -0.13275, 192.0, 0.0, 0.0, 0.0, 0.0, 0.0, 0.0, 0.0, 0.0, 0.0, 1.668976663232589E9, 0.0, 2022-11-20 15:37:43.232
122.0, -15792.245065241465, 53563.69806095339, -37364.181859991775, -36682.65481980501, -28699.01403176952, -30392.605709148134, -24673.621317579906, -4197.702312195577, -27066.286154542704, -4225.530234042434, -30141.77443287068, -34613.19620766595, -27336.406986285092, -12198.08455682809, -23668.30690721356, -36274.221393373184, 0.0835, 0.95625, -0.13275, 192.0, 0.0, 0.0, 0.0, 0.0, 0.0, 0.0, 0.0, 0.0, 0.0, 1.668976663232596E9, 0.0, 2022-11-20 15:37:43.232
