%OpenBCI Raw EEG Data
%Number of channels = 16
%Sample Rate = 125 Hz
%Board = OpenBCI_GUI$BoardCytonSerialDaisy
Sample Index, EXG Channel 0, EXG Channel 1, EXG Channel 2, EXG Channel 3, EXG Channel 4, EXG Channel 5, EXG Channel 6, EXG Channel 7, EXG Channel 8, EXG Channel 9, EXG Channel 10, EXG Channel 11, EXG Channel 12, EXG Channel 13, EXG Channel 14, EXG Channel 15, Accel Channel 0, Accel Channel 1, Accel Channel 2, Other, Other, Other, Other, Other, Other, Other, Analog Channel 0, Analog Channel 1, Analog Channel 2, Timestamp, Other, Timestamp (Formatted)
180.0, -21369.429989985227, -21203.24476996002, -29719.013538243, -17299.065565951536, -12519.413235117583, -16014.667274316225, 26435.162298102656, -15405.626941398019, -25595.92134903924, -2526.8647106724634, -29667.559822506886, -27374.60611755921, -9015.799643492657, 6694.950961464759, -9374.500438511424, -21956.677372059512, 0.083, 0.422, -0.226, 192.0, 2.5, 24.0, 13.0, 48.0, 120.5, 112.0, 0.0, 0.0, 0.0, 1.6620649250524375E9, 0.0, 2022-09-01 16:42:05.052
182.0, -21442.497842609628, -21284.82863722189, -29784.57120473042, -17388.427840283854, -12591.229390052486, -16105.437708549227, 26804.54722697106, -15495.838582019638, -25533.403519797746, -2508.0892453300057, -29610.361708445755, -27339.78209969784, -8943.715267624291, 6657.198865079745, -9303.354835910182, -21921.00398790884, 0.083, 0.422, -0.226, 192.0, 0.0, 0.0, 0.0, 0.0, 0.0, 0.0, 0.0, 0.0, 0.0, 1.6620649250524428E9, 0.0, 2022-09-01 16:42:05.052
184.0, -21359.997553825087, -21191.28658667643, -29719.2147039431, -17290.370737358422, -12532.801930046313, -16002.55262882145, 26463.839586238813, -15405.291665231189, -25602.73863109811, -2523.757818193176, -29667.179842851147, -27374.047323947827, -9018.325390616106, 6688.468955572719, -9381.764755459399, -21968.25557568736, 0.083, 0.422, -0.226, 192.0, 0.0, 0.0, 0.0, 0.0, 0.0, 0.0, 0.0, 0.0, 0.0, 1.662064925052447E9, 0.0, 2022-09-01 16:42:05.052
186.0, -21442.408435631805, -21286.035631422477, -29784.258280308044, -17384.091601859524, -12584.367404504706, -16092.786621187524, 26777.479264435682, -15487.881360993548, -25522.942903392664, -2488.7102828872544, -29593.709658826552, -27315.97749185294, -8933.34405819703, 6688.379548594899, -9303.354835910182, -21900.06040335422, 0.083, 0.422, -0.226, 192.0, 0.0, 0.0, 0.0, 0.0, 0.0, 0.0, 0.0, 0.0, 0.0, 1.6620649250524511E9, 0.0, 2022-09-01 16:42:05.052
188.0, -21396.85558043189, -21229.217497017085, -29750.730663625083, -17322.110214484957, -12545.542424385838, -16019.40584414075, 26504.139781491733, -15429.67741843193, -25618.45190745019, -2546.4001353264016, -29689.35277335081, -27395.683812580566, -9037.682001314402, 6675.79551646656, -9388.671444496089, -21976.212796713447, 0.083, 0.422, -0.226, 192.0, 0.0, 0.0, 0.0, 0.0, 0.0, 0.0, 0.0, 0.0, 0.0, 1.6620649250524552E9, 0.0, 2022-09-01 16:42:05.052
190.0, -21451.34913341393, -21290.796552991458, -29775.541099970473, -17382.325814047555, -12567.514189185404, -16089.702080452691, 26732.932237736255, -15484.819172003172, -25535.28106633199, -2497.628628924922, -29612.23925498, -27331.22138157146, -8952.924186339878, 6694.146298664367, -9296.31403640676, -21897.71347018641, 0.1255, 0.636, -0.342, 192.0, 2.5, 32.0, 13.0, 72.0, 120.5, 88.0, 0.0, 0.0, 0.0, 1.6620649250524597E9, 0.0, 2022-09-01 16:42:05.052
192.0, -21408.545542782016, -21239.96868610009, -29747.17673625669, -17322.490194140697, -12541.563813872794, -16023.563268609438, 26551.704293692626, -15433.00782835577, -25628.711358155175, -2562.0463564451165, -29699.187540911145, -27407.440830164058, -9041.906481016455, 6650.560396976519, -9367.169066330083, -21970.87072978863, 0.1255, 0.636, -0.342, 192.0, 0.0, 0.0, 0.0, 0.0, 0.0, 0.0, 0.0, 0.0, 0.0, 1.6620649250524638E9, 0.0, 2022-09-01 16:42:05.052
194.0, -21449.829214790967, -21292.852913481347, -29767.338009755375, -17377.363726778476, -12550.370401188184, -16085.701118195191, 26689.05576337049, -15477.48779982183, -25520.752432436042, -2483.390567706891, -29597.643565850685, -27315.821029641753, -8935.422770431373, 6713.078226218013, -9269.201370382472, -21870.600804162124, 0.1255, 0.636, -0.342, 192.0, 0.0, 0.0, 0.0, 0.0, 0.0, 0.0, 0.0, 0.0, 0.0, 1.662064925052469E9, 0.0, 2022-09-01 16:42:05.052
196.0, -21432.99835121612, -21267.26016608002, -29772.4789109801, -17348.507624686674, -12565.770753117891, -16041.9364025517, 26604.096782695866, -15455.91836642246, -25627.59377093241, -2577.0890804635383, -29711.481000361564, -27425.255170494936, -9040.386562393494, 6619.35736171691, -9368.75604018641, -21976.68218334701, 0.1255, 0.636, -0.342, 192.0, 0.0, 0.0, 0.0, 0.0, 0.0, 0.0, 0.0, 0.0, 0.0, 1.6620649250524733E9, 0.0, 2022-09-01 16:42:05.052
198.0, -21425.577572056958, -21272.222253349097, -29749.389558957766, -17356.91188060187, -12541.496758639427, -16061.382420227817, 26630.918876042233, -15460.34401182461, -25532.777670952997, -2477.9590938042516, -29605.399621176675, -27323.107698334185, -8946.397476958928, 6716.945078008781, -9291.821335771243, -21871.584280918156, 0.1255, 0.636, -0.342, 192.0, 0.0, 0.0, 0.0, 0.0, 0.0, 0.0, 0.0, 0.0, 0.0, 1.6620649250524771E9, 0.0, 2022-09-01 16:42:05.052
200.0, -21443.794243788034, -21276.849064451348, -29784.392390774774, -17361.315174259566, -12582.020471336898, -16051.79352185649, 26648.12971927282, -15474.269148620268, -25603.900921809785, -2573.915132750885, -29694.29250887543, -27410.637129621166, -9027.243736653774, 6634.109513057413, -9362.430496505558, -21959.11371220514, 0.14775, 0.741, -0.4, 192.0, 2.5, 40.0, 13.0, 56.0, 120.5, 88.0, 0.0, 0.0, 0.0, 1.6620649250524812E9, 0.0, 2022-09-01 16:42:05.052
202.0, -21416.703929508203, -21259.839386920856, -29744.36041645532, -17349.401694464887, -12541.630869106159, -16055.056876546965, 26573.340782325362, -15456.00777340028, -25524.216952826617, -2462.1564104743493, -29602.203321719568, -27314.681090674534, -8951.158398527909, 6729.260889203655, -9306.327617922738, -21865.14697851503, 0.14775, 0.741, -0.4, 192.0, 0.0, 0.0, 0.0, 0.0, 0.0, 0.0, 0.0, 0.0, 0.0, 1.6620649250524852E9, 0.0, 2022-09-01 16:42:05.052
204.0, -21432.99835121612, -21264.086218367367, -29779.877338394803, -17360.15288354789, -12578.310081757318, -16052.218205001142, 26701.81860945447, -15470.58111078514, -25597.97770952913, -2578.1172607084827, -29692.102037918812, -27407.731402841975, -9017.230155137797, 6616.026951793069, -9363.503380239414, -21962.48882561789, 0.14775, 0.741, -0.4, 192.0, 0.0, 0.0, 0.0, 0.0, 0.0, 0.0, 0.0, 0.0, 0.0, 1.6620649250524895E9, 0.0, 2022-09-01 16:42:05.052
206.0, -21395.46977227566, -21237.44293897664, -29739.845364075347, -17343.76905486215, -12535.059456236299, -16048.8877950773, 26517.86375258729, -15453.616136743563, -25520.439508013667, -2467.9678640327293, -29597.66591759514, -27304.980433580928, -8946.620994403482, 6742.157845754367, -9310.41798715806, -21877.19456877644, 0.14775, 0.741, -0.4, 192.0, 0.0, 0.0, 0.0, 0.0, 0.0, 0.0, 0.0, 0.0, 0.0, 1.6620649250524936E9, 0.0, 2022-09-01 16:42:05.052
208.0, -21436.440519862237, -21271.574052759894, -29803.681946239707, -17388.897226917416, -12602.427614024595, -16080.56021697047, 26745.113938464398, -15502.991140245336, -25589.305232680468, -2573.8033740286082, -29681.59671802482, -27400.735306827464, -9010.077596912099, 6617.524518671575, -9366.654976207612, -21978.15739848106, 0.14775, 0.741, -0.4, 192.0, 0.0, 0.0, 0.0, 0.0, 0.0, 0.0, 0.0, 0.0, 0.0, 1.6620649250524976E9, 0.0, 2022-09-01 16:42:05.052
210.0, -21375.062629587967, -21220.05328179041, -29736.157326240223, -17338.248173981687, -12527.750435799413, -16044.8868328198, 26479.038772468422, -15446.888261662516, -25534.185830853683, -2465.6209308649222, -29607.81360957785, -27313.83172438523, -8969.352718514529, 6749.712735380261, -9332.389751957626, -21898.24991205334, 0.15487499999999998, 0.7915, -0.43000000000000005, 192.0, 2.5, 8.0, 13.0, 40.0, 120.5, 80.0, 0.0, 0.0, 0.0, 1.6620649250525017E9, 0.0, 2022-09-01 16:42:05.052
212.0, -21463.217909719697, -21300.050175195956, -29827.643016295795, -17418.9603232098, -12617.984428165488, -16108.343435328417, 26789.21393027472, -15518.92793404197, -25586.220691945637, -2576.84321127453, -29679.29448834592, -27405.652690607632, -9016.112567915032, 6595.843326549927, -9360.731763926955, -21980.81725607124, 0.15487499999999998, 0.7915, -0.43000000000000005, 192.0, 0.0, 0.0, 0.0, 0.0, 0.0, 0.0, 0.0, 0.0, 0.0, 1.6620649250525074E9, 0.0, 2022-09-01 16:42:05.052
214.0, -21370.36876325235, -21211.53726715294, -29731.17288722669, -17330.96150528926, -12515.971066471466, -16031.185213468698, 26455.547089045896, -15426.90580211947, -25565.67943879121, -2484.999893307673, -29629.13717378821, -27335.08823336223, -8988.932846657377, 6726.4222176578305, -9346.426647475559, -21915.66192098402, 0.15487499999999998, 0.7915, -0.43000000000000005, 192.0, 0.0, 0.0, 0.0, 0.0, 0.0, 0.0, 0.0, 0.0, 0.0, 1.6620649250525117E9, 0.0, 2022-09-01 16:42:05.052
216.0, -21448.421054890285, -21284.8733407108, -29811.214484121145, -17411.1595643949, -12597.465526755515, -16099.80506894649, 26821.512201012636, -15507.64030309204, -25577.659973819256, -2559.230036643748, -29660.317857303366, -27387.99481248794, -8989.223419335296, 6596.2233062056675, -9343.878548607654, -21971.273061188826, 0.15487499999999998, 0.7915, -0.43000000000000005, 192.0, 0.0, 0.0, 0.0, 0.0, 0.0, 0.0, 0.0, 0.0, 0.0, 1.6620649250525157E9, 0.0, 2022-09-01 16:42:05.052
218.0, -21358.589393924405, -21194.728755322547, -29717.337157408856, -17317.773976060627, -12503.76701399887, -16013.572038837916, 26444.99706566299, -15411.684264145408, -25566.841729502885, -2472.684082112799, -29621.649339395684, -27326.70632919149, -8985.043643122155, 6737.486331163208, -9336.27895549285, -21911.549200004247, 0.15487499999999998, 0.7915, -0.43000000000000005, 192.0, 0.0, 0.0, 0.0, 0.0, 0.0, 0.0, 0.0, 0.0, 0.0, 1.66206492505252E9, 0.0, 2022-09-01 16:42:05.052
220.0, -21459.932203284767, -21294.439887337674, -29811.303891098964, -17410.69017776134, -12599.991273878966, -16094.105374110386, 26843.685131512302, -15504.868686779582, -25560.784406755498, -2543.3379463360247, -29643.688159428617, -27372.437998347046, -8975.052413350631, 6614.551736659019, -9322.711446608479, -21938.550107306255, 0.1594375, 0.81675, -0.44600000000000006, 192.0, 2.5, 16.0, 13.0, 40.0, 120.5, 72.0, 0.0, 0.0, 0.0, 1.662064925052524E9, 0.0, 2022-09-01 16:42:05.052
222.0, -21367.954774851176, -21203.803563571404, -29721.539285366453, -17312.09663296898, -12516.060473449288, -16005.50305908955, 26437.956266159566, -15410.81254611165, -25579.67163082023, -2484.3516927184696, -29647.510307730474, -27348.342817824225, -9003.752053231246, 6745.220034744744, -9354.741496412933, -21918.835868696675, 0.1594375, 0.81675, -0.44600000000000006, 192.0, 0.0, 0.0, 0.0, 0.0, 0.0, 0.0, 0.0, 0.0, 0.0, 1.6620649250525284E9, 0.0, 2022-09-01 16:42:05.052
224.0, -21469.85637782292, -21303.469992097616, -29812.75675448856, -17415.272285374678, -12605.132175103687, -16104.320121326462, 26846.210878635753, -15509.02611124827, -25556.62698228681, -2548.07651616055, -29639.955418104582, -27365.061922676796, -8969.732698170268, 6632.611946178908, -9320.163347740574, -21924.58026702169, 0.1594375, 0.81675, -0.44600000000000006, 192.0, 0.0, 0.0, 0.0, 0.0, 0.0, 0.0, 0.0, 0.0, 0.0, 1.6620649250525324E9, 0.0, 2022-09-01 16:42:05.052
226.0, -21375.777885410535, -21201.456630403594, -29722.656872589218, -17308.229781178212, -12515.993418215921, -15999.401032853251, 26446.159356374665, -15408.175040265924, -25593.6414711048, -2514.1465680773936, -29664.050598627404, -27361.507995308402, -9015.866698726022, 6712.720598306728, -9357.580167958757, -21922.68036874299, 0.1594375, 0.81675, -0.44600000000000006, 192.0, 0.0, 0.0, 0.0, 0.0, 0.0, 0.0, 0.0, 0.0, 0.0, 1.6620649250525365E9, 0.0, 2022-09-01 16:42:05.052
228.0, -21467.19652023274, -21299.73725077358, -29799.390411304288, -17401.92829393486, -12593.375157520195, -16098.016929390065, 26830.25173309466, -15506.187439702446, -25552.849537473863, -2526.0823996165277, -29632.2440662675, -27351.382655070145, -8959.9649858433, 6633.863643868404, -9299.711501563967, -21902.317929544202, 0.1594375, 0.81675, -0.44600000000000006, 192.0, 0.0, 0.0, 0.0, 0.0, 0.0, 0.0, 0.0, 0.0, 0.0, 1.6620649250525405E9, 0.0, 2022-09-01 16:42:05.052
230.0, -21390.95471989569, -21214.934732310147, -29728.848305803338, -17313.460089380755, -12535.350028914218, -16010.867477758824, 26461.29148737091, -15424.603572440574, -25615.412070204267, -2520.0250768691394, -29676.791092966927, -27371.856852991208, -9025.254431397252, 6698.348426621965, -9362.452848250014, -21930.05644441324, 0.16071875000000002, 0.833375, -0.45500000000000007, 192.0, 2.5, 8.0, 13.0, 72.0, 120.5, 64.0, 0.0, 0.0, 0.0, 1.6620649250525448E9, 0.0, 2022-09-01 16:42:05.052
232.0, -21470.86220632341, -21302.665329297226, -29787.164007087234, -17402.598846268516, -12591.721128430501, -16102.509630025583, 26801.909721125332, -15511.954189771914, -25545.987551926086, -2509.4974052306898, -29618.363632960754, -27338.530402008346, -8952.790075873147, 6652.683812699773, -9288.178001425029, -21890.00211834933, 0.16071875000000002, 0.833375, -0.45500000000000007, 192.0, 0.0, 0.0, 0.0, 0.0, 0.0, 0.0, 0.0, 0.0, 0.0, 1.662064925052549E9, 0.0, 2022-09-01 16:42:05.052
234.0, -21401.99648165661, -21228.39048247224, -29738.012521030014, -17326.80408082057, -12544.424837163073, -16022.780957553501, 26493.455647642095, -15442.82024417165, -25624.531581942032, -2551.943367951318, -29684.07776165936, -27389.224158432982, -9035.290364657685, 6666.676004728795, -9360.977633115965, -21942.752235263855, 0.16071875000000002, 0.833375, -0.45500000000000007, 192.0, 0.0, 0.0, 0.0, 0.0, 0.0, 0.0, 0.0, 0.0, 0.0, 1.6620649250525527E9, 0.0, 2022-09-01 16:42:05.052
236.0, -21456.132406727364, -21293.277596625998, -29781.643126206774, -17402.844715457526, -12579.807648635824, -16103.13547887033, 26762.414188672807, -15512.714149083395, -25548.379188582803, -2522.774341437142, -29608.126534000225, -27332.115451349673, -8950.376087471974, 6660.484571514675, -9283.797059511788, -21884.6153479356, 0.16071875000000002, 0.833375, -0.45500000000000007, 192.0, 0.0, 0.0, 0.0, 0.0, 0.0, 0.0, 0.0, 0.0, 0.0, 1.6620649250525568E9, 0.0, 2022-09-01 16:42:05.052
238.0, -21413.552333540003, -21239.991037844546, -29757.03385556148, -17350.094598543, -12556.427723935572, -16035.141472237287, 26529.933694593157, -15463.473256048354, -25627.83964012142, -2567.2543129032033, -29695.991241454038, -27401.94230102805, -9043.851082784067, 6644.883053884871, -9368.66663320859, -21962.511177362347, 0.16071875000000002, 0.833375, -0.45500000000000007, 192.0, 0.0, 0.0, 0.0, 0.0, 0.0, 0.0, 0.0, 0.0, 0.0, 1.6620649250525613E9, 0.0, 2022-09-01 16:42:05.052
240.0, -21440.03915071954, -21274.479779539084, -29766.71216091063, -17393.188761852834, -12556.561834402304, -16085.008214117077, 26711.47456305916, -15499.88424776605, -25530.117813362816, -2482.138870017394, -29600.48223739651, -27317.83268664273, -8948.476189193272, 6695.107423675946, -9279.483172831915, -21880.368516489092, 0.16335937500000003, 0.8396874999999999, -0.4615, 192.0, 2.5, 24.0, 13.0, 56.0, 120.5, 48.0, 0.0, 0.0, 0.0, 1.662064925052565E9, 0.0, 2022-09-01 16:42:05.052
242.0, -21423.744729011625, -21243.500261724028, -29771.115454568324, -17358.252985269188, -12564.474351939483, -16042.69636186318, 26571.01620090201, -15478.672442277963, -25622.139945285315, -2560.504086077701, -29691.409133840698, -27395.03561199136, -9038.866643770534, 6642.938452117259, -9365.224464562472, -21964.925165763518, 0.16335937500000003, 0.8396874999999999, -0.4615, 192.0, 0.0, 0.0, 0.0, 0.0, 0.0, 0.0, 0.0, 0.0, 0.0, 1.6620649250525692E9, 0.0, 2022-09-01 16:42:05.052
244.0, -21446.096473466932, -21279.285404596976, -29779.139730827777, -17395.513343276187, -12571.15752353162, -16095.401775288794, 26649.046140795486, -15513.272942694777, -25551.91076420674, -2494.655846912366, -29611.792220090894, -27317.497410475902, -8962.82600913358, 6687.776051494605, -9310.239173202417, -21887.185798547962, 0.16335937500000003, 0.8396874999999999, -0.4615, 192.0, 0.0, 0.0, 0.0, 0.0, 0.0, 0.0, 0.0, 0.0, 0.0, 1.6620649250525744E9, 0.0, 2022-09-01 16:42:05.052
246.0, -21418.156792897797, -21244.0143518465, -29773.440035991676, -17356.822473624048, -12573.236235765962, -16041.0870362624, 26619.139506714288, -15478.11364866658, -25627.39260523231, -2575.3679961404796, -29695.79007575394, -27402.299928939337, -9042.55468160566, 6617.748036116128, -9382.770583959888, -21966.57919485321, 0.16335937500000003, 0.8396874999999999, -0.4615, 192.0, 0.0, 0.0, 0.0, 0.0, 0.0, 0.0, 0.0, 0.0, 0.0, 1.6620649250525787E9, 0.0, 2022-09-01 16:42:05.052
248.0, -21418.961455698187, -21255.25727930752, -29756.542117183464, -17378.570720979063, -12550.862139566201, -16068.579681942427, 26596.653651792247, -15483.902750480504, -25527.48030751709, -2476.2827129701036, -29586.065362222835, -27298.29726198879, -8946.352773470018, 6714.508737863152, -9301.767862053855, -21858.7096761119, 0.16335937500000003, 0.8396874999999999, -0.4615, 192.0, 0.0, 0.0, 0.0, 0.0, 0.0, 0.0, 0.0, 0.0, 0.0, 1.6620649250525827E9, 0.0, 2022-09-01 16:42:05.052
250.0, -21437.088720451444, -21261.78398868847, -29786.56050998694, -17383.890436159425, -12586.021433594398, -16054.855710846867, 26674.102446329885, -15488.864837749583, -25621.40233771829, -2575.9714932407733, -29691.476189074063, -27411.19592323255, -9027.869585498522, 6614.104701769913, -9373.539313499847, -21964.031095985305, 0.16335937500000003, 0.8396874999999999, -0.4615, 192.0, 0.0, 0.0, 0.0, 0.0, 0.0, 0.0, 0.0, 0.0, 0.0, 1.6620649250525868E9, 0.0, 2022-09-01 16:42:05.052
252.0, -21415.94397019672, -21252.619773461793, -29752.965838070613, -17376.38025002244, -12543.9107470406, -16054.900414335778, 26544.216459300096, -15476.593730043618, -25535.236362843083, -2476.461526925746, -29598.917615284638, -27311.529494706334, -8945.861035092, 6725.61755485744, -9298.83978353021, -21860.341353457137, 0.158, 0.844, -0.462, 192.0, 2.0, 120.0, 13.0, 48.0, 120.5, 72.0, 0.0, 0.0, 0.0, 1.662064925052591E9, 0.0, 2022-09-01 16:42:05.052
254.0, -21474.550244158538, -21303.849971753356, -29823.105612171366, -17427.051654702624, -12615.659846742135, -16081.744859426602, 26717.37542359536, -15524.985256789358, -25624.866858108864, -2597.0491882621277, -29709.044660215935, -27427.177420518092, -9031.714085544836, 6589.204858446701, -9367.079659352263, -21970.49075013289, 0.158, 0.844, -0.462, 192.0, 0.0, 0.0, 0.0, 0.0, 0.0, 0.0, 0.0, 0.0, 0.0, 1.6620649250525951E9, 0.0, 2022-09-01 16:42:05.052
0.0, -21402.46586829017, -21241.01921808949, -29737.051396018436, -17359.95171784779, -12529.046836977821, -16033.219222214131, 26497.948348277612, -15458.175892612446, -25565.76884576903, -2488.39735846488, -29630.81355462236, -27337.92690490805, -8977.39934651844, 6715.715732063739, -9320.856251818688, -21884.23536827986, 0.158, 0.844, -0.462, 192.0, 0.0, 0.0, 0.0, 0.0, 0.0, 0.0, 0.0, 0.0, 0.0, 1.6620649250525992E9, 0.0, 2022-09-01 16:42:05.052
2.0, -21464.53666264256, -21290.796552991458, -29815.841295223392, -17416.389872597443, -12611.234201339985, -16074.301728522985, 26764.31408695151, -15519.620838120085, -25600.92813979723, -2578.9442752533287, -29682.06610465838, -27403.171646973093, -9012.044550424165, 6602.63825686434, -9340.838711361732, -21949.614220811633, 0.158, 0.844, -0.462, 192.0, 0.0, 0.0, 0.0, 0.0, 0.0, 0.0, 0.0, 0.0, 0.0, 1.6620649250526035E9, 0.0, 2022-09-01 16:42:05.052
4.0, -21391.96054839618, -21223.607209158803, -29738.012521030014, -17351.659220654874, -12531.48317712345, -16021.752777308559, 26457.33522860232, -15452.118569865057, -25567.087598691895, -2477.176782748316, -29627.237275509513, -27330.036739115327, -8990.273951324696, 6726.198700213278, -9327.22649898845, -21881.486103711857, 0.158, 0.844, -0.462, 192.0, 0.0, 0.0, 0.0, 0.0, 0.0, 0.0, 0.0, 0.0, 0.0, 1.6620649250526075E9, 0.0, 2022-09-01 16:42:05.052
6.0, -21469.476398167182, -21297.88205598379, -29816.735365001605, -17426.671675046884, -12613.514079274426, -16083.577702471937, 26794.198369288253, -15526.2146027344, -25594.35672692737, -2577.2902461636363, -29678.243956356524, -27404.42334466259, -9013.028027180198, 6598.838460306938, -9342.716257895978, -21947.96019172194, 0.16, 0.842, -0.46, 192.0, 2.5, 0.0, 13.0, 40.0, 120.5, 80.0, 0.0, 0.0, 0.0, 1.6620649250526116E9, 0.0, 2022-09-01 16:42:05.052
8.0, -21390.977071640144, -21221.640255646736, -29724.757936568018, -17343.590240906506, -12522.073092707766, -16013.348521393362, 26438.068024881846, -15443.848424416594, -25563.645430045777, -2479.1884397492936, -29626.1420400312, -27330.640236215622, -8992.196201347853, 6734.938232295302, -9323.672571620056, -21883.095429312638, 0.16, 0.842, -0.46, 192.0, 0.0, 0.0, 0.0, 0.0, 0.0, 0.0, 0.0, 0.0, 0.0, 1.6620649250526156E9, 0.0, 2022-09-01 16:42:05.052
10.0, -21482.57452041799, -21308.901466000258, -29806.94530093018, -17427.83396575856, -12606.45092802655, -16094.865333421867, 26825.73668071469, -15533.523623171286, -25576.87766276332, -2564.683862290843, -29658.864993913772, -27383.435056619055, -8999.907553184934, 6602.280628953055, -9317.03410351683, -21932.91746770352, 0.16, 0.842, -0.46, 192.0, 0.0, 0.0, 0.0, 0.0, 0.0, 0.0, 0.0, 0.0, 0.0, 1.6620649250526202E9, 0.0, 2022-09-01 16:42:05.052
12.0, -21398.57666475495, -21222.847249847324, -29724.31090167891, -17332.95081054578, -12521.469595607472, -16015.986027239089, 26432.1895160901, -15445.569508739653, -25591.093372236894, -2499.7743963926314, -29649.030226353436, -27346.331160823247, -9015.442015581371, 6720.275487932621, -9334.066132791773, -21899.52396148729, 0.16, 0.842, -0.46, 192.0, 0.0, 0.0, 0.0, 0.0, 0.0, 0.0, 0.0, 0.0, 0.0, 1.6620649250526245E9, 0.0, 2022-09-01 16:42:05.052
14.0, -21486.463723953217, -21312.79066953548, -29812.71205099965, -17424.034169201157, -12614.788128708378, -16105.393005060318, 26836.46551805324, -15544.945364587948, -25576.20711042966, -2543.2485393582033, -29649.454909498087, -27368.36998085618, -8992.062090881122, 6605.543983643531, -9307.17698421204, -21919.3723105636, 0.16, 0.842, -0.46, 192.0, 0.0, 0.0, 0.0, 0.0, 0.0, 0.0, 0.0, 0.0, 0.0, 1.6620649250526285E9, 0.0, 2022-09-01 16:42:05.052
16.0, -21360.779864881024, -21186.413906385173, -29698.1593606662, -17300.74194678568, -12504.772842499357, -15987.152276891742, 26435.85520218077, -15423.731854406817, -25587.606500101865, -2506.502271473679, -29643.15171756169, -27339.625637486653, -9018.615963294025, 6723.270621689632, -9336.971859570964, -21895.299481785238, 0.166, 0.85, -0.458, 192.0, 2.5, 24.0, 13.0, 72.0, 120.5, 88.0, 0.0, 0.0, 0.0, 1.6620649250526328E9, 0.0, 2022-09-01 16:42:05.052
18.0, -21462.86028180841, -21295.91510247172, -29791.880225167304, -17423.229506400767, -12601.801765179845, -16105.169487615764, 26836.420814564328, -15534.082416782669, -25526.496830761058, -2528.4293327843347, -29605.0866967543, -27332.36132053868, -8959.070916065088, 6642.938452117259, -9277.06918443074, -21882.13430430106, 0.166, 0.85, -0.458, 192.0, 0.0, 0.0, 0.0, 0.0, 0.0, 0.0, 0.0, 0.0, 0.0, 1.6620649250526369E9, 0.0, 2022-09-01 16:42:05.052
20.0, -21370.32405976344, -21196.896874534712, -29715.347852152332, -17330.782691333618, -12527.035179976843, -16015.471937116616, 26451.300257599385, -15443.468444760854, -25584.812532044954, -2507.6422104408994, -29650.10311008729, -27353.55077428231, -9024.248602896763, 6693.207525397244, -9343.520920696368, -21917.070080884707, 0.166, 0.85, -0.458, 192.0, 0.0, 0.0, 0.0, 0.0, 0.0, 0.0, 0.0, 0.0, 0.0, 1.662064925052642E9, 0.0, 2022-09-01 16:42:05.052
22.0, -21467.285927210563, -21298.999643206556, -29798.51869327053, -17437.82519553008, -12608.842564683267, -16124.816670991979, 26814.02436662011, -15550.689762912962, -25537.739758222076, -2515.8005971670864, -29609.154714245167, -27332.383672283137, -8960.233206776764, 6628.2757077545775, -9284.735832778912, -21897.914635886507, 0.166, 0.85, -0.458, 192.0, 0.0, 0.0, 0.0, 0.0, 0.0, 0.0, 0.0, 0.0, 0.0, 1.6620649250526462E9, 0.0, 2022-09-01 16:42:05.052
24.0, -21385.36678378186, -21209.905589807702, -29734.436241917163, -17339.38811294891, -12548.537558142849, -16024.92672502121, 26473.204967165588, -15463.115628137068, -25618.02722430554, -2537.2806235886364, -29673.661848743184, -27376.99775421593, -9051.920062532434, 6652.9296818887815, -9368.934854142053, -21947.513156832836, 0.166, 0.85, -0.458, 192.0, 0.0, 0.0, 0.0, 0.0, 0.0, 0.0, 0.0, 0.0, 0.0, 1.6620649250526505E9, 0.0, 2022-09-01 16:42:05.052
26.0, -21454.63483984886, -21290.282462868985, -29789.71210595514, -17420.144965665935, -12589.910637129622, -16107.874048694855, 26786.151741284342, -15538.418655206999, -25528.70965346213, -2517.3205157900475, -29592.14503671468, -27316.670395931054, -8957.908625353411, 6659.299929058544, -9281.114850177151, -21874.13237978606, 0.168, 0.846, -0.462, 192.0, 2.5, 32.0, 13.0, 56.0, 120.5, 72.0, 0.0, 0.0, 0.0, 1.6620649250526545E9, 0.0, 2022-09-01 16:42:05.052
28.0, -21387.065516360464, -21208.408022929198, -29733.810393072417, -17336.169461747344, -12540.647392350125, -16018.623533084814, 26515.114488019288, -15463.49560779281, -25607.11957301135, -2543.1814841248374, -29669.616182996775, -27376.03662920435, -9048.343783419585, 6660.596330236952, -9355.881435380154, -21933.00687468134, 0.168, 0.846, -0.462, 192.0, 0.0, 0.0, 0.0, 0.0, 0.0, 0.0, 0.0, 0.0, 0.0, 1.6620649250526588E9, 0.0, 2022-09-01 16:42:05.052
30.0, -21449.024551990577, -21280.715916242116, -29776.50222498205, -17415.20523014131, -12585.01560509391, -16102.554333514492, 26740.800051784525, -15536.876384839581, -25524.66398771572, -2494.4993847011788, -29589.373420402222, -27314.412869741067, -8959.607357932015, 6663.010318638125, -9280.533704821313, -21869.527920428267, 0.168, 0.846, -0.462, 192.0, 0.0, 0.0, 0.0, 0.0, 0.0, 0.0, 0.0, 0.0, 0.0, 1.662064925052663E9, 0.0, 2022-09-01 16:42:05.052
32.0, -21384.606824470382, -21208.005691529, -29733.83274481687, -17341.0421420386, -12551.979726788966, -16017.103614461854, 26564.288325820962, -15463.58501477063, -25603.49859040959, -2531.916204919363, -29660.094339858813, -27372.996791958427, -9035.022143724222, 6650.448638254242, -9355.099124324219, -21936.024360182808, 0.168, 0.846, -0.462, 192.0, 0.0, 0.0, 0.0, 0.0, 0.0, 0.0, 0.0, 0.0, 0.0, 1.6620649250526671E9, 0.0, 2022-09-01 16:42:05.052
34.0, -21425.175240656765, -21264.510901512018, -29754.35164622684, -17396.832096199047, -12564.988442061955, -16085.477600750639, 26702.8020862105, -15511.328340927166, -25504.189789794662, -2465.0621372535393, -29567.535766069388, -27292.239939241404, -8945.10107578052, 6694.816850998027, -9274.319919862739, -21854.41814117648, 0.168, 0.846, -0.462, 192.0, 0.0, 0.0, 0.0, 0.0, 0.0, 0.0, 0.0, 0.0, 0.0, 1.6620649250526712E9, 0.0, 2022-09-01 16:42:05.052
36.0, -21412.94883643971, -21232.011465074, -29754.329294482388, -17364.10914231648, -12569.01175606391, -16037.398998427272, 26618.468954380627, -15487.277863893256, -25605.979634044128, -2552.099830162505, -29671.516081275477, -27384.79851303083, -9039.716010059836, 6632.276670012077, -9359.256548792906, -21947.11082543264, 0.166, 0.85, -0.448, 192.0, 2.5, 24.0, 13.0, 72.0, 121.0, 0.0, 0.0, 0.0, 0.0, 1.6620649250526755E9, 0.0, 2022-09-01 16:42:05.052
38.0, -21445.82825253347, -21273.898634183246, -29766.868623121816, -17405.750442236716, -12567.693003141047, -16088.94212114121, 26645.156937260264, -15518.324436941677, -25530.05075812945, -2491.392492221891, -29592.659126837152, -27309.07080281625, -8964.100058567532, 6705.299819147565, -9293.31890264975, -21864.744647114832, 0.166, 0.85, -0.448, 192.0, 0.0, 0.0, 0.0, 0.0, 0.0, 0.0, 0.0, 0.0, 0.0, 1.6620649250526798E9, 0.0, 2022-09-01 16:42:05.052
40.0, -21458.792264317544, -21275.01622140601, -29795.545911257974, -17405.079889903056, -12598.672520956103, -16070.479580221127, 26660.445530467696, -15523.375931188577, -25629.87364886685, -2592.5564876266108, -29703.367317124288, -27418.3708332027, -9057.865626557545, 6594.122242226868, -9370.09714485373, -21959.24782267187, 0.166, 0.85, -0.448, 192.0, 0.0, 0.0, 0.0, 0.0, 0.0, 0.0, 0.0, 0.0, 0.0, 1.662064925052684E9, 0.0, 2022-09-01 16:42:05.052
42.0, -21450.34330491344, -21283.062849409922, -29776.301059281956, -17413.97588419627, -12573.325642743785, -16092.428993276239, 26585.187206886676, -15526.862803323604, -25556.73874100909, -2487.68210264231, -29610.42876367912, -27324.22528555695, -8986.228285578285, 6695.777976009605, -9302.88544927662, -21867.628022149565, 0.166, 0.85, -0.448, 192.0, 0.0, 0.0, 0.0, 0.0, 0.0, 0.0, 0.0, 0.0, 0.0, 1.6620649250526881E9, 0.0, 2022-09-01 16:42:05.052
44.0, -21484.83204660798, -21305.056965953943, -29826.23485639511, -17434.628896072973, -12628.221527126017, -16098.821592190456, 26705.70781298969, -15549.952155345936, -25659.02032363657, -2627.8275403770854, -29722.12043072229, -27441.683702669587, -9080.552647179682, 6560.371108099354, -9381.854162437221, -21983.834741572708, 0.166, 0.85, -0.448, 192.0, 0.0, 0.0, 0.0, 0.0, 0.0, 0.0, 0.0, 0.0, 0.0, 1.6620649250526924E9, 0.0, 2022-09-01 16:42:05.052
0.0, -10743.276565465518, -10647.29817477443, -14911.47457498009, -8728.91500340879, -6318.145253437192, -8057.69211741592, 13454.61022312763, -7788.6888728962995, -12764.8130374924, -1242.5558260149749, -14793.658529956167, -13655.977088925492, -4483.26819935658, 3334.544996564984, -4640.713887299763, -10926.516166510126, 0.168, 0.848, -0.462, 192.0, 2.5, 32.0, 13.0, 64.0, 120.5, 72.0, 0.0, 0.0, 0.0, 1.6620649251512127E9, 0.0, 2022-09-01 16:42:05.151
2.0, -21401.482391534137, -21205.14466823872, -29754.12812878229, -17365.29378477261, -12569.369383975194, -16020.41167264124, 26550.989037870055, -15488.753079027305, -25618.4966109391, -2525.1659780938603, -29663.894136416216, -27367.94529771153, -9049.439018897894, 6650.962728376714, -9346.56075794229, -21950.351828378658, 0.168, 0.848, -0.462, 192.0, 0.0, 0.0, 0.0, 0.0, 0.0, 0.0, 0.0, 0.0, 0.0, 1.662064925630163E9, 0.0, 2022-09-01 16:42:05.630
4.0, -21452.466720636694, -21265.87435792379, -29782.917175640727, -17431.812576271604, -12588.949512118044, -16090.931426397734, 26737.827269771966, -15543.157225031522, -25537.695054733165, -2486.2515909971703, -29578.398713874667, -27299.034869555817, -8954.57821542957, 6672.554513520541, -9267.480286059414, -21871.070190795683, 0.168, 0.848, -0.462, 192.0, 0.0, 0.0, 0.0, 0.0, 0.0, 0.0, 0.0, 0.0, 0.0, 1.662064925630505E9, 0.0, 2022-09-01 16:42:05.630
6.0, -21413.261760862086, -21216.007616044, -29762.532384697486, -17382.43757276983, -12571.112820042708, -16021.9315912642, 26606.108439696844, -15493.49164885183, -25624.419823219756, -2552.5021615627006, -29670.86788068627, -27382.60804207421, -9039.470140870826, 6640.0774288269795, -9348.952394599008, -21949.21188941144, 0.168, 0.848, -0.462, 192.0, 0.0, 0.0, 0.0, 0.0, 0.0, 0.0, 0.0, 0.0, 0.0, 1.6620649256305213E9, 0.0, 2022-09-01 16:42:05.630
8.0, -21432.596019815926, -21246.093064080844, -29760.766596885514, -17412.187744639843, -12561.970956560488, -16068.624385431336, 26698.845827441914, -15521.54308814324, -25532.732967464086, -2483.30116072907, -29578.62223131922, -27301.761782379366, -8954.19823577383, 6700.874173745415, -9269.201370382472, -21857.212109233395, 0.17200000000000001, 0.846, -0.46, 192.0, 2.5, 48.0, 13.0, 56.0, 120.5, 80.0, 0.0, 0.0, 0.0, 1.6620649256305285E9, 0.0, 2022-09-01 16:42:05.630
10.0, -21413.932313195743, -21214.71121486559, -29761.9735910861, -17381.007061124692, -12564.004965305921, -16021.21633544163, 26671.084960828422, -15494.475125607863, -25605.73376485512, -2542.555635280089, -29655.556935734385, -27371.767446013386, -9022.59457380707, 6626.822844364982, -9321.973839041453, -21925.630799011087, 0.17200000000000001, 0.846, -0.46, 192.0, 0.0, 0.0, 0.0, 0.0, 0.0, 0.0, 0.0, 0.0, 0.0, 1.6620649256305344E9, 0.0, 2022-09-01 16:42:05.630
12.0, -21419.408490587295, -21230.804470873412, -29747.467308934607, -17401.749479979215, -12542.547290628827, -16051.45824568966, 26656.42221646574, -15506.768585058284, -25526.09449936086, -2463.1845907192937, -29566.75345501345, -27280.192348979992, -8941.077761778566, 6708.250249415666, -9250.537663762292, -21838.727216568856, 0.17200000000000001, 0.846, -0.46, 192.0, 0.0, 0.0, 0.0, 0.0, 0.0, 0.0, 0.0, 0.0, 0.0, 1.6620649256305404E9, 0.0, 2022-09-01 16:42:05.630
14.0, -21444.308333910507, -21241.86858437879, -29787.812207676438, -17408.49970680472, -12591.20703830803, -16043.992763041588, 26731.658188302303, -15522.68302711046, -25617.02139580505, -2564.773269268664, -29669.549127763406, -27384.23971941945, -9028.584841321093, 6599.598419618419, -9326.354780954693, -21942.841642241674, 0.17200000000000001, 0.846, -0.46, 192.0, 0.0, 0.0, 0.0, 0.0, 0.0, 0.0, 0.0, 0.0, 0.0, 1.6620649256305468E9, 0.0, 2022-09-01 16:42:05.630
16.0, -21427.656284291304, -21232.63731391875, -29757.70440789514, -17401.034224156647, -12551.376229688673, -16050.385361955807, 26600.69931753866, -15511.663617093995, -25548.87092696082, -2465.2409512091817, -29590.5357111139, -27299.638366656112, -8967.586930702559, 6709.256077916155, -9286.725138035434, -21862.24125173584, 0.17200000000000001, 0.846, -0.46, 192.0, 0.0, 0.0, 0.0, 0.0, 0.0, 0.0, 0.0, 0.0, 0.0, 1.6620649256305556E9, 0.0, 2022-09-01 16:42:05.630
18.0, -21465.698953354236, -21262.342782299853, -29810.85685620986, -17432.34901813853, -12606.249762326452, -16066.188045285708, 26777.233395246672, -15534.261230738311, -25611.902846324785, -2563.2980541346137, -29667.425712040153, -27386.45254212052, -9023.9803819633, 6608.472062167176, -9336.860100848688, -21947.624915555112, 0.168, 0.852, -0.456, 192.0, 2.5, 32.0, 13.0, 80.0, 120.5, 96.0, 0.0, 0.0, 0.0, 1.6620649256305733E9, 0.0, 2022-09-01 16:42:05.630
20.0, -21429.936162225746, -21239.521651210984, -29765.79573938796, -17415.853430730516, -12565.033145550866, -16063.37172548434, 26548.999732613534, -15500.219523932878, -25566.685267291698, -2481.848297339475, -29607.61244387775, -27319.799640154797, -8994.319617071107, 6698.236667899689, -9315.402426171593, -21889.733897415867, 0.168, 0.852, -0.456, 192.0, 0.0, 0.0, 0.0, 0.0, 0.0, 0.0, 0.0, 0.0, 0.0, 1.6620649256305797E9, 0.0, 2022-09-01 16:42:05.630
22.0, -21472.20331099073, -21274.658593494725, -29821.697452270684, -17451.727980581283, -12627.103939903252, -16090.28322580853, 26810.090459595976, -15535.714094127905, -25610.807610846474, -2583.638141588943, -29669.906755674692, -27398.298966681836, -9037.950222247866, 6575.838515262427, -9344.593804430224, -21972.524758878324, 0.168, 0.852, -0.456, 192.0, 0.0, 0.0, 0.0, 0.0, 0.0, 0.0, 0.0, 0.0, 0.0, 1.662064925630586E9, 0.0, 2022-09-01 16:42:05.630
24.0, -21418.08973766443, -21221.372034713273, -29759.112567795823, -17396.49682003222, -12566.731878129469, -16053.760475368557, 26501.882255301745, -15476.034936432236, -25577.4364563747, -2496.4439864687906, -29611.05461252387, -27315.038718585816, -9006.300152099151, 6706.886793003892, -9322.309115208283, -21905.33541504567, 0.168, 0.852, -0.456, 192.0, 0.0, 0.0, 0.0, 0.0, 0.0, 0.0, 0.0, 0.0, 0.0, 1.6620649256305928E9, 0.0, 2022-09-01 16:42:05.630
26.0, -21479.221758749696, -21276.603195262338, -29823.731461016116, -17449.090474735556, -12634.97175395152, -16095.42412703325, 26832.55396277356, -15529.589716147151, -25605.77846834403, -2581.5594293545996, -29663.894136416216, -27383.703277552522, -9022.21459415133, 6572.262236149578, -9340.123455539162, -21972.97179376743, 0.168, 0.852, -0.456, 192.0, 0.0, 0.0, 0.0, 0.0, 0.0, 0.0, 0.0, 0.0, 0.0, 1.6620649256306007E9, 0.0, 2022-09-01 16:42:05.630
28.0, -21373.27449003154, -21181.742391794014, -29720.756974310516, -17342.42795019483, -12524.308267153296, -16011.69449230367, 26466.387685106718, -15432.001999855282, -25570.06038070445, -2478.3167217155365, -29606.226635721523, -27309.875465616642, -8991.995035647755, 6737.821607330037, -9321.303286707795, -21901.89324639955, 0.168, 0.848, -0.46, 192.0, 2.5, 32.0, 13.0, 64.0, 120.5, 80.0, 0.0, 0.0, 0.0, 1.662064925630617E9, 0.0, 2022-09-01 16:42:05.630
30.0, -21476.740715115156, -21282.884035454277, -29822.94914996018, -17444.709532822315, -12633.02715218391, -16108.924580684255, 26836.286704097594, -15539.066855796202, -25572.787293528, -2549.4399725723238, -29631.66292091166, -27363.676114520564, -8985.82595417809, 6602.481794653153, -9318.934001795531, -21956.431502870502, 0.168, 0.848, -0.46, 192.0, 0.0, 0.0, 0.0, 0.0, 0.0, 0.0, 0.0, 0.0, 0.0, 1.6620649256306229E9, 0.0, 2022-09-01 16:42:05.630
32.0, -21351.615649654348, -21156.283754859418, -29698.673450788672, -17315.650560337373, -12511.970104213966, -15993.12019266131, 26442.113690628255, -15410.656083900463, -25562.550194567466, -2482.2282769952153, -29598.09060073979, -27311.484791217423, -8995.59366650506, 6738.022773030135, -9335.250775247905, -21922.076871642694, 0.168, 0.848, -0.46, 192.0, 0.0, 0.0, 0.0, 0.0, 0.0, 0.0, 0.0, 0.0, 0.0, 1.662064925630629E9, 0.0, 2022-09-01 16:42:05.630
34.0, -21466.838892321455, -21271.86462543781, -29803.927815428713, -17424.615314556995, -12617.515041531926, -16102.911961425778, 26843.908648956854, -15519.889059053548, -25555.934078208695, -2540.4545713012903, -29596.548330372374, -27335.959951395984, -8964.837666134557, 6632.2096147787115, -9299.420928886047, -21945.72501727641, 0.168, 0.848, -0.46, 192.0, 0.0, 0.0, 0.0, 0.0, 0.0, 0.0, 0.0, 0.0, 0.0, 1.6620649256306353E9, 0.0, 2022-09-01 16:42:05.630
36.0, -21382.550463980493, -21186.458609874084, -29723.68505283416, -17321.305551684567, -12540.133302227654, -16014.421405127217, 26432.14481260119, -15427.554002708675, -25598.424744418237, -2496.4439864687906, -29621.179952762122, -27329.54500073731, -9014.59264929207, 6723.225918200722, -9349.578243443757, -21948.608392311144, 0.168, 0.848, -0.46, 192.0, 0.0, 0.0, 0.0, 0.0, 0.0, 0.0, 0.0, 0.0, 0.0, 1.6620649256306412E9, 0.0, 2022-09-01 16:42:05.630
38.0, -21464.894290553846, -21271.037610892967, -29796.484684525098, -17396.139192120932, -12610.854221684245, -16092.85367642089, 26831.726948228712, -15506.656826336006, -25562.371380611825, -2530.0163066406617, -29608.595920633787, -27337.301056063305, -8976.170000573398, 6634.7353619021615, -9307.89224003461, -21949.055427200252, 0.164, 0.842, -0.458, 192.0, 2.5, 16.0, 13.0, 40.0, 120.5, 88.0, 0.0, 0.0, 0.0, 1.6620649256306496E9, 0.0, 2022-09-01 16:42:05.630
40.0, -21350.207489753662, -21146.985429166012, -29702.40619211271, -17267.147274869356, -12509.958447212988, -15966.946299904144, 26451.702588999582, -15387.52202838922, -25577.995249986085, -2475.0310152806064, -29610.831095079317, -27312.155343551083, -9003.93086718689, 6738.782732341616, -9336.27895549285, -21923.95441817694, 0.164, 0.842, -0.458, 192.0, 0.0, 0.0, 0.0, 0.0, 0.0, 0.0, 0.0, 0.0, 0.0, 1.6620649256306565E9, 0.0, 2022-09-01 16:42:05.630
42.0, -21442.944877498732, -21248.64116294875, -29791.433190278196, -17376.80493316709, -12584.72503241599, -16067.551501697482, 26820.528724256605, -15486.383794115043, -25520.663025458223, -2489.82787011002, -29571.04498994887, -27295.369183465147, -8938.104979766009, 6678.9918159236695, -9279.192600153996, -21894.986557362863, 0.164, 0.842, -0.458, 192.0, 0.0, 0.0, 0.0, 0.0, 0.0, 0.0, 0.0, 0.0, 0.0, 1.662064925630663E9, 0.0, 2022-09-01 16:42:05.630
44.0, -21371.262833030563, -21168.51015907647, -29733.296302949944, -17293.075298437514, -12530.38794164514, -15980.267939599507, 26477.742371290016, -15404.442298941887, -25599.20705547417, -2499.953210348274, -29635.77564189144, -27343.000750899406, -9018.884184227489, 6715.7380838081945, -9355.94849061352, -21942.260496885836, 0.164, 0.842, -0.458, 192.0, 0.0, 0.0, 0.0, 0.0, 0.0, 0.0, 0.0, 0.0, 0.0, 1.662064925630669E9, 0.0, 2022-09-01 16:42:05.630
46.0, -21456.065351494, -21259.68292470967, -29787.923966398714, -17384.06925011507, -12592.525791230893, -16065.785713885512, 26795.405363488837, -15482.628701046551, -25534.074072131407, -2479.7695851051312, -29568.072207936315, -27298.07374454424, -8937.233261732252, 6691.151164907356, -9280.779574010323, -21883.654222924022, 0.164, 0.842, -0.458, 192.0, 0.0, 0.0, 0.0, 0.0, 0.0, 0.0, 0.0, 0.0, 0.0, 1.6620649256306763E9, 0.0, 2022-09-01 16:42:05.630
48.0, -21396.386193798327, -21189.23022618654, -29734.324483194887, -17306.173420688323, -12551.130360499665, -15986.59348328036, 26522.15528752271, -15410.521973433732, -25627.571419187956, -2530.5080450186783, -29659.02145612496, -27369.532271567856, -9028.204861665352, 6697.99079871068, -9364.75507792891, -21952.25172665736, 0.17200000000000001, 0.84, -0.452, 192.0, 2.5, 48.0, 13.0, 32.0, 120.5, 112.0, 0.0, 0.0, 0.0, 1.6620649256306813E9, 0.0, 2022-09-01 16:42:05.630
50.0, -21444.040112977043, -21250.429302505174, -29765.683980665683, -17365.62906093944, -12575.516113700405, -16062.879987106322, 26756.379217669873, -15470.87168346306, -25524.708691204632, -2470.20303847826, -29566.574641057807, -27292.55286366378, -8932.070008763076, 6714.106406462956, -9273.023518684331, -21872.09837104063, 0.17200000000000001, 0.84, -0.452, 192.0, 0.0, 0.0, 0.0, 0.0, 0.0, 0.0, 0.0, 0.0, 0.0, 1.662064925630686E9, 0.0, 2022-09-01 16:42:05.630
52.0, -21403.762269468578, -21200.026118758455, -29751.71414038112, -17310.129679456913, -12554.550177401326, -16002.127945676799, 26568.088122378365, -15426.369360252544, -25612.64045389181, -2533.592585753511, -29654.86403165627, -27362.51382380889, -9022.393408106973, 6675.683757744284, -9354.875606879665, -21952.162319679537, 0.17200000000000001, 0.84, -0.452, 192.0, 0.0, 0.0, 0.0, 0.0, 0.0, 0.0, 0.0, 0.0, 0.0, 1.6620649256306913E9, 0.0, 2022-09-01 16:42:05.630
54.0, -21443.637781576846, -21252.172738572688, -29781.598422717863, -17371.66403194237, -12573.236235765962, -16069.250234276085, 26700.38809780933, -15475.520846309764, -25529.916647662718, -2468.079622755006, -29572.877832994203, -27290.87648282963, -8937.09915126552, 6704.919839491826, -9286.568675824246, -21882.693097912445, 0.17200000000000001, 0.84, -0.452, 192.0, 0.0, 0.0, 0.0, 0.0, 0.0, 0.0, 0.0, 0.0, 0.0, 1.6620649256306963E9, 0.0, 2022-09-01 16:42:05.630
56.0, -21409.216095115673, -21205.748165339013, -29778.98326861659, -17333.4425489238, -12569.279976997374, -16017.148317950765, 26609.30473915395, -15441.143863337502, -25629.136041299826, -2549.842303972519, -29674.846491199314, -27384.820864775287, -9033.681039056903, 6635.942356102748, -9373.651072222123, -21981.4878084049, 0.17200000000000001, 0.84, -0.452, 192.0, 0.0, 0.0, 0.0, 0.0, 0.0, 0.0, 0.0, 0.0, 0.0, 1.6620649256307013E9, 0.0, 2022-09-01 16:42:05.630
58.0, -21423.61061854489, -21232.81612787439, -29777.530405226997, -17370.72525867525, -12571.135171787164, -16065.986879585611, 26638.004379034566, -15473.06215441968, -25528.39672903976, -2458.7142418282324, -29564.697094523563, -27285.042677526795, -8941.413037945395, 6728.836206059004, -9295.129393950629, -21889.219807293393, 0.168, 0.846, -0.452, 192.0, 2.5, 32.0, 13.0, 56.0, 120.5, 112.0, 0.0, 0.0, 0.0, 1.662064925630706E9, 0.0, 2022-09-01 16:42:05.630
60.0, -21415.452231818705, -21211.604322386305, -29776.12224532631, -17346.026581052134, -12589.35184351824, -16024.636152343292, 26655.12581528733, -15454.823130944149, -25619.77066037305, -2564.750917524209, -29657.568592735362, -27379.32233563928, -9031.423512866917, 6634.198920035234, -9374.500438511424, -21984.035907272806, 0.168, 0.846, -0.452, 192.0, 0.0, 0.0, 0.0, 0.0, 0.0, 0.0, 0.0, 0.0, 0.0, 1.6620649256307113E9, 0.0, 2022-09-01 16:42:05.630
62.0, -21407.919693937267, -21217.415775944686, -29745.92503856719, -17348.68643864232, -12552.069133766787, -16047.278469476518, 26580.605099273336, -15448.698752963395, -25530.63190348529, -2455.0932592264726, -29558.393902587166, -27276.861939056154, -8940.831892589556, 6735.564081140052, -9295.97876023993, -21878.155693788016, 0.168, 0.846, -0.452, 192.0, 0.0, 0.0, 0.0, 0.0, 0.0, 0.0, 0.0, 0.0, 0.0, 1.662064925630716E9, 0.0, 2022-09-01 16:42:05.630
64.0, -21435.97113322868, -21233.151404041222, -29788.773332688015, -17356.28603175712, -12595.163297076619, -16039.567117639437, 26698.175275108253, -15464.3002705932, -25617.714299883166, -2565.5555803245998, -29661.86012767078, -27382.429228118566, -9017.923059215911, 6611.69071336874, -9364.911540140098, -21982.761857838854, 0.168, 0.846, -0.452, 192.0, 0.0, 0.0, 0.0, 0.0, 0.0, 0.0, 0.0, 0.0, 0.0, 1.6620649256307209E9, 0.0, 2022-09-01 16:42:05.630
66.0, -21380.024716857042, -21187.710307563582, -29728.02129125849, -17311.71665331324, -12522.587182830237, -16011.26980915902, 26531.028930071465, -15414.85821185806, -25532.62120874181, -2437.368325873414, -29558.818585731817, -27267.54126161829, -8936.830930332057, 6755.658299405372, -9296.045815473297, -21875.205263519914, 0.168, 0.846, -0.452, 192.0, 0.0, 0.0, 0.0, 0.0, 0.0, 0.0, 0.0, 0.0, 0.0, 1.662064925630726E9, 0.0, 2022-09-01 16:42:05.630
68.0, -21446.409397889307, -21246.942430370145, -29813.1367341443, -17373.496874987708, -12613.849355441256, -16059.147245782287, 26738.654284316814, -15485.199151658911, -25595.474314150135, -2535.69364973231, -29643.44229023961, -27363.02791393136, -8995.727776971791, 6631.807283378516, -9351.880473122654, -21972.100075733673, 0.17, 0.849, -0.451, 192.0, 2.5, 48.0, 13.0, 80.0, 120.5, 120.0, 0.0, 0.0, 0.0, 1.6620649256307309E9, 0.0, 2022-09-01 16:42:05.630
70.0, -21394.37453679735, -21203.356528682296, -29751.155346769734, -17327.89931629888, -12547.799950575823, -16030.179384968209, 26472.17678692064, -15443.401389527487, -25556.984610198095, -2465.3527099314583, -29586.17712094511, -27291.949366563484, -8971.811410404613, 6748.2598719906655, -9336.122493281662, -21909.626949981088, 0.17, 0.849, -0.451, 192.0, 0.0, 0.0, 0.0, 0.0, 0.0, 0.0, 0.0, 0.0, 0.0, 1.662064925630738E9, 0.0, 2022-09-01 16:42:05.630
72.0, -21467.285927210563, -21267.908366669224, -29832.627455309328, -17392.898189174914, -12621.985390422988, -16085.857580406378, 26775.467607434704, -15510.791899060237, -25602.53746539801, -2574.898609506918, -29654.416996767166, -27373.93556522555, -9016.73841675978, 6599.1066812404015, -9365.09035409574, -21985.60052938468, 0.17, 0.849, -0.451, 192.0, 0.0, 0.0, 0.0, 0.0, 0.0, 0.0, 0.0, 0.0, 0.0, 1.6620649256307428E9, 0.0, 2022-09-01 16:42:05.630
74.0, -21361.7409898926, -21172.824045756348, -29719.728794065573, -17293.61174030444, -12500.9506941975, -15998.953997964145, 26458.296353613896, -15406.029272798214, -25557.565755553933, -2459.3847941618915, -29584.254870921955, -27291.63644214111, -8976.080593595576, 6738.179235241322, -9329.126397267151, -21902.206170821926, 0.17, 0.849, -0.451, 192.0, 0.0, 0.0, 0.0, 0.0, 0.0, 0.0, 0.0, 0.0, 0.0, 1.6620649256307478E9, 0.0, 2022-09-01 16:42:05.630
76.0, -21455.8641857939, -21266.768427702, -29798.27282408152, -17381.96818613627, -12603.746366947456, -16067.104466808376, 26807.765878172624, -15493.40224187401, -25559.242136388082, -2534.844283443008, -29603.81264732035, -27340.60911424269, -8971.722003426792, 6625.861719353405, -9314.486004648925, -21930.81640372472, 0.17, 0.849, -0.451, 192.0, 0.0, 0.0, 0.0, 0.0, 0.0, 0.0, 0.0, 0.0, 0.0, 1.6620649256307528E9, 0.0, 2022-09-01 16:42:05.630
78.0, -21394.66510947527, -21207.446897917616, -29720.287587676954, -17313.460089380755, -12537.67461033757, -16018.288256917986, 26418.309082783355, -15428.693941675896, -25580.36453489835, -2481.691835128288, -29603.566778131342, -27318.994977354407, -8994.409024048928, 6738.1568834968675, -9334.736685125434, -21903.167295833504, 0.174, 0.8545, -0.4505, 192.0, 2.5, 72.0, 13.0, 112.0, 120.5, 120.0, 0.0, 0.0, 0.0, 1.6620649256307578E9, 0.0, 2022-09-01 16:42:05.630
80.0, -21469.699915611734, -21281.11824764231, -29798.250472337066, -17388.74076470623, -12614.16227986363, -16090.931426397734, 26821.40044229036, -15507.483840880854, -25576.49768310758, -2535.2242630987485, -29615.86023758176, -27351.673227748066, -8980.640349464458, 6608.226192978167, -9313.435472659525, -21932.33632234768, 0.174, 0.8545, -0.4505, 192.0, 0.0, 0.0, 0.0, 0.0, 0.0, 0.0, 0.0, 0.0, 0.0, 1.6620649256307628E9, 0.0, 2022-09-01 16:42:05.630
82.0, -21373.9450423652, -21183.463476117075, -29718.61120684281, -17297.65740605085, -12530.522052111872, -16008.945227735667, 26420.499553739974, -15421.519031705742, -25590.02048850304, -2483.949361318274, -29607.99242353349, -27315.105773819185, -9002.276838097196, 6724.432912401308, -9340.861063106187, -21913.694967471954, 0.174, 0.8545, -0.4505, 192.0, 0.0, 0.0, 0.0, 0.0, 0.0, 0.0, 0.0, 0.0, 0.0, 1.6620649256307676E9, 0.0, 2022-09-01 16:42:05.630
84.0, -21454.8136538045, -21261.24754682154, -29799.546873515475, -17385.835037927038, -12607.121480360209, -16092.8983799098, 26829.20120110526, -15511.551858371718, -25552.44720607367, -2532.6314607419326, -29594.514321626943, -27325.544038479813, -8962.244863777742, 6624.967649575192, -9298.772728296844, -21925.451985055446, 0.174, 0.8545, -0.4505, 192.0, 0.0, 0.0, 0.0, 0.0, 0.0, 0.0, 0.0, 0.0, 0.0, 1.6620649256307724E9, 0.0, 2022-09-01 16:42:05.630
86.0, -21370.61463244136, -21172.71228703407, -29733.631579116773, -17295.355176371955, -12538.434569649049, -16010.733367292092, 26425.260475308954, -15429.275087031734, -25580.319831409437, -2480.6413031388884, -29607.344222944288, -27307.841456871207, -9008.758843989235, 6722.37655191142, -9342.760961384889, -21924.58026702169, 0.174, 0.8545, -0.4505, 192.0, 0.0, 0.0, 0.0, 0.0, 0.0, 0.0, 0.0, 0.0, 0.0, 1.6620649256307776E9, 0.0, 2022-09-01 16:42:05.630
88.0, -21446.85643277841, -21259.34764854284, -29797.69167872568, -17381.789372180625, -12605.221582081507, -16097.480487523138, 26818.07003236652, -15509.271980437277, -25542.455976302146, -2507.9998383521843, -29583.494911610476, -27307.37207023765, -8966.156419057419, 6638.043420081547, -9301.186716698017, -21918.43353729648, 0.175, 0.8532500000000001, -0.45225000000000004, 192.0, 2.5, 64.0, 13.0, 80.0, 120.5, 104.0, 0.0, 0.0, 0.0, 1.6620649256307824E9, 0.0, 2022-09-01 16:42:05.630
90.0, -21367.485388217618, -21172.57817656734, -29724.869695290294, -17288.85081873546, -12539.708619083003, -16002.038538698976, 26451.546126788395, -15417.696883403885, -25574.508377851056, -2489.917277087841, -29603.834999064806, -27311.26127377287, -9014.838518481078, 6719.604935598963, -9343.27505150736, -21920.8251739532, 0.175, 0.8532500000000001, -0.45225000000000004, 192.0, 0.0, 0.0, 0.0, 0.0, 0.0, 0.0, 0.0, 0.0, 0.0, 1.6620649256307871E9, 0.0, 2022-09-01 16:42:05.630
92.0, -21459.686334095757, -21268.757732958526, -29801.67028923873, -17389.858351928993, -12606.406224537639, -16104.342473070918, 26796.433543733783, -15509.093166481634, -25533.559982008934, -2497.718035902743, -29575.358876628743, -27303.281701002325, -8965.619977190492, 6643.497245728641, -9297.163402696062, -21898.47342949789, 0.175, 0.8532500000000001, -0.45225000000000004, 192.0, 0.0, 0.0, 0.0, 0.0, 0.0, 0.0, 0.0, 0.0, 0.0, 1.6620649256307921E9, 0.0, 2022-09-01 16:42:05.630
94.0, -21385.56794948196, -21183.10584820579, -29743.51105016602, -17303.066528209034, -12543.933098785055, -16006.933570734689, 26484.67141207116, -15423.19541253989, -25605.331433454925, -2516.269983800648, -29631.640569167208, -27333.389500783625, -9030.507091344249, 6679.841182212971, -9352.595728945224, -21929.967037435417, 0.175, 0.8532500000000001, -0.45225000000000004, 192.0, 0.0, 0.0, 0.0, 0.0, 0.0, 0.0, 0.0, 0.0, 0.0, 1.6620649256307971E9, 0.0, 2022-09-01 16:42:05.630
96.0, -21438.966266985688, -21246.87537513678, -29781.26314655103, -17376.44730525581, -12576.63370092317, -16083.220074560651, 26766.14692999684, -15488.618968560573, -25535.035197142985, -2489.202021265271, -29569.79329225937, -27290.69766887399, -8952.275985750673, 6667.212446595722, -9280.489001332404, -21887.85635088162, 0.175, 0.8532500000000001, -0.45225000000000004, 192.0, 0.0, 0.0, 0.0, 0.0, 0.0, 0.0, 0.0, 0.0, 0.0, 1.662064925630802E9, 0.0, 2022-09-01 16:42:05.630
98.0, -21386.909054149277, -21181.965909238566, -29744.44982343314, -17311.38137714641, -12549.67749711007, -16007.917047490722, 26526.44682245813, -15431.376151010532, -25606.806648588976, -2523.400190281891, -29632.802859878884, -27339.42447178656, -9020.292344128173, 6665.759583206128, -9350.114685310684, -21951.268249901324, 0.17149999999999999, 0.848625, -0.452125, 192.0, 2.5, 32.0, 13.0, 48.0, 120.5, 112.0, 0.0, 0.0, 0.0, 1.662064925630807E9, 0.0, 2022-09-01 16:42:05.630
100.0, -21445.560031600005, -21257.827729919878, -29779.318544783422, -17384.896264659914, -12586.848448139244, -16090.193818830709, 26714.223827627164, -15497.626721576062, -25520.215990569115, -2467.2526082101595, -29544.312303580322, -27272.30218318727, -8935.042790775633, 6702.304685390554, -9279.326710620728, -21881.217882778394, 0.17149999999999999, 0.848625, -0.452125, 192.0, 0.0, 0.0, 0.0, 0.0, 0.0, 0.0, 0.0, 0.0, 0.0, 1.662064925630812E9, 0.0, 2022-09-01 16:42:05.630
102.0, -21414.401699829305, -21213.81714508738, -29751.98236131458, -17331.699112856284, -12572.968014832499, -16023.920896520722, 26571.64204974676, -15443.803720927683, -25627.191439532216, -2550.848132473008, -29653.2994095444, -27377.98123097196, -9046.130960718509, 6624.408855963809, -9379.708394969512, -21982.62774737212, 0.17149999999999999, 0.848625, -0.452125, 192.0, 0.0, 0.0, 0.0, 0.0, 0.0, 0.0, 0.0, 0.0, 0.0, 1.6620649256308181E9, 0.0, 2022-09-01 16:42:05.630
104.0, -21433.19951691622, -21238.82874713287, -29753.479928193086, -17363.10331381599, -12575.136134044664, -16065.22692027413, 26672.023734095543, -15468.502398550798, -25521.66885395871, -2464.8386198089866, -29542.47946053499, -27273.19625296548, -8937.076799521064, 6701.209449912245, -9273.179980895518, -21861.458940679902, 0.17149999999999999, 0.848625, -0.452125, 192.0, 0.0, 0.0, 0.0, 0.0, 0.0, 0.0, 0.0, 0.0, 0.0, 1.6620649256308231E9, 0.0, 2022-09-01 16:42:05.630
106.0, -21410.132516638343, -21202.52951413745, -29755.089253793867, -17323.026636007624, -12573.862084610711, -16008.475841102105, 26638.764338346045, -15436.315886535156, -25619.815363861962, -2547.4730190602563, -29646.86210714127, -27362.938506953542, -9022.572222062614, 6625.213518764201, -9353.80272314581, -21945.210927153938, 0.17149999999999999, 0.848625, -0.452125, 192.0, 0.0, 0.0, 0.0, 0.0, 0.0, 0.0, 0.0, 0.0, 0.0, 1.6620649256308281E9, 0.0, 2022-09-01 16:42:05.630
108.0, -21417.463888819682, -21221.640255646736, -29754.30694273793, -17344.439607195807, -12565.077849039775, -16049.424236944227, 26623.87807653881, -15457.10300887859, -25528.083804617385, -2442.397468375858, -29549.386149571677, -27261.662752826545, -8937.09915126552, 6739.140360252901, -9278.566751309247, -21843.08580673764, 0.16575, 0.8473124999999999, -0.45206250000000003, 192.0, 2.5, 0.0, 13.0, 56.0, 120.5, 112.0, 0.0, 0.0, 0.0, 1.6620649256308331E9, 0.0, 2022-09-01 16:42:05.630
110.0, -21426.739862768634, -21222.19904925812, -29787.745152443073, -17349.11112178697, -12604.282808814385, -16045.132702008808, 26689.413391281774, -15472.212788130379, -25608.326567211934, -2550.3787458394463, -29638.61431343726, -27354.020160915872, -9019.532384816694, 6624.3418007304435, -9345.018487574875, -21944.518023075823, 0.16575, 0.8473124999999999, -0.45206250000000003, 192.0, 0.0, 0.0, 0.0, 0.0, 0.0, 0.0, 0.0, 0.0, 0.0, 1.662064925630838E9, 0.0, 2022-09-01 16:42:05.630
112.0, -21392.675804218747, -21200.76372632548, -29739.778308841982, -17329.486290155208, -12545.743590085935, -16038.31541994994, 26572.8713956918, -15447.223537829344, -25535.459880287635, -2445.7055265552435, -29559.645600276664, -27271.83279655371, -8956.947500341834, 6722.577717611518, -9297.275161418338, -21875.741705386845, 0.16575, 0.8473124999999999, -0.45206250000000003, 192.0, 0.0, 0.0, 0.0, 0.0, 0.0, 0.0, 0.0, 0.0, 0.0, 1.6620649256308432E9, 0.0, 2022-09-01 16:42:05.630
114.0, -21428.818575002977, -21229.709235395105, -29788.482760010098, -17358.834130625026, -12592.548142975349, -16045.445626431183, 26738.76604303909, -15477.44309633292, -25587.11476172385, -2544.880216703441, -29633.71928140155, -27352.79081497083, -9002.902686941945, 6617.144539015835, -9333.686153136034, -21954.218680169426, 0.16575, 0.8473124999999999, -0.45206250000000003, 192.0, 0.0, 0.0, 0.0, 0.0, 0.0, 0.0, 0.0, 0.0, 0.0, 1.662064925630848E9, 0.0, 2022-09-01 16:42:05.630
116.0, -21404.47752529115, -21210.598493885816, -29752.69761713715, -17344.77488336264, -12544.536595885349, -16040.8858705623, 26518.266083987488, -15455.985421655825, -25537.046854143962, -2447.0019277336514, -29568.966277714528, -27275.87846230012, -8952.208930517309, 6733.865348561448, -9295.419966628548, -21874.80293211972, 0.16575, 0.8473124999999999, -0.45206250000000003, 192.0, 0.0, 0.0, 0.0, 0.0, 0.0, 0.0, 0.0, 0.0, 0.0, 1.662064925630853E9, 0.0, 2022-09-01 16:42:05.630
118.0, -21460.40158991833, -21261.40400903273, -29826.190152906198, -17402.665901501885, -12618.677332243602, -16083.08596409392, 26771.265479477108, -15517.855050308115, -25613.73568937012, -2563.230998901248, -29657.3003718019, -27380.149350184125, -9015.9784574483, 6586.992035745626, -9349.690002166033, -21971.496578633378, 0.161875, 0.84765625, -0.45203125, 192.0, 2.0, 120.0, 13.0, 64.0, 120.5, 112.0, 0.0, 0.0, 0.0, 1.662064925630859E9, 0.0, 2022-09-01 16:42:05.630
120.0, -21387.22197857165, -21192.62769134375, -29748.495489179553, -17340.125720515935, -12552.493816911438, -16037.622515871826, 26477.630612567737, -15455.605442000086, -25561.164386411238, -2466.045614009573, -29594.46961813803, -27301.717078890455, -8981.19914307584, 6732.2336712162105, -9332.233289746438, -21899.18868532046, 0.161875, 0.84765625, -0.45203125, 192.0, 0.0, 0.0, 0.0, 0.0, 0.0, 0.0, 0.0, 0.0, 0.0, 1.662064925630864E9, 0.0, 2022-09-01 16:42:05.630
122.0, -21451.595002602935, -21245.735436169558, -29816.489495812595, -17401.48125904575, -12631.820157983322, -16087.310443795974, 26813.9796631312, -15516.40218691852, -25578.263470919548, -2565.421469857868, -29629.2936359994, -27357.68584700654, -8993.403195548439, 6588.489602624131, -9336.79304561532, -21952.229374912906, 0.161875, 0.84765625, -0.45203125, 192.0, 0.0, 0.0, 0.0, 0.0, 0.0, 0.0, 0.0, 0.0, 0.0, 1.6620649261103086E9, 0.0, 2022-09-01 16:42:06.110
124.0, -21369.7429144076, -21171.929975978135, -29728.535381380963, -17322.95958077426, -12546.503549397416, -16015.807213283446, 26457.33522860232, -15437.142901080002, -25553.117758407327, -2461.754079074154, -29579.136321441692, -27286.16026474956, -8983.16609658791, 6724.544671123585, -9322.107949508185, -21887.744592159343, 0.161875, 0.84765625, -0.45203125, 192.0, 0.0, 0.0, 0.0, 0.0, 0.0, 0.0, 0.0, 0.0, 0.0, 1.662064926110356E9, 0.0, 2022-09-01 16:42:06.110
126.0, -21457.026476505576, -21259.54881424294, -29817.60708303536, -17412.523020806675, -12634.100035917763, -16087.019871118055, 26833.31392208504, -15523.375931188577, -25573.480197606114, -2541.8180277130637, -29614.09444976979, -27347.962838168485, -8987.234114078774, 6596.156250972302, -9318.17404248405, -21935.420863082512, 0.161875, 0.84765625, -0.45203125, 192.0, 0.0, 0.0, 0.0, 0.0, 0.0, 0.0, 0.0, 0.0, 0.0, 1.662064926110361E9, 0.0, 2022-09-01 16:42:06.110
128.0, -21377.36485926686, -21179.976603982046, -29741.700558865137, -17329.553345388573, -12549.074000009776, -16010.889829503278, 26434.536449257906, -15440.540366237208, -25586.73478206811, -2482.138870017394, -29607.299519455377, -27315.50810521938, -9007.440091066372, 6726.690438591295, -9337.575356671257, -21901.267397554806, 0.1609375, 0.8438281249999999, -0.45401562500000003, 192.0, 2.5, 0.0, 13.0, 32.0, 120.5, 96.0, 0.0, 0.0, 0.0, 1.6620649261103673E9, 0.0, 2022-09-01 16:42:06.110
130.0, -21464.134331242363, -21265.31556431241, -29822.99385344909, -17416.523983064173, -12624.019399168421, -16100.81089744698, 26842.276971611616, -15534.529451671775, -25565.14299692428, -2529.524568262645, -29610.987557290504, -27341.994922398917, -8988.172887345898, 6614.507033170108, -9302.930152765532, -21924.08852864367, 0.1609375, 0.8438281249999999, -0.45401562500000003, 192.0, 0.0, 0.0, 0.0, 0.0, 0.0, 0.0, 0.0, 0.0, 0.0, 1.662064926110372E9, 0.0, 2022-09-01 16:42:06.110
132.0, -21381.723449435645, -21178.970775481557, -29738.97364604159, -17320.970275517735, -12544.648354607625, -16017.103614461854, 26430.0884521113, -15449.838691930616, -25587.83001754642, -2498.746216147687, -29614.38502244771, -27318.92792212104, -9017.476024326805, 6706.32799939251, -9337.240080504427, -21910.632778481577, 0.1609375, 0.8438281249999999, -0.45401562500000003, 192.0, 0.0, 0.0, 0.0, 0.0, 0.0, 0.0, 0.0, 0.0, 0.0, 1.6620649261103768E9, 0.0, 2022-09-01 16:42:06.110
134.0, -21470.169302245296, -21268.8694916808, -29815.506019056564, -17412.59007604004, -12621.180727622597, -16107.583476016936, 26835.21382036374, -15538.239841251356, -25553.8330142299, -2528.608146739977, -29596.90595828366, -27324.962893123975, -8972.280797038175, 6613.8364808364495, -9296.425795129036, -21914.946665161453, 0.1609375, 0.8438281249999999, -0.45401562500000003, 192.0, 0.0, 0.0, 0.0, 0.0, 0.0, 0.0, 0.0, 0.0, 0.0, 1.662064926110386E9, 0.0, 2022-09-01 16:42:06.110
136.0, -21382.23753955812, -21175.506255090982, -29736.82787857388, -17315.538801615097, -12547.330563942262, -16008.632303313292, 26447.478109297528, -15444.228404072333, -25585.617194845345, -2494.2311637677153, -29622.789278362907, -27323.957064623486, -9019.55473656115, 6699.734234778194, -9344.124417796662, -21925.273171099805, 0.1609375, 0.8438281249999999, -0.45401562500000003, 192.0, 0.0, 0.0, 0.0, 0.0, 0.0, 0.0, 0.0, 0.0, 0.0, 1.6620649261103911E9, 0.0, 2022-09-01 16:42:06.110
138.0, -21461.63093586337, -21269.361230058817, -29803.167856117234, -17410.198439383323, -12608.7755094499, -16099.693310224213, 26822.49567776867, -15530.863765581104, -25528.95552265114, -2502.590716194, -29576.52116734042, -27305.78509638132, -8952.231282261764, 6652.393240021854, -9284.847591501188, -21902.54144698876, 0.1609375, 0.8438281249999999, -0.45401562500000003, 192.0, 0.0, 0.0, 0.0, 0.0, 0.0, 0.0, 0.0, 0.0, 0.0, 1.662064926110396E9, 0.0, 2022-09-01 16:42:06.110
140.0, -21381.812856413468, -21180.557749337884, -29739.711253608617, -17318.556287116564, -12543.82134006278, -15999.803364253446, 26478.56938583486, -15438.394598769499, -25591.40629665927, -2500.333190004014, -29621.15760101767, -27333.970646139463, -9021.231117395297, 6688.7371765061835, -9337.307135737794, -21926.7260344894, 0.162, 0.84, -0.45, 192.0, 2.5, 8.0, 13.0, 32.0, 120.5, 120.0, 0.0, 0.0, 0.0, 1.662064926110401E9, 0.0, 2022-09-01 16:42:06.110
142.0, -21471.10807551242, -21274.479779539084, -29807.302928841465, -17415.808727241605, -12606.473279771004, -16101.369691058362, 26797.662889678824, -15526.572230645685, -25537.739758222076, -2512.581945965522, -29578.24225166348, -27307.081497559728, -8962.870712622489, 6643.094914328446, -9274.02934718482, -21886.537597958755, 0.162, 0.84, -0.45, 192.0, 0.0, 0.0, 0.0, 0.0, 0.0, 0.0, 0.0, 0.0, 0.0, 1.6620649261104064E9, 0.0, 2022-09-01 16:42:06.110
144.0, -21398.263740332575, -21188.827894786347, -29748.40608220173, -17328.65927561036, -12543.10608424021, -16008.699358546659, 26521.596493911326, -15448.475235518843, -25614.24977949259, -2540.7004404902987, -29645.34218851831, -27352.723759737466, -9034.21748092383, 6653.533178989074, -9335.362533970181, -21934.705607259944, 0.162, 0.84, -0.45, 192.0, 0.0, 0.0, 0.0, 0.0, 0.0, 0.0, 0.0, 0.0, 0.0, 1.662064926110412E9, 0.0, 2022-09-01 16:42:06.110
146.0, -21438.13925244084, -21239.63340993326, -29767.785044644483, -17383.555159992597, -12571.403392720627, -16073.251196533585, 26766.213985230206, -15502.275884422766, -25513.75633642153, -2475.008663536151, -29553.655332762643, -27276.437255911504, -8940.898947822923, 6673.2250658542, -9249.889463173087, -21858.217937733883, 0.162, 0.84, -0.45, 192.0, 0.0, 0.0, 0.0, 0.0, 0.0, 0.0, 0.0, 0.0, 0.0, 1.6620649261104171E9, 0.0, 2022-09-01 16:42:06.110
148.0, -21389.27833906154, -21175.059220201878, -29740.337102453366, -17327.65344710987, -12556.651241380125, -16011.538030092483, 26567.21640434461, -15458.555872268185, -25587.78531405751, -2513.2524982991813, -29616.66490038215, -27327.51099199188, -9007.820070722111, 6669.380565807887, -9320.968010540964, -21923.641493754567, 0.162, 0.84, -0.45, 192.0, 0.0, 0.0, 0.0, 0.0, 0.0, 0.0, 0.0, 0.0, 0.0, 1.662064926110422E9, 0.0, 2022-09-01 16:42:06.110
150.0, -21415.273417863064, -21218.421604445175, -29751.177698514188, -17374.9497383773, -12571.604558420726, -16072.446533733195, 26712.94977819321, -15502.54410535623, -25504.793286894954, -2448.588901589978, -29525.894466149148, -27250.732749787898, -8924.537470881638, 6705.210412169745, -9257.846684199178, -21856.116873755083, 0.158, 0.836, -0.452, 192.0, 2.0, 120.0, 13.0, 16.0, 120.5, 112.0, 0.0, 0.0, 0.0, 1.662064926110427E9, 0.0, 2022-09-01 16:42:06.110
152.0, -21400.633025244835, -21193.38765065523, -29750.1718700137, -17344.70782812927, -12578.555950946326, -16024.949076765666, 26614.780916545504, -15477.241930632823, -25594.222616460636, -2536.006574154684, -29616.62019689324, -27342.620771243666, -9010.703445756846, 6629.616812421896, -9347.745400398422, -21947.401398110556, 0.158, 0.836, -0.452, 192.0, 0.0, 0.0, 0.0, 0.0, 0.0, 0.0, 0.0, 0.0, 0.0, 1.662064926110432E9, 0.0, 2022-09-01 16:42:06.110
154.0, -21407.09267939242, -21204.63057811625, -29744.89685832225, -17366.254909784187, -12562.44034319405, -16054.162806768752, 26662.61364967986, -15490.004776716803, -25504.72623166159, -2452.3216429140143, -29521.55822772482, -27247.29058114178, -8922.324648180562, 6717.95090650927, -9268.441411070993, -21846.572678872668, 0.158, 0.836, -0.452, 192.0, 0.0, 0.0, 0.0, 0.0, 0.0, 0.0, 0.0, 0.0, 0.0, 1.6620649261104367E9, 0.0, 2022-09-01 16:42:06.110
156.0, -21410.42308931626, -21197.209798957087, -29774.08823658088, -17356.129569545934, -12584.881494627178, -16028.950039023166, 26673.364838762864, -15485.355613870099, -25586.175988456725, -2537.1241613774496, -29621.403470206675, -27335.73643395143, -9006.903649199445, 6628.856853110416, -9334.84844384771, -21930.995217680364, 0.158, 0.836, -0.452, 192.0, 0.0, 0.0, 0.0, 0.0, 0.0, 0.0, 0.0, 0.0, 0.0, 1.6620649261104414E9, 0.0, 2022-09-01 16:42:06.110
158.0, -21408.36672882637, -21207.044566517423, -29764.61109693183, -17368.892415629914, -12561.143942015642, -16055.056876546965, 26612.188114188688, -15491.032956961746, -25527.90499066174, -2448.3430324009696, -29554.057664162836, -27262.243898182383, -8957.103962553021, 6722.890642033893, -9282.478306588926, -21851.624173119566, 0.158, 0.836, -0.452, 192.0, 0.0, 0.0, 0.0, 0.0, 0.0, 0.0, 0.0, 0.0, 0.0, 1.6620649261104465E9, 0.0, 2022-09-01 16:42:06.110
160.0, -21434.51826983908, -21228.122261538778, -29811.14742888778, -17386.43853502733, -12617.157413620642, -16064.712830151659, 26727.47841208916, -15514.79286131774, -25603.36447994286, -2558.9618157102846, -29638.18963029261, -27354.914230694085, -9034.21748092383, 6600.514841141086, -9338.447074705015, -21947.267287643826, 0.162, 0.844, -0.452, 192.0, 2.5, 8.0, 13.0, 48.0, 120.5, 112.0, 0.0, 0.0, 0.0, 1.6620649261104512E9, 0.0, 2022-09-01 16:42:06.110
162.0, -21388.317214049963, -21192.784153554938, -29745.50035542254, -17347.25592699718, -12553.29847971183, -16039.075379261421, 26566.1211688663, -15475.118514909569, -25538.745586722565, -2463.6316256083996, -29549.967294927515, -27259.49463361438, -8965.687032423859, 6719.336714665498, -9280.868980988143, -21850.66304810799, 0.162, 0.844, -0.452, 192.0, 0.0, 0.0, 0.0, 0.0, 0.0, 0.0, 0.0, 0.0, 0.0, 1.662064926110456E9, 0.0, 2022-09-01 16:42:06.110
164.0, -21428.99738895862, -21220.254447490508, -29788.169835587723, -17377.2519680562, -12605.981541392988, -16046.69732412068, 26783.268366249606, -15507.908524025504, -25590.333412925414, -2551.071649917561, -29617.760135860462, -27344.855945689196, -9003.953218931343, 6612.540079658042, -9310.88737379162, -21923.127403632094, 0.162, 0.844, -0.452, 192.0, 0.0, 0.0, 0.0, 0.0, 0.0, 0.0, 0.0, 0.0, 0.0, 1.6620649261104608E9, 0.0, 2022-09-01 16:42:06.110
166.0, -21378.12481857834, -21177.56261558087, -29718.3653376538, -17334.85070882448, -12537.518148126383, -16011.78389928149, 26527.11737479179, -15465.171988626957, -25526.76505169452, -2450.9581865022406, -29544.804041958338, -27260.276944670313, -8950.309032238607, 6743.923633566336, -9274.163457651552, -21845.81271956119, 0.162, 0.844, -0.452, 192.0, 0.0, 0.0, 0.0, 0.0, 0.0, 0.0, 0.0, 0.0, 0.0, 1.6620649261104667E9, 0.0, 2022-09-01 16:42:06.110
168.0, -21456.66884859429, -21246.473043736583, -29798.585748503894, -17410.1090324055, -12629.02618992641, -16075.821647145945, 26813.957311386745, -15549.818044879205, -25578.151712197272, -2564.5497518241114, -29615.63672013721, -27350.17566086956, -8990.363358302517, 6604.985190032147, -9310.17211796905, -21934.884421215585, 0.162, 0.844, -0.452, 192.0, 0.0, 0.0, 0.0, 0.0, 0.0, 0.0, 0.0, 0.0, 0.0, 1.6620649261104724E9, 0.0, 2022-09-01 16:42:06.110
170.0, -21366.9936498396, -21160.552938050383, -29702.83087525736, -17322.57960111852, -12534.835938791746, -16016.544820850471, 26484.67141207116, -15466.088410149625, -25537.8291651999, -2453.036898736584, -29552.001303672947, -27264.613183094643, -8959.62970967647, 6745.018869044647, -9287.216876413451, -21860.56487090169, 0.164, 0.854, -0.464, 192.0, 2.5, 16.0, 13.0, 88.0, 120.5, 64.0, 0.0, 0.0, 0.0, 1.6620649261104772E9, 0.0, 2022-09-01 16:42:06.110
172.0, -21459.552223629027, -21253.64795370674, -29795.0318211355, -17408.365596337986, -12630.07672191581, -16096.273493322551, 26841.65112276687, -15550.823873379693, -25568.20518591466, -2557.240731387226, -29596.168350716634, -27328.382710025635, -8979.701576197336, 6596.491527139131, -9297.40927188507, -21924.312046088227, 0.164, 0.854, -0.464, 192.0, 0.0, 0.0, 0.0, 0.0, 0.0, 0.0, 0.0, 0.0, 0.0, 1.662064926110482E9, 0.0, 2022-09-01 16:42:06.110
174.0, -21369.787617896513, -21168.46545558756, -29703.702593291117, -17317.95279001627, -12539.641563849636, -16014.466108616129, 26469.159301419175, -15454.823130944149, -25559.264488132536, -2470.2477419671704, -29565.65821953514, -27276.34784893368, -8988.06112862362, 6721.95186876677, -9303.623056843646, -21876.05462980922, 0.164, 0.854, -0.464, 192.0, 0.0, 0.0, 0.0, 0.0, 0.0, 0.0, 0.0, 0.0, 0.0, 1.6620649261104867E9, 0.0, 2022-09-01 16:42:06.110
176.0, -21458.456988150716, -21256.084293852367, -29783.230100063098, -17403.224695113266, -12620.59958226676, -16085.23173156163, 26874.910518516364, -15535.02119004979, -25551.664895017733, -2537.012402655173, -29580.09744645327, -27317.430355242534, -8972.526666227182, 6607.9132685557925, -9282.83593450021, -21900.820362665698, 0.164, 0.854, -0.464, 192.0, 0.0, 0.0, 0.0, 0.0, 0.0, 0.0, 0.0, 0.0, 0.0, 1.662064926110492E9, 0.0, 2022-09-01 16:42:06.110
178.0, -21376.202568555185, -21175.014516712967, -29701.959157223602, -17314.66708358134, -12525.537613098337, -15995.534181062483, 26471.81915900936, -15445.211880828367, -25555.174118897216, -2483.099995028972, -29572.60961206074, -27286.562596149757, -8979.902741897433, 6742.694287621294, -9292.737757293911, -21862.24125173584, 0.164, 0.854, -0.464, 192.0, 0.0, 0.0, 0.0, 0.0, 0.0, 0.0, 0.0, 0.0, 0.0, 1.6620649261104968E9, 0.0, 2022-09-01 16:42:06.110
180.0, -21499.763011904124, -21296.697413527658, -29818.456449324665, -17436.864070518503, -12633.54124230638, -16100.497973024605, 26874.955222005276, -15560.457475239931, -25558.90686022125, -2536.2077398547817, -29597.643565850685, -27333.478907761444, -8969.442125492349, 6617.613925649396, -9276.331576863717, -21887.09639157014, 0.16, 0.85, -0.466, 192.0, 2.5, 0.0, 13.0, 72.0, 120.5, 56.0, 0.0, 0.0, 0.0, 1.6620649261105015E9, 0.0, 2022-09-01 16:42:06.110
182.0, -21398.66607173277, -21191.1524762097, -29735.866753562303, -17334.00134253518, -12547.755247086912, -15990.862666471323, 26468.57815606334, -15458.53352052373, -25607.432497433725, -2519.131007090927, -29628.265455754456, -27336.07171011826, -9021.722855773312, 6694.503926575652, -9336.502472937402, -21895.746516674342, 0.16, 0.85, -0.466, 192.0, 0.0, 0.0, 0.0, 0.0, 0.0, 0.0, 0.0, 0.0, 0.0, 1.6620649261105063E9, 0.0, 2022-09-01 16:42:06.110
184.0, -21457.9652497727, -21256.464273508107, -29792.23785307859, -17408.902038204913, -12599.477183756493, -16051.74881836758, 26871.066018470054, -15520.850184065126, -25541.47249954611, -2515.1300448334273, -29574.978896973003, -27305.628634170134, -8952.566558428593, 6638.088123570457, -9266.675623259023, -21863.29178372524, 0.16, 0.85, -0.466, 192.0, 0.0, 0.0, 0.0, 0.0, 0.0, 0.0, 0.0, 0.0, 0.0, 1.6620649261105113E9, 0.0, 2022-09-01 16:42:06.110
186.0, -21381.566987224458, -21171.482941089027, -29719.79584929894, -17324.546554630586, -12532.131377712652, -15964.845235925346, 26500.898778545714, -15437.567584224653, -25586.086581478907, -2496.1757655353267, -29605.064345009847, -27313.31763426276, -9006.188393376875, 6713.927592507314, -9315.60359187169, -21882.402525234524, 0.16, 0.85, -0.466, 192.0, 0.0, 0.0, 0.0, 0.0, 0.0, 0.0, 0.0, 0.0, 0.0, 1.6620649261105163E9, 0.0, 2022-09-01 16:42:06.110
188.0, -21475.131389514376, -21274.256262094532, -29792.908405412247, -17435.902945506925, -12607.680273971591, -16092.965435143165, 26849.943619959788, -15549.169844290001, -25532.710615719632, -2499.528527203623, -29562.506623566944, -27296.35266022118, -8951.158398527909, 6651.186245821267, -9262.227626112417, -21868.94677507243, 0.16, 0.85, -0.466, 192.0, 0.0, 0.0, 0.0, 0.0, 0.0, 0.0, 0.0, 0.0, 0.0, 1.6620649261105213E9, 0.0, 2022-09-01 16:42:06.110
190.0, -21379.75649592358, -21169.56069106587, -29709.379936382764, -17325.686493597805, -12533.271316679873, -15993.41076533923, 26527.63146491426, -15455.270165833255, -25596.457790906166, -2537.7947137111087, -29615.927292815126, -27336.07171011826, -9023.9803819633, 6662.920911660303, -9331.629792646145, -21923.976769921395, 0.162, 0.848, -0.464, 192.0, 2.5, 8.0, 13.0, 64.0, 120.5, 64.0, 0.0, 0.0, 0.0, 1.662064926110526E9, 0.0, 2022-09-01 16:42:06.110
192.0, -21440.66499956429, -21237.375883743272, -29757.749111384048, -17398.173200866368, -12575.069078811299, -16084.091792594409, 26818.53941900008, -15526.996913790335, -25499.80884788142, -2480.5742479055225, -29526.83323941627, -27263.942630760987, -8930.840662818035, 6671.436926297775, -9237.461893255937, -21850.99832427482, 0.162, 0.848, -0.464, 192.0, 0.0, 0.0, 0.0, 0.0, 0.0, 0.0, 0.0, 0.0, 0.0, 1.6620649261105309E9, 0.0, 2022-09-01 16:42:06.110
194.0, -21403.203475857197, -21185.788057540423, -29745.679169378185, -17347.85942409747, -12564.004965305921, -16017.438890628684, 26574.078389892387, -15482.740459768827, -25596.92717753973, -2519.8909664024077, -29616.553141659875, -27331.623712971654, -9028.204861665352, 6658.539969747063, -9323.672571620056, -21923.820307710208, 0.162, 0.848, -0.464, 192.0, 0.0, 0.0, 0.0, 0.0, 0.0, 0.0, 0.0, 0.0, 0.0, 1.6620649261105356E9, 0.0, 2022-09-01 16:42:06.110
196.0, -21443.369560643383, -21237.59940118783, -29773.41768424722, -17407.784450982148, -12584.546218460348, -16086.751650184591, 26773.701819622736, -15533.031884793269, -25528.553191250943, -2477.2214862372266, -29544.84874544725, -27272.6374593541, -8955.114657296499, 6679.1706298793115, -9255.700916731468, -21857.88266156705, 0.162, 0.848, -0.464, 192.0, 0.0, 0.0, 0.0, 0.0, 0.0, 0.0, 0.0, 0.0, 0.0, 1.6620649261105404E9, 0.0, 2022-09-01 16:42:06.110
198.0, -21409.461964304683, -21193.454705888595, -29754.642218904763, -17357.33656374652, -12570.53167468687, -16017.751815051059, 26620.0335764925, -15489.513038338786, -25604.482067165623, -2525.8365304275194, -29626.5443714314, -27343.17956485505, -9032.205823922852, 6651.499170243642, -9329.729894367445, -21928.268304856814, 0.162, 0.848, -0.464, 192.0, 0.0, 0.0, 0.0, 0.0, 0.0, 0.0, 0.0, 0.0, 0.0, 1.6620649261105464E9, 0.0, 2022-09-01 16:42:06.110
200.0, -21434.585325072447, -21231.720892396082, -29757.257373006032, -17397.63675899944, -12568.877645597178, -16071.753629655079, 26722.851600986913, -15519.017341019791, -25514.42688875519, -2460.077698240006, -29535.192791842557, -27259.62874408111, -8944.698744380325, 6694.1910021532785, -9250.917643418032, -21842.549364870712, 0.17200000000000001, 0.844, -0.464, 192.0, 2.5, 48.0, 13.0, 48.0, 120.5, 64.0, 0.0, 0.0, 0.0, 1.6620649261105514E9, 0.0, 2022-09-01 16:42:06.110
202.0, -21431.76900527108, -21221.863773091292, -29768.813224889425, -17376.313194789076, -12578.287730012862, -16035.812024570945, 26673.834225396422, -15504.198134445924, -25603.386831687312, -2571.4340891163456, -29635.596827935795, -27363.251431375913, -9032.854024512057, 6612.651838380318, -9329.729894367445, -21941.053502685252, 0.17200000000000001, 0.844, -0.464, 192.0, 0.0, 0.0, 0.0, 0.0, 0.0, 0.0, 0.0, 0.0, 0.0, 1.6620649261105561E9, 0.0, 2022-09-01 16:42:06.110
204.0, -21427.879801735857, -21229.038683061444, -29750.551849669442, -17390.19362809582, -12553.119665756187, -16058.387286470806, 26665.787597392515, -15511.127175227068, -25512.594045709855, -2467.342015187981, -29537.18209709908, -27266.222508695428, -8942.57532865707, 6704.875136002915, -9255.365640564638, -21840.493004380824, 0.17200000000000001, 0.844, -0.464, 192.0, 0.0, 0.0, 0.0, 0.0, 0.0, 0.0, 0.0, 0.0, 0.0, 1.662064926110561E9, 0.0, 2022-09-01 16:42:06.110
206.0, -21463.374371930884, -21251.859814150313, -29798.60810024835, -17410.757232994703, -12625.874593958211, -16070.814856387957, 26716.593112539427, -15536.876384839581, -25615.859105093376, -2582.2746851771694, -29646.30331352989, -27376.55071932682, -9037.480835614304, 6602.414739419787, -9343.56562418528, -21959.940726749985, 0.17200000000000001, 0.844, -0.464, 192.0, 0.0, 0.0, 0.0, 0.0, 0.0, 0.0, 0.0, 0.0, 0.0, 1.662064926110566E9, 0.0, 2022-09-01 16:42:06.110
208.0, -21428.975037214164, -21227.518764438482, -29754.50810843803, -17390.260683329187, -12560.719258870991, -16057.403809714773, 26609.192980431675, -15503.147602456524, -25541.91953443522, -2474.3828146914025, -29553.18594612908, -27275.096151244183, -8972.68312843837, 6701.678836545806, -9280.489001332404, -21865.057571537207, 0.17200000000000001, 0.844, -0.464, 192.0, 0.0, 0.0, 0.0, 0.0, 0.0, 0.0, 0.0, 0.0, 0.0, 1.6620649261105707E9, 0.0, 2022-09-01 16:42:06.110
210.0, -21449.49393862414, -21237.845270376834, -29803.592539261885, -17405.951607936815, -12605.087471614775, -16075.978109357133, 26768.940898053756, -15517.340960185644, -25614.24977949259, -2571.3446821385246, -29640.380101249233, -27364.346666854224, -9048.902577030967, 6583.460460121687, -9341.106932295195, -21959.024305227318, 0.17200000000000001, 0.845, -0.458, 192.0, 2.5, 48.0, 13.0, 56.0, 120.5, 112.0, 0.0, 0.0, 0.0, 1.6620649261105754E9, 0.0, 2022-09-01 16:42:06.110
212.0, -21373.98974585411, -21168.934842221122, -29720.0640702324, -17339.9916100492, -12542.994325517933, -16028.637114600793, 26558.432168773674, -15448.274069818744, -25510.180057308684, -2449.5500266015565, -29532.331768552278, -27243.62489505111, -8962.15545679992, 6742.180197498822, -9274.49873381838, -21846.729141083855, 0.17200000000000001, 0.845, -0.458, 192.0, 0.0, 0.0, 0.0, 0.0, 0.0, 0.0, 0.0, 0.0, 0.0, 1.6620649261105804E9, 0.0, 2022-09-01 16:42:06.110
214.0, -21445.649438577824, -21229.172793528178, -29805.157161373754, -17402.598846268516, -12634.480015573505, -16073.809990144968, 26804.569578715513, -15506.098032724623, -25568.80868301495, -2550.043469672617, -29607.81360957785, -27334.46238451748, -9004.40025382045, 6615.624620392874, -9312.429644159038, -21934.929124704497, 0.17200000000000001, 0.845, -0.458, 192.0, 0.0, 0.0, 0.0, 0.0, 0.0, 0.0, 0.0, 0.0, 0.0, 1.6620649261105852E9, 0.0, 2022-09-01 16:42:06.110
216.0, -21385.545597737506, -21172.71228703407, -29736.000864029036, -17341.511528672163, -12554.796046590334, -16015.918972005722, 26506.754935593002, -15437.835805158116, -25542.366569324324, -2455.339128415481, -29553.99060892947, -27261.394531893082, -8970.269140037197, 6761.469752963752, -9301.253771931384, -21871.561929173702, 0.17200000000000001, 0.845, -0.458, 192.0, 0.0, 0.0, 0.0, 0.0, 0.0, 0.0, 0.0, 0.0, 0.0, 1.66206492611059E9, 0.0, 2022-09-01 16:42:06.110
218.0, -21452.33261016996, -21231.072691806876, -29809.135771886802, -17402.39768056842, -12629.964963193532, -16083.376536771839, 26824.797907447566, -15501.73944255584, -25581.34801165438, -2546.9812806822397, -29614.943816059094, -27334.954122895495, -8998.678207239891, 6607.935620300248, -9327.405312944093, -21949.748331278366, 0.17200000000000001, 0.845, -0.458, 192.0, 0.0, 0.0, 0.0, 0.0, 0.0, 0.0, 0.0, 0.0, 0.0, 1.6620649261105947E9, 0.0, 2022-09-01 16:42:06.110
220.0, -21363.640888171303, -21149.0417896559, -29716.867770775294, -17314.354159158964, -12544.089560996243, -16011.69449230367, 26459.883327470223, -15417.629828170519, -25544.33352283639, -2426.1253984123946, -29557.119853153214, -27258.06412196924, -8965.15059055693, 6754.563063927062, -9314.7989290713, -21889.37626950458, 0.168, 0.8454999999999999, -0.46, 192.0, 2.5, 16.0, 13.0, 56.0, 120.5, 72.0, 0.0, 0.0, 0.0, 1.6620649261105995E9, 0.0, 2022-09-01 16:42:06.110
222.0, -21455.640668349348, -21244.707255924615, -29809.64986200927, -17400.92246543437, -12628.02036142592, -16085.18702807272, 26832.375148817915, -15499.750137299317, -25542.567735024422, -2529.9939548962066, -29589.641641335686, -27321.006634355384, -8963.697727167337, 6616.049303537525, -9317.011751772376, -21947.177880666004, 0.168, 0.8454999999999999, -0.46, 192.0, 0.0, 0.0, 0.0, 0.0, 0.0, 0.0, 0.0, 0.0, 0.0, 1.6620649261106043E9, 0.0, 2022-09-01 16:42:06.110
224.0, -21370.257004530074, -21163.637478785215, -29728.289512191954, -17308.90033351187, -12542.256717950908, -16005.21248641163, 26436.883382425713, -15410.589028667096, -25543.931191436197, -2461.0164715071287, -29574.3306963838, -27284.97562229343, -8976.30411104013, 6746.650546389884, -9332.143882768618, -21913.270284327304, 0.168, 0.8454999999999999, -0.46, 192.0, 0.0, 0.0, 0.0, 0.0, 0.0, 0.0, 0.0, 0.0, 0.0, 1.6620649261106093E9, 0.0, 2022-09-01 16:42:06.110
226.0, -21461.988563774656, -21256.598383974837, -29821.831562737414, -17404.699910247316, -12629.987314937987, -16091.914903153767, 26847.395521091883, -15501.359462900098, -25541.09251989037, -2520.0250768691394, -29588.389943646187, -27321.811297155775, -8959.29443350964, 6633.662478168307, -9311.401463914093, -21943.109863175137, 0.168, 0.8454999999999999, -0.46, 192.0, 0.0, 0.0, 0.0, 0.0, 0.0, 0.0, 0.0, 0.0, 0.0, 1.662064926110614E9, 0.0, 2022-09-01 16:42:06.110
228.0, -21355.61661191185, -21147.007780910466, -29724.802640056925, -17292.225932148212, -12532.19843294602, -15986.437021069172, 26440.973751661033, -15394.898104059472, -25564.09246493488, -2471.0524047675617, -29595.609557105254, -27302.722907390944, -8994.990169404766, 6758.1169912954565, -9349.019449832374, -21933.34215084817, 0.168, 0.8454999999999999, -0.46, 192.0, 0.0, 0.0, 0.0, 0.0, 0.0, 0.0, 0.0, 0.0, 0.0, 1.6620649261106188E9, 0.0, 2022-09-01 16:42:06.110
230.0, -21450.14213921334, -21240.616886689295, -29810.923911443224, -17391.333567063044, -12611.25655308444, -16092.205475831686, 26845.048587924077, -15498.610198332097, -25526.85445867234, -2494.1864602788046, -29567.3793038582, -27298.856055600176, -8944.654040891415, 6661.132772103879, -9294.190620683506, -21926.614275767122, 0.167, 0.84575, -0.459, 192.0, 2.5, 24.0, 13.0, 56.0, 120.5, 88.0, 0.0, 0.0, 0.0, 1.662064926110625E9, 0.0, 2022-09-01 16:42:06.110
232.0, -21350.90039383178, -21137.128309861222, -29725.674358090684, -17284.358118099943, -12533.070150979776, -15988.314567603418, 26452.32843784433, -15400.597798895575, -25577.369401141335, -2477.132079259405, -29601.108086241256, -27305.338061492213, -9000.73456772978, 6728.635040358907, -9347.18660678704, -21945.948534720963, 0.167, 0.84575, -0.459, 192.0, 0.0, 0.0, 0.0, 0.0, 0.0, 0.0, 0.0, 0.0, 0.0, 1.6620649261106298E9, 0.0, 2022-09-01 16:42:06.110
234.0, -21451.97498225868, -21245.601325702828, -29813.069678910935, -17394.976901409256, -12612.932933918588, -16100.877952680345, 26824.64144523638, -15508.288503681244, -25512.437583498668, -2484.5752101630223, -29552.962428684525, -27285.243843226894, -8933.455816919306, 6664.798458194549, -9287.59685606919, -21915.952493661942, 0.167, 0.84575, -0.459, 192.0, 0.0, 0.0, 0.0, 0.0, 0.0, 0.0, 0.0, 0.0, 0.0, 1.6620649261106348E9, 0.0, 2022-09-01 16:42:06.110
236.0, -21362.836225370913, -21149.734693734015, -29738.861887319315, -17292.874132737415, -12548.24698546493, -15999.535143319983, 26472.690877043115, -15415.126432791523, -25587.91942452424, -2497.8744981139303, -29611.814571835348, -27325.20876231298, -9013.184489391386, 6699.04133070008, -9360.016508104385, -21955.179805181004, 0.167, 0.84575, -0.459, 192.0, 0.0, 0.0, 0.0, 0.0, 0.0, 0.0, 0.0, 0.0, 0.0, 1.6620649261106396E9, 0.0, 2022-09-01 16:42:06.110
238.0, -21439.43565361925, -21233.218459274587, -29798.295175825977, -17378.883645401438, -12607.814384438323, -16091.221999075653, 26788.610433174425, -15498.431384376454, -25517.958464379128, -2480.9095240723523, -29546.905105937138, -27281.935785047506, -8938.306145466107, 6683.305702603544, -9290.770803781845, -21904.351938289637, 0.167, 0.84575, -0.459, 192.0, 0.0, 0.0, 0.0, 0.0, 0.0, 0.0, 0.0, 0.0, 0.0, 1.6620649261106443E9, 0.0, 2022-09-01 16:42:06.110
240.0, -21371.17342605274, -21154.272097858444, -29743.242829232557, -17293.343519370977, -12555.019564034888, -15996.36119560733, 26508.67718561616, -15416.087557803103, -25601.822209575443, -2502.613067938455, -29618.25187423848, -27329.388538526124, -9021.097006928565, 6689.743005006672, -9366.297348296326, -21961.035962228296, 0.1635, 0.8458749999999999, -0.4575, 192.0, 2.5, 0.0, 13.0, 56.0, 120.5, 96.0, 0.0, 0.0, 0.0, 1.662064926110649E9, 0.0, 2022-09-01 16:42:06.110
242.0, -21423.968246456177, -21219.896819579222, -29783.855948907847, -17362.61157543797, -12581.43932598106, -16053.402847457273, 26761.654229361324, -15468.703564250894, -25504.5697694504, -2458.267206939126, -29532.08589936327, -27256.432444624003, -8918.055464989598, 6708.652580815862, -9273.40349834007, -21880.48027521137, 0.1635, 0.8458749999999999, -0.4575, 192.0, 0.0, 0.0, 0.0, 0.0, 0.0, 0.0, 0.0, 0.0, 0.0, 1.6620649265905876E9, 0.0, 2022-09-01 16:42:06.590
244.0, -21375.107333076874, -21156.41786532615, -29756.296247994454, -17299.75847002965, -12554.863101823701, -15994.438945584172, 26564.042456631956, -15410.81254611165, -25596.3907356728, -2506.6587336848656, -29626.27615049793, -27332.763651938876, -9012.312771357629, 6682.299874103055, -9357.781333658855, -21953.190499924483, 0.1635, 0.8458749999999999, -0.4575, 192.0, 0.0, 0.0, 0.0, 0.0, 0.0, 0.0, 0.0, 0.0, 0.0, 1.6620649265906122E9, 0.0, 2022-09-01 16:42:06.590
246.0, -21434.562973327993, -21226.982322571555, -29799.770390960028, -17378.704831445793, -12588.882456884678, -16083.577702471937, 26708.23356011314, -15481.68992777943, -25510.4706299866, -2447.851294022953, -29537.89735292165, -27257.237107424393, -8929.365447683984, 6735.541729395596, -9283.126507178129, -21872.746571629832, 0.1635, 0.8458749999999999, -0.4575, 192.0, 0.0, 0.0, 0.0, 0.0, 0.0, 0.0, 0.0, 0.0, 0.0, 1.662064926590619E9, 0.0, 2022-09-01 16:42:06.590
248.0, -21394.888626919823, -21180.177769682145, -29775.94343137067, -17326.46880465374, -12568.832942108267, -16019.964637752133, 26604.812038518434, -15434.214822556356, -25622.855201107886, -2550.803428984097, -29653.25470605549, -27365.710123266, -9037.369076892028, 6644.637184695863, -9382.882342682165, -21976.860997302654, 0.1635, 0.8458749999999999, -0.4575, 192.0, 0.0, 0.0, 0.0, 0.0, 0.0, 0.0, 0.0, 0.0, 0.0, 1.6620649265906253E9, 0.0, 2022-09-01 16:42:06.590
250.0, -21410.24427536062, -21208.877409562756, -29768.94733535616, -17355.347258489997, -12556.9641658025, -16063.952870840178, 26655.729312387626, -15460.72399148035, -25511.968196865106, -2434.4178956053133, -29531.102422607237, -27253.191441677984, -8922.883441791946, 6722.510662378152, -9272.867056473144, -21861.23542323535, 0.16475, 0.8469374999999999, -0.45875, 192.0, 2.5, 24.0, 13.0, 64.0, 120.5, 80.0, 0.0, 0.0, 0.0, 1.6620649265906312E9, 0.0, 2022-09-01 16:42:06.590
252.0, -21405.840981702924, -21189.364336653274, -29786.336992542387, -17336.169461747344, -12577.550122445837, -16029.084149489898, 26655.975181576632, -15448.92227040795, -25614.361538214867, -2551.8763127179523, -29645.655112940683, -27358.110530151193, -9023.287477885184, 6626.956954831714, -9360.016508104385, -21976.72688683592, 0.16475, 0.8469374999999999, -0.45875, 192.0, 0.0, 0.0, 0.0, 0.0, 0.0, 0.0, 0.0, 0.0, 0.0, 1.6620649265906384E9, 0.0, 2022-09-01 16:42:06.590
254.0, -21402.555275267994, -21199.444973402617, -29772.434207491187, -17350.228709009734, -12551.376229688673, -16052.240556745597, 26591.378640100796, -15448.139959352013, -25525.312188304924, -2443.3809451318916, -29544.33465532478, -27251.224488165917, -8929.052523261611, 6743.074267277035, -9288.848553758688, -21876.36755423159, 0.16475, 0.8469374999999999, -0.45875, 192.0, 0.0, 0.0, 0.0, 0.0, 0.0, 0.0, 0.0, 0.0, 0.0, 1.6620649265906446E9, 0.0, 2022-09-01 16:42:06.590
0.0, -21434.29475239453, -21222.15434576921, -29822.703280771173, -17368.91476737437, -12608.909619916632, -16053.313440479451, 26693.906091917288, -15475.073811420658, -25609.98059630163, -2546.936577193329, -29652.02536011045, -27368.928774467564, -9017.520727815716, 6613.635315136352, -9377.42851703507, -21990.182636998015, 0.16475, 0.8469374999999999, -0.45875, 192.0, 0.0, 0.0, 0.0, 0.0, 0.0, 0.0, 0.0, 0.0, 0.0, 1.6620649265906506E9, 0.0, 2022-09-01 16:42:06.590
2.0, -21398.621368243857, -21192.828857043845, -29766.13101555479, -17339.47751992673, -12551.376229688673, -16042.428140929716, 26532.951180094624, -15449.302250063689, -25540.936057679184, -2442.7327445426877, -29562.37251310021, -27269.038828496796, -8953.371221228985, 6756.082982550023, -9325.460711176482, -21892.86314163961, 0.16475, 0.8469374999999999, -0.45875, 192.0, 0.0, 0.0, 0.0, 0.0, 0.0, 0.0, 0.0, 0.0, 0.0, 1.6620649265906568E9, 0.0, 2022-09-01 16:42:06.590
4.0, -21441.84964202042, -21227.92109583868, -29806.498266041075, -17361.516339959664, -12610.518945517415, -16056.643850403292, 26738.408415127804, -15485.646186548018, -25598.424744418237, -2546.2436731152147, -29638.68136867063, -27357.93171619555, -9009.697617256357, 6620.720818128684, -9365.537388984847, -21971.429523400013, 0.164375, 0.8484687499999999, -0.463375, 192.0, 2.5, 16.0, 13.0, 72.0, 120.5, 48.0, 0.0, 0.0, 0.0, 1.6620649265906627E9, 0.0, 2022-09-01 16:42:06.590
6.0, -21377.208397055674, -21175.61801381326, -29730.83761105986, -17300.272560152123, -12526.811662532291, -16017.88592551779, 26489.454685384597, -15430.81735739915, -25535.929266921197, -2424.9407559562633, -29549.85553620524, -27255.404264379056, -8950.219625260786, 6752.864331348459, -9310.485042391425, -21866.532786671258, 0.164375, 0.8484687499999999, -0.463375, 192.0, 0.0, 0.0, 0.0, 0.0, 0.0, 0.0, 0.0, 0.0, 0.0, 1.6620649265906727E9, 0.0, 2022-09-01 16:42:06.590
8.0, -21444.33068565496, -21239.655761677714, -29809.42634456472, -17360.33169750353, -12598.11372734472, -16061.985917328111, 26785.25767150613, -15492.329358140154, -25582.57735759942, -2549.819952228064, -29615.681423626116, -27335.803489184796, -8991.615055992015, 6613.724722114172, -9337.374190971159, -21936.650209027554, 0.164375, 0.8484687499999999, -0.463375, 192.0, 0.0, 0.0, 0.0, 0.0, 0.0, 0.0, 0.0, 0.0, 0.0, 1.662064926590679E9, 0.0, 2022-09-01 16:42:06.590
10.0, -21367.32892600643, -21166.565557308862, -29726.724890080084, -17288.493190824174, -12515.926362982556, -15982.346651833852, 26467.61703105176, -15405.023444297725, -25545.786386225987, -2450.0194132351176, -29556.89633570866, -27263.808520294253, -8958.668584664892, 6754.875988349437, -9308.361626668171, -21846.349161428116, 0.164375, 0.8484687499999999, -0.463375, 192.0, 0.0, 0.0, 0.0, 0.0, 0.0, 0.0, 0.0, 0.0, 0.0, 1.662064926590685E9, 0.0, 2022-09-01 16:42:06.590
12.0, -21450.410360146805, -21245.266049535996, -29812.063850410446, -17373.854502898994, -12604.9757128925, -16054.766303869046, 26833.649198251867, -15483.679233035951, -25566.01471495804, -2524.9201089048515, -29600.661051352152, -27328.11448909217, -8970.224436548286, 6639.988021849159, -9306.729949322933, -21890.896188127543, 0.164375, 0.8484687499999999, -0.463375, 192.0, 0.0, 0.0, 0.0, 0.0, 0.0, 0.0, 0.0, 0.0, 0.0, 1.662064926590691E9, 0.0, 2022-09-01 16:42:06.590
14.0, -21357.248289257084, -21151.254612356977, -29717.694785320138, -17291.75654551465, -12518.183889172542, -15996.40589909624, 26461.0456181819, -15405.291665231189, -25560.739703266587, -2451.762849302632, -29571.42496960461, -27274.02326751033, -8975.946483128844, 6741.0402585316015, -9314.597763371201, -21858.843786578633, 0.1671875, 0.847234375, -0.46668750000000003, 192.0, 2.5, 40.0, 13.0, 56.0, 120.5, 40.0, 0.0, 0.0, 0.0, 1.6620649265906973E9, 0.0, 2022-09-01 16:42:06.590
16.0, -21444.665961821793, -21238.560526199406, -29799.725687471117, -17385.656223971393, -12609.915448417121, -16093.479525265639, 26852.782291505613, -15507.237971691844, -25549.653238016755, -2511.3749517649358, -29578.018734218924, -27305.82979987023, -8962.49073296675, 6617.7703878605835, -9308.629847601635, -21918.075909385196, 0.1671875, 0.847234375, -0.46668750000000003, 192.0, 0.0, 0.0, 0.0, 0.0, 0.0, 0.0, 0.0, 0.0, 0.0, 1.6620649265907032E9, 0.0, 2022-09-01 16:42:06.590
18.0, -21347.681742630215, -21140.078740129324, -29706.49656134803, -17281.40768783184, -12519.659104306593, -15999.26692238652, 26445.84643195229, -15415.841688614093, -25553.162461896238, -2455.048555737562, -29558.88564096518, -27266.11074997315, -8979.723927941792, 6733.865348561448, -9338.04474330482, -21907.369423791104, 0.1671875, 0.847234375, -0.46668750000000003, 192.0, 0.0, 0.0, 0.0, 0.0, 0.0, 0.0, 0.0, 0.0, 0.0, 1.6620649265907092E9, 0.0, 2022-09-01 16:42:06.590
20.0, -21433.9594762277, -21232.078520307365, -29792.148446100768, -17375.039145355124, -12595.520924987904, -16082.057783848977, 26854.190451406295, -15503.438175134443, -25529.00022614005, -2506.3458092624915, -29554.61645777422, -27285.445008926992, -8954.309994496107, 6635.629431680373, -9305.299437677793, -21925.787261222275, 0.1671875, 0.847234375, -0.46668750000000003, 192.0, 0.0, 0.0, 0.0, 0.0, 0.0, 0.0, 0.0, 0.0, 0.0, 1.6620649265907152E9, 0.0, 2022-09-01 16:42:06.590
22.0, -21344.016056539545, -21137.955324406066, -29709.804619527415, -17277.89846395236, -12507.298589622807, -15980.379698321785, 26458.966905947556, -15403.99526405278, -25549.228554872105, -2449.728840557199, -29556.38224558619, -27261.26042142635, -8976.147648828943, 6757.133514539423, -9321.07976926324, -21899.18868532046, 0.1671875, 0.847234375, -0.46668750000000003, 192.0, 0.0, 0.0, 0.0, 0.0, 0.0, 0.0, 0.0, 0.0, 0.0, 1.6620649265907216E9, 0.0, 2022-09-01 16:42:06.590
24.0, -21447.39287464534, -21247.63533444826, -29800.642108993783, -17386.25972107169, -12603.098166358253, -16085.142324583809, 26850.837689738, -15511.127175227068, -25544.892316447775, -2502.3895504939023, -29561.36668459972, -27291.21175899646, -8954.086477051555, 6634.668306668796, -9293.296550905294, -21907.257665068828, 0.1671875, 0.847234375, -0.46668750000000003, 192.0, 0.0, 0.0, 0.0, 0.0, 0.0, 0.0, 0.0, 0.0, 0.0, 1.6620649265907276E9, 0.0, 2022-09-01 16:42:06.590
26.0, -21357.136530534808, -21146.27017334344, -29721.44987838863, -17283.978138444203, -12538.322810926773, -15984.335957090374, 26478.971717235057, -15412.71244439035, -25591.562758870456, -2469.3760239334138, -29589.775751802415, -27295.682107887522, -9002.25448635274, 6711.46890061723, -9337.84357760472, -21907.838810424666, 0.17, 0.844, -0.46, 192.0, 2.5, 40.0, 13.0, 48.0, 120.5, 80.0, 0.0, 0.0, 0.0, 1.6620649265907335E9, 0.0, 2022-09-01 16:42:06.590
28.0, -21431.590191315438, -21230.715063895594, -29789.600347232863, -17373.318061032067, -12596.772622677401, -16064.779885385024, 26833.224515107217, -15492.709337795895, -25528.70965346213, -2490.811346866053, -29544.111137880223, -27274.82793031072, -8931.533566896149, 6650.605100465429, -9279.773745509834, -21868.902071583518, 0.17, 0.844, -0.46, 192.0, 0.0, 0.0, 0.0, 0.0, 0.0, 0.0, 0.0, 0.0, 0.0, 1.6620649265907395E9, 0.0, 2022-09-01 16:42:06.590
30.0, -21385.99263262661, -21180.937728993624, -29760.006637574035, -17310.04027247909, -12564.519055428393, -15999.803364253446, 26509.48184841655, -15432.829014400128, -25603.811514831963, -2509.4079982528688, -29613.33449045831, -27319.5984744547, -9003.193259619864, 6698.460185344242, -9359.591824959734, -21912.778545949288, 0.17, 0.844, -0.46, 192.0, 0.0, 0.0, 0.0, 0.0, 0.0, 0.0, 0.0, 0.0, 0.0, 1.6620649265907457E9, 0.0, 2022-09-01 16:42:06.590
32.0, -21434.92060123928, -21240.952162856123, -29787.99102163208, -17367.663069684873, -12583.562741704314, -16069.272586020541, 26802.088535080977, -15485.020337703269, -25533.71644422012, -2485.201059007771, -29550.70490249454, -27277.174863478525, -8921.38587491344, 6672.174533864801, -9290.346120637194, -21864.387019203547, 0.17, 0.844, -0.46, 192.0, 0.0, 0.0, 0.0, 0.0, 0.0, 0.0, 0.0, 0.0, 0.0, 1.662064926590752E9, 0.0, 2022-09-01 16:42:06.590
34.0, -21367.351277750884, -21159.70357176108, -29728.4683261476, -17281.89942620986, -12531.505528867905, -15987.196980380653, 26560.890860663756, -15414.500583946776, -25603.58799738741, -2514.951230877785, -29614.519132914444, -27324.292340790314, -8985.803602433634, 6667.927702418292, -9354.272109779371, -21923.172107121005, 0.17, 0.844, -0.46, 192.0, 0.0, 0.0, 0.0, 0.0, 0.0, 0.0, 0.0, 0.0, 0.0, 1.6620649265907578E9, 0.0, 2022-09-01 16:42:06.590
36.0, -21427.52217382457, -21226.825860360368, -29765.594573687864, -17362.61157543797, -12567.223616507485, -16080.962548370666, 26755.798072314035, -15491.368233128576, -25512.974025365595, -2449.885302768386, -29522.184076569567, -27245.681255541, -8892.686235032825, 6690.391205595876, -9265.893312203087, -21855.915708054985, 0.17, 0.842, -0.462, 192.0, 2.5, 40.0, 13.0, 40.0, 120.5, 72.0, 0.0, 0.0, 0.0, 1.6620649265907638E9, 0.0, 2022-09-01 16:42:06.590
38.0, -21393.56987399696, -21182.032964471935, -29751.08829153637, -17313.99653124768, -12558.10410476972, -16021.842184286379, 26597.12303842581, -15454.53255826623, -25604.504418910077, -2514.3477337774916, -29624.0409760524, -27333.970646139463, -8999.706387484835, 6637.417571236798, -9355.836731891242, -21955.090398203185, 0.17, 0.842, -0.462, 192.0, 0.0, 0.0, 0.0, 0.0, 0.0, 0.0, 0.0, 0.0, 0.0, 1.662064926590772E9, 0.0, 2022-09-01 16:42:06.590
40.0, -21414.692272507225, -21213.750089854013, -29762.84530911986, -17352.75445613318, -12561.076886782275, -16073.161789555765, 26698.823475697456, -15488.440154604932, -25514.13631607727, -2451.472276624713, -29520.84297190225, -27237.276999625803, -8910.47822361925, 6710.574830839018, -9270.989509938898, -21859.80491159021, 0.17, 0.842, -0.462, 192.0, 0.0, 0.0, 0.0, 0.0, 0.0, 0.0, 0.0, 0.0, 0.0, 1.6620649265907779E9, 0.0, 2022-09-01 16:42:06.590
42.0, -21390.060650117477, -21180.177769682145, -29757.145614283756, -17318.62334234993, -12570.710488642513, -16022.043349986478, 26647.012132050055, -15456.834787945127, -25594.15556122727, -2527.624669983944, -29610.071135767837, -27325.968721624464, -8991.525649014193, 6639.451579982231, -9355.501455724414, -21949.994200467372, 0.17, 0.842, -0.462, 192.0, 0.0, 0.0, 0.0, 0.0, 0.0, 0.0, 0.0, 0.0, 0.0, 1.6620649265907836E9, 0.0, 2022-09-01 16:42:06.590
44.0, -21388.160751838775, -21192.672394832658, -29725.562599368408, -17332.593182634497, -12542.614345862192, -16038.136605994297, 26641.84887908088, -15462.132151381034, -25500.43469672617, -2431.1321891703833, -29503.274500760377, -27229.833868722188, -8898.184764168831, 6722.533014122608, -9285.451088601481, -21854.7087138544, 0.17, 0.842, -0.462, 192.0, 0.0, 0.0, 0.0, 0.0, 0.0, 0.0, 0.0, 0.0, 0.0, 1.6620649265907896E9, 0.0, 2022-09-01 16:42:06.590
46.0, -21409.394909071318, -21200.56256062538, -29761.772425386003, -17340.170424004846, -12585.194419049552, -16033.710960592147, 26697.70588847469, -15474.604424787096, -25589.97578501413, -2535.403077054391, -29596.749496072473, -27324.60526521269, -8973.130163327476, 6625.817015864493, -9354.205054546006, -21944.45096784246, 0.17200000000000001, 0.846, -0.464, 192.0, 2.5, 48.0, 13.0, 56.0, 120.5, 64.0, 0.0, 0.0, 0.0, 1.6620649265907958E9, 0.0, 2022-09-01 16:42:06.590
48.0, -21389.926539650744, -21196.42748790115, -29724.78028831247, -17330.693284355795, -12527.728084054957, -16031.967524524633, 26595.60311980285, -15449.034029130225, -25516.639711456268, -2435.490779339168, -29518.630149201173, -27239.5792293047, -8906.074929961555, 6730.601993870973, -9297.83395502972, -21854.552251643214, 0.17200000000000001, 0.846, -0.464, 192.0, 0.0, 0.0, 0.0, 0.0, 0.0, 0.0, 0.0, 0.0, 0.0, 1.6620649265908017E9, 0.0, 2022-09-01 16:42:06.590
50.0, -21444.733017055158, -21240.907459367212, -29792.081390867403, -17366.858406884483, -12586.334358016773, -16050.139492766797, 26750.321894922483, -15485.042689447724, -25585.30427042297, -2539.8287224565415, -29612.306310213367, -27339.715044464476, -8965.575273701581, 6623.760655374605, -9343.118589296173, -21942.48401433039, 0.17200000000000001, 0.846, -0.464, 192.0, 0.0, 0.0, 0.0, 0.0, 0.0, 0.0, 0.0, 0.0, 0.0, 1.6620649265908084E9, 0.0, 2022-09-01 16:42:06.590
52.0, -21405.52805728055, -21208.13980199573, -29741.20882048712, -17328.65927561036, -12515.278162393352, -16020.814004041435, 26546.40693025672, -15438.595764469597, -25534.632865742788, -2448.9912329901736, -29545.89927743665, -27257.080645213206, -8917.697837078314, 6730.311421193054, -9298.862135274665, -21855.826301077166, 0.17200000000000001, 0.846, -0.464, 192.0, 0.0, 0.0, 0.0, 0.0, 0.0, 0.0, 0.0, 0.0, 0.0, 1.6620649265908146E9, 0.0, 2022-09-01 16:42:06.590
54.0, -21485.212026263718, -21277.385506318275, -29831.86749599785, -17399.20138111131, -12621.314838089329, -16081.476638493139, 26789.705668652736, -15515.239896206844, -25608.192456745204, -2568.8859902484405, -29638.793127392906, -27362.871451720173, -8991.749166458747, 6586.947332256715, -9342.179816029051, -21949.860090000642, 0.17200000000000001, 0.846, -0.464, 192.0, 0.0, 0.0, 0.0, 0.0, 0.0, 0.0, 0.0, 0.0, 0.0, 1.6620649265908208E9, 0.0, 2022-09-01 16:42:06.590
56.0, -21396.408545542785, -21195.175790211655, -29738.25839021902, -17321.28319994011, -12535.394732403129, -16013.706149304648, 26502.105772746298, -15439.892165648005, -25563.44426434568, -2463.6763290973104, -29567.71458002503, -27276.817235567243, -8958.668584664892, 6717.481519875708, -9313.882507548631, -21877.351030987626, 0.166, 0.846, -0.464, 192.0, 2.5, 24.0, 13.0, 56.0, 120.5, 64.0, 0.0, 0.0, 0.0, 1.6620649265908267E9, 0.0, 2022-09-01 16:42:06.590
58.0, -21464.04492426454, -21256.35251478583, -29812.37677483282, -17386.43853502733, -12618.476166543505, -16074.70405992318, 26822.02629113511, -15508.132041470057, -25585.01369774505, -2546.109562648483, -29609.71350785655, -27337.5022217634, -8973.197218560841, 6593.094061981924, -9330.400446701104, -21938.594810795166, 0.166, 0.846, -0.464, 192.0, 0.0, 0.0, 0.0, 0.0, 0.0, 0.0, 0.0, 0.0, 0.0, 1.6620649265908327E9, 0.0, 2022-09-01 16:42:06.590
60.0, -21358.544690435494, -21153.400379824685, -29706.11658169229, -17288.269673379622, -12503.409386087584, -15985.118268146309, 26476.89300500071, -15410.007883311258, -25538.43266230019, -2434.9766892166963, -29544.46876579151, -27247.223525908415, -8938.283793721652, 6748.796313857593, -9309.322751679749, -21853.881699309553, 0.166, 0.846, -0.464, 192.0, 0.0, 0.0, 0.0, 0.0, 0.0, 0.0, 0.0, 0.0, 0.0, 1.662064926590839E9, 0.0, 2022-09-01 16:42:06.590
62.0, -21471.778627846077, -21263.795645689446, -29823.485591827106, -17405.57162828107, -12619.951381677554, -16084.583530972426, 26847.462576325248, -15527.980390546369, -25570.44036036019, -2530.843321185508, -29591.966222759038, -27315.68691917502, -8954.980546829765, 6613.992943047637, -9318.554022139791, -21912.599731993643, 0.166, 0.846, -0.464, 192.0, 0.0, 0.0, 0.0, 0.0, 0.0, 0.0, 0.0, 0.0, 0.0, 1.6620649265908449E9, 0.0, 2022-09-01 16:42:06.590
64.0, -21378.884777889823, -21174.27690914594, -29732.31282619391, -17314.398862647875, -12536.266450436886, -16002.150297421254, 26452.23903086651, -15439.467482503354, -25572.228499916615, -2470.8288873230085, -29578.264603407933, -27278.448912912478, -8972.34785227154, 6720.923688521825, -9342.917423596076, -21883.967147346397, 0.166, 0.846, -0.464, 192.0, 0.0, 0.0, 0.0, 0.0, 0.0, 0.0, 0.0, 0.0, 0.0, 1.6620649265908508E9, 0.0, 2022-09-01 16:42:06.590
66.0, -21465.743656843148, -21259.884090409767, -29813.784934733503, -17408.29854110462, -12620.800747966856, -16087.33279554043, 26854.32456187303, -15534.954134816426, -25563.66778179023, -2533.88315843143, -29583.114931954737, -27315.530456963836, -8953.930014840367, 6599.911344040793, -9313.010789514874, -21916.91361867352, 0.164, 0.85, -0.464, 192.0, 2.5, 16.0, 13.0, 72.0, 120.5, 64.0, 0.0, 0.0, 0.0, 1.6620649265908568E9, 0.0, 2022-09-01 16:42:06.590
68.0, -21367.8430161289, -21158.47422581604, -29722.388651655754, -17305.882848010402, -12532.556060857303, -16002.93260847719, 26444.05829239587, -15440.920345892948, -25581.21390118765, -2466.8279250655087, -29574.308344639343, -27284.886215315608, -8973.06310809411, 6723.158862967356, -9339.743475883422, -21902.228522566384, 0.164, 0.85, -0.464, 192.0, 0.0, 0.0, 0.0, 0.0, 0.0, 0.0, 0.0, 0.0, 0.0, 1.6620649265908625E9, 0.0, 2022-09-01 16:42:06.590
70.0, -21464.7154765982, -21257.96184038661, -29805.55949277395, -17408.611465526996, -12617.470338043016, -16096.608769489381, 26848.17783214782, -15537.055198795224, -25541.450147801657, -2509.944440119796, -29559.13151015419, -27294.273947986836, -8929.946593039822, 6619.759693117106, -9301.276123675838, -21912.935008160475, 0.164, 0.85, -0.464, 192.0, 0.0, 0.0, 0.0, 0.0, 0.0, 0.0, 0.0, 0.0, 0.0, 1.6620649265908709E9, 0.0, 2022-09-01 16:42:06.590
72.0, -21386.014984371064, -21171.170016666656, -29731.26229420451, -17316.47757488222, -12537.00405800391, -16002.753794521546, 26460.03978968141, -15441.881470904527, -25588.16529371325, -2481.8930008283855, -29594.491969882485, -27302.477038201934, -8992.218553092307, 6698.214316155233, -9351.23227253345, -21925.00495016634, 0.164, 0.85, -0.464, 192.0, 0.0, 0.0, 0.0, 0.0, 0.0, 0.0, 0.0, 0.0, 0.0, 1.6620649265908768E9, 0.0, 2022-09-01 16:42:06.590
74.0, -21470.616337134405, -21262.365134044307, -29797.781085703504, -17403.649378257916, -12603.455794269537, -16087.645719962804, 26842.20991637825, -15523.174765488478, -25537.20331635515, -2505.9881813512065, -29560.070283421315, -27288.574253150735, -8929.633668617447, 6655.298966801044, -9291.776632282334, -21892.684327683965, 0.164, 0.85, -0.464, 192.0, 0.0, 0.0, 0.0, 0.0, 0.0, 0.0, 0.0, 0.0, 0.0, 1.6620649265908828E9, 0.0, 2022-09-01 16:42:06.590
76.0, -21388.317214049963, -21173.829874256837, -29734.83857331736, -17309.883810267904, -12540.312116183295, -15998.171686908208, 26489.141760962222, -15440.450959259388, -25592.43447690421, -2494.521736445634, -29604.550254887374, -27311.3953842396, -8990.855096680534, 6694.794499253571, -9351.008755088897, -21909.805763936733, 0.162, 0.852, -0.466, 192.0, 2.5, 8.0, 13.0, 80.0, 120.5, 56.0, 0.0, 0.0, 0.0, 1.6620649265908887E9, 0.0, 2022-09-01 16:42:06.590
78.0, -21453.070217736986, -21248.283535037463, -29798.98807990409, -17397.77086946617, -12599.387776778673, -16090.663205464269, 26814.180828831297, -15525.409939934008, -25531.81654594142, -2489.537297432101, -29551.12958563919, -27279.20887222396, -8931.019476773678, 6655.41072552332, -9288.22270491394, -21867.38215296056, 0.162, 0.852, -0.466, 192.0, 0.0, 0.0, 0.0, 0.0, 0.0, 0.0, 0.0, 0.0, 0.0, 1.6620649265908947E9, 0.0, 2022-09-01 16:42:06.590
80.0, -21373.252138287084, -21158.921260705145, -29739.957122797627, -17310.152031201367, -12540.490930138938, -15994.55070430645, 26534.471098717582, -15446.217709328856, -25598.223578718138, -2499.394416736891, -29605.220807221034, -27314.211704040972, -9002.612114264026, 6681.182286880289, -9354.629737690657, -21912.37621454909, 0.162, 0.852, -0.466, 192.0, 0.0, 0.0, 0.0, 0.0, 0.0, 0.0, 0.0, 0.0, 0.0, 1.662064926590901E9, 0.0, 2022-09-01 16:42:06.590
82.0, -21445.358865899907, -21245.10958732481, -29786.22523382011, -17395.11101187599, -12589.35184351824, -16078.012118102566, 26784.229491261183, -15526.415768434497, -25517.824353912398, -2464.0339570085953, -29524.352195781732, -27250.665694554533, -8916.222621944264, 6682.903371203348, -9264.798076724777, -21846.885603295043, 0.162, 0.852, -0.466, 192.0, 0.0, 0.0, 0.0, 0.0, 0.0, 0.0, 0.0, 0.0, 0.0, 1.6620649265909066E9, 0.0, 2022-09-01 16:42:06.590
84.0, -21413.9546649402, -21203.267121704474, -29758.352608484343, -17337.599973392484, -12588.793049906857, -16037.55546063846, 26573.49724453655, -15483.612177802584, -25617.647244649797, -2527.0211728836507, -29627.594903420795, -27341.03379738734, -9019.01829469422, 6657.578844735485, -9358.653051692612, -21942.81929049722, 0.162, 0.852, -0.466, 192.0, 0.0, 0.0, 0.0, 0.0, 0.0, 0.0, 0.0, 0.0, 0.0, 1.6620649265909128E9, 0.0, 2022-09-01 16:42:06.590
86.0, -21447.169357200786, -21244.550793713428, -29764.946373098657, -17379.956529135292, -12589.77652666289, -16086.304615295485, 26734.385101125852, -15518.458547408409, -25527.56971449491, -2481.5353729171006, -29537.025634887894, -27265.06021798375, -8926.81734881608, 6672.599217009451, -9276.64450128609, -21859.7602081013, 0.162, 0.85, -0.466, 192.0, 2.5, 8.0, 13.0, 72.0, 120.5, 56.0, 0.0, 0.0, 0.0, 1.6620649265909185E9, 0.0, 2022-09-01 16:42:06.590
88.0, -21435.747615784123, -21219.405081201206, -29766.354532999343, -17354.967278834258, -12590.15650631863, -16038.807158327958, 26631.187096975696, -15489.289520894234, -25615.07679403744, -2556.681937775843, -29627.997234820992, -27350.51093703639, -9020.918192972922, 6624.766483875094, -9353.959185356998, -21943.087511430684, 0.162, 0.85, -0.466, 192.0, 0.0, 0.0, 0.0, 0.0, 0.0, 0.0, 0.0, 0.0, 0.0, 1.6620649265909245E9, 0.0, 2022-09-01 16:42:06.590
90.0, -21439.659171063802, -21240.68394192266, -29753.07759679289, -17380.694136702317, -12559.892244326145, -16065.964527841155, 26688.13934184782, -15498.520791354274, -25518.114926590315, -2465.9115035428413, -29527.21321907201, -27257.34886614667, -8920.514156879683, 6691.151164907356, -9267.592044781692, -21849.836033563144, 0.162, 0.85, -0.466, 192.0, 0.0, 0.0, 0.0, 0.0, 0.0, 0.0, 0.0, 0.0, 0.0, 1.6620649265909307E9, 0.0, 2022-09-01 16:42:06.590
92.0, -21438.094548951933, -21227.362302227295, -29778.335068027387, -17368.847712141003, -12582.333395759273, -16038.918917050234, 26686.70883020268, -15492.463468606886, -25619.21186676167, -2553.3738795964578, -29630.835906366818, -27356.23298361695, -9008.311809100129, 6622.598364662929, -9350.025278332863, -21951.983505723896, 0.162, 0.85, -0.466, 192.0, 0.0, 0.0, 0.0, 0.0, 0.0, 0.0, 0.0, 0.0, 0.0, 1.6620649265909364E9, 0.0, 2022-09-01 16:42:06.590
94.0, -21430.114976181387, -21227.697578394127, -29761.057169563435, -17371.48521798673, -12567.625947907682, -16059.75074288258, 26641.111271513855, -15497.693776809429, -25539.125566378305, -2461.843486051975, -29539.886658178173, -27259.15935744755, -8937.479130921261, 6706.32799939251, -9289.496754347892, -21860.028429034763, 0.162, 0.85, -0.466, 192.0, 0.0, 0.0, 0.0, 0.0, 0.0, 0.0, 0.0, 0.0, 0.0, 1.6620649265909424E9, 0.0, 2022-09-01 16:42:06.590
96.0, -21449.739807813145, -21236.97355234308, -29798.339879314888, -17377.408430267387, -12612.508250773937, -16048.820739843935, 26748.69021757725, -15513.183535716957, -25611.500514924588, -2553.753859252198, -29625.940874331103, -27347.672265490564, -9009.78702423418, 6599.173736473767, -9348.348897498716, -21946.037941698785, 0.166, 0.849, -0.464, 192.0, 2.5, 40.0, 13.0, 64.0, 120.5, 72.0, 0.0, 0.0, 0.0, 1.6620649265909483E9, 0.0, 2022-09-01 16:42:06.590
98.0, -21394.32983330844, -21191.465400632074, -29725.763765068506, -17328.212240721256, -12542.144959228632, -16025.329056421408, 26598.9782332156, -15467.273052605755, -25533.023540142007, -2454.5121138706345, -29532.97996914148, -27246.396511363568, -8935.57923264256, 6726.578679869018, -9283.730004278423, -21840.761225314287, 0.166, 0.849, -0.464, 192.0, 0.0, 0.0, 0.0, 0.0, 0.0, 0.0, 0.0, 0.0, 0.0, 1.6620649265909543E9, 0.0, 2022-09-01 16:42:06.590
100.0, -21442.073159464977, -21223.897781836724, -29785.577033230908, -17367.461903984775, -12616.531564775893, -16056.643850403292, 26799.987471102177, -15520.581963131663, -25583.292613421992, -2534.4419520428123, -29596.749496072473, -27315.910436619575, -8976.661738951414, 6618.552698916519, -9319.068112262263, -21909.358729047624, 0.166, 0.849, -0.464, 192.0, 0.0, 0.0, 0.0, 0.0, 0.0, 0.0, 0.0, 0.0, 0.0, 1.6620649265909605E9, 0.0, 2022-09-01 16:42:06.590
102.0, -21378.303632533985, -21166.90083347569, -29707.45768635961, -17313.28127542511, -12542.122607484176, -16019.428195885206, 26546.116357578798, -15468.949433439904, -25523.05466211494, -2419.844558220453, -29516.193809055545, -27223.575380274702, -8930.617145373482, 6749.444514446797, -9288.64738805859, -21827.216068174374, 0.166, 0.849, -0.464, 192.0, 0.0, 0.0, 0.0, 0.0, 0.0, 0.0, 0.0, 0.0, 0.0, 1.662064926590968E9, 0.0, 2022-09-01 16:42:06.590
104.0, -21441.134386197853, -21226.088252793343, -29777.150425571257, -17366.90311037339, -12610.407186795139, -16052.352315467873, 26830.11762262793, -15527.108672512613, -25568.49575859258, -2522.8861001594187, -29582.422027876622, -27308.288491760315, -8969.732698170268, 6618.597402405429, -9322.42087393056, -21907.995272635853, 0.166, 0.849, -0.464, 192.0, 0.0, 0.0, 0.0, 0.0, 0.0, 0.0, 0.0, 0.0, 0.0, 1.6620649265909739E9, 0.0, 2022-09-01 16:42:06.590
106.0, -21371.8439783864, -21165.269156130453, -29702.98733746855, -17296.80803976155, -12527.012828232388, -16007.112384690332, 26513.52751416296, -15456.745380967306, -25523.658159215232, -2404.0642266350064, -29516.774954411383, -27226.19053437597, -8933.43346517485, 6754.294842993599, -9291.776632282334, -21822.455146605393, 0.167, 0.8494999999999999, -0.465, 192.0, 2.5, 32.0, 13.0, 72.0, 120.5, 56.0, 0.0, 0.0, 0.0, 1.6620649270716972E9, 0.0, 2022-09-01 16:42:07.071
108.0, -21468.62703187788, -21255.771369429993, -29803.838408450894, -17396.519171776676, -12634.100035917763, -16089.99265313061, 26861.45476835427, -15550.242728023855, -25564.09246493488, -2545.4166585703683, -29578.28695515239, -27311.373032495147, -8969.48682898126, 6599.263143451589, -9311.893202292109, -21898.026394608783, 0.167, 0.8494999999999999, -0.465, 192.0, 0.0, 0.0, 0.0, 0.0, 0.0, 0.0, 0.0, 0.0, 0.0, 1.662064927071704E9, 0.0, 2022-09-01 16:42:07.071
110.0, -21364.0432195715, -21153.13215889122, -29697.22058739908, -17302.66419680884, -12529.225650933464, -16002.709091032637, 26490.013478995977, -15454.621965244052, -25554.995304941574, -2456.8590470384415, -29538.880829677684, -27252.520889344323, -8964.390631245451, 6728.165653725345, -9311.446167403003, -21851.825338819664, 0.167, 0.8494999999999999, -0.465, 192.0, 0.0, 0.0, 0.0, 0.0, 0.0, 0.0, 0.0, 0.0, 0.0, 1.6620649270717084E9, 0.0, 2022-09-01 16:42:07.071
112.0, -21453.517252626094, -21245.82484314738, -29785.286460552987, -17403.96230268029, -12616.196288609062, -16084.360013527872, 26886.891053544412, -15548.678105911984, -25554.168290396727, -2526.238861827715, -29558.48330956499, -27297.380840466125, -8956.76868638619, 6611.243678479634, -9291.731928793422, -21896.551179474733, 0.167, 0.8494999999999999, -0.465, 192.0, 0.0, 0.0, 0.0, 0.0, 0.0, 0.0, 0.0, 0.0, 0.0, 1.662064927071713E9, 0.0, 2022-09-01 16:42:07.071
114.0, -21355.303687489475, -21145.309048331863, -29690.26919487348, -17310.733176557205, -12515.345217626718, -15992.203771138642, 26487.62184233926, -15447.089427362613, -25541.606610012845, -2444.7444015436654, -29532.443527274554, -27251.82798526621, -8953.818256118091, 6738.0451247745905, -9290.971969481941, -21855.64748712152, 0.167, 0.8494999999999999, -0.465, 192.0, 0.0, 0.0, 0.0, 0.0, 0.0, 0.0, 0.0, 0.0, 0.0, 1.6620649270717175E9, 0.0, 2022-09-01 16:42:07.071
116.0, -21481.188712261763, -21272.28930858246, -29801.960861916647, -17437.713436807804, -12612.888230429679, -16103.783679459535, 26891.09318150201, -15561.329193273688, -25542.34421757987, -2535.5595392655778, -29560.629077032696, -27308.668471416055, -8939.222566988774, 6608.539117400542, -9275.303396618772, -21901.53561848827, 0.1675, 0.84975, -0.4665, 192.0, 2.5, 32.0, 13.0, 72.0, 120.5, 48.0, 0.0, 0.0, 0.0, 1.662064927071722E9, 0.0, 2022-09-01 16:42:07.071
118.0, -21373.587414453916, -21166.029115441932, -29709.514046849497, -17322.646656351884, -12518.474461850461, -15989.409803081728, 26487.778304550448, -15451.135093109024, -25584.186683200205, -2491.9736375777293, -29587.65233607916, -27308.266140015858, -8978.472230252293, 6699.220144655722, -9319.872775062655, -21901.356804532625, 0.1675, 0.84975, -0.4665, 192.0, 0.0, 0.0, 0.0, 0.0, 0.0, 0.0, 0.0, 0.0, 0.0, 1.6620649270717273E9, 0.0, 2022-09-01 16:42:07.071
120.0, -21475.511369170115, -21274.613890005814, -29805.693603240685, -17433.824233272582, -12607.903791416144, -16095.088850866421, 26885.013507010164, -15557.12706531609, -25526.630941227788, -2508.357466263469, -29550.347274583255, -27294.385706709112, -8915.775587055157, 6631.203786278223, -9260.238320855895, -21876.591071676146, 0.1675, 0.84975, -0.4665, 192.0, 0.0, 0.0, 0.0, 0.0, 0.0, 0.0, 0.0, 0.0, 0.0, 1.6620649270717318E9, 0.0, 2022-09-01 16:42:07.071
122.0, -21403.67286249076, -21196.42748790115, -29747.064977534414, -17345.937174074315, -12550.772732588379, -16009.280503902497, 26498.507141888997, -15480.572340556664, -25599.274110707538, -2525.1436263494047, -29612.507475913466, -27330.12614609315, -8999.080538640088, 6669.067641385513, -9349.7570573994, -21919.238200096872, 0.1675, 0.84975, -0.4665, 192.0, 0.0, 0.0, 0.0, 0.0, 0.0, 0.0, 0.0, 0.0, 0.0, 1.6620649270717363E9, 0.0, 2022-09-01 16:42:07.071
124.0, -21466.660078365814, -21265.382619545773, -29797.08818162539, -17415.473451074773, -12617.202117109551, -16084.47177225015, 26855.397445606883, -15552.768475147304, -25525.401595282747, -2513.3419052770028, -29555.75639674144, -27290.69766887399, -8924.023380759167, 6648.772257420094, -9288.066242702753, -21870.690211139943, 0.1675, 0.84975, -0.4665, 192.0, 0.0, 0.0, 0.0, 0.0, 0.0, 0.0, 0.0, 0.0, 0.0, 1.6620649270717409E9, 0.0, 2022-09-01 16:42:07.071
126.0, -21400.253045589096, -21182.390592383217, -29743.2204774881, -17337.71173211476, -12563.9155583281, -16000.78684100948, 26531.297151004932, -15476.772543999261, -25590.847503047884, -2528.4069810398796, -29612.90980731366, -27326.63927395812, -8990.072785624598, 6669.961711163725, -9359.23419704845, -21904.28488305627, 0.16675, 0.846875, -0.46725000000000005, 192.0, 2.5, 24.0, 13.0, 48.0, 120.5, 48.0, 0.0, 0.0, 0.0, 1.6620649270717452E9, 0.0, 2022-09-01 16:42:07.071
128.0, -21479.31116572752, -21271.88697718227, -29810.61098702085, -17439.278058919677, -12620.465471800027, -16105.303598082495, 26822.674491724312, -15570.068725355713, -25522.652330714744, -2510.235012797715, -29560.584373543785, -27294.11748577565, -8917.273153933664, 6635.942356102748, -9292.737757293911, -21864.923461070473, 0.16675, 0.846875, -0.46725000000000005, 192.0, 0.0, 0.0, 0.0, 0.0, 0.0, 0.0, 0.0, 0.0, 0.0, 1.6620649270717497E9, 0.0, 2022-09-01 16:42:07.071
130.0, -21408.36672882637, -21189.744316309014, -29768.14267255577, -17363.215072538267, -12577.617177679203, -16032.861594302845, 26569.093950878854, -15505.919218768982, -25601.464581664157, -2552.368051095969, -29636.088566313814, -27357.596440028723, -9005.651951509948, 6626.487568198153, -9372.421726277082, -21939.466528828925, 0.16675, 0.846875, -0.46725000000000005, 192.0, 0.0, 0.0, 0.0, 0.0, 0.0, 0.0, 0.0, 0.0, 0.0, 1.6620649270717542E9, 0.0, 2022-09-01 16:42:07.071
132.0, -21452.444368892237, -21242.1144535678, -29795.70237346916, -17427.722207036284, -12600.393605279161, -16097.435784034227, 26778.35098246944, -15559.026963594792, -25513.890446888265, -2494.074701556528, -29543.954675669036, -27280.549976891278, -8920.648267346414, 6653.466123755708, -9288.870905503143, -21880.435571722457, 0.16675, 0.846875, -0.46725000000000005, 192.0, 0.0, 0.0, 0.0, 0.0, 0.0, 0.0, 0.0, 0.0, 0.0, 1.6620649270717587E9, 0.0, 2022-09-01 16:42:07.071
