%OpenBCI Raw EEG Data
%Number of channels = 16
%Sample Rate = 125 Hz
%Board = OpenBCI_GUI$BoardCytonSerialDaisy
Sample Index, EXG Channel 0, EXG Channel 1, EXG Channel 2, EXG Channel 3, EXG Channel 4, EXG Channel 5, EXG Channel 6, EXG Channel 7, EXG Channel 8, EXG Channel 9, EXG Channel 10, EXG Channel 11, EXG Channel 12, EXG Channel 13, EXG Channel 14, EXG Channel 15, Accel Channel 0, Accel Channel 1, Accel Channel 2, Other, Other, Other, Other, Other, Other, Other, Analog Channel 0, Analog Channel 1, Analog Channel 2, Timestamp, Other, Timestamp (Formatted)
0.0, -29175.039133434195, -38466.860469205436, -63945.099883687486, -59722.20715549078, -27594.03319287696, -47058.46870642528, -61466.82786546086, -38214.33046034938, 0.0, 0.0, 0.0, 0.0, 0.0, 0.0, 0.0, 0.0, 0.0, 0.0, 0.0, 192.0, 0.0, 0.0, 0.0, 0.0, 0.0, 0.0, 0.0, 0.0, 0.0, 1.6581651626660967E9, 0.0, 2022-07-18 13:26:02.666
46.0, -29136.415319015425, -38483.333704869, -63866.13117052689, -59648.692267977276, -27523.78166005393, -47005.18214764383, -61363.62986131071, -38165.693064414634, -21726.34264544757, -66975.19176902673, -64989.61925382844, -80024.96719657985, -58322.227993277076, -60264.01344108742, -56096.19541122859, -55725.04469454822, 0.078, 0.9480000000000001, 0.162, 192.0, 1.0, 56.0, 14.5, 80.0, 2.5, 8.0, 0.0, 0.0, 0.0, 1.6581651626661055E9, 0.0, 2022-07-18 13:26:02.666
48.0, -29159.4823192933, -38455.952817911246, -63931.599430036484, -59712.238277463715, -27580.666849692687, -47037.07808698155, -61432.33912376632, -38210.508312047525, -21689.19404616285, -66931.02472198305, -64947.441512041274, -79981.51540535873, -58283.38066141375, -60217.34299866474, -56049.32380310581, -55677.144906180496, 0.078, 0.9480000000000001, 0.162, 192.0, 0.0, 0.0, 0.0, 0.0, 0.0, 0.0, 0.0, 0.0, 0.0, 1.658165162666111E9, 0.0, 2022-07-18 13:26:02.666
50.0, -29118.086888562073, -38472.29194310808, -63868.81337986152, -59664.338489095986, -27537.527982893942, -47010.45715933528, -61393.62590236973, -38177.69595118713, -21719.63712211098, -66973.94007133723, -64988.05463171657, -80021.94971107837, -58320.70807465412, -60262.60528118674, -56106.097234022294, -55729.24682250581, 0.078, 0.9480000000000001, 0.162, 192.0, 0.0, 0.0, 0.0, 0.0, 0.0, 0.0, 0.0, 0.0, 0.0, 1.6581651626661167E9, 0.0, 2022-07-18 13:26:02.666
52.0, -29156.62129600302, -38461.65251274735, -63930.75006374718, -59727.325704971045, -27587.417076518188, -47054.06541276758, -61454.19912984361, -38212.92230044869, -21670.99972617623, -66933.28224817303, -64939.86427067093, -79982.2753646702, -58271.601292085805, -60225.702551091024, -56068.65806205965, -55694.13223196653, 0.078, 0.9480000000000001, 0.162, 192.0, 0.0, 0.0, 0.0, 0.0, 0.0, 0.0, 0.0, 0.0, 0.0, 1.658165162666123E9, 0.0, 2022-07-18 13:26:02.666
54.0, -29150.34045581108, -38496.007143975155, -63904.062080867545, -59697.91080926786, -27564.730055896052, -47044.78943881863, -61406.142879264706, -38223.919358720705, -21728.62252338201, -66994.4142692583, -65008.260608704164, -80051.0963858481, -58341.584603975374, -60301.072633394324, -56139.6024989608, -55769.94934915893, 0.078, 0.9480000000000001, 0.162, 192.0, 0.0, 0.0, 0.0, 0.0, 0.0, 0.0, 0.0, 0.0, 0.0, 1.6581651626661284E9, 0.0, 2022-07-18 13:26:02.666
56.0, -29150.72043546682, -38457.696253978764, -63927.330246845515, -59703.834021548515, -27570.563861198887, -47031.06546772307, -61428.00288534199, -38186.70370420262, -21673.369011088493, -66926.73318704763, -64946.16746260732, -79981.627164081, -58281.79368755742, -60227.714208092, -56068.52395159292, -55687.53846735221, 0.076, 0.9560000000000001, 0.154, 192.0, 1.0, 48.0, 14.5, 112.0, 2.0, 104.0, 0.0, 0.0, 0.0, 1.6581651626661344E9, 0.0, 2022-07-18 13:26:02.666
58.0, -29133.733109680787, -38467.50866979464, -63905.090261112484, -59685.170314928335, -27564.752407640506, -47034.06060148008, -61421.94556259461, -38212.810541726416, -21720.687654100377, -66987.35111801043, -65005.846620303, -80035.62897868502, -58335.6166882058, -60284.24176981948, -56132.56169945737, -55749.832779149154, 0.076, 0.9560000000000001, 0.154, 192.0, 0.0, 0.0, 0.0, 0.0, 0.0, 0.0, 0.0, 0.0, 0.0, 1.6581651626661398E9, 0.0, 2022-07-18 13:26:02.666
60.0, -29154.430825046402, -38462.43482380329, -63927.59846777898, -59704.57162911554, -27584.757218928007, -47046.957558030794, -61444.83374891684, -38216.47622781709, -21670.23976686475, -66921.70404454519, -64945.2286893402, -79971.85945175403, -58278.91031252269, -60217.27594343138, -56078.24696043098, -55686.778508040734, 0.076, 0.9560000000000001, 0.154, 192.0, 0.0, 0.0, 0.0, 0.0, 0.0, 0.0, 0.0, 0.0, 0.0, 1.6581651626661456E9, 0.0, 2022-07-18 13:26:02.666
62.0, -29156.420130302922, -38477.29873386607, -63910.36527280394, -59693.060480721055, -27579.83983514784, -47046.86815105297, -61431.44505398811, -38230.647233801756, -21732.377616450503, -66993.49784773563, -65016.41899543035, -80043.51914447774, -58355.08505762638, -60286.812220431835, -56135.310964025375, -55758.23703506435, 0.076, 0.9560000000000001, 0.154, 192.0, 0.0, 0.0, 0.0, 0.0, 0.0, 0.0, 0.0, 0.0, 0.0, 1.6581651626661513E9, 0.0, 2022-07-18 13:26:02.666
64.0, -29137.063519604628, -38459.46204179073, -63890.24870279416, -59663.80204722906, -27556.906945336694, -47008.04317093411, -61397.78332683842, -38194.32564906188, -21671.312650598604, -66913.29978862999, -64938.769035192614, -79963.00816094973, -58278.530332866954, -60206.8600305152, -56051.648384529166, -55677.97192072534, 0.076, 0.9560000000000001, 0.154, 192.0, 0.0, 0.0, 0.0, 0.0, 0.0, 0.0, 0.0, 0.0, 0.0, 1.658165162666168E9, 0.0, 2022-07-18 13:26:02.666
66.0, -29151.256877333748, -38467.24044886118, -63909.96294140374, -59678.598902058475, -27583.952556127617, -47027.69035431032, -61418.88337360423, -38212.36350683731, -21726.14147974747, -66980.01974582908, -65000.75042256719, -80024.7436791353, -58341.78576967547, -60272.39534525816, -56122.05637956338, -55739.05923832169, 0.075, 0.9530000000000001, 0.152, 192.0, 1.0, 40.0, 14.5, 88.0, 2.0, 88.0, 0.0, 0.0, 0.0, 1.6581651626661737E9, 0.0, 2022-07-18 13:26:02.666
68.0, -29135.945932381863, -38465.78758547158, -63886.851237636954, -59658.258814604145, -27551.989561556526, -46995.48149055022, -61402.32073096284, -38192.06812287189, -21657.76749345869, -66891.77505871953, -64921.28997102857, -79944.72443398529, -58264.761658282485, -60189.24685588442, -56054.88938747518, -55660.9398914504, 0.075, 0.9530000000000001, 0.152, 192.0, 0.0, 0.0, 0.0, 0.0, 0.0, 0.0, 0.0, 0.0, 0.0, 1.6581651626661797E9, 0.0, 2022-07-18 13:26:02.666
70.0, -29142.740862696275, -38455.3269690665, -63908.30891231405, -59685.50559109516, -27571.27911702146, -47024.62816531994, -61430.70744642108, -38200.33826832036, -21724.845078569066, -66982.23256853016, -64998.15762021037, -80026.95650183636, -58338.03067660698, -60265.95804285503, -56130.550042456394, -55735.77353188676, 0.075, 0.9530000000000001, 0.152, 192.0, 0.0, 0.0, 0.0, 0.0, 0.0, 0.0, 0.0, 0.0, 0.0, 1.6581651626661851E9, 0.0, 2022-07-18 13:26:02.666
72.0, -29133.978978869796, -38472.35899834144, -63874.46837120871, -59653.31907907952, -27526.933256022126, -46994.945048683294, -61359.87476824222, -38182.680390200665, -21666.059990651607, -66904.22498038113, -64931.88469790039, -79956.28028586868, -58266.3039286499, -60193.67250128657, -56053.25771012995, -55661.00694668376, 0.075, 0.9530000000000001, 0.152, 192.0, 0.0, 0.0, 0.0, 0.0, 0.0, 0.0, 0.0, 0.0, 0.0, 1.6581651626661906E9, 0.0, 2022-07-18 13:26:02.666
74.0, -29163.662095506443, -38457.89741967886, -63915.237953095195, -59686.31025389556, -27566.4064367302, -47026.86333976547, -61421.96791433906, -38226.10982967733, -21720.307674444637, -66972.48720794765, -64994.24606493069, -80017.90404533196, -58327.1677288017, -60253.08343804878, -56106.96895205605, -55719.03207528974, 0.075, 0.9530000000000001, 0.152, 192.0, 0.0, 0.0, 0.0, 0.0, 0.0, 0.0, 0.0, 0.0, 0.0, 1.658165162666196E9, 0.0, 2022-07-18 13:26:02.666
76.0, -29145.71364470883, -38489.88276599441, -63883.27495852411, -59658.549387282066, -27543.16062249668, -47006.903231966884, -61402.834821085315, -38206.932032934674, -21687.741182773254, -66920.58645732242, -64950.81662545403, -79969.40075986394, -58282.88892303574, -60209.76575729439, -56068.14397193718, -55670.88641773301, 0.0765, 0.9495, 0.154, 192.0, 1.0, 56.0, 14.5, 72.0, 2.0, 112.0, 0.0, 0.0, 0.0, 1.6581651626662052E9, 0.0, 2022-07-18 13:26:02.666
78.0, -29170.4346740764, -38461.697216236265, -63935.39922659389, -59708.77375707314, -27595.150780099724, -47047.62811036445, -61463.74332472603, -38260.59857137186, -21724.845078569066, -66985.07124007598, -65006.092489492, -80030.6892431604, -58342.277508053485, -60274.719926681515, -56130.63944943422, -55733.71717139688, 0.0765, 0.9495, 0.154, 192.0, 0.0, 0.0, 0.0, 0.0, 0.0, 0.0, 0.0, 0.0, 0.0, 1.6581651626662104E9, 0.0, 2022-07-18 13:26:02.666
80.0, -29116.969301339308, -38461.25018134715, -63848.070961007, -59627.145186322356, -27515.042127971905, -46978.82944093102, -61374.1351812047, -38198.348963063836, -21668.272813352683, -66910.01408219506, -64944.96046840674, -79966.96441971832, -58277.83742878884, -60210.883344517155, -56074.11188770675, -55674.4403451014, 0.0765, 0.9495, 0.154, 192.0, 0.0, 0.0, 0.0, 0.0, 0.0, 0.0, 0.0, 0.0, 0.0, 1.658165162666216E9, 0.0, 2022-07-18 13:26:02.666
82.0, -29166.12078739653, -38451.03543413108, -63925.11742414444, -59703.766966315154, -27591.440390520143, -47050.71265109929, -61453.90855716569, -38285.3866559728, -21690.62455780799, -66949.24139371412, -64974.75534376566, -80002.57074863563, -58307.185269258654, -60240.946440809545, -56103.41502468765, -55710.650171119, 0.0765, 0.9495, 0.154, 192.0, 0.0, 0.0, 0.0, 0.0, 0.0, 0.0, 0.0, 0.0, 0.0, 1.6581651626662216E9, 0.0, 2022-07-18 13:26:02.666
84.0, -29127.00523459974, -38470.99554192967, -63846.86396680641, -59625.60291595494, -27530.822459557352, -46987.14428986839, -61388.35089067828, -38223.56173080942, -21684.72369727179, -66924.87799225784, -64953.543538277576, -79979.86137626904, -58288.387452171744, -60218.63939984315, -56092.21680071555, -55694.22163894435, 0.0765, 0.9495, 0.154, 192.0, 0.0, 0.0, 0.0, 0.0, 0.0, 0.0, 0.0, 0.0, 0.0, 1.658165162666227E9, 0.0, 2022-07-18 13:26:02.666
86.0, -29157.96240067034, -38442.02768111559, -63904.50911575665, -59675.939044468294, -27572.55316645541, -47030.752543300696, -61435.557774967885, -38252.306074178945, -21690.0210607077, -66940.27834418755, -64956.98570692369, -79984.15291120445, -58292.56722838488, -60221.098091733234, -56087.45587914657, -55689.77364179774, 0.08224999999999999, 0.9477500000000001, 0.154, 192.0, 1.0, 96.0, 14.5, 72.0, 2.0, 104.0, 0.0, 0.0, 0.0, 1.6581651626662328E9, 0.0, 2022-07-18 13:26:02.666
88.0, -29099.490237175258, -38452.30948356503, -63821.5170885941, -59597.149145263335, -27491.52809280492, -46964.613731457444, -61345.12261690172, -38191.10699786031, -21679.694554769347, -66922.88868700131, -64944.312267817535, -79964.9751144618, -58269.299062406906, -60208.42465262707, -56063.56186432384, -55667.10897292006, 0.08224999999999999, 0.9477500000000001, 0.154, 192.0, 0.0, 0.0, 0.0, 0.0, 0.0, 0.0, 0.0, 0.0, 0.0, 1.6581651626662383E9, 0.0, 2022-07-18 13:26:02.666
90.0, -29154.475528535313, -38438.31729153601, -63916.82492695152, -59694.06630922155, -27577.559957213398, -47039.11209572698, -61445.19137682812, -38268.26521972004, -21667.736371485757, -66918.41833811025, -64940.80304393805, -79962.0246841937, -58265.588672827325, -60203.03788221334, -56056.118733420226, -55669.67942353242, 0.08224999999999999, 0.9477500000000001, 0.154, 192.0, 0.0, 0.0, 0.0, 0.0, 0.0, 0.0, 0.0, 0.0, 0.0, 1.6581651626662438E9, 0.0, 2022-07-18 13:26:02.666
92.0, -29115.181161782883, -38466.56989652752, -63853.50243490964, -59637.40463702734, -27525.927427521638, -46991.99461841519, -61368.4354863686, -38215.76097199452, -21702.895665513955, -66945.44159715672, -64977.41520135584, -79997.54160613318, -58307.25232449202, -60239.35946695322, -56098.274123462936, -55713.57824964265, 0.08224999999999999, 0.9477500000000001, 0.154, 192.0, 0.0, 0.0, 0.0, 0.0, 0.0, 0.0, 0.0, 0.0, 0.0, 1.6581651626662488E9, 0.0, 2022-07-18 13:26:02.666
94.0, -29147.43472903189, -38435.813896157015, -63921.63055200942, -59703.58815235951, -27584.667811950185, -47034.954671258296, -61451.53927225343, -38250.38382415579, -21671.156188387416, -66912.67393978524, -64944.155805606344, -79968.73020753029, -58281.86074279079, -60206.837678770746, -56067.227550414515, -55681.23527541581, 0.08224999999999999, 0.9477500000000001, 0.154, 192.0, 0.0, 0.0, 0.0, 0.0, 0.0, 0.0, 0.0, 0.0, 0.0, 1.6581651626662543E9, 0.0, 2022-07-18 13:26:02.666
96.0, -29106.218112256305, -38456.60101850045, -63852.56366164252, -59641.76322719613, -27535.762195081974, -46996.01793241715, -61374.29164341589, -38225.9757192106, -21703.00742423623, -66943.47464364466, -64972.43076234231, -79999.15093173397, -58313.421405961686, -60247.78607461287, -56115.10498703778, -55724.46354919238, 0.083125, 0.945875, 0.153, 192.0, 1.0, 80.0, 14.5, 64.0, 2.0, 96.0, 0.0, 0.0, 0.0, 1.6581651626662598E9, 0.0, 2022-07-18 13:26:02.666
98.0, -29126.87112413301, -38420.927634349784, -63898.74236568718, -59675.20143690127, -27575.883576379252, -47020.71661004026, -61425.857117874286, -38232.23420765808, -21650.23495557725, -66893.3396808314, -64911.94694184625, -79937.16954435939, -58259.28548089093, -60196.39941411012, -56051.73779150699, -55658.99528968278, 0.083125, 0.945875, 0.153, 192.0, 0.0, 0.0, 0.0, 0.0, 0.0, 0.0, 0.0, 0.0, 0.0, 1.6581651626662655E9, 0.0, 2022-07-18 13:26:02.666
100.0, -29114.443554215857, -38457.89741967886, -63851.71429535322, -59632.48725324718, -27538.17618348315, -46990.09472013649, -61381.935940019604, -38257.1787544702, -21703.208589936326, -66948.88376580284, -64968.496855318175, -79990.4784548853, -58320.8645368653, -60246.266155989906, -56105.22551598853, -55708.25853446228, 0.083125, 0.945875, 0.153, 192.0, 0.0, 0.0, 0.0, 0.0, 0.0, 0.0, 0.0, 0.0, 0.0, 1.6581651626662712E9, 0.0, 2022-07-18 13:26:02.666
102.0, -29132.883743391485, -38429.242483287155, -63880.97272884521, -59657.834131459495, -27548.145061510215, -46995.48149055022, -61389.60258836777, -38203.936899177665, -21664.316554584093, -66892.98205292011, -64920.23943903917, -79941.19285836135, -58266.16981818317, -60183.59186453723, -56039.19846286756, -55645.941870920884, 0.083125, 0.945875, 0.153, 192.0, 0.0, 0.0, 0.0, 0.0, 0.0, 0.0, 0.0, 0.0, 0.0, 1.6581651626662765E9, 0.0, 2022-07-18 13:26:02.666
104.0, -29138.806955672142, -38471.01789367413, -63866.68996413827, -59655.75541922515, -27547.250991732002, -47014.949859970795, -61383.20998945356, -38236.14576293776, -21712.238694696272, -66955.2540129726, -64976.3870211109, -79999.88853930098, -58318.13762404175, -60244.790940855855, -56094.18375422761, -55705.33045593864, 0.083125, 0.945875, 0.153, 192.0, 0.0, 0.0, 0.0, 0.0, 0.0, 0.0, 0.0, 0.0, 0.0, 1.6581651626662912E9, 0.0, 2022-07-18 13:26:02.666
106.0, -29144.640760974977, -38445.29103580607, -63886.27009228112, -59669.635852531894, -27553.84475634632, -47016.06744719356, -61412.356664223276, -38237.352757138346, -21674.419543077893, -66904.6943670147, -64928.017846109615, -79952.30167535564, -58270.32724265185, -60196.5111728324, -56048.09445716077, -55656.60365302607, 0.08256250000000001, 0.9439375000000001, 0.1525, 192.0, 1.0, 72.0, 14.5, 56.0, 2.0, 96.0, 0.0, 0.0, 0.0, 1.658165162666297E9, 0.0, 2022-07-18 13:26:02.666
108.0, -29136.795298671164, -38455.99752140016, -63864.79006585957, -59656.13539888089, -27551.87780283425, -47014.25695589268, -61399.50441116148, -38247.276931676504, -21724.44274716887, -66964.552338666, -64985.75240203767, -80011.131466762, -58339.55059522994, -60254.871577605205, -56112.176908514135, -55721.6025259021, 0.08256250000000001, 0.9439375000000001, 0.1525, 192.0, 0.0, 0.0, 0.0, 0.0, 0.0, 0.0, 0.0, 0.0, 0.0, 1.6581651626663048E9, 0.0, 2022-07-18 13:26:02.666
110.0, -29126.468792732812, -38432.41643099981, -63862.73370536968, -59646.2782795761, -27546.22281148706, -46990.832327703516, -61389.73669883451, -38204.94272767815, -21657.611031247503, -66882.94611965968, -64911.54461044606, -79935.24729433624, -58262.32531813686, -60184.97767269346, -56032.47058778651, -55635.458902771345, 0.08256250000000001, 0.9439375000000001, 0.1525, 192.0, 0.0, 0.0, 0.0, 0.0, 0.0, 0.0, 0.0, 0.0, 0.0, 1.6581651626663108E9, 0.0, 2022-07-18 13:26:02.666
112.0, -29129.821554401107, -38445.08987010597, -63865.37121121541, -59648.535805766085, -27551.028436544948, -47006.769121500154, -61396.79985008238, -38252.931923023694, -21702.605092836035, -66954.96344029468, -64970.664974530344, -79994.16649272043, -58322.45151072163, -60245.26032748942, -56100.48694616401, -55702.98352277083, 0.08256250000000001, 0.9439375000000001, 0.1525, 192.0, 0.0, 0.0, 0.0, 0.0, 0.0, 0.0, 0.0, 0.0, 0.0, 1.658165162666317E9, 0.0, 2022-07-18 13:26:02.666
114.0, -29127.832249144587, -38451.124841108904, -63871.92027234081, -59654.123741879914, -27543.11591900777, -46996.19674637279, -61390.898989546185, -38217.43735282867, -21663.981278417265, -66891.97622441963, -64917.691340171266, -79938.15302111543, -58259.19607391311, -60183.10012615921, -56041.45598905754, -55644.57841450911, 0.08256250000000001, 0.9439375000000001, 0.1525, 192.0, 0.0, 0.0, 0.0, 0.0, 0.0, 0.0, 0.0, 0.0, 0.0, 1.6581651626663232E9, 0.0, 2022-07-18 13:26:02.666
116.0, -29146.652417975954, -38453.225905087704, -63897.624778464415, -59684.410355616856, -27578.431675247157, -47030.73019155624, -61429.58985919832, -38265.85123131886, -21718.832459310586, -66967.07808578946, -64984.791277026095, -80012.89725457398, -58332.129816070774, -60257.68789740657, -56118.94948708409, -55725.156453270494, 0.08128125, 0.9469687500000001, 0.15225, 192.0, 1.0, 64.0, 14.5, 88.0, 2.0, 96.0, 0.0, 0.0, 0.0, 1.65816516266633E9, 0.0, 2022-07-18 13:26:02.666
118.0, -29117.841019373063, -38442.20649507124, -63855.13411225488, -59641.673820218304, -27535.806898570885, -46992.575763771034, -61391.54719013539, -38241.91251300723, -21663.355429572515, -66884.35427956037, -64915.81379363702, -79940.05291939413, -58260.89480649171, -60185.91644596058, -56054.084724674794, -55658.92823444942, 0.08128125, 0.9469687500000001, 0.15225, 192.0, 0.0, 0.0, 0.0, 0.0, 0.0, 0.0, 0.0, 0.0, 0.0, 1.658165162666336E9, 0.0, 2022-07-18 13:26:02.666
120.0, -29160.28698209369, -38460.624332502404, -63913.80744145006, -59701.57649535853, -27603.97971915957, -47053.528970900654, -61452.16512109818, -38299.11062706836, -21724.44274716887, -66969.60383291291, -64993.039070730105, -80016.9876238093, -58334.9684876166, -60260.86184511922, -56133.03108609094, -55736.757008642795, 0.08128125, 0.9469687500000001, 0.15225, 192.0, 0.0, 0.0, 0.0, 0.0, 0.0, 0.0, 0.0, 0.0, 0.0, 1.6581651626663413E9, 0.0, 2022-07-18 13:26:02.666
122.0, -29116.38815598347, -38452.600056242954, -63847.62392611789, -59635.97412538221, -27535.471622404057, -46995.12386263894, -61384.77461156543, -38224.7240215211, -21677.548787301635, -66896.58068377741, -64934.321038046015, -79955.18505039037, -58279.80438230091, -60198.4110711111, -56073.32957665081, -55674.68621429041, 0.08128125, 0.9469687500000001, 0.15225, 192.0, 0.0, 0.0, 0.0, 0.0, 0.0, 0.0, 0.0, 0.0, 0.0, 1.658165162666347E9, 0.0, 2022-07-18 13:26:02.666
124.0, -29160.890479193986, -38450.364881797424, -63904.196191334275, -59691.20528593127, -27584.01961136098, -47048.566883631574, -61431.6015161993, -38282.88326059381, -21711.81401155162, -66958.6067746409, -64982.35493688047, -80006.90698705995, -58326.16190030121, -60248.34486822425, -56110.1428997687, -55714.40526418749, 0.08128125, 0.9469687500000001, 0.15225, 192.0, 0.0, 0.0, 0.0, 0.0, 0.0, 0.0, 0.0, 0.0, 0.0, 1.6581651626663527E9, 0.0, 2022-07-18 13:26:02.666
126.0, -29108.632100657476, -38458.120937123414, -63836.179832956775, -59629.49211949016, -27515.287997160915, -46982.11514736595, -61379.5890068518, -38253.781289312996, -21673.34665934404, -66905.16375364826, -64926.408520508834, -79951.65347476644, -58264.560492582386, -60196.354710621206, -56056.99045145398, -55658.90588270497, 0.07764062499999999, 0.9454843750000002, 0.154125, 192.0, 1.0, 40.0, 14.5, 64.0, 2.0, 112.0, 0.0, 0.0, 0.0, 1.6581651626663585E9, 0.0, 2022-07-18 13:26:02.666
128.0, -29172.401627588468, -38468.71566399523, -63930.25832536916, -59722.34126595751, -27601.208102847115, -47057.64169188043, -61444.00673437199, -38282.25741174906, -21719.30184594415, -66974.05183005951, -64985.841809015496, -80015.5347604197, -58323.323228755384, -60257.39732472865, -56109.56175441286, -55717.69097062242, 0.07764062499999999, 0.9454843750000002, 0.154125, 192.0, 0.0, 0.0, 0.0, 0.0, 0.0, 0.0, 0.0, 0.0, 0.0, 1.6581651626663642E9, 0.0, 2022-07-18 13:26:02.666
130.0, -29129.821554401107, -38475.01885593162, -63853.70360060973, -59652.42500930131, -27529.637817101222, -46996.084987650516, -61372.95053874857, -38214.01753592701, -21710.182334206384, -66941.44063489922, -64966.95458495076, -79991.55133861916, -58300.30093196642, -60237.34780995224, -56094.071995505336, -55694.71337732237, 0.07764062499999999, 0.9454843750000002, 0.154125, 192.0, 0.0, 0.0, 0.0, 0.0, 0.0, 0.0, 0.0, 0.0, 0.0, 1.6581651626663697E9, 0.0, 2022-07-18 13:26:02.666
132.0, -29169.29473510918, -38457.919771423316, -63931.62178178094, -59729.53852767212, -27606.66192849421, -47073.0643955546, -61461.48579853604, -38294.6402781773, -21702.470982369305, -66949.95664953669, -64968.787427996096, -79997.00516426626, -58309.93453382666, -60246.959060068024, -56114.94852482659, -55714.82994733214, 0.07764062499999999, 0.9454843750000002, 0.154125, 192.0, 0.0, 0.0, 0.0, 0.0, 0.0, 0.0, 0.0, 0.0, 0.0, 1.6581651626663759E9, 0.0, 2022-07-18 13:26:02.666
134.0, -29121.46200197482, -38476.27055362112, -63853.234213976175, -59652.91674767933, -27549.329703966345, -47017.9002902389, -61407.90866707667, -38240.7278705511, -21715.457345897838, -66944.12284423386, -64972.49781757568, -79997.11692298853, -58319.769301386994, -60250.06595254731, -56128.672495922154, -55720.194366001415, 0.07764062499999999, 0.9454843750000002, 0.154125, 192.0, 0.0, 0.0, 0.0, 0.0, 0.0, 0.0, 0.0, 0.0, 0.0, 1.6581651626663816E9, 0.0, 2022-07-18 13:26:02.666
136.0, -29144.618409230523, -38433.019928100104, -63908.398319291875, -59698.11197496796, -27598.771762701486, -47048.54453188712, -61460.792894457925, -38286.213670517645, -21690.177522918882, -66928.7448440486, -64952.29184058808, -79976.3298006451, -58304.34659771283, -60229.03296101487, -56113.987399815014, -55702.67059834846, 0.07764062499999999, 0.9454843750000002, 0.154125, 192.0, 0.0, 0.0, 0.0, 0.0, 0.0, 0.0, 0.0, 0.0, 0.0, 1.658165162666387E9, 0.0, 2022-07-18 13:26:02.666
138.0, -29101.837170343064, -38457.94212316777, -63830.033103231566, -59610.850764614435, -27524.38515715422, -46984.126804366926, -61353.973907706015, -38228.747335523054, -21694.04437470965, -66924.85564051339, -64953.8341109555, -79970.11601568652, -58298.02105403198, -60222.52860337837, -56099.90580080817, -55690.98063599833, 0.076, 0.9500000000000001, 0.15, 192.0, 1.0, 48.0, 14.5, 88.0, 2.0, 88.0, 0.0, 0.0, 0.0, 1.6581651626663935E9, 0.0, 2022-07-18 13:26:02.666
140.0, -29158.72235998182, -38447.928541651796, -63919.19421186379, -59694.31217841055, -27597.587120245353, -47047.02461326416, -61453.61798448778, -38295.98138284461, -21680.253348380727, -66922.4416521122, -64942.25590732764, -79960.03537893717, -58286.845181804325, -60211.44213812854, -56075.967082496536, -55674.68621429041, 0.076, 0.9500000000000001, 0.15, 192.0, 0.0, 0.0, 0.0, 0.0, 0.0, 0.0, 0.0, 0.0, 0.0, 1.658165162666401E9, 0.0, 2022-07-18 13:26:02.666
142.0, -29121.48435371928, -38475.01885593162, -63852.63071687588, -59638.410465527835, -27548.59209639932, -47012.20059540279, -61375.364527149744, -38261.49264115008, -21717.044319754164, -66958.42796068525, -64982.17612292482, -80000.04500151218, -58329.71582766961, -60252.65875490413, -56123.53159469743, -55720.08260727914, 0.076, 0.9500000000000001, 0.15, 192.0, 0.0, 0.0, 0.0, 0.0, 0.0, 0.0, 0.0, 0.0, 0.0, 1.6581651626664069E9, 0.0, 2022-07-18 13:26:02.666
144.0, -29145.735996453288, -38438.29493979156, -63903.54799074507, -59698.2907889236, -27587.171207329182, -47052.59019763353, -61452.053362375904, -38293.9920775881, -21680.007479191718, -66911.06461418446, -64937.07030261401, -79958.89543996996, -58285.59348411483, -60209.6092950832, -56085.9359605236, -55680.92235099344, 0.076, 0.9500000000000001, 0.15, 192.0, 0.0, 0.0, 0.0, 0.0, 0.0, 0.0, 0.0, 0.0, 0.0, 1.6581651626664128E9, 0.0, 2022-07-18 13:26:02.666
146.0, -29113.23656001527, -38458.880896434894, -63835.8669085344, -59638.63398297239, -27533.169392725158, -47004.35513309898, -61377.487942873, -38232.56948382491, -21707.29895917165, -66954.0023152831, -64974.19655015428, -79997.38514392199, -58315.45541470712, -60250.736504880966, -56127.912536610675, -55719.65792413449, 0.076, 0.9500000000000001, 0.15, 192.0, 0.0, 0.0, 0.0, 0.0, 0.0, 0.0, 0.0, 0.0, 0.0, 1.6581651626664188E9, 0.0, 2022-07-18 13:26:02.666
148.0, -29138.985769627783, -38437.914960135815, -63898.6306069649, -59690.0876987085, -27576.576480457366, -47032.96536600177, -61430.23805978752, -38270.56744939893, -21656.04640913563, -66893.89847444279, -64919.36772100541, -79939.80705020513, -58256.6032715563, -60193.069004186276, -56063.450105601565, -55659.06234491615, 0.078, 0.9460000000000001, 0.146, 192.0, 1.0, 56.0, 14.5, 72.0, 2.0, 72.0, 0.0, 0.0, 0.0, 1.6581651626664257E9, 0.0, 2022-07-18 13:26:02.666
150.0, -29112.454248959333, -38457.0257016451, -63853.41302793182, -59636.28704980458, -27532.811764813872, -46998.811900474066, -61375.45393412757, -38218.37612609579, -21719.59241862207, -66950.02370477006, -64985.86416075995, -79999.48620790079, -58329.17938580268, -60257.12910379519, -56125.878527865236, -55722.54129916922, 0.078, 0.9460000000000001, 0.146, 192.0, 0.0, 0.0, 0.0, 0.0, 0.0, 0.0, 0.0, 0.0, 0.0, 1.658165162666432E9, 0.0, 2022-07-18 13:26:02.666
152.0, -29127.38521425548, -38434.04810834505, -63887.901769626355, -59662.32683209501, -27547.58626789883, -47017.185034416325, -61405.89701007569, -38260.844440560875, -21659.600336504023, -66884.10841037135, -64919.479479727685, -79929.27937856667, -58263.73347803754, -60175.18760862203, -56050.75431475095, -55645.472484287326, 0.078, 0.9460000000000001, 0.146, 192.0, 0.0, 0.0, 0.0, 0.0, 0.0, 0.0, 0.0, 0.0, 0.0, 1.6581651626664383E9, 0.0, 2022-07-18 13:26:02.666
154.0, -29121.305539763634, -38455.86341093342, -63860.856158835435, -59641.51735800712, -27538.444404416612, -47013.9440314703, -61396.419870426646, -38252.23901894558, -21718.832459310586, -66949.50961464758, -64982.891378747394, -79994.56882412062, -58330.78871140346, -60239.87355707569, -56121.6987516521, -55717.22158398886, 0.078, 0.9460000000000001, 0.146, 192.0, 0.0, 0.0, 0.0, 0.0, 0.0, 0.0, 0.0, 0.0, 0.0, 1.6581651626664448E9, 0.0, 2022-07-18 13:26:02.666
156.0, -29135.275380048202, -38445.8721811619, -63881.330356756494, -59664.22673037371, -27558.248050004015, -47028.18209268834, -61419.35276023779, -38261.112661494335, -21667.80342671912, -66890.74687847459, -64920.15003206135, -79935.29199782514, -58264.001698971, -60179.59090227973, -56057.14691366517, -55652.312118090646, 0.078, 0.9460000000000001, 0.146, 192.0, 0.0, 0.0, 0.0, 0.0, 0.0, 0.0, 0.0, 0.0, 0.0, 1.6581651626664505E9, 0.0, 2022-07-18 13:26:02.666
158.0, -29132.839039902574, -38458.63502724589, -63866.824074605, -59656.157750625345, -27559.522099437967, -47030.819598534064, -61395.41404192615, -38264.107795251344, -21728.39900593746, -66976.5105219496, -64991.00506198467, -80009.92447256143, -58342.03163886448, -60260.83949337477, -56131.757036656985, -55726.497557937815, 0.084, 0.9560000000000001, 0.152, 192.0, 1.0, 80.0, 14.5, 112.0, 2.0, 96.0, 0.0, 0.0, 0.0, 1.6581651626664555E9, 0.0, 2022-07-18 13:26:02.666
160.0, -29119.71856590731, -38442.7205851937, -63868.902786839346, -59655.57660526951, -27555.297619735913, -47011.12771166894, -61403.594780396794, -38250.2273619446, -21661.343772571538, -66891.61859650834, -64912.639845924365, -79931.80512569012, -58264.58284432684, -60185.13413490464, -56060.298509633365, -55648.042934899684, 0.084, 0.9560000000000001, 0.152, 192.0, 0.0, 0.0, 0.0, 0.0, 0.0, 0.0, 0.0, 0.0, 0.0, 1.6581651626665356E9, 0.0, 2022-07-18 13:26:02.666
162.0, -29132.77198466921, -38456.55631501154, -63889.89107488288, -59676.14021016839, -27585.003088117017, -47042.151932972905, -61428.092292319816, -38291.53338569801, -21712.10458422954, -66958.22679498515, -64983.807800270064, -80004.35888819204, -58338.61182196282, -60254.849225860744, -56148.09616185381, -55726.2516887488, 0.084, 0.9560000000000001, 0.152, 192.0, 0.0, 0.0, 0.0, 0.0, 0.0, 0.0, 0.0, 0.0, 0.0, 1.658165162666542E9, 0.0, 2022-07-18 13:26:02.666
164.0, -29118.33275775108, -38450.38723354188, -63865.058286793035, -59646.81472144303, -27543.652360874697, -47012.75938901417, -61400.309073961864, -38239.52087635051, -21665.94823192933, -66889.1375528738, -64924.173346063304, -79940.41054730542, -58275.244626432024, -60188.84452448422, -56087.075899490825, -55667.556007809166, 0.084, 0.9560000000000001, 0.152, 192.0, 0.0, 0.0, 0.0, 0.0, 0.0, 0.0, 0.0, 0.0, 0.0, 1.6581651626665628E9, 0.0, 2022-07-18 13:26:02.666
166.0, -29126.647606688453, -38439.457230503234, -63885.75600215865, -59661.29865185007, -27555.252916247002, -47038.68741258233, -61422.124376550244, -38269.74043485409, -21704.52734285919, -66957.13155950684, -64975.00121295467, -79994.70293458736, -58330.609897447815, -60246.78024611238, -56133.58987970232, -55723.770645114266, 0.084, 0.9560000000000001, 0.152, 192.0, 0.0, 0.0, 0.0, 0.0, 0.0, 0.0, 0.0, 0.0, 0.0, 1.6581651626665716E9, 0.0, 2022-07-18 13:26:02.666
0.0, -14529.282096538795, -19207.681024990205, -31880.583689282383, -29799.077486881914, -13737.538604442909, -23466.157730359762, -30656.7362733765, -19081.57248277336, -10823.340514104428, -33436.82389698314, -32449.03325426975, -39956.850106340666, -29121.03731883017, -30082.341144364018, -28024.63954980845, -27822.490372954653, 0.084, 0.96, 0.154, 192.0, 1.0, 80.0, 15.0, 0.0, 2.0, 104.0, 0.0, 0.0, 0.0, 1.6581651627527468E9, 0.0, 2022-07-18 13:26:02.752
2.0, -29093.634080127966, -38384.427235654264, -63823.90872525081, -59656.224805858714, -27520.607712341276, -46969.73228093771, -61370.46949511403, -38196.47141652959, -21603.877437576943, -66901.18514313521, -64881.14623798684, -79884.68764837834, -58246.9473179516, -60150.93596588802, -56024.20044233805, -55636.15180684946, 0.084, 0.96, 0.154, 192.0, 0.0, 0.0, 0.0, 0.0, 0.0, 0.0, 0.0, 0.0, 0.0, 1.6581651632314537E9, 0.0, 2022-07-18 13:26:03.231
4.0, -29061.201698923316, -38387.80234906702, -63782.08861137493, -59617.55628795103, -27489.04704917038, -46949.45924871675, -61334.885517941184, -38184.20030882362, -21654.43708353485, -66964.9099665773, -64942.635886983386, -79946.13259388598, -58305.7100541246, -60212.291504417844, -56091.23332395951, -55704.59284837161, 0.084, 0.96, 0.154, 192.0, 0.0, 0.0, 0.0, 0.0, 0.0, 0.0, 0.0, 0.0, 0.0, 1.6581651632315152E9, 0.0, 2022-07-18 13:26:03.231
6.0, -29072.690495573344, -38374.19013669374, -63798.09246040493, -59632.397846269356, -27503.732145277518, -46955.13659180839, -61343.28977385638, -38198.99716365304, -21579.581091354026, -66867.67987819671, -64853.430074862255, -79857.61968584296, -58218.9405821491, -60122.01280856285, -56006.90019212964, -55617.82337639611, 0.084, 0.96, 0.154, 192.0, 0.0, 0.0, 0.0, 0.0, 0.0, 0.0, 0.0, 0.0, 0.0, 1.658165163231522E9, 0.0, 2022-07-18 13:26:03.231
8.0, -29090.147207992937, -38407.65069814333, -63807.301379120516, -59635.84001491547, -27528.25200894499, -46984.618542744945, -61368.86016951325, -38228.21089365613, -21667.266984852195, -66975.19176902673, -64949.56492776453, -79952.9722276893, -58326.22895553458, -60226.417806913596, -56103.95146655458, -55713.488842664825, 0.08600000000000001, 0.9560000000000001, 0.158, 192.0, 1.0, 88.0, 14.5, 112.0, 2.0, 120.0, 0.0, 0.0, 0.0, 1.6581651632315283E9, 0.0, 2022-07-18 13:26:03.231
10.0, -29078.74781832073, -38378.10169197341, -63789.17411436726, -59612.70595940423, -27496.11020041826, -46953.4825627187, -61340.80873022184, -38201.70172473213, -21604.592693399514, -66880.50977951405, -64866.30467966851, -79859.54193586612, -58244.823902228345, -60136.787311647815, -56014.81270966682, -55624.19362356587, 0.08600000000000001, 0.9560000000000001, 0.158, 192.0, 0.0, 0.0, 0.0, 0.0, 0.0, 0.0, 0.0, 0.0, 0.0, 1.6581651632315352E9, 0.0, 2022-07-18 13:26:03.231
12.0, -29092.248271971737, -38391.37862817987, -63813.872791990376, -59639.304535306044, -27521.010043741473, -46975.521382751635, -61385.24399819899, -38229.66375704572, -21668.38457207496, -66962.02659154256, -64946.79331145207, -79936.02960539218, -58323.1667665442, -60219.93580102156, -56090.42866115912, -55702.17885997044, 0.08600000000000001, 0.9560000000000001, 0.158, 192.0, 0.0, 0.0, 0.0, 0.0, 0.0, 0.0, 0.0, 0.0, 0.0, 1.6581651632315414E9, 0.0, 2022-07-18 13:26:03.231
14.0, -29071.304687417116, -38383.44375889823, -63781.32865206345, -59611.342502992455, -27477.78176996491, -46938.30572823354, -61311.08091009628, -38171.03513133945, -21606.917274822867, -66870.56325323143, -64873.94897627223, -79860.99479925571, -58240.04062891491, -60135.75913140287, -56012.957514877024, -55614.358856005536, 0.08600000000000001, 0.9560000000000001, 0.158, 192.0, 0.0, 0.0, 0.0, 0.0, 0.0, 0.0, 0.0, 0.0, 0.0, 1.658165163231548E9, 0.0, 2022-07-18 13:26:03.231
16.0, -29080.826530555074, -38378.906354773804, -63802.18282964025, -59642.0761516185, -27507.621348812743, -46967.36299602545, -61344.29560235687, -38213.21287312661, -21650.212603832795, -66942.60292561089, -64930.36477927742, -79926.50776225422, -58287.94041728263, -60195.48299258745, -56058.37625961021, -55675.513228835254, 0.08600000000000001, 0.9560000000000001, 0.158, 192.0, 0.0, 0.0, 0.0, 0.0, 0.0, 0.0, 0.0, 0.0, 0.0, 1.658165163231554E9, 0.0, 2022-07-18 13:26:03.231
18.0, -29066.65552457041, -38395.87132881538, -63771.158608336285, -59617.33277050648, -27480.62044151073, -46939.06568754503, -61327.80001494885, -38190.861128671306, -21602.201056742797, -66885.82949469442, -64871.669098337785, -79876.7527790967, -58229.937640421114, -60142.8446343952, -56004.88853512866, -55620.662047941936, 0.08, 0.9520000000000001, 0.154, 192.0, 1.0, 64.0, 14.5, 96.0, 2.0, 104.0, 0.0, 0.0, 0.0, 1.6581651632315688E9, 0.0, 2022-07-18 13:26:03.231
20.0, -29114.868237360508, -38403.873253330385, -63833.54232711105, -59676.34137586849, -27534.73401483703, -47000.30946735257, -61392.12833549122, -38264.71129235164, -21655.66642947989, -66968.7097631347, -64941.76416894963, -79952.70400675584, -58294.891809808236, -60212.02328348438, -56079.588065098294, -55695.8980197785, 0.08, 0.9520000000000001, 0.154, 192.0, 0.0, 0.0, 0.0, 0.0, 0.0, 0.0, 0.0, 0.0, 0.0, 1.658165163231576E9, 0.0, 2022-07-18 13:26:03.231
22.0, -29082.18998696685, -38414.356221479924, -63771.04684961401, -59611.498965203646, -27473.937269918595, -46947.134667293394, -61319.61927647821, -38194.54916650643, -21624.79867038711, -66907.46598332716, -64898.0665085395, -79900.26681426368, -58252.378791854244, -60163.22942533844, -56038.9302419341, -55648.98170816681, 0.08, 0.9520000000000001, 0.154, 192.0, 0.0, 0.0, 0.0, 0.0, 0.0, 0.0, 0.0, 0.0, 0.0, 1.6581651632315824E9, 0.0, 2022-07-18 13:26:03.231
24.0, -29126.915827621917, -38407.9636225657, -63837.364475412905, -59666.32779435251, -27540.07608176185, -47008.04317093411, -61389.71434709005, -38250.2273619446, -21660.42735104887, -66954.82932982795, -64941.20537533824, -79942.19868686184, -58296.50113540902, -60207.77645203787, -56081.689129077095, -55692.45585113238, 0.08, 0.9520000000000001, 0.154, 192.0, 0.0, 0.0, 0.0, 0.0, 0.0, 0.0, 0.0, 0.0, 0.0, 1.6581651632315888E9, 0.0, 2022-07-18 13:26:03.231
26.0, -29070.589431594544, -38412.85865460142, -63769.5045792466, -59593.95284580623, -27479.34639207678, -46943.021946313616, -61326.81653819282, -38176.75717792001, -21637.896792637923, -66909.83526823942, -64904.97319757619, -79891.77315137067, -58267.823847272855, -60166.02339339536, -56052.967137452026, -55651.14982737897, 0.08, 0.9520000000000001, 0.154, 192.0, 0.0, 0.0, 0.0, 0.0, 0.0, 0.0, 0.0, 0.0, 0.0, 1.658165163231595E9, 0.0, 2022-07-18 13:26:03.231
28.0, -29096.696269118343, -38385.276601943566, -63835.08459747847, -59654.36961106892, -27539.629046872742, -46987.14428986839, -61381.77947780842, -38231.965986724616, -21648.826795676567, -66935.98680925212, -64921.35702626193, -79909.90041612393, -58295.20473423061, -60192.3090448748, -56068.4345446151, -55663.75621125176, 0.076, 0.9480000000000001, 0.154, 192.0, 1.0, 48.0, 14.5, 80.0, 2.0, 104.0, 0.0, 0.0, 0.0, 1.6581651632316017E9, 0.0, 2022-07-18 13:26:03.231
30.0, -29055.636114553945, -38408.54476792154, -63766.08476234493, -59592.72349986118, -27474.093732129782, -46940.11621953443, -61304.66595943761, -38195.59969849583, -21632.510022224193, -66917.94895147669, -64899.765241118104, -79890.36499146998, -58273.568245597875, -60172.795971965315, -56048.340326349775, -55639.370458051024, 0.076, 0.9480000000000001, 0.154, 192.0, 0.0, 0.0, 0.0, 0.0, 0.0, 0.0, 0.0, 0.0, 0.0, 1.658165163231608E9, 0.0, 2022-07-18 13:26:03.231
32.0, -29087.93438529186, -38374.61481983839, -63830.97187649869, -59661.0304309166, -27531.4483084021, -46990.92173468134, -61380.30426267437, -38242.69482406316, -21630.967751856777, -66931.15883244977, -64909.86822961191, -79911.64385219144, -58280.31847242337, -60179.61325402418, -56052.47539907401, -55651.686269245896, 0.076, 0.9480000000000001, 0.154, 192.0, 0.0, 0.0, 0.0, 0.0, 0.0, 0.0, 0.0, 0.0, 0.0, 1.6581651632316155E9, 0.0, 2022-07-18 13:26:03.231
34.0, -29068.28720191565, -38417.6195761704, -63776.43362002774, -59616.08107281698, -27484.86727295724, -46953.348452251965, -61337.120692386714, -38198.75129446403, -21631.213621045783, -66921.9946172231, -64905.95667433223, -79906.0559160776, -58271.98127174155, -60174.62881501065, -56052.698916518566, -55652.44622855738, 0.076, 0.9480000000000001, 0.154, 192.0, 0.0, 0.0, 0.0, 0.0, 0.0, 0.0, 0.0, 0.0, 0.0, 1.6581651632316215E9, 0.0, 2022-07-18 13:26:03.231
36.0, -29117.662205417422, -38397.860634071905, -63857.48104542268, -59692.85931502096, -27549.553221410897, -47010.88184247993, -61409.763861866464, -38250.27206543351, -21635.66161819239, -66939.71955057616, -64918.18307854928, -79921.59037847405, -58279.06677473388, -60190.49855357392, -56058.80094275486, -55670.26056888826, 0.076, 0.9480000000000001, 0.154, 192.0, 0.0, 0.0, 0.0, 0.0, 0.0, 0.0, 0.0, 0.0, 0.0, 1.65816516323163E9, 0.0, 2022-07-18 13:26:03.231
38.0, -29080.04421949914, -38426.15794255232, -63782.982681153146, -59627.41340725582, -27483.570871778833, -46966.17835356932, -61320.53569800087, -38200.89706193174, -21656.42638879137, -66962.51832992057, -64939.28312531509, -79938.53300077117, -58302.02201628948, -60217.030074242364, -56087.16530646865, -55690.913580764965, 0.084, 0.9540000000000001, 0.152, 192.0, 1.0, 80.0, 14.5, 104.0, 2.0, 96.0, 0.0, 0.0, 0.0, 1.6581651632316363E9, 0.0, 2022-07-18 13:26:03.231
40.0, -29106.66514714541, -38387.444721155734, -63846.48398715067, -59683.918617238836, -27539.696102106107, -47015.91098498237, -61395.704614604074, -38239.69969030615, -21628.218487288774, -66934.04220748451, -64911.74577614615, -79905.69828816633, -58264.471085604564, -60184.48593431544, -56045.56871003732, -55668.42772584292, 0.084, 0.9540000000000001, 0.152, 192.0, 0.0, 0.0, 0.0, 0.0, 0.0, 0.0, 0.0, 0.0, 0.0, 1.6581651632316427E9, 0.0, 2022-07-18 13:26:03.231
42.0, -29080.62536485498, -38404.566157408495, -63785.419021298774, -59613.68943616026, -27487.34831659178, -46969.4864117487, -61331.108073128235, -38210.575367280886, -21657.745141714233, -66948.12380649136, -64943.14997710586, -79925.47958200927, -58300.144469755236, -60207.597638082225, -56082.51614362194, -55702.31297043717, 0.084, 0.9540000000000001, 0.152, 192.0, 0.0, 0.0, 0.0, 0.0, 0.0, 0.0, 0.0, 0.0, 0.0, 1.6581651632316487E9, 0.0, 2022-07-18 13:26:03.231
44.0, -29110.688461147365, -38374.03367448255, -63854.776484343594, -59670.79814324357, -27542.221849229558, -46997.11316789546, -61391.658948857665, -38213.570501037895, -21619.143679039917, -66911.35518686238, -64902.69331964175, -79884.46413093379, -58259.24077740202, -60161.84361718221, -56038.81848321182, -55653.072077402125, 0.084, 0.9540000000000001, 0.152, 192.0, 0.0, 0.0, 0.0, 0.0, 0.0, 0.0, 0.0, 0.0, 0.0, 1.6581651632316544E9, 0.0, 2022-07-18 13:26:03.231
46.0, -29063.548632091122, -38384.82956705446, -63790.314053334485, -59612.61655242641, -27495.68551727361, -46944.45245795876, -61336.11486388623, -38175.6619424417, -21654.772359701677, -66961.557204909, -64936.690322958275, -79928.87704716648, -58309.17457451518, -60207.99996948242, -56083.924303522625, -55696.59092385661, 0.084, 0.9540000000000001, 0.152, 192.0, 0.0, 0.0, 0.0, 0.0, 0.0, 0.0, 0.0, 0.0, 0.0, 1.65816516323166E9, 0.0, 2022-07-18 13:26:03.231
48.0, -29074.880966529963, -38348.91031371478, -63820.2653909046, -59644.28897431958, -27524.54161936541, -46963.67495819032, -61379.5890068518, -38173.04678834043, -21594.735574094724, -66899.01702392305, -64865.097685467925, -79866.6497906029, -58241.828768471336, -60135.62502093614, -56012.66694219911, -55623.366609021024, 0.084, 0.9540000000000001, 0.152, 192.0, 1.0, 80.0, 14.5, 104.0, 2.0, 96.0, 0.0, 0.0, 0.0, 1.6581651632316663E9, 0.0, 2022-07-18 13:26:03.231
50.0, -29072.08699847305, -38366.54584009002, -63789.53174227855, -59623.34538976495, -27506.92844473463, -46951.470905717724, -61356.58906180729, -38155.99240732103, -21643.842356663034, -66964.44057994374, -64926.52027923111, -79931.00046288973, -58302.06671977839, -60203.10493744671, -56070.177980682616, -55680.16239168196, 0.084, 0.9540000000000001, 0.152, 192.0, 0.0, 0.0, 0.0, 0.0, 0.0, 0.0, 0.0, 0.0, 0.0, 1.6581651632316728E9, 0.0, 2022-07-18 13:26:03.231
52.0, -29096.338641207058, -38351.74898526061, -63831.575373598986, -59665.65724201885, -27527.603808355787, -46964.4349175018, -61383.20998945356, -38156.528849187955, -21611.94641732531, -66914.10445143038, -64885.19190373325, -79886.94517456832, -58249.785989497424, -60155.78629443482, -56018.9701341355, -55626.96523987833, 0.084, 0.9540000000000001, 0.152, 192.0, 0.0, 0.0, 0.0, 0.0, 0.0, 0.0, 0.0, 0.0, 0.0, 1.6581651632316797E9, 0.0, 2022-07-18 13:26:03.231
54.0, -29086.928556791376, -38365.04827321151, -63810.87765823337, -59652.179140112305, -27517.500819861987, -46948.00638532715, -61354.91268097314, -38141.5531804029, -21662.751932472223, -66980.57853944047, -64951.509529532144, -79954.31333235661, -58314.20371701762, -60220.78516731086, -56088.417004158146, -55702.46943264836, 0.084, 0.9540000000000001, 0.152, 192.0, 0.0, 0.0, 0.0, 0.0, 0.0, 0.0, 0.0, 0.0, 0.0, 1.658165163231686E9, 0.0, 2022-07-18 13:26:03.231
56.0, -29089.163731236906, -38349.424403837256, -63822.23234441666, -59665.34431759648, -27520.406546641178, -46947.02290857112, -61361.2829281429, -38120.22961619253, -21598.669481118857, -66905.7448990041, -64877.681717596264, -79882.69834312181, -58242.20874812708, -60149.438399009516, -56021.38412253668, -55630.20624282435, 0.084, 0.9540000000000001, 0.152, 192.0, 0.0, 0.0, 0.0, 0.0, 0.0, 0.0, 0.0, 0.0, 0.0, 1.6581651632316926E9, 0.0, 2022-07-18 13:26:03.231
58.0, -29089.00726902572, -38354.00651145059, -63823.55109733953, -59661.16454138333, -27525.078061232336, -46961.95387386726, -61356.767875762926, -38155.254799754, -21666.976412174274, -66992.17909481276, -64953.16355862183, -79958.78368124767, -58323.613801433305, -60233.52566165038, -56106.097234022294, -55724.93293582594, 0.085, 0.9520000000000001, 0.155, 192.0, 1.0, 88.0, 14.5, 88.0, 2.0, 120.0, 0.0, 0.0, 0.0, 1.6581651632316985E9, 0.0, 2022-07-18 13:26:03.231
60.0, -29074.18806245185, -38339.276711854545, -63825.51805085159, -59649.20635809975, -27521.390023397213, -46949.52630395011, -61359.986526964494, -38160.239238767535, -21593.238007216216, -66894.47961979861, -64866.50584536861, -79863.20762195678, -58238.6995242476, -60140.05066633829, -56025.2733260719, -55642.72321971932, 0.085, 0.9520000000000001, 0.155, 192.0, 0.0, 0.0, 0.0, 0.0, 0.0, 0.0, 0.0, 0.0, 0.0, 1.6581651632317045E9, 0.0, 2022-07-18 13:26:03.231
62.0, -29083.531091634166, -38339.477877554644, -63855.37998144388, -59669.501742065164, -27556.661076147688, -46978.941199653294, -61392.642425613696, -38168.66584642719, -21655.554670757614, -66969.29090849053, -64946.2792213296, -79937.08013738158, -58329.35819975832, -60212.26915267338, -56114.61324865976, -55725.581136415145, 0.085, 0.9520000000000001, 0.155, 192.0, 0.0, 0.0, 0.0, 0.0, 0.0, 0.0, 0.0, 0.0, 0.0, 1.658165163231711E9, 0.0, 2022-07-18 13:26:03.231
64.0, -29056.574887821065, -38331.14067687281, -63821.58414382746, -59632.91193639183, -27521.25591293048, -46943.223112013715, -61359.11480893074, -38147.90107582821, -21604.726803866244, -66891.6409482528, -64879.447505408236, -79863.56524986807, -58260.31366113588, -60139.40246574909, -56048.4297333276, -55660.78342923921, 0.085, 0.9520000000000001, 0.155, 192.0, 0.0, 0.0, 0.0, 0.0, 0.0, 0.0, 0.0, 0.0, 0.0, 1.6581651632317164E9, 0.0, 2022-07-18 13:26:03.231
66.0, -29078.680763087366, -38326.02212739255, -63848.406237173826, -59659.21993961572, -27548.480337677043, -46977.51068800816, -61374.38105039371, -38187.776587936474, -21645.541089241637, -66954.56110889449, -64934.85747991294, -79920.5174947402, -58319.21050777561, -60198.366367622184, -56094.831954816815, -55714.0029327873, 0.085, 0.9520000000000001, 0.155, 192.0, 0.0, 0.0, 0.0, 0.0, 0.0, 0.0, 0.0, 0.0, 0.0, 1.658165163231722E9, 0.0, 2022-07-18 13:26:03.231
68.0, -29054.89850698692, -38328.994909405104, -63792.07984114646, -59604.301703489036, -27498.568892308343, -46928.67212637331, -61333.633820251685, -38129.86321805277, -21597.060155518076, -66870.87617765382, -64868.249281436125, -79850.98121773974, -58254.45750408858, -60129.94767784449, -56024.20044233805, -55639.593975495576, 0.0845, 0.9520000000000001, 0.1555, 192.0, 1.0, 80.0, 14.5, 96.0, 2.0, 112.0, 0.0, 0.0, 0.0, 1.65816516323173E9, 0.0, 2022-07-18 13:26:03.231
70.0, -29093.678783616877, -38330.336014072425, -63840.091388236455, -59651.396829056364, -27557.89042209273, -46984.953818911774, -61403.594780396794, -38194.07977987287, -21640.80251941711, -66944.61458261187, -64931.25884905564, -79911.9120731249, -58313.77903387297, -60196.24295189893, -56085.0865942343, -55701.91063903697, 0.0845, 0.9520000000000001, 0.1555, 192.0, 0.0, 0.0, 0.0, 0.0, 0.0, 0.0, 0.0, 0.0, 0.0, 1.6581651632317352E9, 0.0, 2022-07-18 13:26:03.231
72.0, -29070.365914149992, -38353.55947656149, -63779.78638169604, -59593.14818300583, -27502.748668521486, -46926.88398681689, -61334.41613130762, -38138.73686060153, -21609.398318457406, -66893.92082618724, -64882.64380486534, -79860.1007294775, -58253.27286163245, -60146.57737571924, -56032.51529127542, -55641.65033598547, 0.0845, 0.9520000000000001, 0.1555, 192.0, 0.0, 0.0, 0.0, 0.0, 0.0, 0.0, 0.0, 0.0, 0.0, 1.6581651632317412E9, 0.0, 2022-07-18 13:26:03.231
74.0, -29122.24431303076, -38362.20960166569, -63855.8717198219, -59672.07219267752, -27570.049771076414, -46985.15498461187, -61413.0942717903, -38205.881500945274, -21649.34088579904, -66969.46972244617, -64935.013942124126, -79922.26093080771, -58300.45739417761, -60203.261399657895, -56072.457858617054, -55685.21388592886, 0.0845, 0.9520000000000001, 0.1555, 192.0, 0.0, 0.0, 0.0, 0.0, 0.0, 0.0, 0.0, 0.0, 0.0, 1.6581651632317464E9, 0.0, 2022-07-18 13:26:03.231
76.0, -29104.720545377797, -38395.84897707093, -63799.6570825168, -59628.687456689775, -27510.460020358565, -46951.739126651184, -61345.21202387953, -38163.815517880386, -21642.56830722908, -66948.23556521363, -64921.8264128955, -79911.86736963599, -58286.59931261532, -60186.65405352761, -56056.72223052052, -55666.21490314185, 0.0845, 0.9520000000000001, 0.1555, 192.0, 0.0, 0.0, 0.0, 0.0, 0.0, 0.0, 0.0, 0.0, 0.0, 1.6581651632317529E9, 0.0, 2022-07-18 13:26:03.231
78.0, -29119.22682752929, -38354.40884285079, -63869.9756705732, -59702.42586164783, -27567.322858252868, -46997.269630106646, -61411.12731827824, -38204.45098930013, -21654.750007957224, -66973.67185040377, -64943.887584672884, -79940.7681752167, -58304.011321546, -60204.24487641393, -56075.408288885155, -55697.194420956905, 0.08525, 0.9510000000000001, 0.15475, 192.0, 1.0, 88.0, 14.5, 88.0, 2.0, 104.0, 0.0, 0.0, 0.0, 1.6581651632317588E9, 0.0, 2022-07-18 13:26:03.231
80.0, -29068.66718157139, -38372.469052370674, -63787.43067829975, -59629.89445089036, -27496.221959140537, -46933.075420031004, -61327.50944227093, -38129.14796223021, -21631.124214067964, -66933.32695166195, -64917.400767493345, -79913.87902663696, -58284.54295212543, -60180.9543586915, -56066.244073658476, -55684.29746440619, 0.08525, 0.9510000000000001, 0.15475, 192.0, 0.0, 0.0, 0.0, 0.0, 0.0, 0.0, 0.0, 0.0, 0.0, 1.6581651632317643E9, 0.0, 2022-07-18 13:26:03.231
82.0, -29107.559216923622, -38355.414671351275, -63869.103952539444, -59712.707664097274, -27563.053675061903, -46987.77013871314, -61400.733757106515, -38196.06908512939, -21626.51975471017, -66944.23460295613, -64913.73508140267, -79917.34354702754, -58283.89475153622, -60183.94949244851, -56063.33834687929, -55686.46558361836, 0.08525, 0.9510000000000001, 0.15475, 192.0, 0.0, 0.0, 0.0, 0.0, 0.0, 0.0, 0.0, 0.0, 0.0, 1.6581651632317705E9, 0.0, 2022-07-18 13:26:03.231
84.0, -29097.143304007448, -38411.85282610093, -63820.55596358252, -59664.65141351836, -27530.53188687943, -46956.12006856443, -61370.62595732522, -38163.726110902564, -21657.47692078077, -66972.9118910923, -64942.769997450116, -79945.66320725241, -58310.470975693584, -60214.48197537446, -56097.60357112927, -55717.93683981143, 0.08525, 0.9510000000000001, 0.15475, 192.0, 0.0, 0.0, 0.0, 0.0, 0.0, 0.0, 0.0, 0.0, 0.0, 1.6581651632317758E9, 0.0, 2022-07-18 13:26:03.231
86.0, -29117.483391461778, -38373.36312214889, -63875.541254942575, -59701.37532965843, -27571.21206178809, -46990.45234804778, -61398.72210010554, -38202.19346311015, -21634.007589102697, -66956.21513798418, -64927.3249420315, -79925.41252677591, -58293.707167352106, -60197.047614699324, -56076.6376348302, -55693.484031377324, 0.08525, 0.9510000000000001, 0.15475, 192.0, 0.0, 0.0, 0.0, 0.0, 0.0, 0.0, 0.0, 0.0, 0.0, 1.6581651632317812E9, 0.0, 2022-07-18 13:26:03.231
88.0, -29083.262870700702, -38405.616689397895, -63814.63275130186, -59627.74868342265, -27522.73112806453, -46951.7838301401, -61334.57259351881, -38199.33243981987, -21663.802464461623, -66971.63784165835, -64955.19756736727, -79941.05874789463, -58322.563269443905, -60209.274018916374, -56096.26246646196, -55709.1973077294, 0.082625, 0.9525000000000001, 0.157375, 192.0, 1.0, 64.0, 14.5, 104.0, 2.5, 0.0, 0.0, 0.0, 0.0, 1.6581651632317872E9, 0.0, 2022-07-18 13:26:03.231
90.0, -29130.08977533457, -38397.59241313844, -63891.679214439304, -59693.90984701036, -27592.490922509543, -47007.35026685599, -61423.71135040657, -38233.62001581431, -21641.920106639875, -66941.19476571021, -64926.967314120215, -79909.855712635, -58288.36510042728, -60178.56272203478, -56063.56186432384, -55672.69690903389, 0.082625, 0.9525000000000001, 0.157375, 192.0, 0.0, 0.0, 0.0, 0.0, 0.0, 0.0, 0.0, 0.0, 0.0, 1.6581651632317927E9, 0.0, 2022-07-18 13:26:03.231
92.0, -29088.828455070074, -38413.70802089072, -63823.12641419488, -59632.44254975826, -27541.81951782936, -46963.45144074577, -61363.89808224417, -38209.79305622495, -21687.271796139696, -66993.18492331325, -64978.46573334524, -79960.66122778192, -58343.328040042885, -60225.8143098133, -56123.77746388644, -55726.765778871275, 0.082625, 0.9525000000000001, 0.157375, 192.0, 0.0, 0.0, 0.0, 0.0, 0.0, 0.0, 0.0, 0.0, 0.0, 1.6581651632317984E9, 0.0, 2022-07-18 13:26:03.231
94.0, -29099.400830197435, -38379.77807280756, -63867.94166182777, -59684.81268701705, -27572.374352499766, -46985.91494392335, -61420.939734094114, -38226.154533166235, -21629.09020532253, -66930.98001849414, -64914.316226758514, -79903.7089829098, -58286.39814691522, -60161.21776833746, -56065.66292830264, -55673.54627532319, 0.082625, 0.9525000000000001, 0.157375, 192.0, 0.0, 0.0, 0.0, 0.0, 0.0, 0.0, 0.0, 0.0, 0.0, 1.6581651632318044E9, 0.0, 2022-07-18 13:26:03.231
96.0, -29072.869309528985, -38399.13468350586, -63820.95829498271, -59654.63783200239, -27545.39579694221, -46969.10643209296, -61377.01855623944, -38215.112771405315, -21663.064856894598, -66978.63393767286, -64959.46675055823, -79952.74871024475, -58333.31445852691, -60218.68410333206, -56126.16910054316, -55736.44408422042, 0.082625, 0.9525000000000001, 0.157375, 192.0, 0.0, 0.0, 0.0, 0.0, 0.0, 0.0, 0.0, 0.0, 0.0, 1.6581651632318108E9, 0.0, 2022-07-18 13:26:03.231
98.0, -29080.60301311052, -38371.12794770336, -63852.16133024232, -59687.49489635169, -27572.530814710954, -46991.949914926285, -61417.184641025626, -38227.29447213346, -21608.481896934736, -66907.84596298289, -64896.1666102608, -79891.86255834848, -58274.05998397589, -60161.731858459934, -56070.42384987162, -55678.97774922583, 0.08431250000000001, 0.9532500000000002, 0.15768749999999998, 192.0, 1.0, 88.0, 14.5, 104.0, 2.0, 120.0, 0.0, 0.0, 0.0, 1.6581651632318172E9, 0.0, 2022-07-18 13:26:03.231
100.0, -29071.93053626186, -38395.08901775945, -63825.22747817368, -59659.443457060275, -27553.64359064622, -46972.21332457225, -61384.327576676325, -38202.48403578807, -21663.221319105785, -66979.63976617334, -64956.56102377904, -79949.06067240961, -58336.93544112867, -60222.03686500036, -56131.71233316807, -55738.83572087714, 0.08431250000000001, 0.9532500000000002, 0.15768749999999998, 192.0, 0.0, 0.0, 0.0, 0.0, 0.0, 0.0, 0.0, 0.0, 0.0, 1.6581651632318246E9, 0.0, 2022-07-18 13:26:03.231
102.0, -29068.689533315843, -38361.8072702655, -63836.44805389024, -59661.835093716996, -27547.519212665466, -46955.67303367532, -61387.52387613343, -38178.03122735396, -21606.961978311778, -66895.97718667712, -64888.030575279074, -79872.59535462802, -58261.81122801438, -60145.86211989667, -56049.70378276155, -55649.24992910027, 0.08431250000000001, 0.9532500000000002, 0.15768749999999998, 192.0, 0.0, 0.0, 0.0, 0.0, 0.0, 0.0, 0.0, 0.0, 0.0, 1.6581651632318313E9, 0.0, 2022-07-18 13:26:03.231
104.0, -29060.508794845202, -38372.491404115135, -63826.792100285544, -59656.582433769996, -27537.72914859404, -46962.87029538993, -61355.27030888442, -38194.482111273064, -21661.880214438464, -66969.13444627935, -64954.32584933351, -79938.24242809325, -58329.0676270804, -60218.0135509984, -56106.5442689114, -55720.28377297924, 0.08431250000000001, 0.9532500000000002, 0.15768749999999998, 192.0, 0.0, 0.0, 0.0, 0.0, 0.0, 0.0, 0.0, 0.0, 0.0, 1.6581651632318373E9, 0.0, 2022-07-18 13:26:03.231
106.0, -29061.93930649034, -38371.26205817009, -63839.15261496933, -59669.97112869873, -27537.5503346384, -46968.324121037025, -61375.27512017192, -38208.94368993565, -21596.27784446214, -66898.48058205612, -64881.34740368693, -79870.60604937149, -58255.57509131135, -60156.47919851294, -56031.97884940849, -55651.686269245896, 0.08431250000000001, 0.9532500000000002, 0.15768749999999998, 192.0, 0.0, 0.0, 0.0, 0.0, 0.0, 0.0, 0.0, 0.0, 0.0, 1.6581651632318432E9, 0.0, 2022-07-18 13:26:03.231
108.0, -29073.00341999572, -38378.72754081816, -63834.995190500646, -59671.08871592149, -27544.501727164, -46977.86831591944, -61371.54237884789, -38219.60547204083, -21658.974487659274, -66986.03236508755, -64958.013887168636, -79952.86046896702, -58326.78774914596, -60231.29048720485, -56113.920344581646, -55733.87363360806, 0.08415625000000002, 0.952625, 0.15884375, 192.0, 1.0, 80.0, 14.5, 96.0, 2.5, 0.0, 0.0, 0.0, 0.0, 1.6581651632318492E9, 0.0, 2022-07-18 13:26:03.231
110.0, -29051.478690085256, -38368.17751743526, -63803.2110098852, -59646.09946562046, -27511.041165714403, -46942.95489108025, -61340.94284068857, -38179.34998027682, -21593.5956351275, -66898.48058205612, -64882.42028742079, -79875.098750007, -58246.299117362396, -60145.25862279638, -56036.8291779553, -55654.16731288044, 0.08415625000000002, 0.952625, 0.15884375, 192.0, 0.0, 0.0, 0.0, 0.0, 0.0, 0.0, 0.0, 0.0, 0.0, 1.658165163231855E9, 0.0, 2022-07-18 13:26:03.231
112.0, -29076.534995619655, -38375.44183438323, -63832.15651895482, -59680.52115208163, -27549.843794088818, -46971.96745538324, -61398.43152742762, -38196.18084385167, -21646.748083442224, -66974.29769924852, -64946.72625621871, -79937.34835831504, -58309.353388470816, -60212.13504220665, -56102.83387933182, -55720.350828212606, 0.08415625000000002, 0.952625, 0.15884375, 192.0, 0.0, 0.0, 0.0, 0.0, 0.0, 0.0, 0.0, 0.0, 0.0, 1.6581651632318606E9, 0.0, 2022-07-18 13:26:03.231
114.0, -29049.109405172996, -38371.06089246999, -63795.18673362574, -59638.56692773902, -27509.856523258273, -46935.310594476534, -61354.77857050641, -38167.928238860164, -21610.694719635812, -66895.39604132129, -64888.07527876798, -79872.03656101663, -58245.315640606364, -60148.52197748685, -56044.96521293703, -55659.59878678308, 0.08415625000000002, 0.952625, 0.15884375, 192.0, 0.0, 0.0, 0.0, 0.0, 0.0, 0.0, 0.0, 0.0, 0.0, 1.6581651632318661E9, 0.0, 2022-07-18 13:26:03.231
116.0, -29048.55061156161, -38337.309758342475, -63817.940809481246, -59649.452227288755, -27529.034320000927, -46955.3824609974, -61356.566710062834, -38190.90583216022, -21638.835565905043, -66955.07519901695, -64932.8234711675, -79920.33868078455, -58305.441833191144, -60203.57432408027, -56091.345082681786, -55713.08651126463, 0.08415625000000002, 0.952625, 0.15884375, 192.0, 0.0, 0.0, 0.0, 0.0, 0.0, 0.0, 0.0, 0.0, 0.0, 1.6581651632318723E9, 0.0, 2022-07-18 13:26:03.231
118.0, -29025.103631627993, -38348.10565091439, -63777.01476538358, -59604.480517444674, -27486.00721192446, -46920.04435301356, -61317.92054389961, -38165.08956731434, -21580.65397508788, -66869.84799740887, -64857.274574908566, -79844.2980461476, -58232.8433672003, -60125.41027372006, -56014.14215733316, -55638.00700163925, 0.081078125, 0.9513125, 0.158421875, 192.0, 1.0, 56.0, 14.5, 88.0, 2.0, 120.0, 0.0, 0.0, 0.0, 1.6581651632318785E9, 0.0, 2022-07-18 13:26:03.231
120.0, -29058.8100622666, -38345.82577297995, -63836.4704056347, -59674.754402012164, -27552.21307900108, -46990.51940328114, -61382.76295456445, -38209.726000991584, -21616.528524938647, -66932.052902228, -64902.80507836403, -79900.5573869416, -58286.12992598175, -60181.51315230288, -56068.81452427084, -55692.81347904367, 0.081078125, 0.9513125, 0.158421875, 192.0, 0.0, 0.0, 0.0, 0.0, 0.0, 0.0, 0.0, 0.0, 0.0, 1.6581651632318845E9, 0.0, 2022-07-18 13:26:03.231
122.0, -29031.116250886473, -38372.3572936484, -63774.91370140478, -59627.81573865602, -27501.876950487727, -46941.30086199056, -61330.906907428136, -38170.07400632787, -21598.93770205232, -66906.88483797132, -64875.69241233974, -79879.12206400896, -58267.66738506167, -60167.610367251684, -56050.48609381749, -55674.753269523775, 0.081078125, 0.9513125, 0.158421875, 192.0, 0.0, 0.0, 0.0, 0.0, 0.0, 0.0, 0.0, 0.0, 0.0, 1.6581651637127366E9, 0.0, 2022-07-18 13:26:03.712
124.0, -29066.163786192395, -38349.96084570418, -63840.13609172536, -59682.06342244905, -27554.761177868986, -46976.12487985192, -61392.12833549122, -38205.09918988933, -21623.256400019694, -66943.92167853376, -64912.32692150199, -79914.16959931489, -58296.05410051991, -60191.68319603005, -56072.92724525062, -55699.362540169066, 0.081078125, 0.9513125, 0.158421875, 192.0, 0.0, 0.0, 0.0, 0.0, 0.0, 0.0, 0.0, 0.0, 0.0, 1.6581651637127857E9, 0.0, 2022-07-18 13:26:03.712
126.0, -29033.217314865273, -38382.81791005348, -63777.7523729506, -59618.45035772924, -27484.196720623582, -46924.87232981591, -61311.974979874496, -38160.529811445456, -21606.872571333955, -66907.86831472736, -64895.786630605064, -79888.80036935811, -58267.84619901732, -60153.57347173375, -56043.78057048089, -55663.13036240701, 0.081078125, 0.9513125, 0.158421875, 192.0, 0.0, 0.0, 0.0, 0.0, 0.0, 0.0, 0.0, 0.0, 0.0, 1.658165163712804E9, 0.0, 2022-07-18 13:26:03.712
128.0, -29097.791504596655, -38386.70711358871, -63876.792952632066, -59713.02058851965, -27560.617334916275, -47002.61169703146, -61406.25463798698, -38256.88818179228, -21629.55959195609, -66940.43480639873, -64929.2248403102, -79924.58551223106, -58282.508943379995, -60179.76971623537, -56065.77468702492, -55687.09143246311, 0.081078125, 0.9513125, 0.158421875, 192.0, 0.0, 0.0, 0.0, 0.0, 0.0, 0.0, 0.0, 0.0, 0.0, 1.6581651637128108E9, 0.0, 2022-07-18 13:26:03.712
130.0, -29049.489384828736, -38406.08607603146, -63794.91851269228, -59636.33175329349, -27490.991650937995, -46952.90141736286, -61329.6775614831, -38213.19052138216, -21639.014379860688, -66953.5999838829, -64936.01977062462, -79931.96158790131, -58286.62166435977, -60198.656940300105, -56083.365509911244, -55709.152604240495, 0.076, 0.9520000000000001, 0.154, 192.0, 1.0, 48.0, 14.5, 96.0, 2.0, 104.0, 0.0, 0.0, 0.0, 1.6581651637128177E9, 0.0, 2022-07-18 13:26:03.712
132.0, -29097.81385634111, -38384.27077344308, -63869.70744963973, -59707.38794891691, -27567.054637319405, -47007.193804644805, -61418.95042883759, -38237.75508853854, -21626.09507156552, -66950.31427744798, -64920.64177043936, -79920.18221857336, -58281.033728245944, -60194.83479199825, -56068.233378915, -55692.098223221095, 0.076, 0.9520000000000001, 0.154, 192.0, 0.0, 0.0, 0.0, 0.0, 0.0, 0.0, 0.0, 0.0, 0.0, 1.6581651637128365E9, 0.0, 2022-07-18 13:26:03.712
134.0, -29035.31837884407, -38379.21927919618, -63761.27913728704, -59609.4202529693, -27480.083999643804, -46933.76832410912, -61317.4735090105, -38181.205175066614, -21641.629533961957, -66950.31427744798, -64927.79432866506, -79923.73614594176, -58297.93164705416, -60204.20017292502, -56083.946655267086, -55703.4976128933, 0.076, 0.9520000000000001, 0.154, 192.0, 0.0, 0.0, 0.0, 0.0, 0.0, 0.0, 0.0, 0.0, 0.0, 1.658165163712843E9, 0.0, 2022-07-18 13:26:03.712
136.0, -29055.03261745365, -38330.26895883906, -63812.621094300885, -59653.81081745754, -27524.318101920857, -46946.441763215276, -61371.63178582571, -38217.43735282867, -21589.304100192083, -66893.3843843203, -64869.38922040335, -79864.43696790183, -58248.71310576357, -60149.81837866526, -56021.25001206995, -55639.05753362865, 0.076, 0.9520000000000001, 0.154, 192.0, 0.0, 0.0, 0.0, 0.0, 0.0, 0.0, 0.0, 0.0, 0.0, 1.6581651637128496E9, 0.0, 2022-07-18 13:26:03.712
138.0, -29023.874285682952, -38368.423386624265, -63766.755314678594, -59608.3697209799, -27492.444514327588, -46929.09680951796, -61322.793224190864, -38236.88337050479, -21623.971655842266, -66924.67682655774, -64905.48728769866, -79894.76828512768, -58281.7042805796, -60181.64726276961, -56062.28781488989, -55674.97678696833, 0.076, 0.9520000000000001, 0.154, 192.0, 0.0, 0.0, 0.0, 0.0, 0.0, 0.0, 0.0, 0.0, 0.0, 1.6581651637128563E9, 0.0, 2022-07-18 13:26:03.712
140.0, -29078.390190409445, -38362.902505743805, -63856.11758901091, -59684.81268701705, -27573.156663555703, -46993.067502149046, -61417.11758579226, -38285.319600739436, -21597.84246657401, -66899.86639021235, -64881.4144589203, -79869.73433133774, -58263.26409140397, -60150.17600657654, -56038.639669256176, -55653.65322275797, 0.078, 0.9540000000000001, 0.156, 192.0, 1.0, 56.0, 14.5, 104.0, 2.0, 112.0, 0.0, 0.0, 0.0, 1.6581651637128637E9, 0.0, 2022-07-18 13:26:03.712
142.0, -29046.44954758281, -38391.82566306897, -63799.0088819276, -59632.867232902914, -27531.82828805784, -46952.454382473756, -61349.86118672624, -38228.92614947869, -21662.57311851658, -66972.12958003636, -64947.64267774137, -79933.79443094664, -58337.58364171787, -60214.0125887409, -56110.701693380084, -55714.56172639868, 0.078, 0.9540000000000001, 0.156, 192.0, 0.0, 0.0, 0.0, 0.0, 0.0, 0.0, 0.0, 0.0, 0.0, 1.6581651637128704E9, 0.0, 2022-07-18 13:26:03.712
144.0, -29075.70798107481, -38364.243610411126, -63836.9174405238, -59673.48035257821, -27552.905983079196, -46970.71575769374, -61386.763916821954, -38253.53542012399, -21604.436231188327, -66903.39796583628, -64883.5155228991, -79874.91993605136, -58272.6071205863, -60153.23819556692, -56041.54539603536, -55648.02058315523, 0.078, 0.9540000000000001, 0.156, 192.0, 0.0, 0.0, 0.0, 0.0, 0.0, 0.0, 0.0, 0.0, 0.0, 1.6581651637128768E9, 0.0, 2022-07-18 13:26:03.712
146.0, -29059.860594256, -38389.188157223245, -63791.83397195744, -59641.11502660692, -27516.047956472394, -46954.04135633008, -61340.04877091036, -38226.66862328871, -21647.19511833133, -66960.61843164188, -64935.215107824224, -79928.87704716648, -58314.49428969554, -60209.54223984984, -56095.547210639386, -55704.749310582796, 0.078, 0.9540000000000001, 0.156, 192.0, 0.0, 0.0, 0.0, 0.0, 0.0, 0.0, 0.0, 0.0, 0.0, 1.6581651637128844E9, 0.0, 2022-07-18 13:26:03.712
148.0, -29080.17832996587, -38380.26981118558, -63833.54232711105, -59681.37051837093, -27542.579477140844, -46980.81874618754, -61379.700765574074, -38270.65685637675, -21609.711242879777, -66905.72254725963, -64887.98587179016, -79879.5020436647, -58259.28548089093, -60155.98746013492, -56040.65132625715, -55656.17896988142, 0.078, 0.9540000000000001, 0.156, 192.0, 0.0, 0.0, 0.0, 0.0, 0.0, 0.0, 0.0, 0.0, 0.0, 1.658165163712891E9, 0.0, 2022-07-18 13:26:03.712
150.0, -29074.4115798964, -38407.293070232045, -63821.58414382746, -59666.350146096964, -27540.5007649065, -46985.244391589695, -61384.08170748731, -38286.705408895665, -21664.89769993993, -66980.95851909621, -64959.28793660259, -79948.50187879824, -58336.622516706295, -60232.05044651633, -56121.45288246309, -55737.20404353191, 0.082, 0.9500000000000001, 0.158, 192.0, 1.0, 72.0, 14.5, 88.0, 2.0, 120.0, 0.0, 0.0, 0.0, 1.658165163712898E9, 0.0, 2022-07-18 13:26:03.712
152.0, -29079.843053799043, -38390.84218631294, -63837.47623413518, -59670.46286707674, -27538.757328838987, -46982.383368299415, -61379.90193127417, -38261.91732429473, -21621.51296395218, -66912.40571885178, -64897.57477016149, -79884.08415127805, -58271.13190545225, -60169.75613471939, -56055.62699504221, -55666.59488279759, 0.082, 0.9500000000000001, 0.158, 192.0, 0.0, 0.0, 0.0, 0.0, 0.0, 0.0, 0.0, 0.0, 0.0, 1.6581651637129052E9, 0.0, 2022-07-18 13:26:03.712
154.0, -29077.451417142325, -38400.386381195356, -63828.35672239742, -59658.392925070875, -27542.467718418568, -46987.054882890574, -61377.756163806465, -38260.86679230533, -21679.851016980534, -66981.78553364104, -64963.75828549365, -79952.81576547811, -58343.77507493199, -60234.35267619523, -56127.04081857691, -55730.49852019531, 0.082, 0.9500000000000001, 0.158, 192.0, 0.0, 0.0, 0.0, 0.0, 0.0, 0.0, 0.0, 0.0, 0.0, 1.6581651637129116E9, 0.0, 2022-07-18 13:26:03.712
156.0, -29077.94315552034, -38404.499102175134, -63827.26148691911, -59657.834131459495, -27542.579477140844, -46975.521382751635, -61374.71632656054, -38242.78423104098, -21614.047481304107, -66905.70019551518, -64892.143296258844, -79879.59145064253, -58270.43900137413, -60153.23819556692, -56050.441390328575, -55652.69209774639, 0.082, 0.9500000000000001, 0.158, 192.0, 0.0, 0.0, 0.0, 0.0, 0.0, 0.0, 0.0, 0.0, 0.0, 1.6581651637129183E9, 0.0, 2022-07-18 13:26:03.712
158.0, -29083.32992593407, -38408.835340599464, -63831.083635220966, -59666.59601528598, -27549.776738855453, -46992.35224632648, -61386.138067977205, -38260.978551027605, -21672.944327943842, -66993.29668203554, -64967.20045413977, -79961.42118709341, -58349.45241802364, -60234.15151049513, -56122.77163538595, -55725.849357348605, 0.082, 0.9500000000000001, 0.158, 192.0, 0.0, 0.0, 0.0, 0.0, 0.0, 0.0, 0.0, 0.0, 0.0, 1.6581651637129252E9, 0.0, 2022-07-18 13:26:03.712
160.0, -29073.159882206906, -38407.13660802086, -63807.63665528735, -59636.24234631567, -27515.042127971905, -46953.46021097425, -61357.52783507441, -38236.48103910459, -21612.639321403425, -66911.04226244001, -64891.20452299173, -79881.06666577658, -58271.891864763726, -60150.51128274337, -56038.68437274508, -55638.92342316192, 0.084, 0.9540000000000001, 0.158, 192.0, 1.0, 80.0, 14.5, 104.0, 2.0, 120.0, 0.0, 0.0, 0.0, 1.6581651637129319E9, 0.0, 2022-07-18 13:26:03.712
162.0, -29091.264795215702, -38405.03554404206, -63842.259507448616, -59670.507570565656, -27550.000256300005, -46990.02766490313, -61383.85819004276, -38283.57616467192, -21670.016249420198, -66975.16941728228, -64955.510491789646, -79943.13746012896, -58334.14147307175, -60212.93970500705, -56106.47721367803, -55708.83967981812, 0.084, 0.9540000000000001, 0.158, 192.0, 0.0, 0.0, 0.0, 0.0, 0.0, 0.0, 0.0, 0.0, 0.0, 1.6581651637129383E9, 0.0, 2022-07-18 13:26:03.712
164.0, -29086.70503934682, -38436.61855895741, -63826.76974854109, -59662.41623907283, -27533.057634002882, -46984.4397287893, -61363.92043398863, -38257.983417270596, -21633.985237358243, -66911.60105605138, -64905.934322587775, -79892.26488974868, -58283.62653060276, -60168.19151260752, -56066.28877714739, -55665.812571741655, 0.084, 0.9540000000000001, 0.158, 192.0, 0.0, 0.0, 0.0, 0.0, 0.0, 0.0, 0.0, 0.0, 0.0, 1.658165163712947E9, 0.0, 2022-07-18 13:26:03.712
166.0, -29112.05191755914, -38424.481561718174, -63870.60151941795, -59709.66782685135, -27578.02934384696, -47031.91483401237, -61432.406178999685, -38315.360345287365, -21689.48461884077, -66998.19171407125, -64979.963300223746, -79971.54652733167, -58353.542787258964, -60243.963926311015, -56145.99509787501, -55752.26911929478, 0.084, 0.9540000000000001, 0.158, 192.0, 0.0, 0.0, 0.0, 0.0, 0.0, 0.0, 0.0, 0.0, 0.0, 1.6581651637129536E9, 0.0, 2022-07-18 13:26:03.712
168.0, -29064.57681233607, -38417.910148848314, -63798.78536448305, -59640.19860508426, -27506.816686012353, -46965.06076634655, -61359.00305020846, -38257.826955059405, -21633.962885613786, -66921.50287884509, -64915.07618606999, -79899.59626193003, -58274.81994328737, -60171.320756831265, -56080.12450696522, -55684.09629870609, 0.084, 0.9540000000000001, 0.158, 192.0, 0.0, 0.0, 0.0, 0.0, 0.0, 0.0, 0.0, 0.0, 0.0, 1.6581651637129602E9, 0.0, 2022-07-18 13:26:03.712
170.0, -29100.406658697924, -38397.570061393984, -63862.91251932532, -59694.98273074422, -27569.893308865227, -47015.10632218198, -61421.47617596104, -38265.56065864094, -21654.459435279303, -66968.01685905657, -64948.80496845305, -79935.06848038059, -58317.37766473027, -60212.26915267338, -56112.91451608116, -55721.55782241319, 0.082, 0.9460000000000001, 0.154, 192.0, 1.0, 72.0, 14.5, 72.0, 2.0, 104.0, 0.0, 0.0, 0.0, 1.658165163712967E9, 0.0, 2022-07-18 13:26:03.712
172.0, -29064.7109228028, -38421.2182070277, -63810.452975088716, -59630.69911369075, -27520.518305363454, -46971.49806874968, -61335.22079410801, -38229.864922745815, -21643.305914796107, -66932.72345456165, -64922.765186162615, -79902.25611952021, -58300.07741452187, -60187.48106807245, -56086.42769890162, -55685.370348140044, 0.082, 0.9460000000000001, 0.154, 192.0, 0.0, 0.0, 0.0, 0.0, 0.0, 0.0, 0.0, 0.0, 0.0, 1.6581651637129734E9, 0.0, 2022-07-18 13:26:03.712
174.0, -29094.841074328553, -38395.08901775945, -63873.90957759733, -59685.81851551754, -27580.018649103484, -47013.87697623694, -61414.63654215772, -38285.34195248389, -21663.511891783703, -66959.8584723304, -64949.47552078671, -79924.27258780868, -58336.80133066194, -60215.510155619406, -56109.22647824603, -55704.23522046032, 0.082, 0.9460000000000001, 0.154, 192.0, 0.0, 0.0, 0.0, 0.0, 0.0, 0.0, 0.0, 0.0, 0.0, 1.6581651637129798E9, 0.0, 2022-07-18 13:26:03.712
176.0, -29051.769262763177, -38413.864483101905, -63779.831085184946, -59603.40763371082, -27499.68647953111, -46941.18910326828, -61321.2733055679, -38197.298431074436, -21644.5576124856, -66925.7497102916, -64919.16655530531, -79894.52241593867, -58303.74310061254, -60175.455829555496, -56071.51908534993, -55664.404411840966, 0.082, 0.9460000000000001, 0.154, 192.0, 0.0, 0.0, 0.0, 0.0, 0.0, 0.0, 0.0, 0.0, 0.0, 1.6581651637129865E9, 0.0, 2022-07-18 13:26:03.712
178.0, -29090.303670204125, -38380.7615495636, -63838.03502774657, -59662.036259417095, -27549.285000477434, -46980.52817350962, -61386.31688193284, -38241.9795682406, -21637.8073856601, -66929.88478301582, -64921.96052336223, -79900.46797996378, -58303.07254827888, -60169.353803319194, -56055.73875376448, -55652.75915297975, 0.082, 0.9460000000000001, 0.154, 192.0, 0.0, 0.0, 0.0, 0.0, 0.0, 0.0, 0.0, 0.0, 0.0, 1.658165163712993E9, 0.0, 2022-07-18 13:26:03.712
180.0, -29078.121969475982, -38438.071422347006, -63802.808678485, -59628.66510494532, -27519.356014651778, -46968.324121037025, -61354.15272166166, -38221.483018575076, -21659.019191148185, -66941.99942851061, -64939.908974159836, -79912.38145975846, -58315.097786795835, -60183.23423662594, -56075.475344118524, -55672.04870844469, 0.078, 0.9480000000000001, 0.156, 192.0, 1.0, 56.0, 14.5, 80.0, 2.0, 112.0, 0.0, 0.0, 0.0, 1.6581651637129996E9, 0.0, 2022-07-18 13:26:03.712
182.0, -29108.162714023914, -38398.419427683286, -63880.83861837848, -59701.174163958334, -27582.70085843812, -47021.56597632956, -61423.57723993984, -38284.179661772214, -21660.98614466025, -66961.22192874216, -64947.93325041929, -79919.13168658396, -58321.512737454505, -60198.27696064436, -56091.81446931535, -55697.909676779476, 0.078, 0.9480000000000001, 0.156, 192.0, 0.0, 0.0, 0.0, 0.0, 0.0, 0.0, 0.0, 0.0, 0.0, 1.658165163713006E9, 0.0, 2022-07-18 13:26:03.713
184.0, -29068.5107193602, -38411.763419123105, -63814.74451002414, -59642.120855107416, -27531.045977001904, -46974.67201646233, -61371.47532361452, -38254.8765247913, -21674.173673888883, -66970.07321954647, -64960.04789591407, -79927.98297738827, -58337.02484810649, -60222.081568489266, -56118.36834172825, -55729.24682250581, 0.078, 0.9480000000000001, 0.156, 192.0, 0.0, 0.0, 0.0, 0.0, 0.0, 0.0, 0.0, 0.0, 0.0, 1.6581651637130127E9, 0.0, 2022-07-18 13:26:03.713
186.0, -29084.04518175664, -38361.6061045654, -63866.39939146035, -59695.56387610005, -27571.189710043636, -47003.81869123205, -61403.14774550769, -38265.85123131886, -21626.69856866581, -66923.2910184015, -64906.694281899254, -79881.67016287686, -58293.86362956329, -60174.96409117748, -56071.74260279448, -55686.06325221816, 0.078, 0.9480000000000001, 0.156, 192.0, 0.0, 0.0, 0.0, 0.0, 0.0, 0.0, 0.0, 0.0, 0.0, 1.6581651637130194E9, 0.0, 2022-07-18 13:26:03.713
188.0, -29050.51756507368, -38389.72459909017, -63808.284855876555, -59644.71365746423, -27534.465793903568, -46966.26776054713, -61361.14881767617, -38210.55301553643, -21661.276717338173, -66970.2073300132, -64946.055703885046, -79926.93244539887, -58333.9179556272, -60219.04173124334, -56115.26144924897, -55733.65011616351, 0.078, 0.9480000000000001, 0.156, 192.0, 0.0, 0.0, 0.0, 0.0, 0.0, 0.0, 0.0, 0.0, 0.0, 1.658165163713026E9, 0.0, 2022-07-18 13:26:03.713
190.0, -29074.746856063233, -38356.64401729632, -63859.40329544584, -59689.640663819395, -27574.07308507837, -46989.13359512491, -61406.746376364994, -38219.583120296375, -21615.969731327266, -66921.41347186726, -64893.01501429261, -79877.49038666373, -58282.55364686891, -60169.44321029702, -56056.18578865359, -55669.657071787966, 0.074, 0.9500000000000001, 0.156, 192.0, 1.0, 40.0, 14.5, 88.0, 2.0, 112.0, 0.0, 0.0, 0.0, 1.6581651637130325E9, 0.0, 2022-07-18 13:26:03.713
192.0, -29051.724559274266, -38371.1055959589, -63809.044815188034, -59643.1266836079, -27531.761232824476, -46964.50197273517, -61364.54628283338, -38190.39174203775, -21663.66835399489, -66975.61645217138, -64941.920631160814, -79927.53594249916, -58336.64486845075, -60225.1661092241, -56106.097234022294, -55725.69289513742, 0.074, 0.9500000000000001, 0.156, 192.0, 0.0, 0.0, 0.0, 0.0, 0.0, 0.0, 0.0, 0.0, 0.0, 1.6581651637130387E9, 0.0, 2022-07-18 13:26:03.713
194.0, -29070.209451938805, -38345.02111017956, -63852.25073722014, -59681.05759394856, -27551.11784352277, -46974.98494088471, -61390.38489942371, -38173.65028544072, -21611.47703069175, -66918.21717241015, -64884.521351399584, -79868.99672377072, -58274.23879793153, -60156.32273630175, -56035.979811665995, -55657.09539140408, 0.074, 0.9500000000000001, 0.156, 192.0, 0.0, 0.0, 0.0, 0.0, 0.0, 0.0, 0.0, 0.0, 0.0, 1.6581651637130454E9, 0.0, 2022-07-18 13:26:03.713
196.0, -29053.557402319602, -38356.129927173846, -63817.851402503424, -59652.13443662339, -27527.089718233314, -46957.282359276105, -61367.31789914583, -38180.26640179949, -21656.71696146929, -66978.74569639513, -64941.04891312706, -79928.51941925519, -58327.72652241308, -60216.73950156445, -56094.071995505336, -55715.74636885481, 0.074, 0.9500000000000001, 0.156, 192.0, 0.0, 0.0, 0.0, 0.0, 0.0, 0.0, 0.0, 0.0, 0.0, 1.6581651637130537E9, 0.0, 2022-07-18 13:26:03.713
198.0, -29077.540824120144, -38346.2504561246, -63859.045667534556, -59690.422974875335, -27546.669846376164, -46974.64966471788, -61390.474306401535, -38206.306184089924, -21617.132022038943, -66925.72735854714, -64891.96448230321, -79882.854805333, -58274.99875724301, -60163.16237010508, -56046.44042807108, -55674.39564161249, 0.074, 0.9500000000000001, 0.156, 192.0, 0.0, 0.0, 0.0, 0.0, 0.0, 0.0, 0.0, 0.0, 0.0, 1.6581651637130604E9, 0.0, 2022-07-18 13:26:03.713
200.0, -29065.493233858735, -38348.66444452578, -63836.96214401271, -59666.59601528598, -27533.21409621407, -46965.4854494912, -61367.63082356821, -38173.9632098631, -21658.818025448087, -66987.41817324379, -64952.493006288176, -79945.59615201905, -58335.48257773907, -60222.10392023372, -56114.970876571046, -55740.5568052002, 0.074, 0.9470000000000001, 0.159, 192.0, 1.0, 40.0, 14.5, 64.0, 2.5, 8.0, 0.0, 0.0, 0.0, 1.6581651637130668E9, 0.0, 2022-07-18 13:26:03.713
202.0, -29074.56804210759, -38338.650863009796, -63841.92423128179, -59668.89824496487, -27527.69321533361, -46952.47673421821, -61363.11577118823, -38162.09443355733, -21609.711242879777, -66905.58843679291, -64881.70503159822, -79870.74015983823, -58268.248530417506, -60143.26931753985, -56038.46085530053, -55659.55408329417, 0.074, 0.9470000000000001, 0.159, 192.0, 0.0, 0.0, 0.0, 0.0, 0.0, 0.0, 0.0, 0.0, 0.0, 1.6581651637130733E9, 0.0, 2022-07-18 13:26:03.713
204.0, -29080.692420088344, -38356.24168589612, -63847.0204290176, -59680.36468987045, -27549.01677954397, -46974.78377518461, -61380.95246326357, -38189.78824493745, -21667.870481952486, -66986.36764125439, -64952.94004117728, -79943.00334966223, -58335.415522505704, -60216.270114930885, -56108.10889102327, -55730.49852019531, 0.074, 0.9470000000000001, 0.159, 192.0, 0.0, 0.0, 0.0, 0.0, 0.0, 0.0, 0.0, 0.0, 0.0, 1.65816516371308E9, 0.0, 2022-07-18 13:26:03.713
206.0, -29073.80808279611, -38349.692624770716, -63832.58120209947, -59670.52992231011, -27529.481354890035, -46949.034565572096, -61358.75718101945, -38166.542430703936, -21617.646112161412, -66919.96060847768, -64893.350290459435, -79883.6594681334, -58272.18243744165, -60162.447114282506, -56043.40059082516, -55666.21490314185, 0.074, 0.9470000000000001, 0.159, 192.0, 0.0, 0.0, 0.0, 0.0, 0.0, 0.0, 0.0, 0.0, 0.0, 1.6581651637130864E9, 0.0, 2022-07-18 13:26:03.713
208.0, -29077.406713653414, -38341.42247932225, -63837.74445506865, -59685.25972190616, -27545.328741708847, -46970.693405949285, -61373.79990503787, -38206.864977701305, -21664.04833365063, -66992.9614058687, -64953.72235223322, -79952.50284105574, -58338.20949056262, -60233.92799305058, -56106.29839972239, -55738.232223776846, 0.074, 0.9470000000000001, 0.159, 192.0, 0.0, 0.0, 0.0, 0.0, 0.0, 0.0, 0.0, 0.0, 0.0, 1.6581651637130928E9, 0.0, 2022-07-18 13:26:03.713
210.0, -29054.831451753555, -38345.132868901834, -63805.93792270875, -59659.443457060275, -27514.863314016264, -46948.34166149398, -61345.74846574646, -38188.04480886994, -21584.252605945185, -66899.35230008987, -64870.57386285948, -79869.75668308219, -58249.11543716377, -60145.169215818554, -56019.193651580055, -55657.45301931537, 0.075, 0.9455, 0.1585, 192.0, 1.0, 48.0, 14.5, 64.0, 2.0, 120.0, 0.0, 0.0, 0.0, 1.6581651637130997E9, 0.0, 2022-07-18 13:26:03.713
212.0, -29078.27843168717, -38343.03180492303, -63846.506338895124, -59692.56874234304, -27553.576535412853, -46974.113222850945, -61393.603550625274, -38238.269178661016, -21655.174691101874, -66983.79719064203, -64949.14024461988, -79945.3726345745, -58319.23285952007, -60218.080606231764, -56094.60843737226, -55737.06993306517, 0.075, 0.9455, 0.1585, 192.0, 0.0, 0.0, 0.0, 0.0, 0.0, 0.0, 0.0, 0.0, 0.0, 1.6581651637131062E9, 0.0, 2022-07-18 13:26:03.713
214.0, -29064.979143736262, -38364.40007262231, -63810.40827159981, -59653.162616868336, -27518.149020451194, -46945.882969603896, -61340.85343371075, -38193.94566940614, -21617.8025743726, -66915.46790784215, -64892.63503463686, -79883.23478498874, -58262.57118732586, -60156.9485851465, -56035.845701199265, -55674.50740033477, 0.075, 0.9455, 0.1585, 192.0, 0.0, 0.0, 0.0, 0.0, 0.0, 0.0, 0.0, 0.0, 0.0, 1.6581651637131128E9, 0.0, 2022-07-18 13:26:03.713
216.0, -29089.99074578175, -38354.81117425099, -63865.326507726495, -59701.55414361408, -27573.782512400452, -46993.67099924934, -61408.73568162152, -38225.66279478822, -21666.842301707544, -66990.34625176743, -64952.24713709917, -79944.59032351855, -58332.219223048596, -60219.53346962136, -56093.62496061623, -55729.47033995037, 0.075, 0.9455, 0.1585, 192.0, 0.0, 0.0, 0.0, 0.0, 0.0, 0.0, 0.0, 0.0, 0.0, 1.6581651637131193E9, 0.0, 2022-07-18 13:26:03.713
218.0, -29058.519489588678, -38371.306761659, -63809.67066403278, -59647.10529412095, -27521.3453199083, -46946.66528065983, -61348.318916358825, -38191.93401240516, -21626.586809943536, -66927.33668414791, -64903.408575464324, -79891.08024729256, -58286.12992598175, -60169.30909983029, -56050.28492811739, -55678.30719689217, 0.075, 0.9455, 0.1585, 192.0, 0.0, 0.0, 0.0, 0.0, 0.0, 0.0, 0.0, 0.0, 0.0, 1.658165163713126E9, 0.0, 2022-07-18 13:26:03.713
220.0, -29106.08400178957, -38362.81309876598, -63884.906635869345, -59716.93214379933, -27582.723210182576, -47004.4445400768, -61409.138013021715, -38231.13897217977, -21667.19992961883, -66989.0051471001, -64955.59989876746, -79943.0704048956, -58336.24253705055, -60223.84735630124, -56096.865963562246, -55725.871709093066, 0.0765, 0.94675, 0.15925, 192.0, 1.0, 56.0, 14.5, 80.0, 2.5, 0.0, 0.0, 0.0, 0.0, 1.6581651637131326E9, 0.0, 2022-07-18 13:26:03.713
222.0, -29063.101597202018, -38382.43793039774, -63814.45393734622, -59649.27341333311, -27522.462907131066, -46945.2794725036, -61348.11775065873, -38182.45687275611, -21647.083359609052, -66949.53196639204, -64933.00228512315, -79912.58262545856, -58312.862612350305, -60193.3595768642, -56069.44037311559, -55696.25564768978, 0.0765, 0.94675, 0.15925, 192.0, 0.0, 0.0, 0.0, 0.0, 0.0, 0.0, 0.0, 0.0, 0.0, 1.6581651637131393E9, 0.0, 2022-07-18 13:26:03.713
224.0, -29098.84203658605, -38365.24943891161, -63887.92412137081, -59717.736806599714, -27584.712515439096, -46998.789548729605, -61425.991228341016, -38248.886257277285, -21645.697551452824, -66970.02851605756, -64942.12179686091, -79925.90426515392, -58314.36017922881, -60204.311931647295, -56081.979701755015, -55707.342112939616, 0.0765, 0.94675, 0.15925, 192.0, 0.0, 0.0, 0.0, 0.0, 0.0, 0.0, 0.0, 0.0, 0.0, 1.6581651637131455E9, 0.0, 2022-07-18 13:26:03.713
226.0, -29047.88005922795, -38383.376703664864, -63807.949579709726, -59640.779750440095, -27515.466811116556, -46937.38930671088, -61343.31212560083, -38183.48505300105, -21654.370028301484, -66959.6573066303, -64938.14318634787, -79921.74684068524, -58308.34755997033, -60205.02718746987, -56087.27706519092, -55708.45970016238, 0.0765, 0.94675, 0.15925, 192.0, 0.0, 0.0, 0.0, 0.0, 0.0, 0.0, 0.0, 0.0, 0.0, 1.6581651637131524E9, 0.0, 2022-07-18 13:26:03.713
228.0, -29083.88871954545, -38363.9083342443, -63877.50820845464, -59709.377254173436, -27578.83400664735, -46986.7419584682, -61424.784234140425, -38230.02138495701, -21637.717978682278, -66952.86237631588, -64925.13447107488, -79912.53792196965, -58293.37189118528, -60192.44315534153, -56071.34027139429, -55688.946627252895, 0.0765, 0.94675, 0.15925, 192.0, 0.0, 0.0, 0.0, 0.0, 0.0, 0.0, 0.0, 0.0, 0.0, 1.6581651637131608E9, 0.0, 2022-07-18 13:26:03.713
230.0, -29058.027751210662, -38401.54867190703, -63799.36650983889, -59646.77001795412, -27527.223828700047, -46947.492295204676, -61373.2858149154, -38218.66669877371, -21659.779150459668, -66966.11696077787, -64940.55717474904, -79929.43584077786, -58314.13666178426, -60210.257495672406, -56099.14584149669, -55711.96892404186, 0.07825, 0.9473750000000001, 0.15762500000000002, 192.0, 1.0, 64.0, 14.5, 80.0, 2.0, 112.0, 0.0, 0.0, 0.0, 1.6581651637131674E9, 0.0, 2022-07-18 13:26:03.713
232.0, -29107.53686517917, -38382.773206564576, -63862.15256001384, -59714.71932109825, -27575.92827986816, -46999.97419118574, -61412.51312643447, -38270.61215288784, -21635.616914703478, -66957.1539112513, -64924.21804955221, -79914.92955862636, -58293.93068479666, -60192.353748363705, -56067.76399228144, -55696.277999434235, 0.07825, 0.9473750000000001, 0.15762500000000002, 192.0, 0.0, 0.0, 0.0, 0.0, 0.0, 0.0, 0.0, 0.0, 0.0, 1.6581651637131739E9, 0.0, 2022-07-18 13:26:03.713
234.0, -29068.130739704462, -38404.20852949721, -63788.972948667164, -59643.640773730374, -27518.81957278485, -46958.24348428768, -61321.876802668194, -38247.65691133224, -21671.11148489851, -66979.21508302868, -64956.91865169033, -79937.63893099297, -58329.894641625244, -60222.34978942273, -56091.412137915155, -55728.97860157235, 0.07825, 0.9473750000000001, 0.15762500000000002, 192.0, 0.0, 0.0, 0.0, 0.0, 0.0, 0.0, 0.0, 0.0, 0.0, 1.6581651637131808E9, 0.0, 2022-07-18 13:26:03.713
236.0, -29095.288109217658, -38372.625514581865, -63853.45773142073, -59693.842791776995, -27569.468625720576, -46994.98975217221, -61391.8377628133, -38277.20591750216, -21627.302065766107, -66931.31529466096, -64909.44354646726, -79889.20270075831, -58286.80047831542, -60171.030184153344, -56042.30535534684, -55677.45783060287, 0.07825, 0.9473750000000001, 0.15762500000000002, 192.0, 0.0, 0.0, 0.0, 0.0, 0.0, 0.0, 0.0, 0.0, 0.0, 1.6581651637131877E9, 0.0, 2022-07-18 13:26:03.713
238.0, -29052.21629765228, -38387.48942464464, -63787.47538178866, -59628.061607845026, -27518.3948896402, -46943.67014690282, -61352.297526871866, -38242.024271729504, -21656.135816113452, -66967.48041718965, -64943.395846294865, -79923.4679250083, -58330.14051081426, -60207.754100293416, -56085.71244307905, -55712.79593858671, 0.07825, 0.9473750000000001, 0.15762500000000002, 192.0, 0.0, 0.0, 0.0, 0.0, 0.0, 0.0, 0.0, 0.0, 0.0, 1.658165163713194E9, 0.0, 2022-07-18 13:26:03.713
240.0, -29073.092826973538, -38368.82571802446, -63860.699696624244, -59698.4919546237, -27581.203291559614, -46988.731263724716, -61405.47232693104, -38275.57424015692, -21602.536332909625, -66912.65158804078, -64890.42221193579, -79876.1492819964, -58278.37387065576, -60159.161407847576, -56046.21691062652, -55671.37815611102, 0.078125, 0.9496875, 0.15781250000000002, 192.0, 1.0, 56.0, 14.5, 96.0, 2.0, 120.0, 0.0, 0.0, 0.0, 1.6581651637132008E9, 0.0, 2022-07-18 13:26:03.713
242.0, -29042.158012647393, -38376.335904161446, -63789.308224834, -59635.79531142656, -27532.051805502393, -46943.89366434737, -61345.301430857355, -38233.217684414114, -21661.43317954936, -66971.77195212507, -64949.274355086614, -79934.21911409129, -58341.15992083072, -60227.043655758345, -56107.706559623075, -55734.34302024163, 0.078125, 0.9496875, 0.15781250000000002, 192.0, 0.0, 0.0, 0.0, 0.0, 0.0, 0.0, 0.0, 0.0, 0.0, 1.658165164192227E9, 0.0, 2022-07-18 13:26:04.192
244.0, -29058.675951799865, -38344.864647968374, -63818.58901007045, -59661.544521039075, -27549.21794524407, -46954.890722619384, -61372.74937304847, -38246.628731087294, -21599.652957874892, -66886.1871226057, -64866.6623075798, -79847.62845607144, -58260.89480649171, -60142.6434686951, -56013.739825932964, -55644.44430404238, 0.078125, 0.9496875, 0.15781250000000002, 192.0, 0.0, 0.0, 0.0, 0.0, 0.0, 0.0, 0.0, 0.0, 0.0, 1.6581651641922767E9, 0.0, 2022-07-18 13:26:04.192
246.0, -29044.706111515297, -38367.46226161269, -63794.91851269228, -59638.20929982774, -27531.515363635466, -46954.86837087493, -61350.822311737815, -38254.04951024646, -21672.564348288102, -66967.79334161202, -64945.496910273665, -79923.95966338631, -58338.03067660698, -60215.53250736386, -56087.29941693538, -55716.86395607758, 0.078125, 0.9496875, 0.15781250000000002, 192.0, 0.0, 0.0, 0.0, 0.0, 0.0, 0.0, 0.0, 0.0, 0.0, 1.6581651641923375E9, 0.0, 2022-07-18 13:26:04.192
248.0, -29039.609913779488, -38341.04249966652, -63804.015672685586, -59648.3793435549, -27529.72722407904, -46949.99569058367, -61372.59291083729, -38234.04469895896, -21607.453716689794, -66886.85767493935, -64869.232758192156, -79849.9530374948, -58254.34574536631, -60138.86602388216, -56011.90698288763, -55637.53761500569, 0.078125, 0.9496875, 0.15781250000000002, 192.0, 0.0, 0.0, 0.0, 0.0, 0.0, 0.0, 0.0, 0.0, 0.0, 1.658165164192383E9, 0.0, 2022-07-18 13:26:04.192
250.0, -29044.75081500421, -38359.66150279778, -63802.71927150718, -59654.414314557835, -27533.057634002882, -46966.781850669606, -61386.58510286631, -38253.51306837953, -21646.79278693113, -66951.32010594847, -64927.19083156477, -79914.77309641519, -58308.995760559534, -60201.58501882375, -56075.56475109634, -55704.615200116066, 0.0780625, 0.9518437500000001, 0.16090625000000003, 192.0, 1.0, 56.0, 14.5, 104.0, 2.5, 16.0, 0.0, 0.0, 0.0, 1.6581651641923883E9, 0.0, 2022-07-18 13:26:04.192
252.0, -29051.456338340802, -38363.14837493281, -63809.93888496624, -59665.70194550776, -27540.16548873967, -46962.84794364547, -61377.24207368399, -38223.20410289813, -21613.84631560401, -66901.87804721332, -64884.119019999394, -79873.37766568395, -58267.622681572764, -60160.65897472608, -56032.336477319775, -55663.711507762855, 0.0780625, 0.9518437500000001, 0.16090625000000003, 192.0, 0.0, 0.0, 0.0, 0.0, 0.0, 0.0, 0.0, 0.0, 0.0, 1.6581651641923933E9, 0.0, 2022-07-18 13:26:04.192
254.0, -29043.387358592438, -38348.32916835894, -63795.92434119277, -59652.82734070151, -27536.36569218227, -46957.61763544293, -61361.9311287321, -38234.31291989242, -21658.862728936998, -66971.12375153587, -64942.23355558319, -79930.44166927836, -58324.530222955975, -60225.501385390926, -56085.15364946767, -55718.875613078555, 0.0780625, 0.9518437500000001, 0.16090625000000003, 192.0, 0.0, 0.0, 0.0, 0.0, 0.0, 0.0, 0.0, 0.0, 0.0, 1.6581651641923976E9, 0.0, 2022-07-18 13:26:04.192
0.0, -29010.70910819878, -38322.02116513505, -63761.010916353574, -59612.325979748486, -27501.005232453972, -46920.781960580585, -61321.58622999027, -38203.75808522202, -21584.654937345378, -66871.12204684282, -64856.156987685805, -79834.66444428737, -58243.10281790529, -60135.06622732476, -55999.23354378147, -55633.715466703834, 0.0780625, 0.9518437500000001, 0.16090625000000003, 192.0, 0.0, 0.0, 0.0, 0.0, 0.0, 0.0, 0.0, 0.0, 0.0, 1.658165164192402E9, 0.0, 2022-07-18 13:26:04.192
2.0, -29037.46414631178, -38325.61979599235, -63808.687187276744, -59655.397791313866, -27557.398683714713, -46970.000501871174, -61389.423774412135, -38264.465423162634, -21635.885135636945, -66935.56212610747, -64911.41049997932, -79892.26488974868, -58309.286333237455, -60194.4101088536, -56065.260596902444, -55699.74251982481, 0.0780625, 0.9518437500000001, 0.16090625000000003, 192.0, 0.0, 0.0, 0.0, 0.0, 0.0, 0.0, 0.0, 0.0, 0.0, 1.6581651641924067E9, 0.0, 2022-07-18 13:26:04.192
4.0, -29004.74119242921, -38328.32435707145, -63774.1537420933, -59613.98000883818, -27516.696157061597, -46919.26204195763, -61345.25672736845, -38181.898079144725, -21599.474143919248, -66872.12787534331, -64855.70995279669, -79835.22323789874, -58267.980309484046, -60137.279050025834, -56017.22669806799, -55644.10902787555, 0.08003125, 0.9509218750000001, 0.16345312500000003, 192.0, 1.0, 72.0, 14.5, 88.0, 2.5, 24.0, 0.0, 0.0, 0.0, 1.6581651641924222E9, 0.0, 2022-07-18 13:26:04.192
6.0, -29018.97925364724, -38317.28259531052, -63817.87375424788, -59652.29089883458, -27554.850584846805, -46950.80035338406, -61400.8455158288, -38226.40040235525, -21640.511946739192, -66934.08691097342, -64908.95180808924, -79889.5603286696, -58318.20467927512, -60188.9562832065, -56069.753297537965, -55693.908714521975, 0.08003125, 0.9509218750000001, 0.16345312500000003, 192.0, 0.0, 0.0, 0.0, 0.0, 0.0, 0.0, 0.0, 0.0, 0.0, 1.6581651641924267E9, 0.0, 2022-07-18 13:26:04.192
8.0, -28991.665421922855, -38330.02308965005, -63767.4035152678, -59604.54757267804, -27496.467828329543, -46905.58277435098, -61326.5259655149, -38187.55307049192, -21593.014489771664, -66861.1308170713, -64854.324144640465, -79834.03859544262, -58257.31852737886, -60129.18771853301, -56015.5726689783, -55636.017696382725, 0.08003125, 0.9509218750000001, 0.16345312500000003, 192.0, 0.0, 0.0, 0.0, 0.0, 0.0, 0.0, 0.0, 0.0, 0.0, 1.6581651641924312E9, 0.0, 2022-07-18 13:26:04.192
10.0, -29041.733329502742, -38330.179551861234, -63834.97283875619, -59669.74761125417, -27552.816576101373, -46960.836286644495, -61397.805678582874, -38246.13699270928, -21638.321475782574, -66931.8964400168, -64917.51252621562, -79896.51172119519, -58303.11725176779, -60182.13900114763, -56063.78538176839, -55692.366444154555, 0.08003125, 0.9509218750000001, 0.16345312500000003, 192.0, 0.0, 0.0, 0.0, 0.0, 0.0, 0.0, 0.0, 0.0, 0.0, 1.6581651641924355E9, 0.0, 2022-07-18 13:26:04.192
12.0, -29014.575959989546, -38365.271790656065, -63779.36169855139, -59623.09952057595, -27497.741877763496, -46931.399039196855, -61327.487090526476, -38222.310033119924, -21610.247684746708, -66892.87029419784, -64885.66129036681, -79860.9500957668, -58264.71695479357, -60143.47048323995, -56031.12948311919, -55662.57156879563, 0.08003125, 0.9509218750000001, 0.16345312500000003, 192.0, 0.0, 0.0, 0.0, 0.0, 0.0, 0.0, 0.0, 0.0, 0.0, 1.6581651641924403E9, 0.0, 2022-07-18 13:26:04.192
14.0, -29042.73915800323, -38335.40986006378, -63835.196356200744, -59678.35303286947, -27556.45991044759, -46980.99756014318, -61409.205068255076, -38252.3284259234, -21634.432272247348, -66941.28417268803, -64919.54653496105, -79902.03260207565, -58306.04533029143, -60184.35182384871, -56069.37331788222, -55705.88924955002, 0.08003125, 0.9509218750000001, 0.16345312500000003, 192.0, 0.0, 0.0, 0.0, 0.0, 0.0, 0.0, 0.0, 0.0, 0.0, 1.6581651641924448E9, 0.0, 2022-07-18 13:26:04.192
16.0, -28992.850064378985, -38348.26211312558, -63752.629012182835, -59600.568962164994, -27494.858502728763, -46917.563309379024, -61342.41805582262, -38186.234317569055, -21606.33612946703, -66899.55346578997, -64882.62145312089, -79864.57107836856, -58275.95988225459, -60153.68523045602, -56048.04975367186, -55673.12159217854, 0.088, 0.9560000000000001, 0.162, 192.0, 1.0, 96.0, 14.5, 112.0, 2.5, 8.0, 0.0, 0.0, 0.0, 1.658165164192449E9, 0.0, 2022-07-18 13:26:04.192
18.0, -29030.602160764, -38324.30104306949, -63818.79017577055, -59664.04791641807, -27555.83406160284, -46962.46796398974, -61396.621036126744, -38225.886312232775, -21607.543123667612, -66913.61271305237, -64890.17634274678, -79875.52343315165, -58282.86657129128, -60166.93981491803, -56057.57159680982, -55678.463659103356, 0.088, 0.9560000000000001, 0.162, 192.0, 0.0, 0.0, 0.0, 0.0, 0.0, 0.0, 0.0, 0.0, 0.0, 1.6581651641924536E9, 0.0, 2022-07-18 13:26:04.192
20.0, -28988.625584676935, -38350.318473615465, -63744.53768069002, -59591.98589229416, -27487.504778802966, -46910.85778604243, -61321.250953823444, -38181.27223029998, -21609.510077179682, -66901.02868092402, -64888.27644446808, -79868.57204062607, -58278.77620205596, -60162.53652126033, -56047.1780356381, -55669.81353399915, 0.088, 0.9560000000000001, 0.162, 192.0, 0.0, 0.0, 0.0, 0.0, 0.0, 0.0, 0.0, 0.0, 0.0, 1.6581651641924582E9, 0.0, 2022-07-18 13:26:04.192
22.0, -29030.17747761935, -38323.63049073583, -63820.041873460046, -59657.834131459495, -27543.652360874697, -46955.874199375416, -61385.06518424335, -38228.56852156741, -21600.79289684211, -66897.5865122779, -64879.20163621922, -79859.31841842156, -58271.42247813016, -60149.48310249843, -56031.75533196394, -55649.11581863354, 0.088, 0.9560000000000001, 0.162, 192.0, 0.0, 0.0, 0.0, 0.0, 0.0, 0.0, 0.0, 0.0, 0.0, 1.6581651641924627E9, 0.0, 2022-07-18 13:26:04.192
24.0, -28987.955032343274, -38344.64113052382, -63743.48714870062, -59582.329938689465, -27477.87117694273, -46900.66539057081, -61308.33164552828, -38179.77466342147, -21615.589751671523, -66903.71089025866, -64895.160781760314, -79866.42627315834, -58281.63722534624, -60158.803779936294, -56040.09253264577, -55659.241158871795, 0.088, 0.9560000000000001, 0.162, 192.0, 0.0, 0.0, 0.0, 0.0, 0.0, 0.0, 0.0, 0.0, 0.0, 1.6581651641924677E9, 0.0, 2022-07-18 13:26:04.192
26.0, -29033.5525910321, -38326.4468105372, -63816.77851876957, -59652.35795406794, -27534.421090414657, -46951.135629550896, -61375.3868788942, -38227.54034132246, -21604.637396888425, -66885.62832899432, -64879.715726341696, -79849.70716830579, -58263.8005332709, -60136.921422114545, -56023.954573149036, -55643.840806942084, 0.082, 0.9520000000000001, 0.164, 192.0, 1.0, 72.0, 14.5, 96.0, 2.5, 16.0, 0.0, 0.0, 0.0, 1.658165164192472E9, 0.0, 2022-07-18 13:26:04.192
28.0, -28995.88990162491, -38352.06190968298, -63747.95749759168, -59593.863438828404, -27476.597127508776, -46908.533204619074, -61309.80686066233, -38182.948611134125, -21627.95026635531, -66916.7419572761, -64906.22489526569, -79877.44568317481, -58292.231952218055, -60172.41599230957, -56051.71543976253, -55673.90390323447, 0.082, 0.9520000000000001, 0.164, 192.0, 0.0, 0.0, 0.0, 0.0, 0.0, 0.0, 0.0, 0.0, 0.0, 1.6581651641924765E9, 0.0, 2022-07-18 13:26:04.192
30.0, -29019.56039900308, -38321.238854079114, -63802.29458836253, -59650.145131366866, -27525.703910077085, -46949.74982139467, -61382.852361542275, -38210.55301553643, -21586.331318179527, -66865.62351770682, -64857.98983073114, -79833.7927262536, -58241.113512648764, -60129.56769818875, -56008.82244215279, -55631.413237024935, 0.082, 0.9520000000000001, 0.164, 192.0, 0.0, 0.0, 0.0, 0.0, 0.0, 0.0, 0.0, 0.0, 0.0, 1.6581651641924813E9, 0.0, 2022-07-18 13:26:04.192
32.0, -29004.11534358446, -38356.66636904077, -63763.111980332375, -59616.68456991728, -27499.082982430817, -46935.1317805209, -61344.541471545876, -38219.85134122984, -21628.911391366888, -66927.53784984801, -64913.44450872475, -79892.17548277086, -58296.47878366456, -60189.850352984715, -56071.966120239034, -55695.652150589485, 0.082, 0.9520000000000001, 0.164, 192.0, 0.0, 0.0, 0.0, 0.0, 0.0, 0.0, 0.0, 0.0, 0.0, 1.6581651641924856E9, 0.0, 2022-07-18 13:26:04.192
34.0, -29035.519544544168, -38340.41665082177, -63817.18085016977, -59658.459980304244, -27543.227677730047, -46966.37951926941, -61410.21089675557, -38252.88721953479, -21588.186512969318, -66883.37080280433, -64867.42226689128, -79846.51086884867, -58251.86470173177, -60138.86602388216, -56022.45700627053, -55640.80096969617, 0.082, 0.9520000000000001, 0.164, 192.0, 0.0, 0.0, 0.0, 0.0, 0.0, 0.0, 0.0, 0.0, 0.0, 1.65816516419249E9, 0.0, 2022-07-18 13:26:04.192
36.0, -29009.815038420566, -38353.805345750494, -63765.88359664483, -59616.237535028165, -27501.072287687337, -46947.44759171577, -61329.05171263835, -38237.44216411617, -21641.785996173145, -66947.43090241324, -64929.47070949921, -79905.67593642187, -58313.555516428416, -60200.31096938979, -56090.1380884812, -55707.43151991744, 0.078, 0.9480000000000001, 0.162, 192.0, 1.0, 56.0, 14.5, 80.0, 2.5, 8.0, 0.0, 0.0, 0.0, 1.6581651641924963E9, 0.0, 2022-07-18 13:26:04.192
38.0, -29019.046308880606, -38334.515790285564, -63790.26934984558, -59645.09363711997, -27519.557180351876, -46952.11910630693, -61341.56868953332, -38205.814445711905, -21578.575262853537, -66869.46801775313, -64853.54183358453, -79830.08233667402, -58230.27291658794, -60130.282954011316, -56000.28407577087, -55627.34521953407, 0.078, 0.9480000000000001, 0.162, 192.0, 0.0, 0.0, 0.0, 0.0, 0.0, 0.0, 0.0, 0.0, 0.0, 1.6581651641925008E9, 0.0, 2022-07-18 13:26:04.192
40.0, -29003.087163339518, -38343.680005512244, -63766.93412863423, -59622.65248568684, -27522.73112806453, -46940.071516045515, -61348.96711694803, -38205.72503873408, -21642.76947292918, -66940.14423372081, -64924.08393908548, -79900.24446251923, -58309.82277510438, -60208.357597393704, -56078.3363674088, -55698.937857024415, 0.078, 0.9480000000000001, 0.162, 192.0, 0.0, 0.0, 0.0, 0.0, 0.0, 0.0, 0.0, 0.0, 0.0, 1.6581651641925051E9, 0.0, 2022-07-18 13:26:04.192
42.0, -29009.41270702037, -38329.486647783124, -63772.767933937066, -59623.25598278714, -27514.90801750517, -46929.14151300687, -61354.86797748423, -38193.722151961585, -21575.289556418607, -66852.6818576672, -64847.64097304833, -79819.33114759102, -58238.96774518106, -60117.38599746061, -56000.8652211267, -55614.09063507207, 0.078, 0.9480000000000001, 0.162, 192.0, 0.0, 0.0, 0.0, 0.0, 0.0, 0.0, 0.0, 0.0, 0.0, 1.65816516419251E9, 0.0, 2022-07-18 13:26:04.192
44.0, -29017.436983279826, -38349.67027302626, -63770.890387402826, -59629.15684332333, -27511.421145370146, -46942.23963525768, -61328.76113996043, -38224.3216901209, -21638.254420549205, -66941.23946919912, -64920.86528788391, -79899.86448286349, -58310.22510650458, -60191.526733818864, -56070.46855336053, -55689.72893830883, 0.078, 0.9480000000000001, 0.162, 192.0, 0.0, 0.0, 0.0, 0.0, 0.0, 0.0, 0.0, 0.0, 0.0, 1.6581651641925144E9, 0.0, 2022-07-18 13:26:04.192
46.0, -29006.015241863162, -38344.59642703491, -63767.69408794572, -59619.724407163194, -27507.15196217918, -46936.27171948811, -61323.843756180264, -38195.01855313999, -21583.403239655883, -66873.82660792192, -64848.78091201555, -79831.71401401926, -58239.70535274808, -60125.253811508876, -55994.83025012377, -55614.73883566128, 0.078, 0.9460000000000001, 0.162, 192.0, 1.0, 56.0, 14.5, 72.0, 2.5, 8.0, 0.0, 0.0, 0.0, 1.6581651641925187E9, 0.0, 2022-07-18 13:26:04.192
48.0, -29009.21154132027, -38338.561456031974, -63784.01086139809, -59627.43575900028, -27527.87202928925, -46956.14242030888, -61364.6356898112, -38241.64429207376, -21632.957057113297, -66950.13546349233, -64911.723424401695, -79898.05399156261, -58308.97340881508, -60195.706510032, -56078.828105786815, -55691.338263909616, 0.078, 0.9460000000000001, 0.162, 192.0, 0.0, 0.0, 0.0, 0.0, 0.0, 0.0, 0.0, 0.0, 0.0, 1.6581651641925232E9, 0.0, 2022-07-18 13:26:04.192
50.0, -28994.63820393541, -38339.410822321275, -63764.34132627742, -59605.37458722289, -27494.433819584112, -46924.58175713799, -61340.04877091036, -38215.93978595016, -21577.010640741664, -66859.27562228151, -64843.79647300202, -79821.63337726991, -58236.55375677988, -60121.1410905291, -56018.299581801846, -55622.0255043537, 0.078, 0.9460000000000001, 0.162, 192.0, 0.0, 0.0, 0.0, 0.0, 0.0, 0.0, 0.0, 0.0, 0.0, 1.6581651641925275E9, 0.0, 2022-07-18 13:26:04.192
52.0, -29019.873323425454, -38342.18243863373, -63803.81450698549, -59640.66799171782, -27534.957532281584, -46962.22209480072, -61376.50446611697, -38249.22153344411, -21633.582905958046, -66929.50480336009, -64918.63011343838, -79892.57781417106, -58305.218315746584, -60186.139963405134, -56093.96023678306, -55694.15458371098, 0.078, 0.9460000000000001, 0.162, 192.0, 0.0, 0.0, 0.0, 0.0, 0.0, 0.0, 0.0, 0.0, 0.0, 1.658165164192532E9, 0.0, 2022-07-18 13:26:04.192
54.0, -29002.64012845041, -38356.28638938504, -63762.061448342974, -59602.62532265489, -27491.081057915817, -46920.983126280684, -61327.7776632044, -38199.55595726442, -21581.03395474362, -66863.09777058336, -64861.49905461062, -79829.72470876273, -58250.43419008663, -60117.073073038235, -56034.772817465404, -55623.83599565458, 0.078, 0.9460000000000001, 0.162, 192.0, 0.0, 0.0, 0.0, 0.0, 0.0, 0.0, 0.0, 0.0, 0.0, 1.6581651641925364E9, 0.0, 2022-07-18 13:26:04.192
56.0, -29042.448585325314, -38354.989988206624, -63819.125451937376, -59656.87300644792, -27542.847698074307, -46977.15306009687, -61377.64440508419, -38266.208859230144, -21634.70049318081, -66933.5504691065, -64925.69326468626, -79896.39996247292, -58307.38643495875, -60183.2565883704, -56081.57737035482, -55683.492801605804, 0.078, 0.9460000000000001, 0.16, 192.0, 1.0, 56.0, 14.5, 72.0, 2.5, 0.0, 0.0, 0.0, 0.0, 1.658165164192541E9, 0.0, 2022-07-18 13:26:04.192
58.0, -29013.279558811137, -38378.92870651826, -63766.46474200067, -59603.98877906666, -27496.758401007464, -46931.91312931933, -61344.13914014568, -38247.12046946531, -21609.890056835422, -66886.27652958353, -64884.23077872167, -79854.42338638585, -58263.085277448336, -60139.022486093345, -56040.49486404596, -55645.65129824296, 0.078, 0.9460000000000001, 0.16, 192.0, 0.0, 0.0, 0.0, 0.0, 0.0, 0.0, 0.0, 0.0, 0.0, 1.6581651641925454E9, 0.0, 2022-07-18 13:26:04.192
60.0, -29039.02876842365, -38359.415633608776, -63817.87375424788, -59656.358916325444, -27549.06148303288, -46977.30952230806, -61388.57440812283, -38299.87058637984, -21642.121272339973, -66944.68163784523, -64923.122814073904, -79897.98693632924, -58310.02394080448, -60185.06707967128, -56083.1866959556, -55689.66188307547, 0.078, 0.9460000000000001, 0.16, 192.0, 0.0, 0.0, 0.0, 0.0, 0.0, 0.0, 0.0, 0.0, 0.0, 1.65816516419255E9, 0.0, 2022-07-18 13:26:04.192
62.0, -28985.339878242004, -38358.230991152646, -63731.61837239485, -59576.47378164218, -27476.842996697786, -46905.18044295078, -61313.33843628627, -38178.835890154354, -21598.065984018565, -66873.51368349954, -64864.02480173407, -79834.17270590934, -58257.698507034605, -60131.44524472299, -56034.571651765305, -55631.30147830266, 0.078, 0.9460000000000001, 0.16, 192.0, 0.0, 0.0, 0.0, 0.0, 0.0, 0.0, 0.0, 0.0, 0.0, 1.6581651641925545E9, 0.0, 2022-07-18 13:26:04.192
64.0, -29045.51077431569, -38356.24168589612, -63830.6142485874, -59671.871026977424, -27562.986619828538, -46988.55244976908, -61405.44997518659, -38291.42162697573, -21631.81711814608, -66920.02766371104, -64905.576694676485, -79875.0540465181, -58297.48461216505, -60168.63854749663, -56082.1361639662, -55671.042879944194, 0.078, 0.9460000000000001, 0.16, 192.0, 0.0, 0.0, 0.0, 0.0, 0.0, 0.0, 0.0, 0.0, 0.0, 1.6581651641925595E9, 0.0, 2022-07-18 13:26:04.192
66.0, -28992.268919023147, -38363.953037733205, -63744.247108012096, -59585.14625849084, -27477.78176996491, -46915.23872795567, -61314.00898861993, -38225.70749827713, -21623.278751764152, -66900.98397743511, -64896.32307247199, -79859.81015679958, -58285.302911436906, -60154.758114189885, -56069.127448693216, -55662.77273449573, 0.076, 0.9480000000000001, 0.164, 192.0, 1.0, 48.0, 14.5, 80.0, 2.5, 16.0, 0.0, 0.0, 0.0, 1.6581651641925642E9, 0.0, 2022-07-18 13:26:04.192
68.0, -29047.41067259439, -38354.56530506197, -63836.35864691242, -59669.34527985398, -27554.4035499577, -46986.361978812456, -61399.01267278346, -38262.54317313948, -21626.72092041027, -66913.21038165217, -64902.24628475265, -79866.26981094717, -58291.673158606674, -60157.93206190253, -56067.47341960352, -55658.458847815855, 0.076, 0.9480000000000001, 0.164, 192.0, 0.0, 0.0, 0.0, 0.0, 0.0, 0.0, 0.0, 0.0, 0.0, 1.6581651641925707E9, 0.0, 2022-07-18 13:26:04.192
70.0, -29014.911236156375, -38383.33200017596, -63763.402553010295, -59606.13454653437, -27496.490180074, -46945.23476901469, -61322.25678232394, -38241.398422884755, -21649.05031312112, -66919.08889044392, -64916.841973881965, -79876.03752327414, -58309.93453382666, -60174.606463266195, -56077.352890652764, -55680.67648180443, 0.076, 0.9480000000000001, 0.164, 192.0, 0.0, 0.0, 0.0, 0.0, 0.0, 0.0, 0.0, 0.0, 0.0, 1.6581651641925752E9, 0.0, 2022-07-18 13:26:04.192
72.0, -29039.587562035034, -38339.299063599, -63819.23721065965, -59655.1295703804, -27545.060520775383, -46969.508763493155, -61380.66189058565, -38260.39740567176, -21626.05036807661, -66894.9937099211, -64890.60102589143, -79852.81406078507, -58294.22125747458, -60155.36161129017, -56050.66490777313, -55655.86604545904, 0.076, 0.9480000000000001, 0.164, 192.0, 0.0, 0.0, 0.0, 0.0, 0.0, 0.0, 0.0, 0.0, 0.0, 1.6581651641925797E9, 0.0, 2022-07-18 13:26:04.192
74.0, -29002.26014879467, -38361.0026074651, -63747.6445731693, -59584.65452011282, -27482.87796770072, -46917.45155065675, -61313.025511863896, -38216.789152239464, -21639.215545560783, -66916.33962587592, -64904.883790598375, -79864.61578185747, -58310.91801058269, -60168.750306218906, -56068.05456495936, -55664.04678392968, 0.076, 0.9480000000000001, 0.164, 192.0, 0.0, 0.0, 0.0, 0.0, 0.0, 0.0, 0.0, 0.0, 0.0, 1.6581651641925845E9, 0.0, 2022-07-18 13:26:04.192
76.0, -29030.624512508457, -38322.4458482797, -63820.041873460046, -59644.04310513057, -27534.242276459012, -46954.80131564156, -61372.928187004116, -38249.73562356659, -21605.75498411119, -66879.21337833564, -64871.42322914878, -79832.65278728638, -58270.416649629675, -60125.65614290907, -56029.52015751841, -55624.57360322161, 0.084, 0.9540000000000001, 0.16, 192.0, 1.0, 80.0, 14.5, 104.0, 2.5, 0.0, 0.0, 0.0, 0.0, 1.6581651641925888E9, 0.0, 2022-07-18 13:26:04.192
78.0, -28990.279613766626, -38339.701394999196, -63766.62120421186, -59592.187057994255, -27489.561139292855, -46922.27952745909, -61330.1245963722, -38199.2653845865, -21632.264153035183, -66913.61271305237, -64909.26473251161, -79869.68962784883, -58317.757644386016, -60159.2508148254, -56074.558922595854, -55667.757173509264, 0.084, 0.9540000000000001, 0.16, 192.0, 0.0, 0.0, 0.0, 0.0, 0.0, 0.0, 0.0, 0.0, 0.0, 1.6581651641925933E9, 0.0, 2022-07-18 13:26:04.192
80.0, -29033.7537567322, -38328.70433672718, -63829.809585787014, -59654.79429421357, -27541.05955851788, -46952.34262375148, -61385.04283249889, -38214.93395744967, -21599.22827473024, -66873.60309047737, -64875.04421175054, -79832.29515937509, -58275.98223399904, -60118.36947421664, -56033.09643663126, -55625.80294916665, 0.084, 0.9540000000000001, 0.16, 192.0, 0.0, 0.0, 0.0, 0.0, 0.0, 0.0, 0.0, 0.0, 0.0, 1.658165164192598E9, 0.0, 2022-07-18 13:26:04.192
82.0, -29016.006471634686, -38349.11147941488, -63778.89231191782, -59612.43773847076, -27501.83224699882, -46917.25038495665, -61335.62312550821, -38193.61039323931, -21655.42056029088, -66934.73511156262, -64937.07030261401, -79891.97431707077, -58331.63807769276, -60179.16621913508, -56090.00397801447, -55692.18763019892, 0.084, 0.9540000000000001, 0.16, 192.0, 0.0, 0.0, 0.0, 0.0, 0.0, 0.0, 0.0, 0.0, 0.0, 1.6581651641926024E9, 0.0, 2022-07-18 13:26:04.192
84.0, -29042.73915800323, -38322.356441301876, -63816.82322225848, -59653.87787269091, -27522.55231410889, -46942.41844921332, -61379.141971962694, -38230.31195763492, -21603.005719543187, -66873.89366315528, -64875.871226295385, -79831.53520006362, -58264.71695479357, -60120.82816610672, -56018.81367192432, -55635.257737071246, 0.084, 0.9540000000000001, 0.16, 192.0, 0.0, 0.0, 0.0, 0.0, 0.0, 0.0, 0.0, 0.0, 0.0, 1.6581651641926067E9, 0.0, 2022-07-18 13:26:04.192
86.0, -29031.742099731222, -38344.663482268275, -63793.331538835955, -59641.338544051476, -27513.388098882213, -46944.29599574757, -61348.4306750811, -38205.680335245175, -21655.37585680197, -66944.54752737851, -64936.10917760243, -79898.23280551826, -58325.24547877854, -60192.62196929717, -56087.008844257456, -55712.17008974196, 0.082, 0.9520000000000001, 0.159, 192.0, 1.0, 64.0, 14.5, 88.0, 2.0, 120.0, 0.0, 0.0, 0.0, 1.6581651641926112E9, 0.0, 2022-07-18 13:26:04.192
88.0, -29041.286294613637, -38315.91913889875, -63815.07978619097, -59664.114971651434, -27519.467773374057, -46943.04429805807, -61348.07304716981, -38175.28196278596, -21595.674347361844, -66883.41550629324, -64867.42226689128, -79835.73732802122, -58259.643108802215, -60127.28782025431, -56006.833136896275, -55634.54248124868, 0.082, 0.9520000000000001, 0.159, 192.0, 0.0, 0.0, 0.0, 0.0, 0.0, 0.0, 0.0, 0.0, 0.0, 1.658165164192616E9, 0.0, 2022-07-18 13:26:04.192
90.0, -29042.292123114126, -38325.217464592155, -63804.97679769716, -59653.47554129071, -27533.102337491793, -46952.6331964294, -61359.919471731126, -38175.617238952786, -21662.52841502767, -66972.55426318101, -64942.85940442794, -79916.06949759359, -58343.79742667645, -60213.49849861843, -56097.089481006806, -55723.99416255882, 0.082, 0.9520000000000001, 0.159, 192.0, 0.0, 0.0, 0.0, 0.0, 0.0, 0.0, 0.0, 0.0, 0.0, 1.6581651641926205E9, 0.0, 2022-07-18 13:26:04.192
92.0, -29013.056041366584, -38286.32542923992, -63786.268387588076, -59625.826433399496, -27509.454191858076, -46908.35439066344, -61338.21592786502, -38168.9564191051, -21585.54900712359, -66862.06959033842, -64846.67984803675, -79817.7441737347, -58255.12805642225, -60113.720311369936, -56007.05665434083, -55625.15474857745, 0.082, 0.9520000000000001, 0.159, 192.0, 0.0, 0.0, 0.0, 0.0, 0.0, 0.0, 0.0, 0.0, 0.0, 1.6581651641926253E9, 0.0, 2022-07-18 13:26:04.192
94.0, -29037.352387589504, -38310.10768534037, -63812.419928600786, -59649.943965666775, -27547.16158475418, -46944.09483004747, -61380.460724885554, -38220.790114496966, -21649.363237543494, -66946.33566693493, -64925.290933286065, -79891.08024729256, -58332.68860968216, -60190.453850085, -56087.25471344647, -55701.35184542559, 0.082, 0.9520000000000001, 0.159, 192.0, 0.0, 0.0, 0.0, 0.0, 0.0, 0.0, 0.0, 0.0, 0.0, 1.65816516419263E9, 0.0, 2022-07-18 13:26:04.192
96.0, -29020.633282736933, -38303.22334804814, -63797.15368713781, -59636.35410503794, -27521.09945071929, -46923.575928637496, -61338.41709356512, -38185.29554430194, -21610.851181847, -66881.85088418137, -64873.83721754995, -79835.53616232112, -58280.94432126812, -60132.04874182329, -56026.70383771704, -55642.34324006358, 0.08, 0.9490000000000001, 0.1615, 192.0, 1.0, 56.0, 14.5, 72.0, 2.5, 16.0, 0.0, 0.0, 0.0, 1.6581651641926348E9, 0.0, 2022-07-18 13:26:04.192
98.0, -29030.579809019546, -38294.37205724383, -63814.83391700196, -59651.128608122905, -27534.26462820347, -46940.47384744571, -61356.65611704065, -38175.23725929705, -21642.52360374017, -66934.91392551827, -64923.27927628509, -79885.9616978123, -58322.38445548826, -60175.2546638554, -56068.59100682629, -55689.03603423072, 0.08, 0.9490000000000001, 0.1615, 192.0, 0.0, 0.0, 0.0, 0.0, 0.0, 0.0, 0.0, 0.0, 0.0, 1.6581651641926396E9, 0.0, 2022-07-18 13:26:04.192
100.0, -29031.809154964587, -38322.11057211287, -63797.935998193745, -59638.16459633882, -27509.431840113622, -46929.90147231835, -61339.06529415432, -38183.48505300105, -21604.436231188327, -66881.60501499237, -64877.63701410735, -79841.03469145713, -58266.572149583364, -60128.33835224371, -56020.19948008055, -55640.66685922943, 0.08, 0.9490000000000001, 0.1615, 192.0, 0.0, 0.0, 0.0, 0.0, 0.0, 0.0, 0.0, 0.0, 0.0, 1.6581651641926465E9, 0.0, 2022-07-18 13:26:04.192
102.0, -29038.08999515653, -38309.52653998453, -63823.90872525081, -59669.47939032071, -27544.34526495281, -46962.40090875637, -61380.751297563475, -38196.873747929785, -21655.62172599098, -66965.5581671665, -64942.61353523893, -79915.13072432646, -58326.608935190314, -60203.66373105809, -56091.88152454871, -55713.488842664825, 0.08, 0.9490000000000001, 0.1615, 192.0, 0.0, 0.0, 0.0, 0.0, 0.0, 0.0, 0.0, 0.0, 0.0, 1.6581651641926515E9, 0.0, 2022-07-18 13:26:04.192
104.0, -29012.4972477552, -38323.83165643593, -63764.40838151079, -59617.60099143994, -27498.881816730718, -46915.48459714468, -61327.397683548654, -38157.109994543796, -21583.64910884489, -66877.64875622377, -64860.202653432214, -79834.1950576538, -58260.93950998062, -60128.76303538836, -56017.98665737947, -55633.357838792544, 0.08, 0.9490000000000001, 0.1615, 192.0, 0.0, 0.0, 0.0, 0.0, 0.0, 0.0, 0.0, 0.0, 0.0, 1.658165164192656E9, 0.0, 2022-07-18 13:26:04.192
106.0, -29046.51660281618, -38312.20874931917, -63819.4160246153, -59674.061497934046, -27562.15960528369, -46968.25706580366, -61401.493716418, -38223.651137787245, -21639.729635683256, -66953.3988181828, -64923.189869307265, -79899.68566890784, -58325.02196133399, -60195.03595769835, -56078.895161020184, -55698.669636090955, 0.082, 0.9475, 0.16075, 192.0, 1.0, 80.0, 14.5, 72.0, 2.5, 0.0, 0.0, 0.0, 0.0, 1.6581651646727593E9, 0.0, 2022-07-18 13:26:04.672
108.0, -28983.93171834132, -38303.51392072605, -63736.60281140838, -59592.611741138906, -27479.301688587868, -46898.36316089191, -61302.14021231416, -38161.46858471258, -21586.264262946162, -66872.73137244361, -64857.22987141966, -79824.00266218217, -58256.46916108956, -60121.543421929295, -56012.75634917693, -55630.89914690246, 0.082, 0.9475, 0.16075, 192.0, 0.0, 0.0, 0.0, 0.0, 0.0, 0.0, 0.0, 0.0, 0.0, 1.6581651646728756E9, 0.0, 2022-07-18 13:26:04.672
110.0, -29045.868402226974, -38309.3924295178, -63832.49179512165, -59680.36468987045, -27565.378256485255, -46979.25412407567, -61402.87952457423, -38245.55584735344, -21625.536277954136, -66932.4999371171, -64907.811869122015, -79874.87523256245, -58307.02880704747, -60173.04184115432, -56056.744582264975, -55684.185705683914, 0.082, 0.9475, 0.16075, 192.0, 0.0, 0.0, 0.0, 0.0, 0.0, 0.0, 0.0, 0.0, 0.0, 1.6581651646728823E9, 0.0, 2022-07-18 13:26:04.672
112.0, -28993.386506245915, -38318.89192091131, -63752.74077090511, -59600.05487204253, -27485.269604357436, -46914.769341322106, -61304.93418037107, -38184.60264022382, -21615.61210341598, -66898.50293380057, -64885.54953164453, -79847.06966246005, -58284.27473119197, -60150.57833797674, -56037.83500645578, -55662.75038275128, 0.082, 0.9475, 0.16075, 192.0, 0.0, 0.0, 0.0, 0.0, 0.0, 0.0, 0.0, 0.0, 0.0, 1.6581651646728885E9, 0.0, 2022-07-18 13:26:04.672
114.0, -29025.64007349492, -38293.835615376905, -63830.18956544275, -59669.25587287616, -27548.525041165954, -46956.18712379779, -61376.01272773895, -38235.29639664846, -21601.262283475673, -66902.45919256916, -64880.78861007555, -79846.8461450155, -58276.093992721326, -60156.635660724125, -56036.58330876628, -55664.44911532988, 0.082, 0.9475, 0.16075, 192.0, 0.0, 0.0, 0.0, 0.0, 0.0, 0.0, 0.0, 0.0, 0.0, 1.6581651646728945E9, 0.0, 2022-07-18 13:26:04.672
116.0, -28998.080372581528, -38330.00073790559, -63763.78253266604, -59608.548534935544, -27496.803104496375, -46917.29508844556, -61320.66980846761, -38189.14004434825, -21614.98625457123, -66903.55442804747, -64892.433868936765, -79856.85972653147, -58290.19794347262, -60161.77656194885, -56058.1303904212, -55668.65124328748, 0.082, 0.9477500000000001, 0.160375, 192.0, 1.0, 72.0, 14.5, 80.0, 2.5, 0.0, 0.0, 0.0, 0.0, 1.6581651646729004E9, 0.0, 2022-07-18 13:26:04.672
118.0, -29044.057910926094, -38303.84919689289, -63829.742530553645, -59673.010965944646, -27559.678561649154, -46966.02189135813, -61392.4412599136, -38210.4189050697, -21609.197152757308, -66913.41154735227, -64893.216179992705, -79859.51958412166, -58291.1590684842, -60159.027297380846, -56054.218835141524, -55661.3869263395, 0.082, 0.9477500000000001, 0.160375, 192.0, 0.0, 0.0, 0.0, 0.0, 0.0, 0.0, 0.0, 0.0, 0.0, 1.6581651646729064E9, 0.0, 2022-07-18 13:26:04.672
120.0, -29014.575959989546, -38342.51771480057, -63762.977869865645, -59607.90033434634, -27513.321043648844, -46917.205681467734, -61340.45110231055, -38187.48601525855, -21639.170842071875, -66923.80510852399, -64915.23264828118, -79870.74015983823, -58308.951057070626, -60171.119591131166, -56074.558922595854, -55675.44617360189, 0.082, 0.9477500000000001, 0.160375, 192.0, 0.0, 0.0, 0.0, 0.0, 0.0, 0.0, 0.0, 0.0, 0.0, 1.6581651646729124E9, 0.0, 2022-07-18 13:26:04.672
122.0, -29042.068605669574, -38304.29623178199, -63811.45880358921, -59651.03920114508, -27551.475471434056, -46944.139533536385, -61373.46462887104, -38234.64819605925, -21615.99208307172, -66889.9422156742, -64886.89063631185, -79841.43702285731, -58283.38066141375, -60130.975858089434, -56044.629936770194, -55639.57162375112, 0.082, 0.9477500000000001, 0.160375, 192.0, 0.0, 0.0, 0.0, 0.0, 0.0, 0.0, 0.0, 0.0, 0.0, 1.6581651646729186E9, 0.0, 2022-07-18 13:26:04.672
124.0, -29016.520561757156, -38342.718880500666, -63759.558052963985, -59606.62628491239, -27518.283130917924, -46926.07932401649, -61328.76113996043, -38202.34992532134, -21640.266077550183, -66919.53592533302, -64912.483383713174, -79867.76737782567, -58311.25328674952, -60163.92232941656, -56072.547265594876, -55671.64637704449, 0.082, 0.9477500000000001, 0.160375, 192.0, 0.0, 0.0, 0.0, 0.0, 0.0, 0.0, 0.0, 0.0, 0.0, 1.6581651646729252E9, 0.0, 2022-07-18 13:26:04.672
126.0, -29047.544783061123, -38321.06004012347, -63830.502489865125, -59666.148980396865, -27578.31991652488, -46970.04520536008, -61409.02625429944, -38251.121431722815, -21615.545048182616, -66897.89943670029, -64890.489267169156, -79848.03078747164, -58291.82962081786, -60145.77271291885, -56060.56673056683, -55655.463714058846, 0.081, 0.9488750000000001, 0.16118749999999998, 192.0, 1.0, 64.0, 14.5, 88.0, 2.5, 8.0, 0.0, 0.0, 0.0, 1.6581651646729312E9, 0.0, 2022-07-18 13:26:04.672
