%OpenBCI Raw EEG Data
%Number of channels = 16
%Sample Rate = 125 Hz
%Board = OpenBCI_GUI$BoardCytonSerialDaisy
Sample Index, EXG Channel 0, EXG Channel 1, EXG Channel 2, EXG Channel 3, EXG Channel 4, EXG Channel 5, EXG Channel 6, EXG Channel 7, EXG Channel 8, EXG Channel 9, EXG Channel 10, EXG Channel 11, EXG Channel 12, EXG Channel 13, EXG Channel 14, EXG Channel 15, Accel Channel 0, Accel Channel 1, Accel Channel 2, Other, Other, Other, Other, Other, Other, Other, Analog Channel 0, Analog Channel 1, Analog Channel 2, Timestamp, Other, Timestamp (Formatted)
0.0, -6711.625362828418, -18107.14818324425, -26679.1986440657, -9565.18317045965, 1308.9628587916923, -11721.74653074104, 39809.328592935635, -13433.823100784195, 0.0, 0.0, 0.0, 0.0, 0.0, 0.0, 0.0, 0.0, 0.0, 0.0, 0.0, 192.0, 0.0, 0.0, 0.0, 0.0, 0.0, 0.0, 0.0, 0.0, 0.0, 1.6620646539767768E9, 0.0, 2022-09-01 16:37:33.976
62.0, -6767.772944900149, -18162.111122859853, -26749.09254897744, -9619.028522852484, 1267.4780210826423, -11797.608351422352, 40290.78516850295, -13491.065918334238, -19148.560660905918, -1267.5674280604635, -32977.83082459341, -23826.490202723766, 13015.24198236966, 25466.817673065387, 3064.17829563359, -20336.757044405585, 0.0, 0.0, 0.0, 192.0, 0.0, 0.0, 0.0, 0.0, 0.0, 0.0, 0.0, 0.0, 0.0, 1.6620646539767838E9, 0.0, 2022-09-01 16:37:33.976
64.0, -6714.3299239075095, -18109.115136756318, -26683.08784760092, -9564.154990214705, 1416.4523978772638, -11679.50173372051, 39765.80974648115, -13409.571458050188, -19053.43163650413, -1168.392737912266, -32867.63672442874, -23711.31166354557, 13067.410953928347, 25585.617194845345, 3125.489130674497, -20221.913781394218, 0.0, 0.0, 0.0, 192.0, 0.0, 0.0, 0.0, 0.0, 0.0, 0.0, 0.0, 0.0, 0.0, 1.6620646539767888E9, 0.0, 2022-09-01 16:37:33.976
66.0, -6805.972076174268, -18196.443402343204, -26763.44236891775, -9646.76703772152, 1242.0417358925029, -11784.398470449267, 40361.79666063746, -13503.784060929307, -19167.581995437384, -1310.8851088148485, -32998.39442949229, -23846.96440064483, 12992.063223369507, 25426.22690513455, 3053.0024234059365, -20346.390646265823, 0.0, 0.0, 0.0, 192.0, 0.0, 0.0, 0.0, 0.0, 0.0, 0.0, 0.0, 0.0, 0.0, 1.6620646539767935E9, 0.0, 2022-09-01 16:37:33.976
68.0, -6693.073414930513, -18083.47768586608, -26644.866364582347, -9527.162853141172, 1351.4088215123204, -11720.584240029364, 39732.349185031555, -13393.053518897716, -19054.884499893727, -1172.1254792363025, -32865.31214300539, -23706.93072163233, 13094.545971697089, 25602.515113653557, 3144.085782061313, -20217.46578424761, 0.049, 0.443, -0.187, 192.0, 1.5, 8.0, 13.5, 88.0, 122.0, 40.0, 0.0, 0.0, 0.0, 1.6620646539767983E9, 0.0, 2022-09-01 16:37:33.976
70.0, -6865.02538502519, -18250.780493114056, -26817.7794596886, -9692.521058621533, 1204.3790464853105, -11878.834590772938, 40410.88109146131, -13564.424343636554, -19164.631565169282, -1307.0629605129911, -32997.27684226952, -23841.555278486645, 12978.741583674144, 25438.229791907048, 3058.2774350973887, -20345.206003809693, 0.049, 0.443, -0.187, 192.0, 0.0, 0.0, 0.0, 0.0, 0.0, 0.0, 0.0, 0.0, 0.0, 1.662064653976803E9, 0.0, 2022-09-01 16:37:33.976
72.0, -6718.643810587384, -18103.370738431306, -26671.75551316208, -9544.373696371758, 1341.2164260407003, -11710.682417235663, 39727.610615207035, -13408.006835938317, -19130.50045138603, -1239.2701195800448, -32947.96889400112, -23783.552501625123, 12985.022423866085, 25527.10032786135, 3064.401813078143, -20294.53459912951, 0.049, 0.443, -0.187, 192.0, 0.0, 0.0, 0.0, 0.0, 0.0, 0.0, 0.0, 0.0, 0.0, 1.6620646539768076E9, 0.0, 2022-09-01 16:37:33.976
74.0, -6851.882559285469, -18236.587135384936, -26798.512255968126, -9678.126535192316, 1251.004785419081, -11805.923200359726, 40419.73238226562, -13528.885069952616, -19136.043684010947, -1275.4575938531868, -32967.05728376595, -23808.631158903976, 13016.963066692719, 25432.08306218184, 3083.6466650541624, -20311.432517937723, 0.049, 0.443, -0.187, 192.0, 0.0, 0.0, 0.0, 0.0, 0.0, 0.0, 0.0, 0.0, 0.0, 1.6620646539768124E9, 0.0, 2022-09-01 16:37:33.976
76.0, -6705.277467403111, -18082.7177265546, -26656.779844377023, -9521.306696093881, 1367.0773943754905, -11668.370564981768, 39725.934234372886, -13388.896094429028, -19123.79492804944, -1227.6025089743746, -32937.91060899623, -23767.101617706016, 12987.52581924508, 25527.189734839172, 3059.3279670867882, -20280.184779189203, 0.049, 0.443, -0.187, 192.0, 0.0, 0.0, 0.0, 0.0, 0.0, 0.0, 0.0, 0.0, 0.0, 1.6620646539768171E9, 0.0, 2022-09-01 16:37:33.976
78.0, -6873.451992684841, -18251.13812102534, -26805.955386871745, -9682.239256172092, 1197.3382469818887, -11857.689840518218, 40397.894727932784, -13555.975384232448, -19115.837707023347, -1251.585930774919, -32949.80173704645, -23780.736181823755, 12998.232304839172, 25461.207385207104, 3096.9012495161596, -20284.118686213336, 0.049, 0.443, -0.187, 192.0, 0.0, 0.0, 0.0, 0.0, 0.0, 0.0, 0.0, 0.0, 0.0, 1.6620646539768217E9, 0.0, 2022-09-01 16:37:33.976
80.0, -6732.2336712162105, -18102.81194481992, -26673.722466674146, -9535.03066718944, 1332.2086730252115, -11699.663007219197, 39763.37340633552, -13414.42178659699, -19159.98240232258, -1264.907570470282, -32978.546080415974, -23799.37753669948, 12966.023441079074, 25489.370583220792, 3029.3542777722214, -20317.422785451745, 0.10400000000000001, 0.888, -0.378, 192.0, 1.5, 32.0, 13.5, 96.0, 122.0, 24.0, 0.0, 0.0, 0.0, 1.6620646539768264E9, 0.0, 2022-09-01 16:37:33.976
82.0, -6875.798925852648, -18251.585155914447, -26810.895122396367, -9684.943817251184, 1224.361506028355, -11858.047468429502, 40371.8772973868, -13552.868491753161, -19106.91936098568, -1236.0738201229358, -32935.80954501743, -23761.84895775902, 13014.012636424619, 25450.32208565737, 3095.560144848841, -20271.825226762918, 0.10400000000000001, 0.888, -0.378, 192.0, 0.0, 0.0, 0.0, 0.0, 0.0, 0.0, 0.0, 0.0, 0.0, 1.6620646539768312E9, 0.0, 2022-09-01 16:37:33.976
84.0, -6759.972186085247, -18132.49506145657, -26697.817647196967, -9562.36685065828, 1316.4059896953095, -11738.309173382422, 39822.35965995308, -13437.622897341598, -19195.61108298434, -1287.5275358590527, -33012.811304665964, -23829.686502180877, 12886.473582562636, 25474.551376646923, 3005.4826146939536, -20345.02718985405, 0.10400000000000001, 0.888, -0.378, 192.0, 0.0, 0.0, 0.0, 0.0, 0.0, 0.0, 0.0, 0.0, 0.0, 1.662064653976836E9, 0.0, 2022-09-01 16:37:33.976
86.0, -6867.618187382006, -18248.590022157434, -26785.145912783853, -9679.847619515374, 1212.2468605335785, -11884.02019548657, 40319.32834617238, -13551.259166152378, -19103.25367489501, -1249.1272388848352, -32929.12637342529, -23754.204661155305, 13003.864944441908, 25448.80216703441, 3112.502767145964, -20263.935060970194, 0.10400000000000001, 0.888, -0.378, 192.0, 0.0, 0.0, 0.0, 0.0, 0.0, 0.0, 0.0, 0.0, 0.0, 1.6620646539768407E9, 0.0, 2022-09-01 16:37:33.976
88.0, -6764.464886720763, -18140.698151671666, -26694.978975651145, -9575.777897331465, 1301.5644313769856, -11740.812568761417, 39890.71129449741, -13439.321629920201, -19193.979405639104, -1317.2106524957005, -33010.48672324261, -23830.446461492356, 12931.311181939982, 25422.672977766157, 3009.818853118283, -20345.206003809693, 0.10400000000000001, 0.888, -0.378, 192.0, 0.0, 0.0, 0.0, 0.0, 0.0, 0.0, 0.0, 0.0, 0.0, 1.6620646539768455E9, 0.0, 2022-09-01 16:37:33.976
90.0, -6862.991376279757, -18246.51130992309, -26768.270345720095, -9675.399622368768, 1251.4071168192766, -11819.20013656618, 40250.97671162805, -13523.051264649781, -19085.416982819675, -1221.321668782433, -32901.432562045164, -23730.17653586585, 13029.7259127767, 25475.780722591964, 3127.813712097849, -20238.744644969065, 0.098, 0.888, -0.372, 192.0, 1.5, 8.0, 13.5, 96.0, 122.0, 48.0, 0.0, 0.0, 0.0, 1.6620646539768503E9, 0.0, 2022-09-01 16:37:33.976
92.0, -6783.910904396881, -18160.322983303427, -26705.640757756326, -9594.106327784817, 1299.5304226315527, -11748.009830476027, 39977.81604263974, -13449.335211436179, -19214.163030882246, -1337.7966091390383, -33028.92691241824, -23850.406569290946, 12893.223809388139, 25386.68666919311, 3004.2085652600013, -20356.65009697081, 0.098, 0.888, -0.372, 192.0, 0.0, 0.0, 0.0, 0.0, 0.0, 0.0, 0.0, 0.0, 0.0, 1.6620646539768577E9, 0.0, 2022-09-01 16:37:33.976
94.0, -6838.49386435674, -18221.946742766708, -26745.315104164496, -9662.659128029243, 1250.937730185715, -11808.225430038623, 40170.86805950023, -13514.95993315696, -19071.044811134914, -1202.9261830957155, -32887.4627217606, -23718.12894560444, 12989.716290201699, 25476.80890283691, 3131.658212144162, -20225.020673873507, 0.098, 0.888, -0.372, 192.0, 0.0, 0.0, 0.0, 0.0, 0.0, 0.0, 0.0, 0.0, 0.0, 1.6620646539768624E9, 0.0, 2022-09-01 16:37:33.976
96.0, -6762.9896715867135, -18142.329829016904, -26688.385211036828, -9585.791478847443, 1280.0620532109801, -11756.749362558052, 40069.90522979561, -13444.95426952294, -19189.106725347847, -1329.481760201664, -33007.46923774114, -23834.492127238766, 12914.100338709395, 25432.17246915966, 3022.5816992022633, -20347.17295732176, 0.098, 0.888, -0.372, 192.0, 0.0, 0.0, 0.0, 0.0, 0.0, 0.0, 0.0, 0.0, 0.0, 1.6620646539768672E9, 0.0, 2022-09-01 16:37:33.976
98.0, -6817.036189679646, -18199.438536100213, -26725.80203125501, -9637.781636450487, 1284.4429951242203, -11793.585037420396, 40091.94404982854, -13492.407023001555, -19050.19063355811, -1181.42380492971, -32861.69116040363, -23684.891901599396, 13040.43239837079, 25552.82718572941, 3153.786439154916, -20203.67475791869, 0.098, 0.888, -0.372, 192.0, 0.0, 0.0, 0.0, 0.0, 0.0, 0.0, 0.0, 0.0, 0.0, 1.662064653976872E9, 0.0, 2022-09-01 16:37:33.976
100.0, -6817.2820588686545, -18188.88851271731, -26740.755348295614, -9626.114025844816, 1263.7899832475166, -11789.941703074182, 40176.65716131415, -13483.421621730522, -19205.356443566852, -1338.1318853058679, -33020.81322918096, -23834.6262377055, 12878.337547580904, 25409.060765392875, 3007.986010072948, -20353.632611469344, 0.096, 0.882, -0.382, 192.0, 1.5, 0.0, 13.5, 72.0, 122.0, 8.0, 0.0, 0.0, 0.0, 1.6620646539768767E9, 0.0, 2022-09-01 16:37:33.976
102.0, -6835.521082344185, -18210.88262926133, -26738.319008149985, -9647.616404010821, 1280.6431985668182, -11784.62198789382, 40019.122066393145, -13494.061052091249, -19099.856209737805, -1222.3051455384668, -32907.80280921493, -23715.714957203265, 12967.073973068473, 25489.32587973188, 3098.3764646502095, -20237.67176123521, 0.096, 0.882, -0.382, 192.0, 0.0, 0.0, 0.0, 0.0, 0.0, 0.0, 0.0, 0.0, 0.0, 1.6620646539768815E9, 0.0, 2022-09-01 16:37:33.976
104.0, -6858.83395181107, -18230.28394344854, -26769.991430043156, -9665.788372252986, 1197.6288196598077, -11840.72486647664, 40271.94264792713, -13525.174680373035, -19229.921010723236, -1363.0540803735353, -33051.43511908473, -23859.503729284257, 12847.581547210402, 25369.27466026243, 2989.7469865974176, -20378.688917003743, 0.096, 0.882, -0.382, 192.0, 0.0, 0.0, 0.0, 0.0, 0.0, 0.0, 0.0, 0.0, 0.0, 1.6620646539768865E9, 0.0, 2022-09-01 16:37:33.976
106.0, -6809.704817498305, -18185.22282662664, -26706.244254856618, -9629.913822402219, 1263.7229280141507, -11762.873740538806, 39938.49932414285, -13470.055278546248, -19091.720174756072, -1213.7667791565393, -32901.11963762279, -23712.78687867962, 12965.486999212146, 25512.638749198766, 3101.170432707123, -20232.642618732767, 0.096, 0.882, -0.382, 192.0, 0.0, 0.0, 0.0, 0.0, 0.0, 0.0, 0.0, 0.0, 0.0, 1.6620646539768908E9, 0.0, 2022-09-01 16:37:33.976
108.0, -6862.723155346293, -18235.93893479573, -26767.0186480306, -9679.489991604089, 1213.2079855451568, -11818.462528999155, 40349.48084944259, -13526.471081551443, -19216.912295450245, -1356.9073506483257, -33034.17957236523, -23853.71462747033, 12872.235521344606, 25361.138625280695, 3008.4330449620543, -20363.892062174327, 0.096, 0.882, -0.382, 192.0, 0.0, 0.0, 0.0, 0.0, 0.0, 0.0, 0.0, 0.0, 0.0, 1.6620646539768958E9, 0.0, 2022-09-01 16:37:33.976
110.0, -6790.616427733473, -18169.442495041192, -26687.22292032515, -9608.433795980669, 1300.2456784541225, -11782.252702981557, 39873.299285566725, -13465.607281399642, -19099.587988804342, -1221.5451862269863, -32898.728000966075, -23721.660521228376, 12957.596833419424, 25496.679603657678, 3098.04118848338, -20227.166441341215, 0.096, 0.886, -0.38, 192.0, 1.5, 0.0, 13.5, 88.0, 122.0, 16.0, 0.0, 0.0, 0.0, 1.6620646539769003E9, 0.0, 2022-09-01 16:37:33.976
112.0, -6880.179867765888, -18255.09437979393, -26782.888386593866, -9690.710567320653, 1218.2147763031455, -11881.807372785493, 40419.79943749898, -13554.343706887212, -19202.920103421224, -1344.7032981757282, -33020.76852569205, -23842.87403140951, 12859.897358405276, 25383.22214880254, 3017.731370655462, -20347.619992210864, 0.096, 0.886, -0.38, 192.0, 0.0, 0.0, 0.0, 0.0, 0.0, 0.0, 0.0, 0.0, 0.0, 1.6620646539769053E9, 0.0, 2022-09-01 16:37:33.976
114.0, -6737.955717796769, -18114.05487228094, -26638.339655201395, -9550.408667374692, 1344.5915394534516, -11725.993362187548, 39824.013689042775, -13412.074853429182, -19095.16234340219, -1197.2711917485228, -32894.97290789758, -23709.03178561113, 12950.220757749172, 25523.747566193055, 3097.303580916355, -20222.025540116494, 0.096, 0.886, -0.38, 192.0, 0.0, 0.0, 0.0, 0.0, 0.0, 0.0, 0.0, 0.0, 0.0, 1.66206465397691E9, 0.0, 2022-09-01 16:37:33.976
116.0, -6865.807696081126, -18240.99042904263, -26764.7164183517, -9682.73099455011, 1218.7735699145283, -11807.353712004866, 40459.22791471815, -13535.747055500397, -19150.527614417984, -1292.1990504502119, -32965.89499305427, -23790.190969728348, 12908.445347362203, 25404.925692668643, 3075.0635951833247, -20284.386907146803, 0.096, 0.886, -0.38, 192.0, 0.0, 0.0, 0.0, 0.0, 0.0, 0.0, 0.0, 0.0, 0.0, 1.662064653976915E9, 0.0, 2022-09-01 16:37:33.976
118.0, -6734.044162517091, -18111.663235624223, -26630.628303364316, -9551.995641231018, 1334.287385259555, -11718.818452217396, 39802.91364227696, -13407.872725471583, -19103.79011676194, -1229.7706281865392, -32904.83002720237, -23725.661483485877, 12946.532719914047, 25508.213103796614, 3086.4182813666202, -20230.56390649842, 0.096, 0.886, -0.38, 192.0, 0.0, 0.0, 0.0, 0.0, 0.0, 0.0, 0.0, 0.0, 0.0, 1.6620646539769197E9, 0.0, 2022-09-01 16:37:33.976
120.0, -6863.840742569058, -18244.678466877755, -26759.77668282708, -9682.149849194271, 1208.134139553802, -11844.032924656025, 40486.98878133164, -13543.279593381834, -19121.291532670442, -1272.5071635850863, -32941.173963686706, -23761.826606014565, 12931.065312750974, 25420.616617276268, 3101.6398193406844, -20268.49481683908, 0.1, 0.888, -0.384, 192.0, 1.5, 16.0, 13.5, 96.0, 122.0, 0.0, 0.0, 0.0, 0.0, 1.662064653976925E9, 0.0, 2022-09-01 16:37:33.976
122.0, -6748.52809292413, -18129.09759629936, -26652.622419908337, -9564.13263847025, 1334.0191643260914, -11763.209016705636, 39809.954441780385, -13423.742464034853, -19127.751186818026, -1251.4741720526424, -32932.45678334913, -23742.827623227553, 12908.490050851113, 25480.51929241649, 3064.4912200559643, -20261.498720824566, 0.1, 0.888, -0.384, 192.0, 0.0, 0.0, 0.0, 0.0, 0.0, 0.0, 0.0, 0.0, 0.0, 1.662064653976948E9, 0.0, 2022-09-01 16:37:33.976
124.0, -6890.439318470874, -18275.345060270436, -26791.180883786787, -9715.163375754759, 1232.1399130988018, -11807.398415493777, 40498.67874368176, -13558.970517989459, -19135.2166694661, -1294.9930185071253, -32958.630676106295, -23776.66816433289, 12915.195574187706, 25385.949061626085, 3081.813822008827, -20277.189645432194, 0.1, 0.888, -0.384, 192.0, 0.0, 0.0, 0.0, 0.0, 0.0, 0.0, 0.0, 0.0, 0.0, 1.662064653976954E9, 0.0, 2022-09-01 16:37:33.976
126.0, -6768.108221066978, -18149.549442475967, -26662.457187468674, -9576.783725831954, 1327.0677718004908, -11775.882455811794, 39837.89412234952, -13432.660810072519, -19148.40419869473, -1283.168945690268, -32961.04466450747, -23772.33192590856, 12860.59026248339, 25450.120919957273, 3045.3581268022212, -20273.054572707963, 0.1, 0.888, -0.384, 192.0, 0.0, 0.0, 0.0, 0.0, 0.0, 0.0, 0.0, 0.0, 0.0, 1.6620646539769588E9, 0.0, 2022-09-01 16:37:33.976
128.0, -6917.46257751734, -18295.52868551358, -26797.573482701002, -9732.620088174353, 1191.4373864456877, -11928.477815208176, 40493.96252560169, -13583.177457234557, -19134.680227599172, -1291.1485184608125, -32965.15738548725, -23781.3620306685, 12926.282039437538, 25407.31732932536, 3081.3444353752657, -20275.62502332032, 0.1, 0.888, -0.384, 192.0, 0.0, 0.0, 0.0, 0.0, 0.0, 0.0, 0.0, 0.0, 0.0, 1.6620646539769635E9, 0.0, 2022-09-01 16:37:33.976
130.0, -6784.514401497174, -18156.947869890675, -26680.696210944203, -9608.14322330275, 1288.3098469149884, -11755.967051502115, 39894.488739310356, -13442.674391588496, -19178.690812431672, -1307.7335128466502, -32995.91338585775, -23802.99851930124, 12851.582509467902, 25427.769175501966, 3022.7605131579057, -20300.614273621355, 0.1, 0.884, -0.382, 192.0, 1.5, 16.0, 13.5, 80.0, 122.0, 8.0, 0.0, 0.0, 0.0, 1.6620646539769683E9, 0.0, 2022-09-01 16:37:33.976
132.0, -6899.357664508541, -18276.70851668221, -26782.754276127136, -9727.859166605374, 1192.979656813104, -11869.089230190424, 40453.9976065156, -13565.318413414767, -19117.514087857497, -1279.458556110687, -32947.030120733994, -23762.832434515054, 12898.07413793494, 25409.5972072598, 3094.3755023927097, -20246.411293317236, 0.1, 0.884, -0.382, 192.0, 0.0, 0.0, 0.0, 0.0, 0.0, 0.0, 0.0, 0.0, 0.0, 1.6620646539769728E9, 0.0, 2022-09-01 16:37:33.976
134.0, -6796.338474314031, -18171.320041575436, -26688.318155803463, -9617.709769929621, 1281.4031578782985, -11724.428740075677, 39969.277676257814, -13453.80556032724, -19200.930798164703, -1334.6673649152954, -33023.07075537095, -23826.37844400149, 12832.471767958614, 25387.31251803786, 3000.274658235867, -20320.932009331227, 0.1, 0.884, -0.382, 192.0, 0.0, 0.0, 0.0, 0.0, 0.0, 0.0, 0.0, 0.0, 0.0, 1.6620646539769776E9, 0.0, 2022-09-01 16:37:33.976
136.0, -6895.960199351335, -18276.932034126763, -26761.564822383505, -9712.928201309229, 1210.682238421707, -11822.843470912394, 40396.30775407646, -13551.996773719404, -19095.676433524663, -1263.1864861472234, -32921.97381519959, -23735.898582446407, 12919.12948121184, 25411.65356774969, 3121.845796328282, -20222.38316802778, 0.1, 0.884, -0.382, 192.0, 0.0, 0.0, 0.0, 0.0, 0.0, 0.0, 0.0, 0.0, 0.0, 1.6620646539769824E9, 0.0, 2022-09-01 16:37:33.976
138.0, -6810.822404721071, -18183.50174230358, -26682.774923178546, -9613.105310571827, 1235.4032677892767, -11738.957373971627, 40051.24152317542, -13468.04362154527, -19214.900638449268, -1343.5410074640522, -33029.731575218626, -23829.217115547315, 12802.498078644048, 25423.298826610902, 3005.884946094149, -20323.7483291326, 0.1, 0.884, -0.382, 192.0, 0.0, 0.0, 0.0, 0.0, 0.0, 0.0, 0.0, 0.0, 0.0, 1.662064653976987E9, 0.0, 2022-09-01 16:37:33.976
140.0, -6890.46167021533, -18269.66771717879, -26747.326761165474, -9714.06814027645, 1195.5054039365536, -11800.58113343491, 40331.10771550032, -13553.695506298007, -19091.07197416687, -1236.6102619898631, -32904.718268480094, -23715.156163591884, 12950.265461238083, 25442.521326842467, 3133.4687034450417, -20204.591179441355, 0.099, 0.884, -0.38, 192.0, 1.5, 8.0, 13.5, 80.0, 122.0, 24.0, 0.0, 0.0, 0.0, 1.6620646539769917E9, 0.0, 2022-09-01 16:37:33.976
142.0, -6818.489053069241, -18190.631948784823, -26689.771019193056, -9635.971145149606, 1244.9027591827821, -11742.935984484671, 40150.483268556985, -13482.482848463398, -19226.74706301058, -1360.349519294443, -33036.079470643934, -23844.885688410486, 12805.649674612247, 25353.53903216589, 3000.2523064914117, -20335.281829271535, 0.099, 0.884, -0.38, 192.0, 0.0, 0.0, 0.0, 0.0, 0.0, 0.0, 0.0, 0.0, 0.0, 1.6620646539769967E9, 0.0, 2022-09-01 16:37:33.976
144.0, -6881.543324177662, -18256.457836205704, -26731.14409817983, -9687.737785308098, 1231.715229954151, -11824.139872090802, 40261.437328033135, -13535.635296778119, -19092.30132011191, -1223.1098083388579, -32895.777570697974, -23703.421497752846, 12965.665813167789, 25470.975097534072, 3132.172302266634, -20196.343385737346, 0.099, 0.884, -0.38, 192.0, 0.0, 0.0, 0.0, 0.0, 0.0, 0.0, 0.0, 0.0, 0.0, 1.6620646539770012E9, 0.0, 2022-09-01 16:37:33.977
146.0, -6864.578350136084, -18232.98850452763, -26731.032339457553, -9669.58816881039, 1197.1370812817909, -11764.818342306417, 40255.44706051911, -13513.931752912016, -19237.90058349378, -1364.9092751633257, -33044.751947492594, -23845.310371555137, 12738.952069157609, 25357.49529093448, 2989.367006941677, -20341.495614230113, 0.099, 0.884, -0.38, 192.0, 0.0, 0.0, 0.0, 0.0, 0.0, 0.0, 0.0, 0.0, 0.0, 1.662064653977006E9, 0.0, 2022-09-01 16:37:33.977
148.0, -6853.603643608528, -18232.295600449517, -26704.344356577916, -9685.189686440193, 1245.3721458163436, -11675.612530185286, 40185.26258292945, -13502.062976606248, -19108.97572147557, -1243.1816748597234, -32907.266367348, -23717.413689781868, 12954.445237451226, 25420.706024254087, 3099.7399210619833, -20212.011958600517, 0.099, 0.884, -0.38, 192.0, 0.0, 0.0, 0.0, 0.0, 0.0, 0.0, 0.0, 0.0, 0.0, 1.662064653977011E9, 0.0, 2022-09-01 16:37:33.977
150.0, -6851.435524396364, -18224.539545123524, -26720.750537008113, -9678.931197992706, 1211.6657151777406, -11780.889246569783, 40353.995901822556, -13514.736415712407, -19206.719899978627, -1347.4302109992757, -33011.31373778746, -23826.33374051258, 12844.497006475569, 25342.072587260318, 3022.2240712909784, -20314.897038328298, 0.0965, 0.888, -0.374, 192.0, 1.0, 120.0, 13.5, 112.0, 122.0, 64.0, 0.0, 0.0, 0.0, 1.6620646539770155E9, 0.0, 2022-09-01 16:37:33.977
152.0, -6850.78732380716, -18224.159565467784, -26700.253987342596, -9675.332567135401, 1212.7609506560507, -11860.349698108399, 40115.18986406206, -13523.900630939082, -19104.527724328964, -1222.4169042607432, -32900.471437033586, -23707.534218732624, 12898.543524568502, 25482.218024995094, 3105.976057765014, -20206.178153297682, 0.0965, 0.888, -0.374, 192.0, 0.0, 0.0, 0.0, 0.0, 0.0, 0.0, 0.0, 0.0, 0.0, 1.6620646539770205E9, 0.0, 2022-09-01 16:37:33.977
154.0, -6879.576370665595, -18250.42286520277, -26744.689255319747, -9716.97386705564, 1210.8163488884388, -11790.47814494111, 40454.10936523788, -13547.504073083886, -19236.939458482204, -1374.6099322569291, -33045.4001480818, -23852.7311507143, 12789.310549415417, 25313.641168313166, 2997.9947803014256, -20347.910564888785, 0.0965, 0.888, -0.374, 192.0, 0.0, 0.0, 0.0, 0.0, 0.0, 0.0, 0.0, 0.0, 0.0, 1.662064653977025E9, 0.0, 2022-09-01 16:37:33.977
156.0, -6818.354942602509, -18192.285977874515, -26669.296821271997, -9657.920558204718, 1251.6306342638295, -11777.84940932386, 40049.52043885236, -13485.500333964865, -19102.717233028085, -1226.976660129626, -32902.66190799021, -23710.08231760053, 12901.583361814424, 25437.447480851115, 3107.205403710056, -20213.12954582328, 0.0965, 0.888, -0.374, 192.0, 0.0, 0.0, 0.0, 0.0, 0.0, 0.0, 0.0, 0.0, 0.0, 1.6620646539770308E9, 0.0, 2022-09-01 16:37:33.977
158.0, -6891.556905693639, -18260.123522296373, -26752.15473796782, -9720.147814768294, 1138.8213799978948, -11817.81432840995, 40523.511531771604, -13552.153235930591, -19213.648940759773, -1348.994833111147, -33027.54110426201, -23830.51351672572, 12820.759453864033, 25358.612878157244, 3029.6224987056853, -20329.02334082405, 0.0965, 0.888, -0.374, 192.0, 0.0, 0.0, 0.0, 0.0, 0.0, 0.0, 0.0, 0.0, 0.0, 1.6620646539770355E9, 0.0, 2022-09-01 16:37:33.977
160.0, -6808.3637128309865, -18182.540617292, -26668.827434638435, -9648.733991233586, 1280.911419500282, -11756.011754991026, 39989.6401154566, -13477.18548502749, -19112.39553837723, -1220.0923228373913, -32911.20027437214, -23705.030823353627, 12928.047827249507, 25463.867242797285, 3099.3822931506984, -20214.068319090406, 0.09625, 0.887, -0.371, 192.0, 1.5, 0.0, 13.5, 88.0, 122.0, 64.0, 0.0, 0.0, 0.0, 1.6620646539770403E9, 0.0, 2022-09-01 16:37:33.977
162.0, -6892.808603383137, -18267.007859588608, -26769.566746898505, -9745.4499894917, 1199.0816830494027, -11823.894002901794, 40580.1285004769, -13564.916082014572, -19205.825830200414, -1343.608062697418, -33028.25636008458, -23826.087871323572, 12779.140505688252, 25325.86757253022, 3027.9014143826266, -20325.245896011103, 0.09625, 0.887, -0.371, 192.0, 0.0, 0.0, 0.0, 0.0, 0.0, 0.0, 0.0, 0.0, 0.0, 1.6620646539770455E9, 0.0, 2022-09-01 16:37:33.977
164.0, -6754.227787760233, -18132.45035796766, -26623.341634671884, -9614.669932683699, 1308.3146582024883, -11732.922402968694, 39945.80834457974, -13431.096187960648, -19107.947541230624, -1225.2779275510225, -32915.24594011855, -23717.659558970878, 12936.586193631434, 25442.476623353556, 3088.742862789972, -20218.784537170475, 0.09625, 0.887, -0.371, 192.0, 0.0, 0.0, 0.0, 0.0, 0.0, 0.0, 0.0, 0.0, 0.0, 1.6620646539770517E9, 0.0, 2022-09-01 16:37:33.977
166.0, -6902.93394362139, -18282.85524640742, -26774.640592889857, -9764.828951934453, 1131.6911735166518, -11829.839566926905, 40615.35484973846, -13584.4068031796, -19157.523710432495, -1304.4478064117202, -32980.580089161405, -23793.99076628575, 12842.30653551895, 25372.11333180825, 3067.888685213171, -20292.232369450616, 0.09625, 0.887, -0.371, 192.0, 0.0, 0.0, 0.0, 0.0, 0.0, 0.0, 0.0, 0.0, 0.0, 1.662064653977058E9, 0.0, 2022-09-01 16:37:33.977
168.0, -6772.042128091112, -18153.63981171129, -26647.436815194706, -9638.161616106227, 1239.9853754026146, -11682.675681433164, 39943.66257711203, -13456.264252217325, -19152.181643507676, -1256.39155583281, -32955.076748737905, -23758.27267864617, 12858.869178160332, 25422.136535899226, 3040.306632555322, -20268.338354627893, 0.09625, 0.887, -0.371, 192.0, 0.0, 0.0, 0.0, 0.0, 0.0, 0.0, 0.0, 0.0, 0.0, 1.6620646539770644E9, 0.0, 2022-09-01 16:37:33.977
170.0, -6886.751280635748, -18266.314955510494, -26759.642572360346, -9751.641422705821, 1129.008964182015, -11893.340872924433, 40632.1410098244, -13579.26590195488, -19152.338105718864, -1284.6888643132288, -32971.61703963483, -23780.870292290485, 12878.337547580904, 25363.463206704047, 3069.185086391579, -20284.163389702248, 0.095125, 0.8885000000000001, -0.3745, 192.0, 1.0, 120.0, 13.5, 104.0, 122.0, 24.0, 0.0, 0.0, 0.0, 1.6620646539770715E9, 0.0, 2022-09-01 16:37:33.977
172.0, -6771.393927501908, -18149.392980264784, -26643.257038981563, -9634.831206182385, 1251.0941923969021, -11762.739630072074, 39957.29714122977, -13458.18650224048, -19152.226346996587, -1242.3993638037878, -32952.86392603683, -23751.589507054032, 12837.433855227693, 25446.544640844422, 3048.0626878813136, -20257.140130655782, 0.095125, 0.8885000000000001, -0.3745, 192.0, 0.0, 0.0, 0.0, 0.0, 0.0, 0.0, 0.0, 0.0, 0.0, 1.6620646539770768E9, 0.0, 2022-09-01 16:37:33.977
174.0, -6909.818280913625, -18286.833856920464, -26766.750427097137, -9790.55580980251, 1119.531824532965, -11797.250723511068, 40637.41602151585, -13581.948111289516, -19159.848291855847, -1290.9920562496254, -32977.227327493114, -23790.436838917358, 12897.448289090193, 25338.02692151391, 3069.475659069498, -20283.559892601956, 0.095125, 0.8885000000000001, -0.3745, 192.0, 0.0, 0.0, 0.0, 0.0, 0.0, 0.0, 0.0, 0.0, 0.0, 1.6620646539770827E9, 0.0, 2022-09-01 16:37:33.977
176.0, -6772.131535068934, -18143.603878450856, -26647.45916693916, -9643.347220819858, 1302.547908133019, -11743.092446695859, 40006.42627554253, -13446.51889163481, -19171.739419906073, -1270.0261199505474, -32978.0319902935, -23783.954833025316, 12875.409469057258, 25383.26685229145, 3039.3678592881993, -20286.44326763669, 0.095125, 0.8885000000000001, -0.3745, 192.0, 0.0, 0.0, 0.0, 0.0, 0.0, 0.0, 0.0, 0.0, 0.0, 1.6620646539770887E9, 0.0, 2022-09-01 16:37:33.977
178.0, -6918.781330440203, -18294.81342969101, -26787.984584329675, -9792.880391225863, 1129.0536676709257, -11896.40306191481, 40620.42869572982, -13600.522410931875, -19150.326448717886, -1259.1631721452682, -32968.24192622208, -23769.5603095961, 12866.245253830582, 25367.195948028082, 3084.2278104100005, -20257.58716554489, 0.095125, 0.8885000000000001, -0.3745, 192.0, 0.0, 0.0, 0.0, 0.0, 0.0, 0.0, 0.0, 0.0, 0.0, 1.662064653977095E9, 0.0, 2022-09-01 16:37:33.977
180.0, -6769.829305390037, -18143.29095402848, -26654.56702167595, -9648.868101700318, 1242.8687504373493, -11729.591993044853, 40072.63214261915, -13454.543167894266, -19206.831658700903, -1281.6043235783964, -33012.02899361002, -23801.053917533627, 12762.66727002469, 25382.238672046504, 3010.891736852138, -20294.82517180743, 0.0975625, 0.8872500000000001, -0.37825, 192.0, 1.5, 16.0, 13.5, 88.0, 122.0, 8.0, 0.0, 0.0, 0.0, 1.6620646539771004E9, 0.0, 2022-09-01 16:37:33.977
182.0, -6870.278044972187, -18253.41799895978, -26742.85641227441, -9770.93097817075, 1139.0896009313585, -11792.623912408819, 40573.53473586258, -13563.194997691513, -19107.791079019436, -1230.8435119203941, -32932.65794904923, -23742.581754038543, 12965.33053700096, 25381.009326101463, 3098.242354183478, -20234.05077863345, 0.0975625, 0.8872500000000001, -0.37825, 192.0, 0.0, 0.0, 0.0, 0.0, 0.0, 0.0, 0.0, 0.0, 0.0, 1.6620646539771051E9, 0.0, 2022-09-01 16:37:33.977
0.0, -4724.175301095879, -9881.348595779968, -13258.38425855449, -5127.467826302985, -640.93627225593, -6954.789990757703, 21469.901081311833, -6961.942548983401, -9562.36685065828, -605.0840741496175, -16468.385335014504, -11867.077573189446, 6425.612440778308, 12728.871432408267, 1528.7475620207265, -10119.484081206809, 0.126, 0.886, -0.392, 192.0, 1.5, 120.0, 13.5, 88.0, 121.5, 96.0, 0.0, 0.0, 0.0, 1.6620646545526788E9, 0.0, 2022-09-01 16:37:34.552
2.0, -9292.514239849359, -19611.68880601988, -26355.321866908296, -10102.183830998401, -1132.8981677172385, -13717.578496644319, 42154.2501037419, -13770.373317047754, -18509.054900295127, -603.4076933154695, -32309.759534568733, -22292.82525692287, 10406.234610823944, 21981.73367759391, 1958.6610148741026, -20135.27841988545, 0.126, 0.886, -0.392, 192.0, 0.0, 0.0, 0.0, 0.0, 0.0, 0.0, 0.0, 0.0, 0.0, 1.6620646545527425E9, 0.0, 2022-09-01 16:37:34.552
4.0, -9451.01045978194, -19770.58735735266, -26495.19908370961, -10260.702402675439, -1327.6042136674182, -13911.65869374975, 42810.318506994074, -13934.077493438423, -18479.885873780953, -605.3299433386259, -32290.872310503997, -22286.65617545321, 10443.53967231985, 21965.57336635272, 2012.5734225003032, -20133.110300673285, 0.126, 0.886, -0.392, 192.0, 0.0, 0.0, 0.0, 0.0, 0.0, 0.0, 0.0, 0.0, 0.0, 1.6620646545528047E9, 0.0, 2022-09-01 16:37:34.552
6.0, -9290.949617737488, -19608.112526907033, -26342.648427802138, -10100.19452574188, -1185.491822420576, -13766.640575723717, 42204.563880510796, -13784.343157332321, -18519.09083355556, -622.5854900581229, -32311.905302036444, -22305.923379173684, 10406.882811413147, 21957.459683115445, 1943.3053664333067, -20162.033457998452, 0.126, 0.886, -0.392, 192.0, 0.0, 0.0, 0.0, 0.0, 0.0, 0.0, 0.0, 0.0, 0.0, 1.6620646545528195E9, 0.0, 2022-09-01 16:37:34.552
8.0, -9434.269003184916, -19752.8624239996, -26463.437254838616, -10237.098960530635, -1257.0174046775585, -13904.975522157612, 42766.50908786167, -13904.014397146035, -18444.681876263843, -571.0423673441849, -32243.061929114097, -22246.534794155934, 10497.340321223775, 21977.755067080863, 2036.8474169787667, -20108.970416661552, 0.14, 0.886, -0.386, 192.0, 2.0, 48.0, 13.5, 88.0, 121.5, 120.0, 0.0, 0.0, 0.0, 1.6620646545528245E9, 0.0, 2022-09-01 16:37:34.552
10.0, -9316.832937816733, -19632.31946615213, -26350.180965683576, -10108.017636301236, -1155.2499121725455, -13763.757200688982, 42281.05155003686, -13769.211026336077, -18522.868278368507, -626.8993767379972, -32310.11716248002, -22306.437469296154, 10370.628281906638, 21976.436314158003, 1957.38696544015, -20163.97805976606, 0.14, 0.886, -0.386, 192.0, 0.0, 0.0, 0.0, 0.0, 0.0, 0.0, 0.0, 0.0, 0.0, 1.662064654552829E9, 0.0, 2022-09-01 16:37:34.552
12.0, -9453.759724349944, -19776.376459166582, -26474.881347999737, -10249.280661258777, -1200.9145260947378, -13857.992155312557, 42718.87752042741, -13896.951245898157, -18458.763475270687, -585.168669839939, -32254.215449597294, -22262.78451237494, 10479.302463448343, 21974.648174601578, 2022.743466227468, -20107.51755327196, 0.14, 0.886, -0.386, 192.0, 0.0, 0.0, 0.0, 0.0, 0.0, 0.0, 0.0, 0.0, 0.0, 1.6620646545528336E9, 0.0, 2022-09-01 16:37:34.552
14.0, -9335.787217114832, -19654.760617585256, -26359.45693963253, -10130.145863311991, -1243.7404684711062, -13791.696881258116, 42391.357408923795, -13802.604532552306, -18543.320124545113, -667.5348481577454, -32339.48735469429, -22348.74932155005, 10389.269636782365, 21934.95147644895, 1935.6610698295917, -20183.13350476426, 0.14, 0.886, -0.386, 192.0, 0.0, 0.0, 0.0, 0.0, 0.0, 0.0, 0.0, 0.0, 0.0, 1.6620646545528383E9, 0.0, 2022-09-01 16:37:34.552
16.0, -9420.43327336708, -19740.501909315815, -26425.171068331132, -10230.974582549881, -1233.7715904440392, -13789.551113790407, 42642.03222299006, -13869.972690340603, -18415.579904983035, -558.391279982481, -32205.33218447354, -22230.083910236826, 10490.634797887184, 21946.06029344324, 2083.137879745708, -20056.01913404693, 0.14, 0.886, -0.386, 192.0, 0.0, 0.0, 0.0, 0.0, 0.0, 0.0, 0.0, 0.0, 0.0, 1.6620646545528429E9, 0.0, 2022-09-01 16:37:34.552
18.0, -9364.71037444, -19670.205673003875, -26415.425707748618, -10155.2468723353, -1175.4335374156879, -13885.484800992584, 42499.785721276494, -13835.103968990323, -18573.316165604134, -689.774833890776, -32360.69916018238, -22371.57045263892, 10348.008316517868, 21949.63657255609, 1910.7612265063797, -20211.47551673359, 0.15, 0.884, -0.384, 192.0, 2.0, 88.0, 13.5, 80.0, 122.0, 0.0, 0.0, 0.0, 0.0, 1.6620646545528476E9, 0.0, 2022-09-01 16:37:34.552
20.0, -9394.661712010111, -19703.12979258654, -26397.61136741774, -10196.73171004435, -1243.941634171204, -13805.242038398033, 42572.85357390089, -13858.1709692682, -18398.436116985813, -511.2738026706937, -32179.94060277231, -22187.6379475162, 10506.0798533058, 22012.914361109062, 2068.832763294311, -20054.655677635157, 0.15, 0.884, -0.384, 192.0, 0.0, 0.0, 0.0, 0.0, 0.0, 0.0, 0.0, 0.0, 0.0, 1.6620646545528522E9, 0.0, 2022-09-01 16:37:34.552
22.0, -9415.225316908995, -19717.211391593384, -26409.50249546796, -10176.659843523485, -1198.8358138603944, -13869.123324051301, 42617.33354536695, -13866.463466461119, -18573.763200493242, -697.6649996834993, -32352.808994389656, -22367.345972936866, 10342.755656570871, 21871.51722568479, 1924.7757702798572, -20225.95944714063, 0.15, 0.884, -0.384, 192.0, 0.0, 0.0, 0.0, 0.0, 0.0, 0.0, 0.0, 0.0, 0.0, 1.6620646545528567E9, 0.0, 2022-09-01 16:37:34.552
24.0, -9405.614066793212, -19715.020920636765, -26380.624041631705, -10181.733689514838, -1245.5733115164414, -13843.664687116705, 42502.64674456677, -13856.248719245044, -18440.94913493981, -559.5759224386123, -32211.367155476473, -22229.97215151455, 10464.93029176358, 22002.5431516818, 2041.8318559923002, -20076.850959879277, 0.15, 0.884, -0.384, 192.0, 0.0, 0.0, 0.0, 0.0, 0.0, 0.0, 0.0, 0.0, 0.0, 1.6620646545528617E9, 0.0, 2022-09-01 16:37:34.552
26.0, -9424.121311202207, -19728.90135394351, -26414.397527503676, -10193.691872798428, -1299.2845534425442, -13885.060117847934, 42725.091305385984, -13869.346841495853, -18558.273441585712, -696.9720956053849, -32346.72931989781, -22372.82215032842, 10388.286160026331, 21899.09927834264, 1954.9282735500663, -20212.28017953398, 0.15, 0.884, -0.384, 192.0, 0.0, 0.0, 0.0, 0.0, 0.0, 0.0, 0.0, 0.0, 0.0, 1.6620646545528672E9, 0.0, 2022-09-01 16:37:34.552
28.0, -9392.471241053492, -19698.637091951026, -26385.921405067613, -10170.893093454015, -1097.6718184556746, -13701.731109825507, 42424.281528506464, -13818.45191937112, -18439.49627155021, -551.0822595455957, -32214.451696211305, -22229.72628232554, 10482.185838483078, 22000.576198169732, 2051.487809596993, -20064.758666128953, 0.156, 0.876, -0.384, 192.0, 2.0, 112.0, 13.5, 48.0, 122.0, 0.0, 0.0, 0.0, 0.0, 1.662064654552872E9, 0.0, 2022-09-01 16:37:34.552
30.0, -9449.244671969971, -19748.81675825319, -26443.141870873198, -10212.713207329894, -1317.2777077290664, -13905.824888446914, 42818.32043150907, -13896.168934842222, -18560.061581142138, -698.0226275947842, -32347.01989257573, -22363.18854846818, 10307.328141609209, 21853.054684764706, 1961.5443899088373, -20180.160722751705, 0.156, 0.876, -0.384, 192.0, 0.0, 0.0, 0.0, 0.0, 0.0, 0.0, 0.0, 0.0, 0.0, 1.6620646545528767E9, 0.0, 2022-09-01 16:37:34.552
32.0, -9372.198208832528, -19672.105571282576, -26357.154709953633, -10140.450017505887, -1175.8135170714281, -13860.339088480365, 42357.67333002965, -13817.580201337363, -18437.79753897161, -548.9588438223415, -32204.90750132889, -22220.67382582114, 10515.646399932672, 22045.324390569258, 2042.256539136951, -20070.167788287137, 0.156, 0.876, -0.384, 192.0, 0.0, 0.0, 0.0, 0.0, 0.0, 0.0, 0.0, 0.0, 0.0, 1.6620646545528812E9, 0.0, 2022-09-01 16:37:34.552
34.0, -9481.900570619175, -19779.63981385706, -26470.075722941845, -10252.70047816044, -1287.549887603508, -13883.517847480518, 42887.230859664785, -13912.508060039052, -18538.179223320392, -675.3803104615582, -32319.5272468957, -22340.233306912578, 10379.323110499754, 21882.04489732324, 1974.3742912261835, -20187.64855714423, 0.156, 0.876, -0.384, 192.0, 0.0, 0.0, 0.0, 0.0, 0.0, 0.0, 0.0, 0.0, 0.0, 1.662064654552886E9, 0.0, 2022-09-01 16:37:34.552
36.0, -9377.294406568339, -19677.22412076284, -26364.21786120151, -10145.702677452884, -1156.009871484026, -13771.826180437349, 42292.428587964605, -13807.253695399011, -18479.75176331422, -589.7284257088215, -32243.553667492113, -22262.315125741377, 10382.966444845968, 21959.940726749985, 2003.319800295806, -20114.357187075282, 0.156, 0.876, -0.384, 192.0, 0.0, 0.0, 0.0, 0.0, 0.0, 0.0, 0.0, 0.0, 0.0, 1.662064654552892E9, 0.0, 2022-09-01 16:37:34.552
38.0, -9499.670207461144, -19795.464848931417, -26459.682161770128, -10264.770420166305, -1263.0747274249468, -13894.760774941538, 42933.34250847608, -13913.335074583898, -18537.66513319792, -671.4464034374241, -32305.669165333413, -22342.84846101385, 10366.38145046013, 21860.162539501496, 1980.901000607133, -20184.631071642765, 0.14400000000000002, 0.884, -0.372, 192.0, 2.0, 64.0, 13.5, 80.0, 122.0, 48.0, 0.0, 0.0, 0.0, 1.6620646545528967E9, 0.0, 2022-09-01 16:37:34.552
40.0, -9374.656900722612, -19669.669231136948, -26329.17032589559, -10149.547177499197, -1190.5656684119308, -13824.486890374052, 42249.20031418804, -13789.752279490505, -18492.224036720283, -601.7536642257768, -32230.500248730215, -22278.49778872702, 10442.757361263915, 21987.723945107933, 1991.5627827123146, -20134.630219296243, 0.14400000000000002, 0.884, -0.372, 192.0, 0.0, 0.0, 0.0, 0.0, 0.0, 0.0, 0.0, 0.0, 0.0, 1.6620646545529013E9, 0.0, 2022-09-01 16:37:34.552
42.0, -9512.611867500767, -19804.047918802255, -26473.070856698854, -10287.502144277352, -1358.516676249108, -13951.33304015792, 42956.96830236534, -13918.967714186636, -18524.14232780246, -665.3220254566701, -32286.401961612937, -22340.590934823864, 10413.722445216472, 21882.871911868086, 1987.2935995213509, -20189.727269378578, 0.14400000000000002, 0.884, -0.372, 192.0, 0.0, 0.0, 0.0, 0.0, 0.0, 0.0, 0.0, 0.0, 0.0, 1.662064654552906E9, 0.0, 2022-09-01 16:37:34.552
44.0, -9355.94849061352, -19640.723722067323, -26340.770881267894, -10131.352857512577, -1124.0021734240263, -13792.38978533623, 42233.62114830269, -13753.67656393964, -18506.015063049206, -617.489292322313, -32254.640132741944, -22294.814562179396, 10349.975270029936, 21939.5782875512, 1961.6561486311136, -20153.450388127614, 0.14400000000000002, 0.884, -0.372, 192.0, 0.0, 0.0, 0.0, 0.0, 0.0, 0.0, 0.0, 0.0, 0.0, 1.6620646545529108E9, 0.0, 2022-09-01 16:37:34.552
46.0, -9528.50395780849, -19809.367633982616, -26507.53724664894, -10306.009388686347, -1301.095044743424, -13861.41197221422, 42967.71949144835, -13921.985199688103, -18508.831382850574, -651.7992200612092, -32278.467092331302, -22317.233361868068, 10367.00729930488, 21917.740633218364, 1987.6288756881806, -20177.277347716972, 0.14400000000000002, 0.884, -0.372, 192.0, 0.0, 0.0, 0.0, 0.0, 0.0, 0.0, 0.0, 0.0, 0.0, 1.662064654552915E9, 0.0, 2022-09-01 16:37:34.552
48.0, -9412.319590129804, -19688.958786601877, -26393.31983248232, -10178.179762146445, -1258.9843581896257, -13805.666721542684, 42254.98941600197, -13802.381015107754, -18558.51931077472, -681.0800052976615, -32309.15603746844, -22344.23426917008, 10323.0861214502, 21862.196548246928, 1903.2733921138517, -20217.823412158898, 0.146, 0.892, -0.372, 192.0, 2.0, 72.0, 13.5, 112.0, 122.0, 48.0, 0.0, 0.0, 0.0, 1.66206465455292E9, 0.0, 2022-09-01 16:37:34.552
50.0, -9526.291135107414, -19796.180104753985, -26502.39634542422, -10275.990995882868, -1279.0562247104913, -14017.136575834344, 42950.59805519558, -13916.620781018828, -18514.553429431133, -666.0596330236951, -32285.798464512645, -22322.59778053734, 10396.891581641625, 21940.874688729607, 1959.2421602299405, -20189.012013556006, 0.146, 0.892, -0.372, 192.0, 0.0, 0.0, 0.0, 0.0, 0.0, 0.0, 0.0, 0.0, 0.0, 1.6620646545529246E9, 0.0, 2022-09-01 16:37:34.552
52.0, -9354.696792924022, -19620.338931124083, -26325.124660149177, -10100.172173997424, -1139.7378015205625, -13766.39470653471, 42278.41404419113, -13729.983714817014, -18521.817746379107, -645.6301385915446, -32286.334906379572, -22312.42773681018, 10303.908324707547, 21936.985485194386, 1927.1897586810303, -20183.066449530896, 0.146, 0.892, -0.372, 192.0, 0.0, 0.0, 0.0, 0.0, 0.0, 0.0, 0.0, 0.0, 0.0, 1.6620646545529294E9, 0.0, 2022-09-01 16:37:34.552
54.0, -9533.063713677373, -19800.046956544753, -26472.310897387375, -10274.761649937827, -1300.0221610095693, -13895.36427204183, 42912.30951694364, -13907.411862303241, -18463.524396839668, -626.0723621931509, -32241.65376921341, -22285.762105674996, 10442.690306030549, 21960.67833431701, 2020.6647539931244, -20153.383332894246, 0.146, 0.892, -0.372, 192.0, 0.0, 0.0, 0.0, 0.0, 0.0, 0.0, 0.0, 0.0, 0.0, 1.662064654552934E9, 0.0, 2022-09-01 16:37:34.552
56.0, -9374.813362933799, -19632.230059174308, -26326.555171794316, -10099.47926991931, -1127.2431763700458, -13835.55100387943, 42349.8949229592, -13760.471494254052, -18543.454235011846, -677.6825401404549, -32300.7741332977, -22346.26827791551, 10306.746996253372, 21933.900944459554, 1915.9691829644662, -20216.61641795831, 0.146, 0.892, -0.372, 192.0, 0.0, 0.0, 0.0, 0.0, 0.0, 0.0, 0.0, 0.0, 0.0, 1.6620646545529387E9, 0.0, 2022-09-01 16:37:34.552
58.0, -9515.227021602037, -19777.739915578357, -26425.93102764261, -10244.720905389895, -1262.7394512581172, -13924.0862636669, 42857.10070813903, -13880.41095500123, -18445.866518719973, -605.3746468275365, -32204.125190272953, -22266.003163576504, 10457.196588182043, 21958.44315987148, 2028.4431610635713, -20130.808070994386, 0.146, 0.892, -0.364, 192.0, 2.0, 72.0, 13.5, 112.0, 122.0, 80.0, 0.0, 0.0, 0.0, 1.6620646545529437E9, 0.0, 2022-09-01 16:37:34.552
60.0, -9448.529416147401, -19703.62153096456, -26378.165349741623, -10182.87362848206, -1173.1983629701572, -13736.443368964598, 42446.521514239495, -13793.39561383672, -18562.67673524341, -724.1965203519488, -32314.43104915989, -22385.09325803438, 10326.528290096318, 21844.628077105055, 1905.2403456259187, -20241.069226392417, 0.146, 0.892, -0.364, 192.0, 0.0, 0.0, 0.0, 0.0, 0.0, 0.0, 0.0, 0.0, 0.0, 1.6620646545529485E9, 0.0, 2022-09-01 16:37:34.552
62.0, -9533.711914266576, -19787.932311049975, -26456.57526929084, -10247.894853102547, -1249.775439474039, -13970.332022944931, 42800.97547781176, -13898.158240098744, -18478.254196435715, -638.3434698991144, -32239.887981401444, -22307.331539074366, 10380.507752955884, 21973.418828656537, 1975.3801197266723, -20163.083989987852, 0.146, 0.892, -0.364, 192.0, 0.0, 0.0, 0.0, 0.0, 0.0, 0.0, 0.0, 0.0, 0.0, 1.6620646545529528E9, 0.0, 2022-09-01 16:37:34.552
64.0, -9455.480808673003, -19702.906275141988, -26407.982576845003, -10167.674442252452, -1166.716357078118, -13829.1137014763, 42549.02661431153, -13813.914515246692, -18578.166494150937, -728.0186686538063, -32343.041282062684, -22404.405165243767, 10266.513856233818, 21888.839827637654, 1865.9683306179443, -20264.896185981775, 0.146, 0.892, -0.364, 192.0, 0.0, 0.0, 0.0, 0.0, 0.0, 0.0, 0.0, 0.0, 0.0, 1.6620646545529575E9, 0.0, 2022-09-01 16:37:34.552
66.0, -9491.310655034858, -19739.33961860414, -26418.84552465028, -10206.208849693401, -1210.8387006328942, -13862.820132114904, 42727.10296238696, -13847.285669718465, -18443.564289041078, -606.5592892836678, -32212.216521765775, -22280.330631772358, 10397.495078741918, 21952.430540613, 1998.9612101270213, -20127.522364559456, 0.146, 0.892, -0.364, 192.0, 0.0, 0.0, 0.0, 0.0, 0.0, 0.0, 0.0, 0.0, 0.0, 1.6620646545529623E9, 0.0, 2022-09-01 16:37:34.552
68.0, -9455.100829017261, -19696.22310354985, -26394.660937149638, -10161.415953804964, -1198.9699243271261, -13841.541271393451, 42660.785336588066, -13809.041834955435, -18549.53390950369, -705.5551654762228, -32321.091869007574, -22387.104915035357, 10294.408833314043, 21926.278999600294, 1910.9847439509326, -20226.585295985376, 0.147, 0.887, -0.368, 192.0, 2.0, 80.0, 13.5, 72.0, 122.0, 48.0, 0.0, 0.0, 0.0, 1.662064654552971E9, 0.0, 2022-09-01 16:37:34.552
70.0, -9503.02296912944, -19750.359028620605, -26418.398489761174, -10211.30504742921, -1240.7900382030057, -13916.263153107544, 42659.75715634313, -13862.060172803423, -18441.463225062278, -608.7497602402879, -32205.063963540077, -22279.973003861072, 10448.948794478036, 21925.34022633317, 2015.0544661348424, -20122.672036012656, 0.147, 0.887, -0.368, 192.0, 0.0, 0.0, 0.0, 0.0, 0.0, 0.0, 0.0, 0.0, 0.0, 1.662064654552976E9, 0.0, 2022-09-01 16:37:34.552
72.0, -9488.807259655865, -19726.263848097784, -26406.864989622234, -10166.020413162758, -1219.8688053928383, -13842.435341171664, 42782.17766072484, -13832.667628844694, -18569.918700446928, -738.546340292256, -32337.654511648958, -22404.583979199408, 10297.51572579333, 21911.14686860405, 1889.907048929578, -20249.406427074246, 0.147, 0.887, -0.368, 192.0, 0.0, 0.0, 0.0, 0.0, 0.0, 0.0, 0.0, 0.0, 0.0, 1.6620646545529804E9, 0.0, 2022-09-01 16:37:34.552
74.0, -9493.814050413854, -19728.990760921333, -26394.437419705086, -10167.026241663247, -1154.199380183146, -13886.870609148815, 42588.58920199743, -13828.867832287293, -18447.185271642837, -593.3717600550366, -32196.436190180328, -22256.45896869409, 10412.604857993705, 21993.513046921857, 2008.706570709535, -20097.056936866873, 0.147, 0.887, -0.368, 192.0, 0.0, 0.0, 0.0, 0.0, 0.0, 0.0, 0.0, 0.0, 0.0, 1.6620646545529852E9, 0.0, 2022-09-01 16:37:34.552
76.0, -9525.486472307024, -19756.930441490465, -26432.345978301288, -10205.247724681822, -1240.9017969252823, -13896.504211009053, 42899.01022899273, -13864.317698993409, -18598.77480253873, -764.9661022384289, -32359.02277934823, -22422.53242999702, 10197.670483311473, 21824.243286161814, 1879.714653457958, -20251.976877686608, 0.147, 0.887, -0.368, 192.0, 0.0, 0.0, 0.0, 0.0, 0.0, 0.0, 0.0, 0.0, 0.0, 1.66206465455299E9, 0.0, 2022-09-01 16:37:34.552
78.0, -9483.465192731046, -19721.637036995537, -26374.656125862137, -10165.908654440482, -1210.6598866772517, -13875.068888076412, 42531.99458503659, -13830.54421312144, -18443.072550663062, -599.9431729248969, -32197.978460547743, -22264.170320531168, 10443.1149891752, 21996.46347718996, 1991.1157478232085, -20104.58947474831, 0.1475, 0.8835, -0.37, 192.0, 2.0, 80.0, 13.5, 64.0, 122.0, 48.0, 0.0, 0.0, 0.0, 1.6620646545529945E9, 0.0, 2022-09-01 16:37:34.552
80.0, -9523.11718739476, -19755.38817112305, -26434.111766113256, -10208.376968905564, -1210.0787413214136, -13892.615007473829, 42993.625163272045, -13870.062097318423, -18571.080991158604, -741.3403083491694, -32333.34062496908, -22403.66755767674, 10300.041472916779, 21870.980783817864, 1899.7194647454578, -20233.04495013296, 0.1475, 0.8835, -0.37, 192.0, 0.0, 0.0, 0.0, 0.0, 0.0, 0.0, 0.0, 0.0, 0.0, 1.6620646545529995E9, 0.0, 2022-09-01 16:37:34.552
82.0, -9437.062971241829, -19676.598271918094, -26340.145032423145, -10137.276069793234, -1133.076981672881, -13804.795003508927, 42468.0238924055, -13784.320805587866, -18440.815024473075, -601.2395741033047, -32184.410951663373, -22262.44923620811, 10342.532139126319, 21934.05740667074, 2004.191518329563, -20092.206608320073, 0.1475, 0.8835, -0.37, 192.0, 0.0, 0.0, 0.0, 0.0, 0.0, 0.0, 0.0, 0.0, 0.0, 1.662064654553004E9, 0.0, 2022-09-01 16:37:34.553
84.0, -9557.360059900291, -19790.34629945115, -26457.491690813506, -10232.673315128484, -1311.2427367261334, -13916.330208340909, 43069.688149653455, -13901.421594789219, -18545.242374568268, -733.3830873230801, -32303.5233978657, -22384.802685356462, 10313.94425796798, 21909.805763936733, 1907.810796238279, -20213.57658071239, 0.1475, 0.8835, -0.37, 192.0, 0.0, 0.0, 0.0, 0.0, 0.0, 0.0, 0.0, 0.0, 0.0, 1.6620646545530088E9, 0.0, 2022-09-01 16:37:34.553
86.0, -9466.097887289274, -19698.83825765112, -26353.82430002979, -10124.736741153805, -1173.8018600704504, -13861.389620469765, 42445.49333399455, -13798.715329017083, -18489.60888261901, -641.2268449338491, -32222.453620726305, -22294.07695461237, 10324.315467395243, 21944.6297817981, 1951.5084566484043, -20127.008274436987, 0.1475, 0.8835, -0.37, 192.0, 0.0, 0.0, 0.0, 0.0, 0.0, 0.0, 0.0, 0.0, 0.0, 1.6620646545530133E9, 0.0, 2022-09-01 16:37:34.553
88.0, -9560.668118079677, -19787.462924416413, -26451.747292488493, -10213.07083524118, -1278.1845066767344, -13928.534260813507, 43134.10587717365, -13900.41576628873, -18532.05484533964, -716.3957615370466, -32291.744028537756, -22366.787179325485, 10332.205633187967, 21883.43070547947, 1927.815607525779, -20188.386164711257, 0.14975, 0.88175, -0.37, 192.0, 2.0, 96.0, 13.5, 64.0, 122.0, 56.0, 0.0, 0.0, 0.0, 1.662064654553018E9, 0.0, 2022-09-01 16:37:34.553
90.0, -9441.890948044176, -19667.299946224684, -26341.97787546848, -10109.090520035092, -1099.527013245465, -13769.501599013996, 42438.02785134648, -13784.566674776874, -18478.611824347, -636.4882751093239, -32220.9560538478, -22293.294643556434, 10349.774104329837, 21949.01072371134, 1933.4258953840608, -20128.17056514866, 0.14975, 0.88175, -0.37, 192.0, 0.0, 0.0, 0.0, 0.0, 0.0, 0.0, 0.0, 0.0, 0.0, 1.6620646545530229E9, 0.0, 2022-09-01 16:37:34.553
92.0, -9583.46689742409, -19810.775793883302, -26468.10876942978, -10251.64994617104, -1258.5149715560642, -13907.367158814332, 43165.97946476692, -13923.773339244526, -18516.498031198746, -715.4346365254685, -32278.310630120115, -22360.796911811463, 10303.170717140523, 21867.046876793727, 1919.3889998661282, -20181.90415881922, 0.14975, 0.88175, -0.37, 192.0, 0.0, 0.0, 0.0, 0.0, 0.0, 0.0, 0.0, 0.0, 0.0, 1.6620646545530274E9, 0.0, 2022-09-01 16:37:34.553
94.0, -9442.96383177803, -19663.969536300843, -26317.793287967837, -10106.877697334015, -1194.7677963695285, -13823.034026984458, 42448.53317124047, -13785.863075955282, -18510.530115429177, -670.5970371481225, -32250.28154257316, -22324.207106138125, 10281.198952340956, 21958.44315987148, 1893.908011187078, -20165.386219666747, 0.14975, 0.88175, -0.37, 192.0, 0.0, 0.0, 0.0, 0.0, 0.0, 0.0, 0.0, 0.0, 0.0, 1.662064654553032E9, 0.0, 2022-09-01 16:37:34.553
96.0, -9607.919705858196, -19830.35592202615, -26472.847339254302, -10280.684862218484, -1266.8298204934383, -13933.451644593675, 43181.759796352366, -13939.151339429778, -18500.33771995756, -695.161604304505, -32254.170746108386, -22336.79113826646, 10334.776083800327, 21879.317984499692, 1949.295633947329, -20170.70593484711, 0.14975, 0.88175, -0.37, 192.0, 0.0, 0.0, 0.0, 0.0, 0.0, 0.0, 0.0, 0.0, 0.0, 1.6620646545530367E9, 0.0, 2022-09-01 16:37:34.553
98.0, -9448.305898702849, -19674.318393983653, -26318.44148855704, -10122.501566708275, -1205.4072267302545, -13894.961940641635, 42479.088005910875, -13796.368395849277, -18530.981961605783, -698.1567380615161, -32262.753815979224, -22342.84846101385, 10251.761704893315, 21934.169165393017, 1896.746682732902, -20187.04506004394, 0.14987499999999998, 0.881875, -0.369, 192.0, 2.0, 88.0, 13.5, 72.0, 122.0, 64.0, 0.0, 0.0, 0.0, 1.6620646545530417E9, 0.0, 2022-09-01 16:37:34.553
100.0, -9563.819714047875, -19792.15679075203, -26428.8367544218, -10249.057143814223, -1221.5451862269863, -13877.281710777488, 43144.16416217854, -13904.282618079498, -18468.575891086566, -665.8361155791421, -32208.5508356751, -22303.55409426142, 10366.627319649138, 21932.403377581046, 1984.2537622754292, -20141.04516995492, 0.14987499999999998, 0.881875, -0.369, 192.0, 0.0, 0.0, 0.0, 0.0, 0.0, 0.0, 0.0, 0.0, 0.0, 1.6620646545530472E9, 0.0, 2022-09-01 16:37:34.553
102.0, -9445.601337623757, -19666.897614824487, -26316.563942022796, -10105.00015079977, -1157.1945139401573, -13841.943602793646, 42519.3882011638, -13785.505448043998, -18525.639894680964, -688.5454879457341, -32247.778147194167, -22330.934981219172, 10271.69946094745, 21905.80480167923, 1911.9905724514215, -20167.93431853465, 0.14987499999999998, 0.881875, -0.369, 192.0, 0.0, 0.0, 0.0, 0.0, 0.0, 0.0, 0.0, 0.0, 0.0, 1.662064654553052E9, 0.0, 2022-09-01 16:37:34.553
104.0, -9585.120926513782, -19808.83119211569, -26424.90284739767, -10244.765608878804, -1288.2427916816225, -13861.07669604739, 43102.00877213583, -13922.141661899288, -18470.855769021007, -656.2025137189047, -32200.37009720446, -22286.231492308558, 10334.597269844684, 21935.5773252937, 2002.4704340065045, -20113.50782078598, 0.14987499999999998, 0.881875, -0.369, 192.0, 0.0, 0.0, 0.0, 0.0, 0.0, 0.0, 0.0, 0.0, 0.0, 1.6620646545530567E9, 0.0, 2022-09-01 16:37:34.553
106.0, -9454.095000516772, -19671.189149759906, -26310.506619275406, -10117.67358990593, -1186.9893892990815, -13750.524967971442, 42593.28306833304, -13791.182791135645, -18540.257935554735, -716.8874999150635, -32265.324266591582, -22349.643391328264, 10273.845228415159, 21861.61540289109, 1905.8214909817566, -20185.122810020785, 0.14987499999999998, 0.881875, -0.369, 192.0, 0.0, 0.0, 0.0, 0.0, 0.0, 0.0, 0.0, 0.0, 0.0, 1.6620646545530615E9, 0.0, 2022-09-01 16:37:34.553
108.0, -9558.254129678504, -19774.029525998776, -26407.915521611634, -10213.987256763847, -1261.8677332243603, -14012.666226943282, 43025.364640398584, -13913.55859202845, -18442.31259135158, -613.4436265759024, -32169.256468922675, -22247.339456956324, 10360.927624813035, 21974.11173273465, 2020.8212162043114, -20102.197838091593, 0.1509375, 0.8849374999999999, -0.3705, 192.0, 2.0, 96.0, 13.5, 96.0, 122.0, 48.0, 0.0, 0.0, 0.0, 1.662064654553066E9, 0.0, 2022-09-01 16:37:34.553
110.0, -9472.669300159134, -19683.169684787954, -26352.34908489574, -10137.611345960064, -1104.7126179590962, -13792.568599291873, 42681.17012753131, -13803.789175008438, -18554.20542409485, -703.8564328976194, -32274.980220196274, -22341.75322553554, 10215.440120153442, 21940.271191629316, 1881.6145517366592, -20206.647539931244, 0.1509375, 0.8849374999999999, -0.3705, 192.0, 0.0, 0.0, 0.0, 0.0, 0.0, 0.0, 0.0, 0.0, 0.0, 1.6620646545530708E9, 0.0, 2022-09-01 16:37:34.553
112.0, -9544.261937649482, -19760.082037458666, -26391.84461734827, -10223.464396412897, -1236.230282334123, -13875.202998543144, 42952.05091858518, -13874.711260165128, -18427.046349888606, -608.3027253511817, -32152.425605347828, -22235.716549839563, 10354.557377643274, 21935.86789797162, 2006.3596375417278, -20093.793582176397, 0.1509375, 0.8849374999999999, -0.3705, 192.0, 0.0, 0.0, 0.0, 0.0, 0.0, 0.0, 0.0, 0.0, 0.0, 1.6620646545530756E9, 0.0, 2022-09-01 16:37:34.553
114.0, -9470.054146057862, -19679.36988823055, -26329.10327066222, -10128.514185966753, -1256.0115761770699, -13851.443094187152, 42776.634428099926, -13807.745433777027, -18527.070406326104, -706.4715869988903, -32259.311647333107, -22338.020484211505, 10244.273870500789, 21913.605560494132, 1917.489101587427, -20197.90800784922, 0.1509375, 0.8849374999999999, -0.3705, 192.0, 0.0, 0.0, 0.0, 0.0, 0.0, 0.0, 0.0, 0.0, 0.0, 1.66206465455308E9, 0.0, 2022-09-01 16:37:34.553
116.0, -9555.907196510696, -19768.73216256287, -26395.957338328048, -10203.2584194253, -1216.9854303581037, -13921.47110956563, 42875.18326940337, -13875.202998543144, -18413.702358448787, -597.4174258014472, -32149.631637290913, -22232.16262247117, 10401.339578788231, 21984.393535184092, 2024.5986610172583, -20068.111427797252, 0.1509375, 0.8849374999999999, -0.3705, 192.0, 0.0, 0.0, 0.0, 0.0, 0.0, 0.0, 0.0, 0.0, 0.0, 1.662064654553087E9, 0.0, 2022-09-01 16:37:34.553
118.0, -9539.143388169216, -19746.648639041025, -26391.755210370447, -10184.237084893834, -1226.2837560515113, -13833.3158294339, 42893.57875509009, -13838.523785891985, -18572.735020248296, -754.1478579220603, -32315.548636382657, -22396.87262736233, 10202.833736280649, 21867.248042493826, 1882.8215459372457, -20211.699034178142, 0.15046874999999998, 0.88346875, -0.37024999999999997, 192.0, 2.0, 88.0, 13.5, 72.0, 122.0, 56.0, 0.0, 0.0, 0.0, 1.6620646545530915E9, 0.0, 2022-09-01 16:37:34.553
120.0, -9527.006390929984, -19742.178290149965, -26366.721256580506, -10187.008701206292, -1173.3548251813443, -13806.314922131887, 42801.19899525631, -13827.191451453144, -18425.392320798914, -610.5155480522571, -32159.309942640062, -22249.5522796574, 10305.718816008428, 21976.30220369127, 2009.5112335099261, -20051.705247367056, 0.15046874999999998, 0.88346875, -0.37024999999999997, 192.0, 0.0, 0.0, 0.0, 0.0, 0.0, 0.0, 0.0, 0.0, 0.0, 1.6620646550325198E9, 0.0, 2022-09-01 16:37:35.032
122.0, -9537.332896868336, -19747.56506056369, -26381.428704432095, -10189.333282629643, -1309.9910390366363, -13922.476938066118, 42998.63195403003, -13852.985364554568, -18537.75454017574, -736.4676280579124, -32277.930650464376, -22376.24196723008, 10270.60422546914, 21874.646469908534, 1906.9837816934328, -20187.08976353285, 0.15046874999999998, 0.88346875, -0.37024999999999997, 192.0, 0.0, 0.0, 0.0, 0.0, 0.0, 0.0, 0.0, 0.0, 0.0, 1.6620646550325806E9, 0.0, 2022-09-01 16:37:35.032
124.0, -9517.685713492121, -19724.542763774727, -26350.44918661704, -10170.937796942926, -1198.9699243271261, -13863.177760026188, 42723.39257280738, -13825.470367130087, -18415.334035794025, -592.3882832990031, -32134.07482315002, -22232.900230038194, 10350.28819445231, 21989.40032594208, 2003.7891869293676, -20062.277622494417, 0.15046874999999998, 0.88346875, -0.37024999999999997, 192.0, 0.0, 0.0, 0.0, 0.0, 0.0, 0.0, 0.0, 0.0, 0.0, 1.6620646550326133E9, 0.0, 2022-09-01 16:37:35.032
126.0, -9574.41444091969, -19776.734087077868, -26427.585056732307, -10226.683047614462, -1195.684217892196, -13846.033972028968, 43104.55687100373, -13875.895902621258, -18556.172377606916, -742.8602269721302, -32287.54190058016, -22385.070906289926, 10197.02228272227, 21892.95254861743, 1877.814755179257, -20218.33750228137, 0.15046874999999998, 0.88346875, -0.37024999999999997, 192.0, 0.0, 0.0, 0.0, 0.0, 0.0, 0.0, 0.0, 0.0, 0.0, 1.6620646550326457E9, 0.0, 2022-09-01 16:37:35.032
128.0, -9519.987943171018, -19731.47180455587, -26336.50169807693, -10173.77646848875, -1182.9884270415816, -13861.70254489214, 42671.4694704377, -13825.693884574639, -18423.157146353384, -614.3600480985699, -32140.75799474216, -22250.91573606917, 10325.544813340284, 21961.080665717207, 1976.6094656717141, -20084.137628571705, 0.15046874999999998, 0.88346875, -0.37024999999999997, 192.0, 0.0, 0.0, 0.0, 0.0, 0.0, 0.0, 0.0, 0.0, 0.0, 1.6620646550326855E9, 0.0, 2022-09-01 16:37:35.032
130.0, -9580.449411922624, -19784.44543891495, -26394.973861572013, -10215.440120153442, -1294.9930185071253, -13948.539072101006, 43190.5440319233, -13884.36721376982, -18525.684598169875, -739.351003092647, -32255.467147286792, -22369.849368315863, 10254.332155505677, 21896.797048663742, 1907.2072991379857, -20189.883731589765, 0.148, 0.876, -0.368, 192.0, 2.0, 80.0, 13.5, 48.0, 122.0, 64.0, 0.0, 0.0, 0.0, 1.6620646550326908E9, 0.0, 2022-09-01 16:37:35.032
132.0, -9543.88195799374, -19746.9615634634, -26351.29855290634, -10175.609311534085, -1165.1964384551572, -13773.793133949415, 42617.28884187804, -13812.953390235114, -18454.963678713284, -636.7564960427876, -32159.354646128973, -22269.959422345095, 10307.70812126495, 21944.6297817981, 1975.3354162377616, -20084.852884394277, 0.148, 0.876, -0.368, 192.0, 0.0, 0.0, 0.0, 0.0, 0.0, 0.0, 0.0, 0.0, 0.0, 1.6620646550327008E9, 0.0, 2022-09-01 16:37:35.032
134.0, -9644.95654642064, -19842.9846576434, -26465.80653975088, -10265.396269011053, -1353.0181471131025, -13998.696386658716, 43261.443765335534, -13940.604202819373, -18565.649517255966, -770.2634656743367, -32289.73237153678, -22399.554836696963, 10167.2497591078, 21858.419103433982, 1882.329807559229, -20190.28606298996, 0.148, 0.876, -0.368, 192.0, 0.0, 0.0, 0.0, 0.0, 0.0, 0.0, 0.0, 0.0, 0.0, 1.6620646550327065E9, 0.0, 2022-09-01 16:37:35.032
136.0, -9515.584649513323, -19711.064661868175, -26339.005093455922, -10147.803741431682, -1204.71432265214, -13821.40234963922, 42592.94779216621, -13799.721157517572, -18483.28333893816, -662.0363190217399, -32191.585861633524, -22296.669756969186, 10276.818010427716, 21946.507328332347, 1918.3161161322732, -20100.163829346162, 0.148, 0.876, -0.368, 192.0, 0.0, 0.0, 0.0, 0.0, 0.0, 0.0, 0.0, 0.0, 0.0, 1.6620646550327117E9, 0.0, 2022-09-01 16:37:35.032
138.0, -9645.783560965487, -19843.74461695488, -26460.62093503725, -10281.690690718971, -1291.3496841609103, -13942.437045864708, 43308.360076947225, -13921.47110956563, -18525.930467358885, -734.2324536123817, -32248.62751348347, -22361.020429256016, 10204.510117114796, 21865.50460642631, 1912.1470346626086, -20153.383332894246, 0.148, 0.876, -0.368, 192.0, 0.0, 0.0, 0.0, 0.0, 0.0, 0.0, 0.0, 0.0, 0.0, 1.6620646550327177E9, 0.0, 2022-09-01 16:37:35.032
140.0, -9511.091948877805, -19711.958731646388, -26316.653349000615, -10154.464561279365, -1193.6055056578525, -13831.125358477278, 42591.74079796563, -13794.043814425924, -18478.008327246705, -676.8108221066979, -32181.23700395072, -22307.21978035209, 10296.778118226304, 21933.208040381436, 1912.8846422296338, -20114.848925453298, 0.148, 0.878, -0.358, 192.0, 2.0, 80.0, 13.5, 56.0, 122.0, 104.0, 0.0, 0.0, 0.0, 1.6620646550327237E9, 0.0, 2022-09-01 16:37:35.032
142.0, -9678.327700892414, -19873.897120225087, -26481.877444014248, -10328.897575008581, -1340.5011702181305, -13948.784941290014, 43332.99169933697, -13955.736333815616, -18526.936295859374, -743.6201862836107, -32238.926856389866, -22366.65306885875, 10220.961001033904, 21863.314135469693, 1916.1703486645638, -20186.62037689929, 0.148, 0.878, -0.358, 192.0, 0.0, 0.0, 0.0, 0.0, 0.0, 0.0, 0.0, 0.0, 0.0, 1.662064655032728E9, 0.0, 2022-09-01 16:37:35.032
144.0, -9517.126919880739, -19713.501002013803, -26328.477421817475, -10171.407183576488, -1163.7435750655623, -13833.06996024489, 42613.82432148747, -13803.49860233052, -18529.462042982825, -717.2674795708036, -32222.94535910432, -22343.22844066959, 10176.123401656558, 21881.75432464532, 1884.7884994493127, -20177.74673435053, 0.148, 0.878, -0.358, 192.0, 0.0, 0.0, 0.0, 0.0, 0.0, 0.0, 0.0, 0.0, 0.0, 1.6620646550327327E9, 0.0, 2022-09-01 16:37:35.032
146.0, -9662.10033441786, -19857.669753750535, -26462.744350760502, -10305.718816008428, -1314.1931669942342, -13973.841246824413, 43323.045173054365, -13947.823816278436, -18479.818818547585, -703.0741218416837, -32191.675268611347, -22324.65414102723, 10237.255422741822, 21888.035164837263, 1955.1070875057087, -20153.070408471875, 0.148, 0.878, -0.358, 192.0, 0.0, 0.0, 0.0, 0.0, 0.0, 0.0, 0.0, 0.0, 0.0, 1.6620646550327373E9, 0.0, 2022-09-01 16:37:35.032
148.0, -9530.448559576102, -19723.626342252057, -26334.221820142488, -10171.563645787674, -1189.2245637446122, -13741.472511467042, 42658.21488597571, -13800.168192406678, -18537.732188431288, -730.7902849662644, -32231.304911530606, -22360.059304244438, 10207.035864238247, 21896.595882963644, 1880.8098889362682, -20185.43573444316, 0.148, 0.878, -0.358, 192.0, 0.0, 0.0, 0.0, 0.0, 0.0, 0.0, 0.0, 0.0, 0.0, 1.6620646550327418E9, 0.0, 2022-09-01 16:37:35.032
150.0, -9650.186854623182, -19845.152776855564, -26442.404263306173, -10282.204780841445, -1303.35257093341, -13990.225075510154, 43287.75176855943, -13943.420522620741, -18474.499103367223, -690.288924013248, -32178.353628915982, -22316.45105081213, 10272.504123747842, 21870.980783817864, 1962.9525498095215, -20125.264838369472, 0.146, 0.892, -0.366, 192.0, 2.0, 72.0, 13.5, 112.0, 122.0, 72.0, 0.0, 0.0, 0.0, 1.6620646550327463E9, 0.0, 2022-09-01 16:37:35.032
152.0, -9576.694318854132, -19776.287052188763, -26378.947660797556, -10226.392474936543, -1290.7685388050722, -13851.532501164975, 42718.47518902722, -13867.98338508408, -18561.916775931928, -764.1390876935825, -32255.020112397688, -22394.883322105805, 10156.00683164678, 21873.685344896956, 1844.9353390855003, -20193.974100825086, 0.146, 0.892, -0.366, 192.0, 0.0, 0.0, 0.0, 0.0, 0.0, 0.0, 0.0, 0.0, 0.0, 1.6620646550327508E9, 0.0, 2022-09-01 16:37:35.032
154.0, -9677.05365145846, -19889.99037623291, -26465.918298473156, -10325.298944151276, -1314.4613879276978, -14010.408700753296, 43242.62359650416, -13966.040488009512, -18493.52043789869, -732.6454797560549, -32193.843387823512, -22348.99519073906, 10245.771437379293, 21861.816568591188, 1937.9632995084883, -20142.095701944316, 0.146, 0.892, -0.366, 192.0, 0.0, 0.0, 0.0, 0.0, 0.0, 0.0, 0.0, 0.0, 0.0, 1.6620646550327554E9, 0.0, 2022-09-01 16:37:35.032
156.0, -9553.672022065166, -19766.362877650605, -26357.601744842737, -10198.497497856319, -1251.9659104306593, -13900.41576628873, 42800.34962896701, -13850.45961743112, -18561.20152010936, -800.9747625559286, -32265.324266591582, -22414.508153737566, 10140.941755883903, 21832.625190332557, 1827.657440621548, -20214.113022579317, 0.146, 0.892, -0.366, 192.0, 0.0, 0.0, 0.0, 0.0, 0.0, 0.0, 0.0, 0.0, 0.0, 1.66206465503276E9, 0.0, 2022-09-01 16:37:35.032
158.0, -9640.821473696407, -19859.681410751513, -26428.501478254973, -10292.553638524252, -1290.2991521715107, -13981.642005639316, 43169.73455783541, -13939.71013304116, -18428.298047578104, -694.9827903488625, -32139.93098019731, -22293.249940067522, 10298.409795571542, 21891.43262999447, 1967.713471378502, -20107.718718972053, 0.146, 0.892, -0.366, 192.0, 0.0, 0.0, 0.0, 0.0, 0.0, 0.0, 0.0, 0.0, 0.0, 1.6620646550327644E9, 0.0, 2022-09-01 16:37:35.032
160.0, -9569.385298417246, -19781.137380735563, -26372.666820605617, -10211.103881729112, -1235.135046855813, -13957.546825116495, 42894.91985975741, -13871.246739774555, -18549.66801997042, -804.4839864354118, -32257.009417654208, -22400.404202986265, 10154.799837446195, 21843.689303837935, 1856.9829293469109, -20229.491022764567, 0.15, 0.888, -0.368, 192.0, 2.0, 88.0, 13.5, 96.0, 122.0, 64.0, 0.0, 0.0, 0.0, 1.662064655032769E9, 0.0, 2022-09-01 16:37:35.032
162.0, -9646.521168532512, -19862.31891659724, -26432.1895160901, -10301.471984561918, -1263.8793902253378, -13956.026906493535, 43103.21576633642, -13934.23395564961, -18442.13377739594, -709.1314445890719, -32148.044663434586, -22300.581312248865, 10226.727751103372, 21850.28306845225, 1957.8787038181667, -20128.617600037767, 0.15, 0.888, -0.368, 192.0, 0.0, 0.0, 0.0, 0.0, 0.0, 0.0, 0.0, 0.0, 0.0, 1.6620646550327735E9, 0.0, 2022-09-01 16:37:35.032
164.0, -9586.32792071437, -19795.330738464683, -26373.203262472543, -10237.657754142017, -1278.96681773267, -13874.13011480929, 43004.17518665495, -13875.784143898982, -18554.160720605938, -828.8026844027859, -32266.061874158608, -22426.086357365413, 10162.511189283276, 21813.782669756733, 1859.5310282148157, -20252.24509862007, 0.15, 0.888, -0.368, 192.0, 0.0, 0.0, 0.0, 0.0, 0.0, 0.0, 0.0, 0.0, 0.0, 1.6620646550327792E9, 0.0, 2022-09-01 16:37:35.032
166.0, -9631.321982302903, -19840.6824279645, -26396.113800539235, -10266.111524833623, -1298.5022423866085, -13976.277586970042, 43026.52693111026, -13913.625647261817, -18421.570172497057, -695.4521769824239, -32126.475230035216, -22292.08764935585, 10311.105586422156, 21891.43262999447, 1981.0574628183203, -20100.70027121309, 0.15, 0.888, -0.368, 192.0, 0.0, 0.0, 0.0, 0.0, 0.0, 0.0, 0.0, 0.0, 0.0, 1.6620646550327837E9, 0.0, 2022-09-01 16:37:35.032
168.0, -9628.930345646184, -19833.44046276098, -26407.89316986718, -10262.311728276221, -1322.2621467426, -13940.894775497292, 43120.33720258918, -13901.533353511495, -18564.710743988842, -834.8376554057188, -32268.498214304236, -22431.495479523597, 10130.034104589713, 21806.898332464498, 1852.713746155947, -20237.783519957487, 0.15, 0.888, -0.368, 192.0, 0.0, 0.0, 0.0, 0.0, 0.0, 0.0, 0.0, 0.0, 0.0, 1.6620646550327885E9, 0.0, 2022-09-01 16:37:35.032
170.0, -9631.47844451409, -19840.950648897964, -26400.89707385267, -10272.191199325467, -1240.9017969252823, -13903.165030856733, 42951.55918020716, -13904.148507612766, -18443.340771596526, -712.9088894020188, -32136.242942362183, -22305.051661139925, 10219.664599855496, 21892.259644539314, 1952.8495613157227, -20104.857695681774, 0.152, 0.886, -0.374, 192.0, 2.0, 96.0, 13.5, 88.0, 122.0, 40.0, 0.0, 0.0, 0.0, 1.6620646550327928E9, 0.0, 2022-09-01 16:37:35.032
172.0, -9641.603784752344, -19845.01866638883, -26416.051556593367, -10271.900626647548, -1284.2641811685778, -13981.284377728032, 43225.9044916516, -13914.430310062207, -18571.528026047712, -846.4382107780232, -32274.846109729544, -22440.972619172648, 10102.496755420776, 21786.535893265715, 1859.3075107702628, -20239.25873509154, 0.152, 0.886, -0.374, 192.0, 0.0, 0.0, 0.0, 0.0, 0.0, 0.0, 0.0, 0.0, 0.0, 1.6620646550327973E9, 0.0, 2022-09-01 16:37:35.032
174.0, -9607.562077946912, -19818.39773874256, -26363.45790189003, -10246.062010057212, -1232.1175613543464, -13945.85686276637, 42874.75858625872, -13877.438172988675, -18432.92485868035, -700.8612991406083, -32125.335291067993, -22298.390841292246, 10289.558504767241, 21885.84469388064, 1968.5404859233483, -20098.554503745378, 0.152, 0.886, -0.374, 192.0, 0.0, 0.0, 0.0, 0.0, 0.0, 0.0, 0.0, 0.0, 0.0, 1.662064655032802E9, 0.0, 2022-09-01 16:37:35.032
176.0, -9661.943872206673, -19870.633765534614, -26439.498536526986, -10303.595400285174, -1281.425509622754, -13869.637414173772, 43323.53691143238, -13929.450682336173, -18564.24135735528, -854.5295422708443, -32263.960810179808, -22443.16309012927, 10102.027368787214, 21789.106343878073, 1870.975121375933, -20229.781595442488, 0.152, 0.886, -0.374, 192.0, 0.0, 0.0, 0.0, 0.0, 0.0, 0.0, 0.0, 0.0, 0.0, 1.6620646550328064E9, 0.0, 2022-09-01 16:37:35.032
178.0, -9578.504810155013, -19788.267587216807, -26342.31315163531, -10212.892021285537, -1229.2565380640672, -13881.774411413004, 42817.53812045314, -13856.74045762306, -18431.919030179863, -702.5376799747563, -32116.43929677478, -22297.876751169773, 10241.256384999322, 21925.787261222275, 1960.7620788529014, -20090.507875741467, 0.152, 0.886, -0.374, 192.0, 0.0, 0.0, 0.0, 0.0, 0.0, 0.0, 0.0, 0.0, 0.0, 1.6620646550328112E9, 0.0, 2022-09-01 16:37:35.032
180.0, -9670.90692173325, -19877.540454571303, -26438.872687682237, -10301.986074684391, -1315.0425332835357, -14038.773064467081, 43396.090673934305, -13955.535168115517, -18529.32793251609, -817.9173848530513, -32225.85108588351, -22411.133040324814, 10168.233235863834, 21815.526105824247, 1893.2821623423295, -20196.633958415267, 0.154, 0.88, -0.368, 192.0, 2.0, 104.0, 13.5, 64.0, 122.0, 64.0, 0.0, 0.0, 0.0, 1.6620646550328157E9, 0.0, 2022-09-01 16:37:35.032
182.0, -9591.84880159483, -19792.603825641138, -26336.412291099106, -10237.188367508455, -1239.5159887690531, -13872.99017584207, 42778.04258800061, -13876.141771810268, -18456.5059490807, -725.2694040858036, -32130.185619614796, -22319.960274691617, 10203.012550236292, 21892.86314163961, 1933.2694331728737, -20128.304675615393, 0.154, 0.88, -0.368, 192.0, 0.0, 0.0, 0.0, 0.0, 0.0, 0.0, 0.0, 0.0, 0.0, 1.66206465503282E9, 0.0, 2022-09-01 16:37:35.032
184.0, -9679.378232881812, -19873.517140569347, -26423.606446219263, -10317.632295803107, -1309.253431469611, -13986.715851630672, 43451.27713099446, -13970.063802011467, -18528.29975227115, -828.6015187026882, -32213.490571199727, -22411.133040324814, 10138.43836050491, 21817.493059336313, 1907.6990375160026, -20214.33654002387, 0.154, 0.88, -0.368, 192.0, 0.0, 0.0, 0.0, 0.0, 0.0, 0.0, 0.0, 0.0, 0.0, 1.6620646550328248E9, 0.0, 2022-09-01 16:37:35.032
186.0, -9562.210388447093, -19769.24625268534, -26329.907933462615, -10211.573268362674, -1213.2526890340673, -13858.528597179486, 42756.71902379025, -13859.534425679974, -18454.02490544616, -734.9700611794068, -32114.44999151826, -22312.85241995483, 10195.390605377032, 21885.28590026926, 1927.815607525779, -20134.004370451497, 0.154, 0.88, -0.368, 192.0, 0.0, 0.0, 0.0, 0.0, 0.0, 0.0, 0.0, 0.0, 0.0, 1.6620646550328293E9, 0.0, 2022-09-01 16:37:35.032
188.0, -9702.311122692958, -19902.216780449962, -26463.347847860798, -10341.794531559293, -1400.4932523361747, -14023.909154404302, 43482.79309067644, -13999.635159925838, -18524.924638858396, -819.8619866206631, -32206.159199018384, -22395.710336650653, 10092.99726402727, 21817.761280269777, 1883.6932639710028, -20216.61641795831, 0.154, 0.88, -0.368, 192.0, 0.0, 0.0, 0.0, 0.0, 0.0, 0.0, 0.0, 0.0, 0.0, 1.6620646550328338E9, 0.0, 2022-09-01 16:37:35.032
190.0, -9569.474705395069, -19771.369668408595, -26330.57848579627, -10198.139869945035, -1248.8813696958268, -13979.652700382794, 42763.491602360205, -13868.005736828534, -18479.863522036496, -743.4413723279682, -32145.69773026678, -22331.31496087491, 10217.764701576794, 21888.124571815082, 1895.2938193433072, -20160.80411205341, 0.15, 0.882, -0.372, 192.0, 2.0, 88.0, 13.5, 72.0, 122.0, 48.0, 0.0, 0.0, 0.0, 1.6620646550328386E9, 0.0, 2022-09-01 16:37:35.032
192.0, -9700.679445347721, -19901.881504283134, -26455.122405901246, -10339.157025713566, -1339.1377138063567, -13987.408755708786, 43477.674541196175, -13984.05599404049, -18496.515571655702, -793.5539833967666, -32178.577146360538, -22378.544196908977, 10176.77160224576, 21831.328789154148, 1913.5104910743823, -20188.18499901116, 0.15, 0.882, -0.372, 192.0, 0.0, 0.0, 0.0, 0.0, 0.0, 0.0, 0.0, 0.0, 0.0, 1.662064655032843E9, 0.0, 2022-09-01 16:37:35.032
194.0, -9553.98494648754, -19748.61559255309, -26320.184924624555, -10184.661768038484, -1174.13713623728, -13840.222518470588, 42771.873506530945, -13841.563623137907, -18486.166713972892, -762.1274306926049, -32155.6889600383, -22345.3742081373, 10125.340238254099, 21855.42396967697, 1889.0576826402764, -20159.932394019652, 0.15, 0.882, -0.372, 192.0, 0.0, 0.0, 0.0, 0.0, 0.0, 0.0, 0.0, 0.0, 0.0, 1.6620646550328476E9, 0.0, 2022-09-01 16:37:35.032
196.0, -9743.840663890918, -19935.94556283302, -26482.995031237013, -10376.730308142938, -1371.1454118663564, -13855.958146567125, 43467.37038700228, -14007.279456529553, -18470.833417276554, -781.349930924169, -32156.337160627507, -22351.2750686735, 10169.3508230866, 21809.35702435458, 1940.1537704651084, -20158.546585863423, 0.15, 0.882, -0.372, 192.0, 0.0, 0.0, 0.0, 0.0, 0.0, 0.0, 0.0, 0.0, 0.0, 1.6620646550328531E9, 0.0, 2022-09-01 16:37:35.032
198.0, -9612.501813471534, -19799.44345944446, -26365.335448424274, -10208.444024138931, -1298.97162902017, -14043.48928254715, 42833.8101904166, -13879.382774756286, -18547.701066458354, -833.5189024828557, -32220.218446280775, -22402.39350824279, 10117.42772071692, 21798.829352716133, 1834.7876471027907, -20226.115909351818, 0.15, 0.882, -0.372, 192.0, 0.0, 0.0, 0.0, 0.0, 0.0, 0.0, 0.0, 0.0, 0.0, 1.662064655032858E9, 0.0, 2022-09-01 16:37:35.032
200.0, -9729.110864294871, -19921.439280681527, -26466.499443828994, -10333.390275644097, -1325.9278328332703, -14068.120904936899, 43416.520168366456, -13984.659491140783, -18470.431085876357, -764.0720324602166, -32149.139898912897, -22324.542382304953, 10183.186552904433, 21900.261569054317, 1931.548348849815, -20140.3522658768, 0.158, 0.883, -0.374, 192.0, 2.5, 24.0, 13.5, 80.0, 122.0, 32.0, 0.0, 0.0, 0.0, 1.6620646550328627E9, 0.0, 2022-09-01 16:37:35.032
202.0, -9599.627208665277, -19793.25202623034, -26350.583297083773, -10219.865765555593, -1225.166168828746, -13886.088298092878, 42905.603993607045, -13855.734629122571, -18546.404665279944, -822.2089197884703, -32214.831675867044, -22393.56456918294, 10084.414194156432, 21844.426911404957, 1848.55632168726, -20209.732080666075, 0.158, 0.883, -0.374, 192.0, 0.0, 0.0, 0.0, 0.0, 0.0, 0.0, 0.0, 0.0, 0.0, 1.6620646550328672E9, 0.0, 2022-09-01 16:37:35.032
204.0, -9724.26053574807, -19928.882411585142, -26443.81242320686, -10348.991793273903, -1331.4934172026417, -13943.934612743213, 43361.19960083957, -13965.951081031692, -18437.46226280478, -735.7300204908872, -32104.704630935747, -22311.37720482078, 10215.149547475523, 21872.65716465201, 1976.7659278829012, -20105.617654993257, 0.158, 0.883, -0.374, 192.0, 0.0, 0.0, 0.0, 0.0, 0.0, 0.0, 0.0, 0.0, 0.0, 1.662064655032872E9, 0.0, 2022-09-01 16:37:35.032
206.0, -9626.739874689565, -19821.750500410857, -26367.861195547724, -10243.871539100594, -1262.7841547470277, -13870.062097318423, 42985.82440445714, -13876.007661343536, -18555.077142128604, -836.4246292620456, -32214.965786333778, -22424.946418398195, 10106.229496744812, 21810.809887744177, 1858.7934206477905, -20212.883676634276, 0.158, 0.883, -0.374, 192.0, 0.0, 0.0, 0.0, 0.0, 0.0, 0.0, 0.0, 0.0, 0.0, 1.6620646550328765E9, 0.0, 2022-09-01 16:37:35.032
208.0, -9709.195459985192, -19909.011710764375, -26447.969847675544, -10343.649726349084, -1324.2738037435774, -14011.481584487152, 43287.28238192587, -13960.85488329588, -18446.492367564722, -738.1440088920605, -32106.291604792073, -22322.351911348334, 10155.649203735496, 21865.795179104232, 1960.873837575178, -20118.514611543967, 0.158, 0.883, -0.374, 192.0, 0.0, 0.0, 0.0, 0.0, 0.0, 0.0, 0.0, 0.0, 0.0, 1.6620646550328813E9, 0.0, 2022-09-01 16:37:35.032
210.0, -9643.213110353126, -19833.194593571974, -26376.779541585394, -10259.0707253302, -1340.5235219625858, -13994.695424401216, 43088.24009755136, -13899.32053081042, -18547.544604247167, -827.5509867132887, -32200.884187326934, -22418.91144739526, 10135.175005814435, 21795.118963136552, 1869.7457754308912, -20221.466746505113, 0.154, 0.8855, -0.372, 192.0, 2.0, 88.0, 13.5, 96.0, 122.0, 56.0, 0.0, 0.0, 0.0, 1.6620646550328858E9, 0.0, 2022-09-01 16:37:35.032
212.0, -9713.464643176156, -19912.722100343955, -26421.08069909581, -10342.95682227097, -1326.7995508670272, -13924.0862636669, 43207.01726758686, -13951.601261091384, -18444.726579752754, -730.6114710106219, -32086.197386526754, -22313.768841477497, 10206.96880900488, 21872.99244081884, 1983.516154708404, -20105.952931160085, 0.154, 0.8855, -0.372, 192.0, 0.0, 0.0, 0.0, 0.0, 0.0, 0.0, 0.0, 0.0, 0.0, 1.6620646550328903E9, 0.0, 2022-09-01 16:37:35.032
214.0, -9674.751421779565, -19864.75525674287, -26409.681309423606, -10303.438938073987, -1264.2817216255335, -13946.862691266859, 43203.08336056273, -13926.790824745993, -18589.856456501064, -881.6645600395871, -32236.15524007741, -22466.67712529625, 10058.933205477382, 21750.25901201475, 1850.232702521408, -20259.39765684577, 0.154, 0.8855, -0.372, 192.0, 0.0, 0.0, 0.0, 0.0, 0.0, 0.0, 0.0, 0.0, 0.0, 1.662064655032895E9, 0.0, 2022-09-01 16:37:35.032
216.0, -9664.715488519132, -19852.662962992545, -26392.202245259556, -10299.840307216682, -1221.7240001826287, -13950.23780467961, 43132.451848083954, -13922.700455510672, -18424.341788809514, -708.2820782997702, -32061.923392048287, -22296.35683254681, 10204.890096770538, 21881.240234522847, 1989.4617187335157, -20093.54771298739, 0.154, 0.8855, -0.372, 192.0, 0.0, 0.0, 0.0, 0.0, 0.0, 0.0, 0.0, 0.0, 0.0, 1.6620646550328996E9, 0.0, 2022-09-01 16:37:35.032
218.0, -9693.459831888656, -19875.104114425674, -26429.79787943338, -10324.94131623999, -1343.5633592085076, -13969.862636311369, 43317.50194042944, -13956.540996616006, -18573.942014448883, -873.2603041243916, -32222.99006259323, -22457.31174436948, 10061.123676434003, 21764.608831955058, 1838.5650919157376, -20251.708656753144, 0.154, 0.8855, -0.372, 192.0, 0.0, 0.0, 0.0, 0.0, 0.0, 0.0, 0.0, 0.0, 0.0, 1.6620646550329044E9, 0.0, 2022-09-01 16:37:35.032
220.0, -9652.019697668517, -19835.49682325087, -26363.03321874538, -10279.299054062254, -1311.35449544841, -13891.69858595116, 43054.77953610176, -13909.244705348578, -18424.140623109415, -717.7145144599098, -32064.695008360748, -22299.6648907262, 10223.330285946166, 21897.489952741857, 1976.9447418385437, -20099.44857352359, 0.153, 0.88575, -0.37, 192.0, 2.0, 96.0, 13.5, 88.0, 122.0, 64.0, 0.0, 0.0, 0.0, 1.662064655032909E9, 0.0, 2022-09-01 16:37:35.032
222.0, -9726.585117171422, -19900.13806821562, -26440.593772005293, -10337.1900722015, -1377.9850456696804, -13980.747935861104, 43418.822398045355, -13969.952043289191, -18560.016877653226, -857.0329376498387, -32207.61206240798, -22438.715092982664, 10086.04587150167, 21775.158855337962, 1871.13158358712, -20224.506583751034, 0.153, 0.88575, -0.37, 192.0, 0.0, 0.0, 0.0, 0.0, 0.0, 0.0, 0.0, 0.0, 0.0, 1.6620646550329137E9, 0.0, 2022-09-01 16:37:35.032
224.0, -9670.772811266519, -19850.60660250266, -26371.951564783045, -10271.69946094745, -1277.290436898522, -13982.848999839904, 43005.20336689989, -13918.028940919512, -18468.66529806439, -745.4083258400352, -32101.217758800718, -22327.76103350652, 10162.533541027731, 21861.637754635543, 1937.6056715972034, -20119.118108644263, 0.153, 0.88575, -0.37, 192.0, 0.0, 0.0, 0.0, 0.0, 0.0, 0.0, 0.0, 0.0, 0.0, 1.6620646550329182E9, 0.0, 2022-09-01 16:37:35.032
226.0, -9732.150701540793, -19910.41987066506, -26444.393568562697, -10342.018049003846, -1256.168038388257, -13964.006479264079, 43511.22450962359, -13969.929691544736, -18566.834159712096, -865.0348621648386, -32209.489608942225, -22442.581944773432, 10086.403499412954, 21781.64086123, 1863.5319904723158, -20227.34525529686, 0.153, 0.88575, -0.37, 192.0, 0.0, 0.0, 0.0, 0.0, 0.0, 0.0, 0.0, 0.0, 0.0, 1.6620646550329227E9, 0.0, 2022-09-01 16:37:35.032
228.0, -9668.001194954062, -19847.611468745647, -26352.21497442901, -10284.417603542519, -1302.0785214994576, -13931.864670737348, 42955.98482560931, -13909.691740237682, -18459.188158415338, -746.771782251809, -32081.704685891236, -22329.28095212948, 10171.384831832032, 21869.99730706183, 1948.9156542915887, -20119.878067955742, 0.153, 0.88575, -0.37, 192.0, 0.0, 0.0, 0.0, 0.0, 0.0, 0.0, 0.0, 0.0, 0.0, 1.6620646550329285E9, 0.0, 2022-09-01 16:37:35.032
230.0, -9759.106905353894, -19929.84353659672, -26448.23806860901, -10376.395031976108, -1352.414650012809, -13972.656604368283, 43586.326370993425, -13988.168715020265, -18571.05863941415, -881.7539670174083, -32207.813228108076, -22468.97935497515, 10054.261690886224, 21765.346439522084, 1878.8429354242012, -20253.027409676008, 0.14450000000000002, 0.8848750000000001, -0.368, 192.0, 2.0, 32.0, 13.5, 80.0, 122.0, 72.0, 0.0, 0.0, 0.0, 1.6620646550329328E9, 0.0, 2022-09-01 16:37:35.032
232.0, -9633.758322448532, -19810.10524154964, -26319.53672403535, -10267.519684734307, -1272.4624600961758, -13867.871626361803, 42925.07236302762, -13844.961088295113, -18467.41360037489, -747.3305758631916, -32088.566671439014, -22348.346990149857, 10198.87747751206, 21872.925385585473, 1940.0420117428318, -20136.597172808313, 0.14450000000000002, 0.8848750000000001, -0.368, 192.0, 0.0, 0.0, 0.0, 0.0, 0.0, 0.0, 0.0, 0.0, 0.0, 1.6620646550329375E9, 0.0, 2022-09-01 16:37:35.032
234.0, -9766.5053327686, -19938.158385534094, -26458.65398152518, -10390.655444938595, -1410.3727233854204, -14058.420247843296, 43625.82190344595, -13986.291168486021, -18538.738016931777, -850.7744492023527, -32181.572280117547, -22452.3496571004, 10117.3383137391, 21751.466006215338, 1897.1043106441869, -20232.03912163247, 0.14450000000000002, 0.8848750000000001, -0.368, 192.0, 0.0, 0.0, 0.0, 0.0, 0.0, 0.0, 0.0, 0.0, 0.0, 1.6620646550329423E9, 0.0, 2022-09-01 16:37:35.032
236.0, -9635.457055027135, -19799.219941999905, -26330.15380265162, -10266.491504489364, -1227.8260264189275, -13882.444963746664, 42914.768208833724, -13853.45475118813, -18475.48258012326, -759.0652417022278, -32109.331442037994, -22366.89893804776, 10164.612253262074, 21895.52299922979, 1929.6931540600247, -20162.212271954093, 0.14450000000000002, 0.8848750000000001, -0.368, 192.0, 0.0, 0.0, 0.0, 0.0, 0.0, 0.0, 0.0, 0.0, 0.0, 1.662064655032947E9, 0.0, 2022-09-01 16:37:35.032
238.0, -9786.241923122636, -19946.495586215926, -26482.637403325727, -10399.037349109334, -1333.9521090927255, -14107.303512967053, 43650.431174091245, -14006.810069895992, -18527.80801389313, -854.3283765707465, -32178.621849849445, -22443.63247676283, 10101.915610064938, 21764.944108121887, 1889.683531485025, -20241.96329617063, 0.14450000000000002, 0.8848750000000001, -0.368, 192.0, 0.0, 0.0, 0.0, 0.0, 0.0, 0.0, 0.0, 0.0, 0.0, 1.6620646550329516E9, 0.0, 2022-09-01 16:37:35.032
240.0, -9624.5717554774, -19786.18887498246, -26311.423040798076, -10221.340980689643, -1277.648064809807, -13939.397208618786, 42922.16663624843, -13834.344009678844, -18502.639949636454, -810.764826627353, -32136.622922017927, -22390.368269725834, 10128.871813878039, 21865.6610686375, 1884.9226099160446, -20192.43183045767, 0.14625, 0.8874375000000001, -0.368, 192.0, 2.0, 80.0, 13.5, 104.0, 122.0, 64.0, 0.0, 0.0, 0.0, 1.662064655108974E9, 0.0, 2022-09-01 16:37:35.108
242.0, -9807.051397210527, -19964.220519568982, -26491.041659240924, -10394.321131029265, -1359.3436907939542, -14007.480622229652, 43642.00456643159, -13984.883008585335, -18482.4116209044, -826.8133791462635, -32137.986378429698, -22395.084487805903, 10148.898976909994, 21836.357931656592, 1932.330659905751, -20188.65438564472, 0.14625, 0.8874375000000001, -0.368, 192.0, 0.0, 0.0, 0.0, 0.0, 0.0, 0.0, 0.0, 0.0, 0.0, 1.6620646551089883E9, 0.0, 2022-09-01 16:37:35.108
244.0, -9645.314174331925, -19797.945892565953, -26346.627038315182, -10233.053294784224, -1219.1535495702685, -13830.745378821539, 42970.66992171644, -13818.83189902686, -18548.952764147853, -865.057213909294, -32193.55281514559, -22440.86086045037, 10045.70097275984, 21804.12671615204, 1836.5310831703048, -20232.128528610294, 0.14625, 0.8874375000000001, -0.368, 192.0, 0.0, 0.0, 0.0, 0.0, 0.0, 0.0, 0.0, 0.0, 0.0, 1.662064655108994E9, 0.0, 2022-09-01 16:37:35.108
246.0, -9794.065033681993, -19945.355647248703, -26491.376935407752, -10382.027671578846, -1257.3526808443883, -14037.499015033129, 43616.25535681908, -13973.975357291147, -18468.732353297753, -804.4616346909565, -32127.145782368876, -22381.025240543517, 10134.347991269588, 21888.213978792905, 1912.0576276847873, -20168.671926101677, 0.14625, 0.8874375000000001, -0.368, 192.0, 0.0, 0.0, 0.0, 0.0, 0.0, 0.0, 0.0, 0.0, 0.0, 1.6620646551089988E9, 0.0, 2022-09-01 16:37:35.108
248.0, -9653.114933146828, -19794.88370357558, -26338.35689286672, -10232.539204661753, -1294.1436522178237, -13969.952043289191, 43022.99535548632, -13842.211823727112, -18544.57182223461, -864.0066819198945, -32190.177701732842, -22450.382703588333, 10084.19067671188, 21849.143129485026, 1812.7041235809475, -20240.66689499222, 0.14625, 0.8874375000000001, -0.368, 192.0, 0.0, 0.0, 0.0, 0.0, 0.0, 0.0, 0.0, 0.0, 0.0, 1.6620646551090033E9, 0.0, 2022-09-01 16:37:35.109
250.0, -9813.220478680192, -19961.13597883415, -26483.218548681565, -10397.271561297364, -1386.3445980959652, -14104.375434443407, 43562.65587361525, -13997.355281991397, -18464.686687551344, -812.2400417614034, -32114.919378151822, -22393.56456918294, 10164.120514884056, 21881.642565923044, 1926.7203720474688, -20172.449370914623, 0.146125, 0.8917187500000001, -0.365, 192.0, 2.0, 72.0, 14.0, 0.0, 122.0, 88.0, 0.0, 0.0, 0.0, 1.662064655109008E9, 0.0, 2022-09-01 16:37:35.109
252.0, -9706.133270994815, -19854.49580603788, -26397.18668427309, -10294.14061238058, -1274.9658554751702, -13929.115406169345, 43115.08454264219, -13893.062042362935, -18597.97013973834, -927.7091536175196, -32240.42442326837, -22511.425317695775, 9971.582588146042, 21775.36002103806, 1779.4223760869952, -20299.720203843142, 0.146125, 0.8917187500000001, -0.365, 192.0, 0.0, 0.0, 0.0, 0.0, 0.0, 0.0, 0.0, 0.0, 0.0, 1.6620646551090124E9, 0.0, 2022-09-01 16:37:35.109
254.0, -9784.878466710863, -19933.822147109764, -26444.28180984042, -10361.084087024223, -1314.550794905519, -14049.837177972458, 43504.98837292056, -13965.973432776145, -18471.392210887934, -819.3702482426463, -32117.176904341806, -22400.448906475176, 10163.62877650604, 21867.896243083032, 1904.5027380588936, -20177.970251795086, 0.146125, 0.8917187500000001, -0.365, 192.0, 0.0, 0.0, 0.0, 0.0, 0.0, 0.0, 0.0, 0.0, 0.0, 1.662064655109017E9, 0.0, 2022-09-01 16:37:35.109
0.0, -9702.422881415234, -19840.771834942323, -26373.046800261356, -10271.632405714085, -1202.747369140073, -13925.539127056496, 43208.40307574309, -13869.570358940407, -18583.35209886457, -909.5818888642656, -32219.749059647213, -22504.07159376998, 10035.575632521586, 21808.664120276466, 1796.432053617484, -20285.146866458283, 0.146125, 0.8917187500000001, -0.365, 192.0, 0.0, 0.0, 0.0, 0.0, 0.0, 0.0, 0.0, 0.0, 0.0, 1.6620646555757213E9, 0.0, 2022-09-01 16:37:35.575
2.0, -9788.924132457272, -19935.61028666619, -26432.457737023564, -10354.28915670981, -1323.8491205989267, -14097.848725062458, 43435.4520959201, -13958.150322216788, -18447.006457687196, -790.3353321952025, -32087.627898171893, -22387.082563290904, 10172.77063998826, 21901.803839421733, 1928.6426220706253, -20154.076236972363, 0.146125, 0.8917187500000001, -0.365, 192.0, 0.0, 0.0, 0.0, 0.0, 0.0, 0.0, 0.0, 0.0, 0.0, 1.6620646555757937E9, 0.0, 2022-09-01 16:37:35.575
4.0, -9745.137065069326, -19885.430620364026, -26404.31689075433, -10310.077406177212, -1267.8356489939272, -13981.61965389486, 43318.59717590776, -13906.406033802752, -18590.638767556997, -942.3495462357457, -32238.39041452294, -22543.58947796696, 10037.587289522564, 21789.30750957817, 1794.5992105721486, -20304.63758762331, 0.1410625, 0.8878593750000001, -0.3635, 192.0, 2.0, 32.0, 13.5, 80.0, 122.0, 88.0, 0.0, 0.0, 0.0, 1.6620646555758488E9, 0.0, 2022-09-01 16:37:35.575
6.0, -9807.654894310821, -19948.75311240591, -26456.172937890642, -10384.1510873021, -1267.4780210826423, -13964.47586589764, 43359.67968221661, -13952.920014014247, -18477.784809802153, -837.0281263623389, -32109.48790424918, -22433.708302224673, 10136.918441881948, 21826.41140537398, 1894.42210130955, -20184.653423387223, 0.1410625, 0.8878593750000001, -0.3635, 192.0, 0.0, 0.0, 0.0, 0.0, 0.0, 0.0, 0.0, 0.0, 0.0, 1.6620646555758536E9, 0.0, 2022-09-01 16:37:35.575
8.0, -9752.200216317204, -19885.005937219375, -26410.597730946272, -10305.919981708525, -1309.2087279807006, -14063.762314768115, 43424.83501730383, -13922.096958410379, -18609.369529410546, -967.1152790922259, -32242.749004691723, -22564.93539392178, 9989.665149410386, 21764.273555788226, 1774.9296754514785, -20312.863029582863, 0.1410625, 0.8878593750000001, -0.3635, 192.0, 0.0, 0.0, 0.0, 0.0, 0.0, 0.0, 0.0, 0.0, 0.0, 1.662064655575858E9, 0.0, 2022-09-01 16:37:35.575
10.0, -9750.12150408286, -19885.095344197198, -26389.497684180464, -10317.073502191723, -1277.9609892321814, -13992.974340078157, 43269.22217240598, -13908.551801270462, -18442.22318437376, -791.0505880177723, -32055.24022045615, -22386.00967955705, 10136.516110481753, 21904.553103989736, 1925.8039505248012, -20136.70893153059, 0.1410625, 0.8878593750000001, -0.3635, 192.0, 0.0, 0.0, 0.0, 0.0, 0.0, 0.0, 0.0, 0.0, 0.0, 1.662064655575863E9, 0.0, 2022-09-01 16:37:35.575
12.0, -9784.945521944228, -19913.817335822267, -26424.56757123084, -10345.124941483135, -1320.518710675086, -14065.528102580083, 43529.99997496605, -13948.248499423087, -18589.208255911857, -954.6877091750753, -32207.053268796597, -22552.016085626616, 10028.512481273709, 21749.566107936636, 1801.2823821642855, -20294.624006107333, 0.1410625, 0.8878593750000001, -0.3635, 192.0, 0.0, 0.0, 0.0, 0.0, 0.0, 0.0, 0.0, 0.0, 0.0, 1.6620646555758674E9, 0.0, 2022-09-01 16:37:35.575
14.0, -9751.574367472454, -19881.65317555108, -26375.974878785, -10317.386426614097, -1218.1477210697797, -13990.806220865992, 43199.104750049686, -13908.529449526008, -18466.631289318953, -818.252661019881, -32063.353903693427, -22417.749156683585, 10150.06126762167, 21893.33252827317, 1898.356008333684, -20166.168530722683, 0.1410625, 0.8878593750000001, -0.3635, 192.0, 0.0, 0.0, 0.0, 0.0, 0.0, 0.0, 0.0, 0.0, 0.0, 1.662064655575872E9, 0.0, 2022-09-01 16:37:35.575
16.0, -9797.686016283753, -19922.780385348844, -26439.297370826887, -10363.587482403218, -1263.745279758606, -13951.735371558116, 43617.10472310838, -13948.0920372119, -18583.307395375658, -961.728508678497, -32196.883225069432, -22555.234736828177, 10016.151966589925, 21731.7294158613, 1801.5058996088387, -20303.654110867275, 0.132, 0.88, -0.368, 192.0, 2.0, 16.0, 13.5, 64.0, 122.0, 64.0, 0.0, 0.0, 0.0, 1.6620646555758765E9, 0.0, 2022-09-01 16:37:35.575
18.0, -9709.173108240737, -19839.430730275006, -26337.97691321098, -10267.095001589656, -1200.8698226058273, -14037.387256310853, 43124.6287375246, -13880.187437556677, -18446.380608842446, -798.4937189213895, -32041.136269704853, -22397.65493841826, 10147.088485609112, 21896.841752152653, 1903.809833980779, -20154.769141050478, 0.132, 0.88, -0.368, 192.0, 0.0, 0.0, 0.0, 0.0, 0.0, 0.0, 0.0, 0.0, 0.0, 1.6620646555758812E9, 0.0, 2022-09-01 16:37:35.575
20.0, -9821.55767936202, -19944.550984448313, -26446.47228079704, -10375.322148242254, -1318.5741089074743, -14036.381427810364, 43689.79259607704, -13965.81697056496, -18557.46877878532, -931.1960257525475, -32161.74628278569, -22525.104585302422, 10022.008123637215, 21774.756523937765, 1833.3124319687406, -20265.72320052662, 0.132, 0.88, -0.368, 192.0, 0.0, 0.0, 0.0, 0.0, 0.0, 0.0, 0.0, 0.0, 0.0, 1.6620646555758855E9, 0.0, 2022-09-01 16:37:35.575
22.0, -9732.016591074062, -19860.64253576309, -26342.11198593521, -10290.363167567632, -1250.8036197189833, -13916.352560085365, 43080.19346954745, -13884.926007381202, -18489.675937852375, -843.3313182987355, -32069.165357251808, -22439.855031949883, 10098.719310607828, 21856.161577243995, 1876.3395400452066, -20184.98869955405, 0.132, 0.88, -0.368, 192.0, 0.0, 0.0, 0.0, 0.0, 0.0, 0.0, 0.0, 0.0, 0.0, 1.6620646555758913E9, 0.0, 2022-09-01 16:37:35.575
24.0, -9838.500301659144, -19961.04657185633, -26438.068024881846, -10377.758488387883, -1296.9823237636476, -14039.935355178757, 43738.38528852288, -13983.094869028911, -18569.67283125792, -955.7158894200194, -32155.487794338205, -22545.243507056657, 10041.677658757884, 21739.887802587487, 1838.4086297045505, -20271.66876455173, 0.132, 0.88, -0.368, 192.0, 0.0, 0.0, 0.0, 0.0, 0.0, 0.0, 0.0, 0.0, 0.0, 1.6620646555758955E9, 0.0, 2022-09-01 16:37:35.575
26.0, -9719.96900081265, -19844.683390222002, -26306.662119229095, -10241.971640821892, -1227.4236950187321, -14064.142294423855, 43041.34613768413, -13866.955204839136, -18486.926673284375, -829.6967541809981, -32052.736825077158, -22419.179668328725, 10086.33644417959, 21909.269322069806, 1881.5921999922039, -20157.786626551944, 0.13, 0.884, -0.368, 192.0, 2.0, 8.0, 13.5, 80.0, 122.0, 64.0, 0.0, 0.0, 0.0, 1.6620646555759003E9, 0.0, 2022-09-01 16:37:35.575
28.0, -9878.822848656519, -20001.503229320435, -26475.797769522404, -10411.174346348565, -1344.1221528198903, -14102.497887909161, 43760.04412890007, -14012.018026354079, -18548.5280810032, -933.8111798538184, -32141.808526731555, -22513.191105507747, 10042.348211091545, 21765.435846499902, 1859.5980834481818, -20238.319961824414, 0.13, 0.884, -0.368, 192.0, 0.0, 0.0, 0.0, 0.0, 0.0, 0.0, 0.0, 0.0, 0.0, 1.6620646555759048E9, 0.0, 2022-09-01 16:37:35.575
30.0, -9717.622067644843, -19838.559012241247, -26333.171288153088, -10258.802504396737, -1204.4013982297658, -13960.296089684498, 43035.84760854812, -13862.574262925895, -18520.208420778326, -880.5469728168217, -32104.615223957924, -22466.811235762983, 10050.596004795552, 21817.761280269777, 1840.5320454278049, -20201.260769517514, 0.13, 0.884, -0.368, 192.0, 0.0, 0.0, 0.0, 0.0, 0.0, 0.0, 0.0, 0.0, 0.0, 1.6620646555759094E9, 0.0, 2022-09-01 16:37:35.575
32.0, -9866.864665372928, -19987.131057635674, -26478.9493654906, -10415.1082533727, -1307.420588424276, -14060.87893973338, 43761.51934403412, -14011.39217750933, -18526.444557481358, -917.8967378016398, -32120.01557588763, -22494.058012254, 10043.868129714505, 21766.240509300293, 1854.1442578010867, -20225.646522718256, 0.13, 0.884, -0.368, 192.0, 0.0, 0.0, 0.0, 0.0, 0.0, 0.0, 0.0, 0.0, 0.0, 1.662064655575914E9, 0.0, 2022-09-01 16:37:35.575
34.0, -9738.766817899565, -19860.21785261844, -26350.78446278387, -10280.818972685216, -1198.4334824601988, -13953.590566347906, 43053.84076283464, -13887.004719615546, -18532.323066273104, -896.5955253357322, -32103.631747201893, -22476.869520767872, 10012.329818288066, 21813.201524400894, 1816.7944928162688, -20217.84576390335, 0.13, 0.884, -0.368, 192.0, 0.0, 0.0, 0.0, 0.0, 0.0, 0.0, 0.0, 0.0, 0.0, 1.662064655575919E9, 0.0, 2022-09-01 16:37:35.575
36.0, -9861.589653681476, -19988.00277566943, -26456.1952896351, -10395.908104885591, -1331.7839898805607, -14125.27431550912, 43739.771096679106, -14019.148232835321, -18514.419318964403, -901.9599440050059, -32093.282889519083, -22475.97545098966, 10026.053789383626, 21786.379431054527, 1860.5368567153046, -20215.878810391285, 0.124, 0.878, -0.364, 192.0, 1.5, 112.0, 13.5, 56.0, 122.0, 80.0, 0.0, 0.0, 0.0, 1.6620646555759244E9, 0.0, 2022-09-01 16:37:35.575
38.0, -9745.226472047147, -19866.319878854738, -26335.518221320897, -10280.193123840467, -1244.3216138269443, -13948.024981978535, 43095.705580199436, -13893.062042362935, -18547.902232158453, -916.8015023233298, -32106.06808734752, -22494.348584931922, 9990.670977910875, 21778.958651895366, 1814.0452282482659, -20236.442415290167, 0.124, 0.878, -0.364, 192.0, 0.0, 0.0, 0.0, 0.0, 0.0, 0.0, 0.0, 0.0, 0.0, 1.662064655575929E9, 0.0, 2022-09-01 16:37:35.575
40.0, -9874.441906743277, -20000.38564209767, -26447.500461041986, -10406.122852101667, -1316.5401001620412, -14074.133524195377, 43697.92863105877, -14009.87225888637, -18488.55835062961, -890.9405339885395, -32053.80970881101, -22459.52456707055, 10069.505580604742, 21749.700218403366, 1886.777804705835, -20187.00035655503, 0.124, 0.878, -0.364, 192.0, 0.0, 0.0, 0.0, 0.0, 0.0, 0.0, 0.0, 0.0, 0.0, 1.6620646555759337E9, 0.0, 2022-09-01 16:37:35.575
42.0, -9769.120486869871, -19887.50933259837, -26345.867079003703, -10291.70427223495, -1210.682238421707, -13919.504156053563, 43161.486764131405, -13889.530466738996, -18561.357982320547, -941.5448834353547, -32117.400421786362, -22516.92384683178, 9970.06266952308, 21780.903253662975, 1812.3241439252072, -20245.87485145031, 0.124, 0.878, -0.364, 192.0, 0.0, 0.0, 0.0, 0.0, 0.0, 0.0, 0.0, 0.0, 0.0, 1.662064655575938E9, 0.0, 2022-09-01 16:37:35.575
44.0, -9895.497250020177, -20005.280674133384, -26461.783225748924, -10400.937247388036, -1302.1232249883683, -14151.425856521828, 43644.64207227732, -14015.974285122667, -18504.070461281593, -900.216507937492, -32067.82425258449, -22466.58771831843, 10043.644612269953, 21755.5340237062, 1886.4201767945501, -20181.56888265239, 0.124, 0.878, -0.364, 192.0, 0.0, 0.0, 0.0, 0.0, 0.0, 0.0, 0.0, 0.0, 0.0, 1.6620646555759428E9, 0.0, 2022-09-01 16:37:35.575
46.0, -9784.677301010764, -19891.622053578147, -26367.83884380327, -10288.351510566654, -1220.3158402819445, -13986.402927208297, 43246.87042795068, -13902.427423289708, -18585.408459354458, -953.5701219523099, -32143.574314543526, -22527.429166725775, 9923.839261989506, 21807.814753987164, 1802.6681903205147, -20238.00703740204, 0.128, 0.888, -0.366, 192.0, 2.0, 0.0, 13.5, 96.0, 122.0, 72.0, 0.0, 0.0, 0.0, 1.6620646555759473E9, 0.0, 2022-09-01 16:37:35.575
48.0, -9881.393299268879, -19996.47408681799, -26445.153527874176, -10398.545610731318, -1329.3476497349322, -14087.701033079748, 43567.26033297305, -14003.658473927793, -18488.491295396245, -879.3399786162352, -32044.35492090642, -22441.10672963938, 10046.058600671126, 21786.73705896581, 1906.5143950598713, -20148.13067294725, 0.128, 0.888, -0.366, 192.0, 0.0, 0.0, 0.0, 0.0, 0.0, 0.0, 0.0, 0.0, 0.0, 1.662064655575952E9, 0.0, 2022-09-01 16:37:35.575
50.0, -9813.13107170237, -19925.97668480595, -26393.565701671327, -10320.158042926556, -1268.8861809833265, -14037.163738866298, 43345.843952398776, -13935.239784150099, -18598.95361649437, -982.5603345108432, -32154.861945493456, -22552.21725132671, 9968.855675322495, 21740.200727009862, 1785.882030234579, -20265.611441804343, 0.128, 0.888, -0.366, 192.0, 0.0, 0.0, 0.0, 0.0, 0.0, 0.0, 0.0, 0.0, 0.0, 1.6620646555759563E9, 0.0, 2022-09-01 16:37:35.575
52.0, -9877.81702015603, -19996.831714729276, -26437.46452778155, -10389.269636782365, -1283.9959602351141, -14048.741942494147, 43485.65411396672, -13985.061822540978, -18475.37082140098, -875.5178303143776, -32030.38508062185, -22441.665523250762, 10047.690278016362, 21792.235588101816, 1894.6903222430137, -20147.57187933587, 0.128, 0.888, -0.366, 192.0, 0.0, 0.0, 0.0, 0.0, 0.0, 0.0, 0.0, 0.0, 0.0, 1.662064655575961E9, 0.0, 2022-09-01 16:37:35.575
54.0, -9820.797720050541, -19931.69873138651, -26387.620137646216, -10321.499147593875, -1273.7588612745835, -14040.695314490238, 43438.33547095484, -13931.797615503981, -18600.45118337288, -992.4174538156336, -32152.51501232565, -22564.868338688415, 9920.844128232495, 21724.35334019105, 1790.4641378479168, -20264.851482492864, 0.128, 0.888, -0.366, 192.0, 0.0, 0.0, 0.0, 0.0, 0.0, 0.0, 0.0, 0.0, 0.0, 1.6620646555759656E9, 0.0, 2022-09-01 16:37:35.575
56.0, -9831.548909133544, -19951.189452551538, -26376.064285762823, -10351.606947375172, -1240.9688521586481, -13959.71494432866, 43391.910897721165, -13928.154281157767, -18453.242594390227, -841.6549374645874, -31992.677687725747, -22412.898828136782, 10083.765993567229, 21814.967312212862, 1927.6591453145918, -20113.239599852517, 0.13, 0.886, -0.366, 192.0, 2.0, 8.0, 13.5, 88.0, 122.0, 72.0, 0.0, 0.0, 0.0, 1.6620646555759702E9, 0.0, 2022-09-01 16:37:35.575
58.0, -9827.078560242482, -19940.505318701904, -26380.489931164975, -10329.1881476865, -1304.3807511783543, -14083.253035933143, 43536.86196051383, -13942.973487731635, -18567.281194601204, -973.4631745175332, -32113.310052551038, -22542.583649466473, 9973.996576547215, 21729.20366873785, 1827.165702243531, -20236.062435634427, 0.13, 0.886, -0.366, 192.0, 0.0, 0.0, 0.0, 0.0, 0.0, 0.0, 0.0, 0.0, 0.0, 1.6620646555759747E9, 0.0, 2022-09-01 16:37:35.575
60.0, -9842.545967405555, -19961.292441045338, -26374.209090973032, -10343.537967626808, -1245.6627184942627, -14061.1695124113, 43317.18901600707, -13947.153263944778, -18455.50012058021, -853.0543271367941, -31988.363801045874, -22420.43136601822, 10059.044964199658, 21819.7505855263, 1916.393866109117, -20117.017044665463, 0.13, 0.886, -0.366, 192.0, 0.0, 0.0, 0.0, 0.0, 0.0, 0.0, 0.0, 0.0, 0.0, 1.6620646555759792E9, 0.0, 2022-09-01 16:37:35.575
62.0, -9899.118232621937, -20013.260246903927, -26433.08358586831, -10380.641863422617, -1313.5673181494853, -13995.589494179429, 43645.69260426672, -13981.284377728032, -18607.693148576396, -1011.2376226470021, -32146.904724467367, -22572.75850448114, 9907.835412959506, 21687.741182773254, 1790.6653035480147, -20267.980726716607, 0.13, 0.886, -0.366, 192.0, 0.0, 0.0, 0.0, 0.0, 0.0, 0.0, 0.0, 0.0, 0.0, 1.6620646555759847E9, 0.0, 2022-09-01 16:37:35.575
64.0, -9828.553775376533, -19943.679266414558, -26353.533727351874, -10305.51765030833, -1169.689139090674, -13976.232883481132, 43245.64108200563, -13917.961885686147, -18487.597225618032, -870.8463157232185, -32009.508551300594, -22434.4459097917, 10056.005126953736, 21768.7886081682, 1902.9828194359327, -20129.06463492687, 0.13, 0.886, -0.366, 192.0, 0.0, 0.0, 0.0, 0.0, 0.0, 0.0, 0.0, 0.0, 0.0, 1.6620646555759892E9, 0.0, 2022-09-01 16:37:35.575
66.0, -9925.448587590288, -20034.472052392015, -26457.022304179944, -10397.495078741918, -1347.9443011217477, -14149.995344876688, 43737.71473618922, -14018.38827352384, -18608.229590443327, -996.306657350857, -32139.32748309702, -22565.18126311079, 9915.792633985595, 21706.024909737698, 1808.4125886455286, -20254.882604465798, 0.134, 0.886, -0.362, 192.0, 2.0, 24.0, 13.5, 88.0, 122.0, 88.0, 0.0, 0.0, 0.0, 1.662064655575994E9, 0.0, 2022-09-01 16:37:35.575
68.0, -9805.218554165192, -19920.7016731145, -26336.904029477126, -10311.150289911067, -1194.0525405469587, -13904.863763435336, 43187.973581310944, -13889.150487083256, -18495.17446698838, -876.3671966036793, -32011.72137400167, -22446.113520397368, 10018.387141035455, 21788.726364222333, 1887.2918948283072, -20143.88384150074, 0.134, 0.886, -0.362, 192.0, 0.0, 0.0, 0.0, 0.0, 0.0, 0.0, 0.0, 0.0, 0.0, 1.6620646555760005E9, 0.0, 2022-09-01 16:37:35.576
70.0, -9910.517622294143, -20020.636322574177, -26451.300257599385, -10404.82645092326, -1363.0093768846248, -14078.335652152975, 43794.19759442778, -14016.1083955894, -18560.843892198074, -973.1278983507036, -32096.993279098664, -22541.689579688264, 9943.978183743739, 21678.755781502223, 1833.1336180130982, -20233.96137165563, 0.134, 0.886, -0.362, 192.0, 0.0, 0.0, 0.0, 0.0, 0.0, 0.0, 0.0, 0.0, 0.0, 1.662064655576005E9, 0.0, 2022-09-01 16:37:35.576
72.0, -9800.4129291073, -19910.956312531987, -26334.288875375853, -10291.436051301485, -1252.5917592754079, -14043.466930802695, 43147.04753721327, -13913.335074583898, -18502.282321725168, -884.1903071630368, -32020.393850850327, -22461.11154092688, 10013.156832832914, 21799.030518416228, 1866.4153655070504, -20154.724437561566, 0.134, 0.886, -0.362, 192.0, 0.0, 0.0, 0.0, 0.0, 0.0, 0.0, 0.0, 0.0, 0.0, 1.6620646555760095E9, 0.0, 2022-09-01 16:37:35.576
74.0, -9917.826642731028, -20024.39141564267, -26454.407150078674, -10407.86628816918, -1304.7383790896392, -14058.487303076661, 43838.38699321592, -14012.621523454372, -18554.048961883662, -959.7392034219747, -32085.280965004084, -22531.89951561684, 9965.34645144301, 21711.94812201835, 1845.717650141436, -20222.62903721679, 0.134, 0.886, -0.362, 192.0, 0.0, 0.0, 0.0, 0.0, 0.0, 0.0, 0.0, 0.0, 0.0, 1.6620646555760143E9, 0.0, 2022-09-01 16:37:35.576
76.0, -9808.213687922203, -19915.918399801067, -26354.763073296916, -10314.726569023916, -1158.1109354628247, -13948.136740700811, 43141.124324932614, -13894.537257496984, -18506.685615382867, -881.0834146837491, -32014.269472869575, -22453.713113512174, 9961.367840929966, 21781.529102507724, 1864.1801910615197, -20160.89351903123, 0.132, 0.886, -0.362, 192.0, 2.0, 16.0, 13.5, 88.0, 122.0, 88.0, 0.0, 0.0, 0.0, 1.6620646555760188E9, 0.0, 2022-09-01 16:37:35.576
78.0, -9942.994706987703, -20048.508947909948, -26472.892042743213, -10442.556195563817, -1369.5360862655743, -14148.587184976004, 43866.59489471852, -14044.53981453655, -18564.956613177852, -981.0404158878823, -32087.806712127534, -22541.622524454895, 9946.63804133392, 21674.53130180017, 1833.5806529022043, -20245.38311307229, 0.132, 0.886, -0.362, 192.0, 0.0, 0.0, 0.0, 0.0, 0.0, 0.0, 0.0, 0.0, 0.0, 1.6620646555760233E9, 0.0, 2022-09-01 16:37:35.576
80.0, -9803.810394264507, -19906.821239807756, -26336.92638122158, -10300.488507805885, -1241.1476661142906, -14045.590346525949, 43142.37602262211, -13904.081452379402, -18525.5728394476, -910.5206621313885, -32033.313159145495, -22483.955023760205, 9967.223997977257, 21763.245375543283, 1841.8955018395784, -20191.448353701635, 0.132, 0.886, -0.362, 192.0, 0.0, 0.0, 0.0, 0.0, 0.0, 0.0, 0.0, 0.0, 0.0, 1.662064655576028E9, 0.0, 2022-09-01 16:37:35.576
82.0, -9958.104486239492, -20059.21543350404, -26480.223414924552, -10463.544483607351, -1364.2163710852112, -14079.095611464456, 43862.951560372305, -14039.287154589552, -18538.20157506485, -958.6216161992093, -32064.24797347164, -22525.46221321371, 9965.16763748737, 21674.441894822347, 1851.0150135773438, -20222.405519772234, 0.132, 0.886, -0.362, 192.0, 0.0, 0.0, 0.0, 0.0, 0.0, 0.0, 0.0, 0.0, 0.0, 1.6620646555760326E9, 0.0, 2022-09-01 16:37:35.576
84.0, -9814.18160369177, -19910.08459449823, -26351.097387206246, -10308.535135809796, -1212.7833024005058, -13954.417580892752, 43177.35650269467, -13903.65676923475, -18559.368677064023, -945.9034736041395, -32069.701799118735, -22520.768346878096, 9930.522433581644, 21714.272703441704, 1809.910155524034, -20223.61251397282, 0.132, 0.886, -0.362, 192.0, 0.0, 0.0, 0.0, 0.0, 0.0, 0.0, 0.0, 0.0, 0.0, 1.6620646555760372E9, 0.0, 2022-09-01 16:37:35.576
86.0, -9947.219186689757, -20044.619744374722, -26465.650077539693, -10437.951736206023, -1333.348611992432, -14081.21902718771, 43831.65911813487, -14032.246355086132, -18511.938275329863, -927.3291739617794, -32028.462830598695, -22491.331099430456, 9978.623387649464, 21686.19891240584, 1884.006188393377, -20181.635937885756, 0.132, 0.89, -0.364, 192.0, 2.0, 16.0, 13.5, 120.0, 122.0, 72.0, 0.0, 0.0, 0.0, 1.6620646555760417E9, 0.0, 2022-09-01 16:37:35.576
88.0, -9814.829804280973, -19907.044757252308, -26342.849593502237, -10301.673150262017, -1218.7065146811624, -14020.310523546998, 43231.13479985414, -13901.443946533675, -18575.081953416106, -959.3145202773238, -32069.567688652005, -22530.044320827048, 9905.91316293635, 21696.078383455086, 1790.911172737023, -20234.631923989287, 0.132, 0.89, -0.364, 192.0, 0.0, 0.0, 0.0, 0.0, 0.0, 0.0, 0.0, 0.0, 0.0, 1.6620646555760465E9, 0.0, 2022-09-01 16:37:35.576
90.0, -9954.30468968209, -20050.34179095528, -26450.875574454734, -10449.239367155955, -1383.7964992280602, -14135.109083069454, 43784.11695767844, -14041.92466043528, -18496.917903055895, -904.9997812509276, -31990.800141191503, -22466.96769797417, 10008.50766998621, 21714.607979608536, 1894.4444530540054, -20169.409533668702, 0.132, 0.89, -0.364, 192.0, 0.0, 0.0, 0.0, 0.0, 0.0, 0.0, 0.0, 0.0, 0.0, 1.6620646555760512E9, 0.0, 2022-09-01 16:37:35.576
92.0, -9834.655801612831, -19925.61905689467, -26348.862212760712, -10333.546737855284, -1249.618977262852, -14023.618581726383, 43302.79449257785, -13917.716016497137, -18592.851590258073, -993.3115235938459, -32084.25278475914, -22553.021914127105, 9899.833488444507, 21654.19121434584, 1793.302809393741, -20258.235366134093, 0.132, 0.89, -0.364, 192.0, 0.0, 0.0, 0.0, 0.0, 0.0, 0.0, 0.0, 0.0, 0.0, 1.6620646555760555E9, 0.0, 2022-09-01 16:37:35.576
94.0, -9943.195872687802, -20038.316552438326, -26444.214754607056, -10450.692230545548, -1326.777199122572, -14092.283140693085, 43710.624421909386, -14025.071445115978, -18492.536961142654, -913.0687609992935, -31993.169426103763, -22467.906471241295, 10010.005236864716, 21695.318424143607, 1899.7194647454578, -20168.98485052405, 0.132, 0.89, -0.364, 192.0, 0.0, 0.0, 0.0, 0.0, 0.0, 0.0, 0.0, 0.0, 0.0, 1.6620646555760603E9, 0.0, 2022-09-01 16:37:35.576
96.0, -9869.703336918752, -19957.38088576566, -26392.336355726286, -10353.708011353972, -1194.7901481139838, -14021.562221236494, 43395.330714622825, -13947.33207790042, -18603.714538063352, -1008.175433656625, -32100.9271861228, -22572.42322831431, 9872.162028808836, 21660.04737139313, 1782.6186755441042, -20267.57839531641, 0.129, 0.889, -0.367, 192.0, 1.5, 120.0, 13.5, 96.0, 122.0, 56.0, 0.0, 0.0, 0.0, 1.6620646555760648E9, 0.0, 2022-09-01 16:37:35.576
98.0, -9948.090904723515, -20041.28933445088, -26440.66082723866, -10440.030448440368, -1372.4865165336748, -14130.191699289287, 43639.41176407478, -14032.626334741872, -18503.556371159124, -915.9297842895728, -31994.152902859798, -22476.869520767872, 9957.076305994548, 21724.219229724316, 1887.068377383754, -20160.5582428644, 0.129, 0.889, -0.367, 192.0, 0.0, 0.0, 0.0, 0.0, 0.0, 0.0, 0.0, 0.0, 0.0, 1.6620646555760696E9, 0.0, 2022-09-01 16:37:35.576
100.0, -9882.019148113626, -19968.243833570938, -26397.052573806355, -10382.34059600122, -1314.483739672153, -14038.795416211537, 43498.05933213942, -13974.064764268967, -18610.91179977796, -1021.6311838187199, -32093.998145341655, -22582.503865063652, 9859.354479235946, 21627.99496984422, 1773.141535895054, -20277.211997176648, 0.129, 0.889, -0.367, 192.0, 0.0, 0.0, 0.0, 0.0, 0.0, 0.0, 0.0, 0.0, 0.0, 1.662064655576075E9, 0.0, 2022-09-01 16:37:35.576
102.0, -9900.660502989353, -19985.7676012239, -26395.55500692785, -10407.218087579977, -1328.5206351900858, -14096.17234422831, 43556.68795784569, -14007.145346062822, -18480.444667392334, -890.6723130550758, -31958.03248382002, -22447.901659953794, 10027.014914395204, 21734.523383918215, 1896.2996478437958, -20152.645725327224, 0.129, 0.889, -0.367, 192.0, 0.0, 0.0, 0.0, 0.0, 0.0, 0.0, 0.0, 0.0, 0.0, 1.6620646555760796E9, 0.0, 2022-09-01 16:37:35.576
104.0, -9874.263092787634, -19951.256507784907, -26376.444265418562, -10364.481552181429, -1276.0610909534803, -14056.609756542417, 43592.56250769646, -13968.946214788702, -18591.77870652422, -1009.0918551792927, -32076.63083989988, -22565.762408466628, 9879.135773078891, 21623.65873141989, 1799.1142629521207, -20263.398619103267, 0.129, 0.889, -0.367, 192.0, 0.0, 0.0, 0.0, 0.0, 0.0, 0.0, 0.0, 0.0, 0.0, 1.6620646555760841E9, 0.0, 2022-09-01 16:37:35.576
106.0, -9886.28833130459, -19971.842464428242, -26364.396675157153, -10377.020880820857, -1268.5732565609524, -14030.68173297426, 43463.16825904468, -13973.81889507996, -18447.252326876205, -854.2836730818359, -31920.950939768667, -22411.222447302636, 10002.226829794268, 21772.856625659064, 1927.681497059047, -20110.535038773425, 0.1285, 0.8915, -0.3695, 192.0, 2.0, 0.0, 13.5, 120.0, 122.0, 48.0, 0.0, 0.0, 0.0, 1.662064655576089E9, 0.0, 2022-09-01 16:37:35.576
108.0, -9918.765415998152, -19998.128115907683, -26404.78627738789, -10394.499944984907, -1345.7314784206724, -14086.762259812625, 43688.563250132, -14011.593343209428, -18607.559038109666, -1033.0082217464712, -32093.752276152645, -22590.058754689548, 9875.939473621784, 21631.593600701526, 1786.329065123685, -20279.78244778901, 0.1285, 0.8915, -0.3695, 192.0, 0.0, 0.0, 0.0, 0.0, 0.0, 0.0, 0.0, 0.0, 0.0, 1.6620646555760932E9, 0.0, 2022-09-01 16:37:35.576
110.0, -9879.00166261216, -19961.985345123452, -26350.225669172487, -10368.95190107249, -1278.4303758657427, -14030.72643646317, 43382.14318539419, -13970.28731945602, -18459.83635900454, -874.2437808804251, -31934.9878352866, -22434.512965025064, 10019.549431747131, 21759.7361516638, 1906.6932090155137, -20126.40477733669, 0.1285, 0.8915, -0.3695, 192.0, 0.0, 0.0, 0.0, 0.0, 0.0, 0.0, 0.0, 0.0, 0.0, 1.662064655576098E9, 0.0, 2022-09-01 16:37:35.576
112.0, -9939.574890086042, -20015.271903904904, -26436.90573417017, -10423.244288354432, -1231.5364159985086, -14120.245173006675, 43785.10043443447, -14030.614677740894, -18603.580427596622, -1025.0510007203818, -32086.24209001566, -22586.460123832243, 9879.582807967998, 21635.95219087031, 1798.9354489964783, -20277.167293687737, 0.1285, 0.8915, -0.3695, 192.0, 0.0, 0.0, 0.0, 0.0, 0.0, 0.0, 0.0, 0.0, 0.0, 1.6620646555761025E9, 0.0, 2022-09-01 16:37:35.576
114.0, -9875.447735243766, -19957.60440321021, -26355.366570397207, -10371.477648195942, -1297.2058412082006, -14053.994602441146, 43318.30660322984, -13974.824723580448, -18484.42327790538, -890.9405339885395, -31946.74485287009, -22454.853052479393, 9964.251215964701, 21732.9811135508, 1894.9808949209328, -20139.525251331957, 0.1285, 0.8915, -0.3695, 192.0, 0.0, 0.0, 0.0, 0.0, 0.0, 0.0, 0.0, 0.0, 0.0, 1.662064655576107E9, 0.0, 2022-09-01 16:37:35.576
116.0, -9978.981015560748, -20053.64984913467, -26457.782263491426, -10465.198512697043, -1392.6924935212724, -14146.37436227493, 43855.754298657695, -14062.980003712179, -18606.687320075907, -1041.8371608063176, -32082.73286613618, -22605.14618219688, 9864.696546160763, 21613.980426070742, 1794.6886175499699, -20277.34610764338, 0.12925, 0.8887499999999999, -0.36975, 192.0, 2.0, 8.0, 13.5, 88.0, 122.0, 56.0, 0.0, 0.0, 0.0, 1.6620646555761125E9, 0.0, 2022-09-01 16:37:35.576
118.0, -9891.228066829213, -19969.42847602707, -26357.221765186998, -10374.763354630872, -1328.967670079192, -14044.964497681201, 43263.07544268077, -13973.237749724121, -18524.678769669386, -938.8179706118073, -31985.480426011138, -22506.820858337982, 9949.141436712915, 21704.01325273672, 1859.3522142591733, -20172.002336025518, 0.12925, 0.8887499999999999, -0.36975, 192.0, 0.0, 0.0, 0.0, 0.0, 0.0, 0.0, 0.0, 0.0, 0.0, 1.662064655576117E9, 0.0, 2022-09-01 16:37:35.576
120.0, -9972.54371315762, -20042.518680395926, -26456.083530912823, -10453.955585236024, -1387.9539236967473, -14140.294687783085, 43906.87273822698, -14056.945032709245, -18596.58433158211, -1039.2667101939571, -32075.222679999195, -22603.559208340554, 9880.365119023934, 21622.80936513059, 1815.5651468712267, -20251.552194541957, 0.12925, 0.8887499999999999, -0.36975, 192.0, 0.0, 0.0, 0.0, 0.0, 0.0, 0.0, 0.0, 0.0, 0.0, 1.6620646556267097E9, 0.0, 2022-09-01 16:37:35.626
122.0, -9846.99396455216, -19917.058338768285, -26327.516296805898, -10318.436958603497, -1233.1904450882012, -14017.181279323255, 43232.230035332446, -13926.723769512626, -18500.784754846663, -896.5955253357322, -31957.741911142104, -22473.673221310764, 9960.943157785316, 21767.805131412166, 1877.7924034348016, -20132.08212042834, 0.12925, 0.8887499999999999, -0.36975, 192.0, 0.0, 0.0, 0.0, 0.0, 0.0, 0.0, 0.0, 0.0, 0.0, 1.6620646556267216E9, 0.0, 2022-09-01 16:37:35.626
124.0, -9984.233675507747, -20055.415636946636, -26459.86097572577, -10449.082904944768, -1273.2224194076562, -14106.208277488742, 43943.619006111505, -14043.019895913589, -18573.897310959972, -1003.950953954572, -32049.384063408863, -22571.015068413624, 9888.277636561113, 21655.934650413354, 1848.4669147094387, -20214.224781301593, 0.12925, 0.8887499999999999, -0.36975, 192.0, 0.0, 0.0, 0.0, 0.0, 0.0, 0.0, 0.0, 0.0, 0.0, 1.6620646556267262E9, 0.0, 2022-09-01 16:37:35.626
126.0, -9865.970595594716, -19935.677341899558, -26315.222837355475, -10325.164833684545, -1237.0572968789693, -13980.926749816746, 43225.54686374031, -13921.448757821174, -18520.320179500603, -931.4418949415559, -31973.097559582897, -22498.79658207853, 9908.975351926727, 21749.476700958814, 1875.2443045668967, -20139.07821644285, 0.131625, 0.8903749999999999, -0.371875, 192.0, 2.0, 24.0, 13.5, 112.0, 122.0, 40.0, 0.0, 0.0, 0.0, 1.662064655626731E9, 0.0, 2022-09-01 16:37:35.626
128.0, -10020.55526024762, -20091.603111219778, -26443.007760406468, -10469.221826698998, -1430.1540172283671, -14124.581411431005, 43951.50917190423, -14070.244320660153, -18562.25205209876, -1021.3629628852563, -32022.53961831804, -22574.568995782018, 9915.546764796587, 21629.98427510074, 1880.0275778803323, -20201.506638706524, 0.131625, 0.8903749999999999, -0.371875, 192.0, 0.0, 0.0, 0.0, 0.0, 0.0, 0.0, 0.0, 0.0, 0.0, 1.6620646556267354E9, 0.0, 2022-09-01 16:37:35.626
130.0, -9897.732424465708, -19963.594670724236, -26326.24224737194, -10335.42428438953, -1290.2097451936895, -14041.991715668646, 43244.07645989376, -13944.51575809905, -18577.384183095, -989.6681892476308, -32016.86227522639, -22558.78866419657, 9902.850973945973, 21721.15704073394, 1851.9984903333773, -20177.56792039489, 0.131625, 0.8903749999999999, -0.371875, 192.0, 0.0, 0.0, 0.0, 0.0, 0.0, 0.0, 0.0, 0.0, 0.0, 1.66206465562674E9, 0.0, 2022-09-01 16:37:35.626
132.0, -10013.670922955385, -20076.716849412544, -26449.355655831776, -10468.104239476233, -1299.642181353829, -14056.430942586774, 43941.69675608835, -14048.585480282962, -18562.699086987865, -1001.8945934646838, -32020.52796131706, -22568.198748612256, 9887.04829061607, 21652.71599921179, 1881.7263104589356, -20181.85945533031, 0.131625, 0.8903749999999999, -0.371875, 192.0, 0.0, 0.0, 0.0, 0.0, 0.0, 0.0, 0.0, 0.0, 0.0, 1.662064656096529E9, 0.0, 2022-09-01 16:37:36.096
134.0, -9858.303947246546, -19919.584085891736, -26302.169418593578, -10312.223173644921, -1235.1573986002684, -13934.94921147218, 43282.23088767897, -13909.55762977095, -18567.77293297922, -976.2571425744466, -32012.19076063523, -22547.970419880203, 9857.365173979422, 21692.949139231343, 1857.7652404028465, -20167.822559812375, 0.131625, 0.8903749999999999, -0.371875, 192.0, 0.0, 0.0, 0.0, 0.0, 0.0, 0.0, 0.0, 0.0, 0.0, 1.662064656096537E9, 0.0, 2022-09-01 16:37:36.096
136.0, -9983.78664061864, -20049.403017688157, -26413.950492614567, -10456.011945725912, -1406.483519850197, -14090.159724969832, 43898.468482311786, -14048.317259349496, -18507.93731307236, -949.7479736504524, -31963.687475167215, -22516.432108453766, 9969.705041611796, 21707.768345805212, 1947.9321775355552, -20133.55733556239, 0.1308125, 0.8891875, -0.3669375, 192.0, 2.0, 8.0, 13.5, 96.0, 122.0, 88.0, 0.0, 0.0, 0.0, 1.6620646560965416E9, 0.0, 2022-09-01 16:37:36.096
