%OpenBCI Raw EEG Data
%Number of channels = 16
%Sample Rate = 125 Hz
%Board = OpenBCI_GUI$BoardCytonSerialDaisy
Sample Index, EXG Channel 0, EXG Channel 1, EXG Channel 2, EXG Channel 3, EXG Channel 4, EXG Channel 5, EXG Channel 6, EXG Channel 7, EXG Channel 8, EXG Channel 9, EXG Channel 10, EXG Channel 11, EXG Channel 12, EXG Channel 13, EXG Channel 14, EXG Channel 15, Accel Channel 0, Accel Channel 1, Accel Channel 2, Other, Other, Other, Other, Other, Other, Other, Analog Channel 0, Analog Channel 1, Analog Channel 2, Timestamp, Other, Timestamp (Formatted)
60.0, -20354.392570780823, 21595.40612642838, -33060.88990698933, -31772.892984496713, -25571.44618886068, -25810.811020232562, -21675.179502389372, -774.2420761873814, -24922.239771156284, -1931.8836250166448, -25968.18965294238, -30226.040509467188, -26048.38771204802, -7845.17173113486, -20134.339646618326, -32345.92465709742, 0.0, 0.0, 0.0, 192.0, 0.0, 0.0, 0.0, 0.0, 0.0, 0.0, 0.0, 0.0, 0.0, 1.6689769487726731E9, 0.0, 2022-11-20 15:42:28.772
62.0, -20394.759821267107, 21860.654277879512, -33093.07641900497, -31819.988110064045, -25596.21192171716, -25844.808023549085, -21704.125011458997, -802.4499776899788, -24850.311857499106, -1858.4804962254163, -25894.495951473233, -30150.133985296965, -25972.816464044627, -7770.002814531662, -20066.032715562906, -32275.226089385284, 0.0, 0.0, 0.0, 192.0, 0.0, 0.0, 0.0, 0.0, 0.0, 0.0, 0.0, 0.0, 0.0, 1.668976948772679E9, 0.0, 2022-11-20 15:42:28.772
64.0, -20372.117504133883, 21579.715201820756, -33073.31747690648, -31786.86282478128, -25575.894186007285, -25819.461145336765, -21679.76161000271, -779.1594599675489, -24933.907381761957, -1941.0925437322312, -25979.745504825773, -30234.355358404562, -26057.171947618957, -7852.726620760754, -20144.777911278954, -32351.557296700157, 0.0, 0.0, 0.0, 192.0, 0.0, 0.0, 0.0, 0.0, 0.0, 0.0, 0.0, 0.0, 0.0, 1.6689769487726843E9, 0.0, 2022-11-20 15:42:28.772
66.0, -20372.98922216764, 21865.728123870867, -33067.66248555928, -31797.792827819925, -25571.44618886068, -25816.53306681312, -21676.945290201344, -775.1584977100489, -24844.43334870736, -1853.9207403565338, -25886.471675213776, -30144.277828249673, -25960.277135405202, -7759.273977193115, -20056.667334636135, -32263.692589246344, 0.0, 0.0, 0.0, 192.0, 0.0, 0.0, 0.0, 0.0, 0.0, 0.0, 0.0, 0.0, 0.0, 1.6689769487726893E9, 0.0, 2022-11-20 15:42:28.772
68.0, -20383.159265894803, 21590.868722303956, -33081.27469793257, -31795.512949885484, -25577.235290674602, -25825.183191917324, -21683.04731643764, -786.1108524931494, -24933.437995128395, -1927.815607525779, -25976.57155711312, -30226.487544356292, -26047.35953180308, -7842.623632266955, -20133.78085300694, -32338.101546538062, 0.054, 0.9520000000000001, -0.156, 192.0, 0.5, 88.0, 14.5, 96.0, 125.5, 16.0, 0.0, 0.0, 0.0, 1.6689769487726943E9, 0.0, 2022-11-20 15:42:28.772
70.0, -20380.857036215908, 21835.441510133925, -33070.2552879161, -31796.608185363795, -25569.658049304253, -25824.132659927924, -21677.90641521292, -780.9475995239735, -24858.82787213658, -1862.9284933720226, -25895.79235265164, -30152.167994042396, -25962.959344739837, -7764.884265051397, -20053.180462501106, -32262.463243301303, 0.054, 0.9520000000000001, -0.156, 192.0, 0.0, 0.0, 0.0, 0.0, 0.0, 0.0, 0.0, 0.0, 0.0, 1.6689769487726996E9, 0.0, 2022-11-20 15:42:28.772
72.0, -20399.3642806249, 21599.585902641524, -33087.57788986896, -31801.0561825104, -25590.06519199195, -25844.31628517107, -21696.167790432908, -801.7570736118644, -24942.624562099525, -1943.3724216666726, -25987.34509794058, -30238.40102415097, -26060.703523242897, -7858.7168882747765, -20136.21719315257, -32346.12582279752, 0.054, 0.9520000000000001, -0.156, 192.0, 0.0, 0.0, 0.0, 0.0, 0.0, 0.0, 0.0, 0.0, 0.0, 1.6689769487727044E9, 0.0, 2022-11-20 15:42:28.772
74.0, -20359.824044683464, 21823.639789061523, -33045.1989823817, -31773.541185085916, -25554.212993885638, -25811.14629639939, -21669.43510406436, -771.8951430195741, -24856.033904079664, -1867.2423800518968, -25882.962451334293, -30145.06013930561, -25961.66294356143, -7762.738497583688, -20049.7829973439, -32259.691626988846, 0.054, 0.9520000000000001, -0.156, 192.0, 0.0, 0.0, 0.0, 0.0, 0.0, 0.0, 0.0, 0.0, 0.0, 1.6689769487727094E9, 0.0, 2022-11-20 15:42:28.772
76.0, -20401.80062077053, 21622.675254663856, -33091.15416898181, -31808.611072136293, -25603.945625298697, -25852.362913174977, -21713.803316808142, -816.6880389080095, -24927.73830029229, -1932.5094738613934, -25975.968060012827, -30228.54390484618, -26056.68020924094, -7853.307766116592, -20132.015065194973, -32343.01893031823, 0.054, 0.9520000000000001, -0.156, 192.0, 0.0, 0.0, 0.0, 0.0, 0.0, 0.0, 0.0, 0.0, 0.0, 1.6689769487727144E9, 0.0, 2022-11-20 15:42:28.772
78.0, -20357.521815004566, 21782.93726240841, -33041.17566837974, -31767.416807105164, -25552.938944451686, -25809.402860331877, -21667.356391830017, -772.833916286697, -24855.050427323633, -1872.4726882544385, -25891.4114107384, -30151.25157251973, -25965.105112207548, -7770.181628487305, -20054.521567168424, -32267.112406148008, 0.054, 0.9480000000000001, -0.154, 192.0, 0.5, 88.0, 14.5, 80.0, 125.5, 24.0, 0.0, 0.0, 0.0, 1.6689769487727191E9, 0.0, 2022-11-20 15:42:28.772
80.0, -20415.770461055097, 21646.43515901985, -33102.732372609666, -31823.363223476797, -25612.931026569728, -25865.058704025592, -21723.123994246005, -826.411047746068, -24926.911285747443, -1929.3131744042844, -25973.554071611652, -30223.42535536592, -26052.85806093908, -7848.07745791405, -20120.101585400294, -32333.027700546707, 0.054, 0.9480000000000001, -0.154, 192.0, 0.0, 0.0, 0.0, 0.0, 0.0, 0.0, 0.0, 0.0, 0.0, 1.6689769487727244E9, 0.0, 2022-11-20 15:42:28.772
82.0, -20353.252631813604, 21746.146291034973, -33033.06198514247, -31756.66561802216, -25545.451110059155, -25792.080258379014, -21654.370028301484, -756.8524190011525, -24883.034811381676, -1892.6339617531255, -25910.32098654759, -30169.647058206447, -25988.57444388562, -7783.503268182668, -20070.525416198423, -32283.96562146731, 0.054, 0.9480000000000001, -0.154, 192.0, 0.0, 0.0, 0.0, 0.0, 0.0, 0.0, 0.0, 0.0, 0.0, 1.6689769487727296E9, 0.0, 2022-11-20 15:42:28.772
84.0, -20409.89195226335, 21694.58081657658, -33096.429180673265, -31813.506104172007, -25608.572436400944, -25846.59616310551, -21710.62936909549, -812.575317928233, -24911.421526839917, -1904.390979336617, -25951.671713789907, -30196.87148295301, -26037.189488075914, -7820.003666878184, -20098.710965956565, -32311.078287491597, 0.054, 0.9480000000000001, -0.154, 192.0, 0.0, 0.0, 0.0, 0.0, 0.0, 0.0, 0.0, 0.0, 0.0, 1.6689769487727349E9, 0.0, 2022-11-20 15:42:28.772
86.0, -20338.79105315102, 21723.548677390656, -33028.323415317944, -31743.343978326797, -25552.3801508403, -25783.00545013016, -21651.7101707113, -751.4656485874234, -24882.49836951475, -1883.6932639710028, -25904.84480915604, -30156.504232466727, -25992.642461376487, -7778.094146024484, -20071.26302376545, -32282.982144711277, 0.054, 0.9480000000000001, -0.154, 192.0, 0.0, 0.0, 0.0, 0.0, 0.0, 0.0, 0.0, 0.0, 0.0, 1.66897694877274E9, 0.0, 2022-11-20 15:42:28.772
88.0, -20418.877353534386, 21723.168697734916, -33102.39709644283, -31818.82581935237, -25637.4508902372, -25863.4046749359, -21730.522421660713, -829.0485535917943, -24904.49248605877, -1891.359912319173, -25944.206231141834, -30180.577061245094, -26032.182697317923, -7816.02505636514, -20103.82951543683, -32309.223092701806, 0.053000000000000005, 0.9490000000000001, -0.155, 192.0, 0.5, 80.0, 14.5, 88.0, 125.5, 16.0, 0.0, 0.0, 0.0, 1.668976948772745E9, 0.0, 2022-11-20 15:42:28.772
90.0, -20339.394550251312, 21684.47782808278, -33022.333147803925, -31732.123402610232, -25559.219784643625, -25778.512749494643, -21653.14068235644, -751.1303724205939, -24893.674241742403, -1893.5280315313378, -25913.450230771334, -30162.78507265867, -26002.29841498118, -7787.683044395811, -20086.6410239507, -32284.5691185676, 0.053000000000000005, 0.9490000000000001, -0.155, 192.0, 0.0, 0.0, 0.0, 0.0, 0.0, 0.0, 0.0, 0.0, 0.0, 1.6689769487727497E9, 0.0, 2022-11-20 15:42:28.772
92.0, -20416.2174959442, 21758.037419085198, -33101.12304700888, -31818.02115655198, -25636.422709992257, -25862.622363879964, -21730.142442004973, -829.3391262697132, -24893.338965575575, -1882.978008148433, -25931.957475180327, -30173.133930341475, -26024.001958847282, -7805.475032982235, -20093.88298915422, -32287.139569179963, 0.053000000000000005, 0.9490000000000001, -0.155, 192.0, 0.0, 0.0, 0.0, 0.0, 0.0, 0.0, 0.0, 0.0, 0.0, 1.6689769487727568E9, 0.0, 2022-11-20 15:42:28.772
94.0, -20340.042750840516, 21645.295220052627, -33027.138772861814, -31734.403280544673, -25555.24117413058, -25790.44858103378, -21656.269926580182, -761.4568783589457, -24900.558579034638, -1909.6659910280696, -25927.643588500454, -30180.085322867075, -26017.5423046997, -7805.586791704512, -20098.733317701022, -32296.795522784654, 0.053000000000000005, 0.9490000000000001, -0.155, 192.0, 0.0, 0.0, 0.0, 0.0, 0.0, 0.0, 0.0, 0.0, 0.0, 1.668976948772782E9, 0.0, 2022-11-20 15:42:28.772
96.0, -20430.43320541778, 21779.11511410655, -33108.63323314586, -31827.095964800832, -25627.437308721223, -25875.988707064236, -21737.227944997307, -842.4596002649785, -24888.466285284318, -1878.7982319352905, -25929.677597245885, -30164.997895359746, -26013.85426686457, -7802.524602714134, -20082.081268081816, -32286.06668544611, 0.053000000000000005, 0.9490000000000001, -0.155, 192.0, 0.0, 0.0, 0.0, 0.0, 0.0, 0.0, 0.0, 0.0, 0.0, 1.668976948772787E9, 0.0, 2022-11-20 15:42:28.772
98.0, -20362.059219128994, 21604.615045143968, -33041.82386896895, -31753.782242987425, -25566.72997078061, -25809.134639398413, -21674.665412266902, -782.0204832578282, -24931.672207316424, -1928.4414563705275, -25957.930202237392, -30202.392363833475, -26036.58599097562, -7832.319478073058, -20118.045224910406, -32326.031604532196, 0.051500000000000004, 0.9485000000000001, -0.1535, 192.0, 0.5, 72.0, 14.5, 80.0, 125.5, 32.0, 0.0, 0.0, 0.0, 1.668976948772792E9, 0.0, 2022-11-20 15:42:28.772
100.0, -20415.546943610545, 21812.64273078951, -33093.74697133863, -31819.85399959731, -25624.35276798639, -25863.672895869364, -21725.850907069555, -831.8201699042523, -24891.79669520816, -1876.7195197009469, -25927.88945768946, -30165.377875015485, -26009.629787162517, -7800.937628857807, -20083.511779726956, -32294.225072172296, 0.051500000000000004, 0.9485000000000001, -0.1535, 192.0, 0.0, 0.0, 0.0, 0.0, 0.0, 0.0, 0.0, 0.0, 0.0, 1.668976948772797E9, 0.0, 2022-11-20 15:42:28.772
102.0, -20338.478128728646, 21599.541199152613, -33028.50222927359, -31736.124364867734, -25559.95739221065, -25790.515636267144, -21656.00170564672, -762.5074103483452, -24919.959893221843, -1916.5726800647594, -25946.46375733182, -30194.278680596195, -26033.1438223295, -7824.004629135684, -20110.423280051145, -32322.723546352812, 0.051500000000000004, 0.9485000000000001, -0.1535, 192.0, 0.0, 0.0, 0.0, 0.0, 0.0, 0.0, 0.0, 0.0, 0.0, 1.668976948772802E9, 0.0, 2022-11-20 15:42:28.772
104.0, -20378.152475136816, 21858.843786578633, -33065.650828558304, -31780.76079854498, -25604.862046821363, -25830.167630930857, -21697.15126718894, -801.153576511571, -24849.507194698715, -1839.6379756495926, -25887.097524058525, -30126.172915240877, -25981.265423448735, -7761.464448149735, -20049.87240432172, -32256.785900209656, 0.051500000000000004, 0.9485000000000001, -0.1535, 192.0, 0.0, 0.0, 0.0, 0.0, 0.0, 0.0, 0.0, 0.0, 0.0, 1.6689769487728071E9, 0.0, 2022-11-20 15:42:28.772
106.0, -20348.64817245581, 21588.90176879189, -33045.042520170515, -31741.51113528146, -25581.884453521307, -25799.948072427283, -21674.978336689277, -778.220686700426, -24904.760706992234, -1897.3054763442847, -25933.209172869825, -30176.620802476504, -26029.81341240566, -7810.370065017947, -20107.003463149485, -32306.63029034499, 0.051500000000000004, 0.9485000000000001, -0.1535, 192.0, 0.0, 0.0, 0.0, 0.0, 0.0, 0.0, 0.0, 0.0, 0.0, 1.668976948772812E9, 0.0, 2022-11-20 15:42:28.772
108.0, -20379.78415248205, 21862.643583136032, -33073.697456562215, -31788.181577704145, -25608.50538116758, -25837.92368625685, -21708.215380694317, -810.608364416166, -24852.54703194464, -1843.5271791848159, -25886.60578568051, -30125.16708674039, -25986.808656073652, -7764.638395862388, -20064.333982984303, -32264.43019681337, 0.04775, 0.95025, -0.15475, 192.0, 0.5, 48.0, 14.5, 96.0, 125.5, 16.0, 0.0, 0.0, 0.0, 1.6689769487728171E9, 0.0, 2022-11-20 15:42:28.772
110.0, -20344.02136135356, 21582.442114644306, -33044.68489225923, -31749.17778362963, -25576.67649706322, -25806.318319597045, -21674.33013610007, -781.8193175577304, -24914.751936763758, -1913.0858079297316, -25947.60369629904, -30190.702401483348, -26042.509203256275, -7829.8384344385195, -20121.71091100108, -32325.91984580992, 0.04775, 0.95025, -0.15475, 192.0, 0.0, 0.0, 0.0, 0.0, 0.0, 0.0, 0.0, 0.0, 0.0, 1.6689769487728238E9, 0.0, 2022-11-20 15:42:28.772
112.0, -20380.6111670269, 21855.46867316588, -33067.66248555928, -31790.014420749478, -25593.06032574896, -25835.666160066863, -21695.13961018796, -803.2993439792805, -24847.20496501982, -1843.5718826737266, -25880.570814677576, -30121.769621583182, -25966.468568619322, -7759.475142893213, -20044.59739263027, -32258.19406011034, 0.04775, 0.95025, -0.15475, 192.0, 0.0, 0.0, 0.0, 0.0, 0.0, 0.0, 0.0, 0.0, 0.0, 1.6689769487728288E9, 0.0, 2022-11-20 15:42:28.772
114.0, -20375.246748357626, 21571.22153892774, -33065.13673843584, -31771.95421122959, -25583.717296566643, -25819.25997963667, -21684.343717616048, -790.2459252173812, -24931.89572476098, -1925.133398191142, -25972.794112300173, -30212.294186627172, -26049.862927182072, -7842.713039244776, -20125.153079647192, -32338.101546538062, 0.04775, 0.95025, -0.15475, 192.0, 0.0, 0.0, 0.0, 0.0, 0.0, 0.0, 0.0, 0.0, 0.0, 1.6689769487728338E9, 0.0, 2022-11-20 15:42:28.772
116.0, -20378.84537921493, 21841.297667181214, -33056.48661333163, -31779.665563066672, -25584.410200644757, -25821.00341570418, -21683.986089704766, -789.2400967168924, -24858.090264569553, -1850.7691443883355, -25894.160675306404, -30134.53246766716, -25973.3305541671, -7758.357555670447, -20052.800482845367, -32261.85974620101, 0.04775, 0.95025, -0.15475, 192.0, 0.0, 0.0, 0.0, 0.0, 0.0, 0.0, 0.0, 0.0, 0.0, 1.6689769487728388E9, 0.0, 2022-11-20 15:42:28.772
118.0, -20379.582986781956, 21585.727821079236, -33065.62847681385, -31771.417769362663, -25599.095296751893, -25823.372700616444, -21695.877217754987, -801.4888526784007, -24932.78979453919, -1919.679572544047, -25972.637650088986, -30209.83549473709, -26056.83667145213, -7839.561443276578, -20126.807108736888, -32336.671034892923, 0.045875, 0.9501250000000001, -0.15537499999999999, 192.0, 0.5, 48.0, 14.5, 88.0, 125.5, 16.0, 0.0, 0.0, 0.0, 1.668976948772844E9, 0.0, 2022-11-20 15:42:28.772
120.0, -20358.661753971788, 21833.6533705775, -33040.92979919074, -31755.57038254385, -25581.795046543488, -25806.988871930705, -21683.18142690437, -785.4850036484008, -24849.306028998617, -1841.9625570729445, -25876.74866637572, -30120.696737849325, -25970.178958198903, -7751.920253267319, -20048.754817098954, -32251.488536773748, 0.045875, 0.9501250000000001, -0.15537499999999999, 192.0, 0.0, 0.0, 0.0, 0.0, 0.0, 0.0, 0.0, 0.0, 0.0, 1.6689769487728488E9, 0.0, 2022-11-20 15:42:28.772
122.0, -20387.562559552498, 21603.85508583249, -33064.063854701984, -31761.605353546784, -25610.315872468458, -25826.1443169289, -21708.30478767214, -812.217690016948, -24926.576009580614, -1911.364723606673, -25960.61241157203, -30197.229110864297, -26054.757959217783, -7833.258251340181, -20115.988864420517, -32313.268758448216, 0.045875, 0.9501250000000001, -0.15537499999999999, 192.0, 0.0, 0.0, 0.0, 0.0, 0.0, 0.0, 0.0, 0.0, 0.0, 1.6689769487728536E9, 0.0, 2022-11-20 15:42:28.772
124.0, -20354.705495203198, 21806.227780130837, -33029.172781607245, -31744.506269038473, -25575.603613329367, -25797.176456114827, -21675.403019833928, -782.3557594246578, -24856.480938968773, -1850.4115164770506, -25879.632041410452, -30122.931912294855, -25968.36846689802, -7752.411991645336, -20041.602258873256, -32241.67612095787, 0.045875, 0.9501250000000001, -0.15537499999999999, 192.0, 0.0, 0.0, 0.0, 0.0, 0.0, 0.0, 0.0, 0.0, 0.0, 1.6689769487728603E9, 0.0, 2022-11-20 15:42:28.772
126.0, -20403.365242882403, 21619.925990095853, -33088.382552669354, -31797.703420842103, -25623.346939485902, -25846.842032294517, -21716.73139533179, -825.2040535454814, -24921.010425211243, -1905.6426770261141, -25959.450120860354, -30193.78694221818, -26049.01356089277, -7831.0677803835615, -20105.97528290454, -32313.849903804054, 0.045875, 0.9501250000000001, -0.15537499999999999, 192.0, 0.0, 0.0, 0.0, 0.0, 0.0, 0.0, 0.0, 0.0, 0.0, 1.6689769487728653E9, 0.0, 2022-11-20 15:42:28.772
128.0, -20355.621916725864, 21759.110302819052, -33043.61200852537, -31763.684065781126, -25575.178930184717, -25807.3912033309, -21671.9161476989, -782.7580908248533, -24881.11256135852, -1877.8594586681675, -25909.091640602546, -30152.816194631603, -25996.554016656166, -7784.687910638799, -20068.49140745299, -32282.75862726672, 0.0489375, 0.9540625, -0.15468749999999998, 192.0, 0.5, 80.0, 14.5, 120.0, 125.5, 24.0, 0.0, 0.0, 0.0, 1.6689769487728703E9, 0.0, 2022-11-20 15:42:28.772
130.0, -20404.639292316355, 21656.538147513646, -33095.13277949486, -31806.77822909096, -25620.3965092178, -25851.044160252117, -21715.993787764764, -826.0757715792384, -24914.483715830294, -1900.457072312483, -25957.192594670367, -30189.11542762702, -26048.700636470396, -7831.470111783757, -20108.32221607235, -32321.8294765746, 0.0489375, 0.9540625, -0.15468749999999998, 192.0, 0.0, 0.0, 0.0, 0.0, 0.0, 0.0, 0.0, 0.0, 0.0, 1.6689769487728753E9, 0.0, 2022-11-20 15:42:28.772
132.0, -20353.006762624595, 21732.802299595154, -33032.97257816465, -31750.98827493051, -25570.283898149002, -25796.05886889206, -21662.371952816484, -774.2420761873814, -24871.791883920658, -1874.8866766556118, -25899.36863176449, -30143.271999749184, -25990.966080542337, -7778.295311724582, -20067.798503374877, -32278.95883070932, 0.0489375, 0.9540625, -0.15468749999999998, 192.0, 0.0, 0.0, 0.0, 0.0, 0.0, 0.0, 0.0, 0.0, 0.0, 1.6689769487728803E9, 0.0, 2022-11-20 15:42:28.772
134.0, -20431.506089151633, 21682.265005381705, -33114.93642508226, -31826.268950255988, -25649.386721776336, -25872.54653841812, -21739.01608455373, -850.3944695466125, -24919.60226531056, -1905.1732903925529, -25963.965173240325, -30190.344773572062, -26055.40615980699, -7840.231995610237, -20115.720643487053, -32322.43297367489, 0.0489375, 0.9540625, -0.15468749999999998, 192.0, 0.0, 0.0, 0.0, 0.0, 0.0, 0.0, 0.0, 0.0, 0.0, 1.668976948772885E9, 0.0, 2022-11-20 15:42:28.772
136.0, -20339.37219850686, 21709.78000280619, -33031.765583964065, -31738.001911401978, -25563.556023067955, -25780.77027568463, -21653.38655154545, -765.4578406164457, -24891.372012063508, -1885.5261070163378, -25919.775774452184, -30156.280715022174, -26011.663795907953, -7797.763681145154, -20089.3902885187, -32285.552595323636, 0.0489375, 0.9540625, -0.15468749999999998, 192.0, 0.0, 0.0, 0.0, 0.0, 0.0, 0.0, 0.0, 0.0, 0.0, 1.66897694877289E9, 0.0, 2022-11-20 15:42:28.772
138.0, -20407.455612117723, 21731.282380972192, -33098.954927796716, -31803.783095333947, -25624.35276798639, -25838.840107779517, -21713.87037204151, -824.7123151674647, -24892.914282430924, -1874.7749179333352, -25942.149870651945, -30166.897793638444, -26033.680264196428, -7811.442948751802, -20096.341681044305, -32288.7712465252, 0.05046875000000001, 0.9560312500000001, -0.15634375, 192.0, 0.5, 80.0, 14.5, 120.0, 125.5, 8.0, 0.0, 0.0, 0.0, 1.668976948772895E9, 0.0, 2022-11-20 15:42:28.772
140.0, -20328.3974919793, 21672.89962445493, -33022.310796059464, -31722.445097261087, -25542.6794937467, -25756.85390911745, -21636.198060059316, -748.6716805305101, -24877.73744794577, -1874.6631592110587, -25910.678614458873, -30148.278790507175, -25994.52000791073, -7775.6354541344, -20070.279547009417, -32264.407845068916, 0.05046875000000001, 0.9560312500000001, -0.15634375, 192.0, 0.0, 0.0, 0.0, 0.0, 0.0, 0.0, 0.0, 0.0, 0.0, 1.6689769487728999E9, 0.0, 2022-11-20 15:42:28.772
142.0, -20420.687844835265, 21752.67300041592, -33114.64585240434, -31816.523589673474, -25632.198230290203, -25854.486328898234, -21729.181316993396, -841.9455101425065, -24889.852093440546, -1871.9809498764218, -25937.679521760885, -30160.192270301854, -26023.264351280257, -7795.081471810517, -20083.109448326763, -32280.72461852129, 0.05046875000000001, 0.9560312500000001, -0.15634375, 192.0, 0.0, 0.0, 0.0, 0.0, 0.0, 0.0, 0.0, 0.0, 0.0, 1.6689769487729049E9, 0.0, 2022-11-20 15:42:28.772
144.0, -20325.53646868902, 21639.61787696098, -33018.93568264672, -31715.672518691128, -25545.6299240148, -25764.76642665463, -21645.04935086362, -759.0875934466832, -24908.627558783002, -1893.6621419980697, -25937.70187350534, -30165.48963373776, -26021.25269427928, -7800.200021290782, -20094.464134510057, -32295.521473350702, 0.05046875000000001, 0.9560312500000001, -0.15634375, 192.0, 0.0, 0.0, 0.0, 0.0, 0.0, 0.0, 0.0, 0.0, 0.0, 1.6689769487729099E9, 0.0, 2022-11-20 15:42:28.772
146.0, -20402.828801015476, 21797.778820726733, -33081.83349154395, -31793.367182417773, -25613.6462823923, -25836.2473054227, -21715.39029066447, -827.7521524133864, -24868.77439841919, -1845.427077463517, -25913.718451704797, -30132.610217644004, -25994.877635822017, -7776.149544256872, -20057.002610802963, -32262.127967134475, 0.05046875000000001, 0.9560312500000001, -0.15634375, 192.0, 0.0, 0.0, 0.0, 0.0, 0.0, 0.0, 0.0, 0.0, 0.0, 1.668976948772915E9, 0.0, 2022-11-20 15:42:28.772
148.0, -20338.723997917652, 21604.682100377333, -33019.56153149146, -31722.690966450093, -25550.234383372594, -25770.644935446377, -21651.12902535546, -766.2625034168367, -24909.767497750225, -1898.8924502006116, -25942.731016007783, -30170.742293684758, -26020.045700078692, -7804.737425415209, -20094.35237578778, -32292.213415171318, 0.048234375, 0.9550156250000001, -0.15617187500000002, 192.0, 0.5, 56.0, 14.5, 104.0, 125.5, 16.0, 0.0, 0.0, 0.0, 1.66897694877292E9, 0.0, 2022-11-20 15:42:28.772
150.0, -20419.614961101408, 21800.572788783647, -33095.579814383964, -31816.545941417928, -25626.4985354541, -25850.97710501875, -21724.48745065778, -840.313832797269, -24869.042619352655, -1857.295853769285, -25913.159658093413, -30137.460546190807, -25996.263443978245, -7780.754003614665, -20055.43798869109, -32253.05315888562, 0.048234375, 0.9550156250000001, -0.15617187500000002, 192.0, 0.0, 0.0, 0.0, 0.0, 0.0, 0.0, 0.0, 0.0, 0.0, 1.668976948772925E9, 0.0, 2022-11-20 15:42:28.772
152.0, -20340.489785729624, 21576.49655061919, -33031.45265954169, -31735.923199167635, -25557.16342415374, -25771.91898488033, -21650.72669395527, -768.6764918180099, -24927.470079358827, -1922.6523545566029, -25960.14302493847, -30194.41279106293, -26046.10783411358, -7833.615879251466, -20110.55739051788, -32310.832418302587, 0.048234375, 0.9550156250000001, -0.15617187500000002, 192.0, 0.0, 0.0, 0.0, 0.0, 0.0, 0.0, 0.0, 0.0, 0.0, 1.6689769487729297E9, 0.0, 2022-11-20 15:42:28.772
154.0, -20408.886123762863, 21816.442527346913, -33096.25036671762, -31812.768496604982, -25615.523828926544, -25837.722520556752, -21708.841229539066, -824.5782047007328, -24867.455645496328, -1849.3162809987405, -25906.54354173464, -30131.626740887972, -25993.42477243242, -7772.528561655112, -20052.845186334274, -32252.80728969661, 0.048234375, 0.9550156250000001, -0.15617187500000002, 192.0, 0.0, 0.0, 0.0, 0.0, 0.0, 0.0, 0.0, 0.0, 0.0, 1.6689769487729347E9, 0.0, 2022-11-20 15:42:28.772
156.0, -20369.882329688353, 21546.031122926608, -33066.366084380876, -31763.080568680834, -25588.835846046906, -25803.054964906572, -21677.280566368172, -793.6433903745879, -24938.914172519944, -1922.9652789789773, -25977.219757702325, -30199.956023687846, -26055.76378771827, -7838.823835709552, -20124.907210458186, -32330.412546445437, 0.048234375, 0.9550156250000001, -0.15617187500000002, 192.0, 0.0, 0.0, 0.0, 0.0, 0.0, 0.0, 0.0, 0.0, 0.0, 1.668976948772941E9, 0.0, 2022-11-20 15:42:28.772
158.0, -20393.686937533254, 21835.84384153412, -33084.046314245024, -31793.81421730688, -25612.551046913988, -25830.167630930857, -21699.67701431239, -814.3187539957469, -24866.04748559564, -1850.0762403102208, -25912.64556797094, -30127.759889097204, -25988.038002018693, -7774.026128533617, -20067.932613841607, -32269.39228408245, 0.048234375, 0.9550156250000001, -0.15617187500000002, 192.0, 0.0, 0.0, 0.0, 0.0, 0.0, 0.0, 0.0, 0.0, 0.0, 1.668976948772946E9, 0.0, 2022-11-20 15:42:28.772
160.0, -20362.908585418296, 21554.74830326418, -33052.57505805195, -31749.71422549656, -25589.081715235916, -25800.596273016487, -21675.023040178185, -790.4023874285683, -24931.046358471678, -1912.3705521071618, -25972.32472566661, -30188.176654359897, -26050.64523823801, -7833.928803673841, -20129.176393649148, -32326.076308021107, 0.054, 0.962, -0.15, 192.0, 0.5, 88.0, 15.0, 8.0, 125.5, 40.0, 0.0, 0.0, 0.0, 1.668976948772951E9, 0.0, 2022-11-20 15:42:28.772
162.0, -20380.27589086007, 21838.391940402027, -33058.744139521616, -31773.496481597005, -25599.87760780783, -25819.416441847854, -21687.495313584248, -801.6676666340431, -24855.430406979372, -1840.1520657720646, -25889.06447757059, -30106.995118498224, -25971.47535937731, -7755.831808546997, -20050.453549677557, -32244.894772159434, 0.054, 0.962, -0.15, 192.0, 0.0, 0.0, 0.0, 0.0, 0.0, 0.0, 0.0, 0.0, 0.0, 1.668976948772956E9, 0.0, 2022-11-20 15:42:28.772
164.0, -20359.60052723891, 21569.92513774933, -33047.769432994064, -31742.718129482048, -25578.285822664002, -25801.758563728163, -21669.99389767574, -788.5024891498673, -24927.51478284774, -1915.3209823752622, -25960.388894127478, -30174.139758841964, -26047.605400992084, -7830.9560216612845, -20116.92763768764, -32308.351374668047, 0.054, 0.962, -0.15, 192.0, 0.0, 0.0, 0.0, 0.0, 0.0, 0.0, 0.0, 0.0, 0.0, 1.668976948772961E9, 0.0, 2022-11-20 15:42:28.772
166.0, -20360.874576672864, 21836.08971072313, -33046.048348671, -31752.32937959783, -25580.230424431615, -25801.825618961528, -21670.6644500094, -782.0204832578282, -24842.645209150938, -1829.8032080892574, -25870.445474439322, -30079.77069375166, -25954.62214405801, -7733.860043747431, -20030.739311067977, -32220.441963725327, 0.054, 0.962, -0.15, 192.0, 0.0, 0.0, 0.0, 0.0, 0.0, 0.0, 0.0, 0.0, 0.0, 1.6689769487729657E9, 0.0, 2022-11-20 15:42:28.772
168.0, -20387.69667001923, 21559.30805913306, -33076.51377636359, -31773.205908919088, -25606.6948898667, -25829.25120940819, -21694.73727878777, -804.5510416687778, -24939.40591089796, -1923.6581830570917, -25979.589042614585, -30179.615936233517, -26056.16611911847, -7835.672239741354, -20127.74588200401, -32317.403831172447, 0.054, 0.962, -0.15, 192.0, 0.0, 0.0, 0.0, 0.0, 0.0, 0.0, 0.0, 0.0, 0.0, 1.6689769487729704E9, 0.0, 2022-11-20 15:42:28.772
170.0, -20361.902756917807, 21794.60487301408, -33042.06973815796, -31761.784167502425, -25573.904880750764, -25805.893636452394, -21665.52354878468, -773.1915441979819, -24853.597563934036, -1855.5524177017712, -25890.405582237912, -30099.03789747213, -25962.936992995383, -7751.204997444749, -20047.480767665, -32248.515754761193, 0.048, 0.9560000000000001, -0.154, 192.0, 0.5, 64.0, 14.5, 112.0, 125.5, 24.0, 0.0, 0.0, 0.0, 1.6689769487729757E9, 0.0, 2022-11-20 15:42:28.772
172.0, -20394.98333871166, 21570.908614505366, -33082.2581746886, -31793.411885906684, -25606.24785497759, -25834.570924588555, -21694.15613343193, -802.382922456613, -24931.180468938408, -1924.3510871352062, -25978.09147573608, -30179.906508911434, -26043.67149396795, -7831.447760039301, -20119.02870166644, -32328.266778977726, 0.048, 0.9560000000000001, -0.154, 192.0, 0.0, 0.0, 0.0, 0.0, 0.0, 0.0, 0.0, 0.0, 0.0, 1.6689769487729805E9, 0.0, 2022-11-20 15:42:28.772
174.0, -20347.37412302186, 21766.8887098895, -33040.97450267965, -31765.449853593094, -25559.040970687984, -25796.237682847703, -21650.503176510716, -760.8533812586525, -24871.16603507591, -1870.2822172978185, -25905.113030089502, -30117.880418047956, -25967.38499014199, -7759.721012082221, -20058.902509081665, -32273.795577740144, 0.048, 0.9560000000000001, -0.154, 192.0, 0.0, 0.0, 0.0, 0.0, 0.0, 0.0, 0.0, 0.0, 0.0, 1.6689769487729852E9, 0.0, 2022-11-20 15:42:28.772
176.0, -20387.093172918936, 21609.107745779485, -33096.429180673265, -31809.482790170052, -25610.517038168557, -25841.63407583643, -21695.787810777165, -805.9368498250068, -24920.228114155307, -1907.6319822826365, -25963.2275656733, -30168.618877961504, -26034.842554908104, -7819.6236872224445, -20119.07340515535, -32327.01508128823, 0.048, 0.9560000000000001, -0.154, 192.0, 0.0, 0.0, 0.0, 0.0, 0.0, 0.0, 0.0, 0.0, 0.0, 1.6689769487729902E9, 0.0, 2022-11-20 15:42:28.772
178.0, -20330.587962935922, 21745.11811079003, -33035.00658691008, -31755.39156858821, -25552.223688629114, -25783.34072629699, -21638.8579176495, -746.8388374851748, -24865.62280245099, -1866.2812550403185, -25893.288957272645, -30108.269167932176, -25964.635725573986, -7756.122381224916, -20075.487503467502, -32274.846109729544, 0.048, 0.9560000000000001, -0.154, 192.0, 0.0, 0.0, 0.0, 0.0, 0.0, 0.0, 0.0, 0.0, 0.0, 1.668976948772995E9, 0.0, 2022-11-20 15:42:28.772
180.0, -20398.89489399134, 21636.667446692878, -33092.91995679378, -31811.986185549045, -25614.6968143817, -25838.616590334965, -21699.788773034667, -803.6346201461101, -24907.889951215977, -1897.32782808874, -25954.778606269196, -30155.476052221784, -26024.359586758565, -7809.520698728646, -20119.65455051119, -32310.273624691206, 0.052000000000000005, 0.9540000000000001, -0.152, 192.0, 0.5, 80.0, 14.5, 104.0, 125.5, 32.0, 0.0, 0.0, 0.0, 1.668976948773E9, 0.0, 2022-11-20 15:42:28.773
0.0, -10177.553913301697, 10782.436821751216, -16524.130585686038, -15874.745354026003, -12785.756622047022, -12883.254931361073, -10826.00037169461, -380.00200748467535, -12419.009199024344, -914.6780866000756, -12933.009914518585, -15038.11955906386, -12966.202255034716, -3859.7662877757894, -10016.777815434672, -16108.343435328417, 0.054, 0.9540000000000001, -0.148, 192.0, 0.5, 88.0, 14.5, 104.0, 125.5, 48.0, 0.0, 0.0, 0.0, 1.668976949369115E9, 0.0, 2022-11-20 15:42:29.369
2.0, -20313.511230172066, 21741.653590399455, -33000.920176615735, -31709.056402332357, -25522.697034203655, -25722.36516742291, -21605.576170155546, -717.0886656151612, -24879.905567157934, -1814.1569869705424, -25882.604823423007, -30054.446167283797, -25960.768873783218, -7708.446110301747, -20043.30099145186, -32232.467202242282, 0.054, 0.9540000000000001, -0.148, 192.0, 0.0, 0.0, 0.0, 0.0, 0.0, 0.0, 0.0, 0.0, 0.0, 1.6689769493691967E9, 0.0, 2022-11-20 15:42:29.369
4.0, -20383.852169972917, 21724.35334019105, -33075.798520541015, -31780.850205522802, -25594.759058327563, -25801.333880583512, -21674.844226222544, -787.4519571604678, -24918.395271109974, -1840.688507638992, -25941.859297974028, -30102.256548673697, -26017.877580866527, -7758.759887070643, -20077.87914012422, -32274.39907484044, 0.054, 0.9540000000000001, -0.148, 192.0, 0.0, 0.0, 0.0, 0.0, 0.0, 0.0, 0.0, 0.0, 0.0, 1.6689769493692217E9, 0.0, 2022-11-20 15:42:29.369
6.0, -20293.01468050655, 21716.664340098425, -32992.15829278926, -31689.453922445053, -25510.962368364617, -25722.678091845286, -21593.215655471762, -707.0974358436389, -24889.092134129067, -1825.6681353650256, -25893.110143317004, -30070.248850613698, -25970.022495987716, -7712.491776048158, -20044.887965308186, -32246.057062871107, 0.054, 0.9540000000000001, -0.148, 192.0, 0.0, 0.0, 0.0, 0.0, 0.0, 0.0, 0.0, 0.0, 0.0, 1.6689769493692873E9, 0.0, 2022-11-20 15:42:29.369
8.0, -20373.21273961219, 21779.40568678447, -33069.89766000482, -31768.512042583472, -25590.86985479234, -25810.453392321277, -21675.782999489667, -786.3120181932471, -24890.656756240936, -1809.3066584237408, -25909.963358636305, -30072.014638425666, -25995.39172594449, -7729.3449913674585, -20054.901546824163, -32258.462281043805, 0.048, 0.9580000000000001, -0.162, 192.0, 0.5, 64.0, 14.5, 120.0, 125.0, 120.0, 0.0, 0.0, 0.0, 1.6689769493693123E9, 0.0, 2022-11-20 15:42:29.369
10.0, -20283.895168768784, 21694.893740998956, -32980.5353856725, -31676.087579260777, -25508.414269496712, -25727.23784771417, -21594.17678048334, -706.9409736324518, -24893.65188999795, -1815.3192776822184, -25892.149018305427, -30062.00105690969, -25978.247937947268, -7715.57631678299, -20058.16490151464, -32261.122138633986, 0.048, 0.9580000000000001, -0.162, 192.0, 0.0, 0.0, 0.0, 0.0, 0.0, 0.0, 0.0, 0.0, 0.0, 1.668976949369357E9, 0.0, 2022-11-20 15:42:29.369
12.0, -20377.19135012524, 21806.026614430742, -33065.0026279691, -31779.889080511224, -25591.607462359367, -25812.979139444727, -21677.593490790547, -787.5860676271997, -24874.608203722026, -1780.49525982085, -25887.343393247535, -30047.114795102454, -25971.922394266418, -7706.009770156118, -20041.53520363989, -32246.079414615564, 0.048, 0.9580000000000001, -0.162, 192.0, 0.0, 0.0, 0.0, 0.0, 0.0, 0.0, 0.0, 0.0, 0.0, 1.668976949369388E9, 0.0, 2022-11-20 15:42:29.369
14.0, -20306.805706835476, 21637.874440893465, -33005.01054585106, -31715.449001246572, -25527.212086583626, -25738.927810064295, -21610.89588533591, -720.8884621725634, -24919.51285833274, -1840.9567285724556, -25920.491030274756, -30095.796894526113, -25999.90677832446, -7739.470331605713, -20087.915073384655, -32290.492330848258, 0.048, 0.9580000000000001, -0.162, 192.0, 0.0, 0.0, 0.0, 0.0, 0.0, 0.0, 0.0, 0.0, 0.0, 1.6689769493693948E9, 0.0, 2022-11-20 15:42:29.369
16.0, -20384.835646728952, 21811.145163911006, -33076.916107763784, -31798.06104875339, -25596.524846139535, -25802.25030210618, -21677.23586287926, -783.4733466474231, -24887.05812538363, -1804.3222194102073, -25903.615463210997, -30076.90967046138, -25982.785342071697, -7718.794967984554, -20063.462264950547, -32256.182403109364, 0.048, 0.9580000000000001, -0.162, 192.0, 0.0, 0.0, 0.0, 0.0, 0.0, 0.0, 0.0, 0.0, 0.0, 1.6689769493694012E9, 0.0, 2022-11-20 15:42:29.369
18.0, -20308.213866736158, 21603.22923698774, -33008.16214181926, -31712.23035004501, -25521.53474349198, -25725.60617036893, -21605.88909457792, -712.6853719574657, -24923.40206186796, -1851.3279379997182, -25926.50364953323, -30114.795877313125, -26006.321728983134, -7743.739514796676, -20092.854808909276, -32278.981182453776, 0.052000000000000005, 0.96, -0.158, 192.0, 0.5, 80.0, 15.0, 0.0, 125.5, 8.0, 0.0, 0.0, 0.0, 1.6689769493694077E9, 0.0, 2022-11-20 15:42:29.369
20.0, -20376.677260002765, 21829.495946108815, -33058.90060173281, -31782.66069682368, -25585.237215189605, -25797.310566581556, -21668.5633860306, -772.833916286697, -24874.0717618551, -1805.5962688441598, -25887.4104484809, -30074.741551249215, -25970.134254709992, -7708.8037382130315, -20046.564346142335, -32235.507039488202, 0.052000000000000005, 0.96, -0.158, 192.0, 0.0, 0.0, 0.0, 0.0, 0.0, 0.0, 0.0, 0.0, 0.0, 1.668976949369414E9, 0.0, 2022-11-20 15:42:29.369
22.0, -20325.558820433478, 21580.60927159897, -32998.66265042575, -31710.911597122147, -25525.446298771658, -25744.4263392003, -21610.873533591453, -720.4414272834572, -24930.88989626049, -1861.9003131270783, -25932.136289135968, -30121.68021460536, -26007.52872318372, -7756.122381224916, -20085.769305916943, -32279.741141765255, 0.052000000000000005, 0.96, -0.158, 192.0, 0.0, 0.0, 0.0, 0.0, 0.0, 0.0, 0.0, 0.0, 0.0, 1.6689769493694203E9, 0.0, 2022-11-20 15:42:29.369
24.0, -20370.664640744286, 21847.198527717417, -33036.235932855125, -31758.05142617839, -25564.561851568444, -25790.470932778233, -21648.647981720922, -757.2771021458033, -24872.283622298673, -1793.9286582384896, -25877.396866964922, -30054.624981239438, -25950.75529226724, -7698.611342741412, -20023.854973775742, -32221.33603350354, 0.052000000000000005, 0.96, -0.158, 192.0, 0.0, 0.0, 0.0, 0.0, 0.0, 0.0, 0.0, 0.0, 0.0, 1.6689769493694267E9, 0.0, 2022-11-20 15:42:29.369
26.0, -20327.302256500992, 21573.21084418426, -33014.2418163111, -31706.530655208906, -25537.873868688806, -25755.42339747231, -21623.23404827524, -732.220796611404, -24941.417567898938, -1861.9897201048996, -25942.3733880965, -30120.339109938042, -26021.744432657295, -7767.365308685936, -20096.36403278876, -32290.425275614893, 0.052000000000000005, 0.96, -0.158, 192.0, 0.0, 0.0, 0.0, 0.0, 0.0, 0.0, 0.0, 0.0, 0.0, 1.6689769493694332E9, 0.0, 2022-11-20 15:42:29.369
28.0, -20346.033018354537, 21862.777693602766, -33034.58190376543, -31736.951379412578, -25558.862156732343, -25779.3844675284, -21647.597449731526, -754.6172445556217, -24855.184537790363, -1777.8130504862131, -25860.610706878986, -30036.542419975096, -25949.391835855466, -7685.826144912976, -20022.737386552977, -32216.977443334752, 0.052000000000000005, 0.9540000000000001, -0.154, 192.0, 0.5, 80.0, 14.5, 104.0, 125.5, 24.0, 0.0, 0.0, 0.0, 1.6689769493694396E9, 0.0, 2022-11-20 15:42:29.369
30.0, -20328.64336116831, 21583.202073955785, -33026.33411006142, -31706.977690098014, -25552.670723518222, -25759.893746363374, -21637.293295537627, -744.5366078062783, -24929.97347473782, -1850.3221094992293, -25935.13142289298, -30110.034955744144, -26028.069976338145, -7760.01158476014, -20097.3922130337, -32288.7712465252, 0.052000000000000005, 0.9540000000000001, -0.154, 192.0, 0.0, 0.0, 0.0, 0.0, 0.0, 0.0, 0.0, 0.0, 0.0, 1.668976949369446E9, 0.0, 2022-11-20 15:42:29.369
32.0, -20334.857146126884, 21863.738818614343, -33017.7957436795, -31712.40916400065, -25548.423892071714, -25759.20084228526, -21635.08047283655, -743.351965350147, -24851.92118309989, -1771.4875068053614, -25854.68749459833, -30029.1886960493, -25944.13917590847, -7677.712461675699, -20026.023092987907, -32217.22331252376, 0.052000000000000005, 0.9540000000000001, -0.154, 192.0, 0.0, 0.0, 0.0, 0.0, 0.0, 0.0, 0.0, 0.0, 0.0, 1.6689769493694541E9, 0.0, 2022-11-20 15:42:29.369
34.0, -20350.302201545503, 21581.145713465896, -33023.54014200451, -31705.41306798614, -25557.05166543146, -25767.180415055802, -21641.42836826186, -752.2926631322698, -24936.276666674217, -1842.7448681288802, -25933.45504205883, -30102.055382973598, -26023.219647791346, -7756.301195180559, -20094.754707187978, -32291.29699364865, 0.052000000000000005, 0.9540000000000001, -0.154, 192.0, 0.0, 0.0, 0.0, 0.0, 0.0, 0.0, 0.0, 0.0, 0.0, 1.6689769493694606E9, 0.0, 2022-11-20 15:42:29.369
36.0, -20348.424655011255, 21826.679626307443, -33012.96776687715, -31710.397506999674, -25543.372397824813, -25754.954010838752, -21630.207792545294, -739.7756862372978, -24866.24865129574, -1782.9315999664784, -25862.465901668776, -30032.85438213997, -25944.31798986411, -7679.9252843767745, -20022.089185963774, -32218.81028638009, 0.052000000000000005, 0.9540000000000001, -0.154, 192.0, 0.0, 0.0, 0.0, 0.0, 0.0, 0.0, 0.0, 0.0, 0.0, 1.6689769493694673E9, 0.0, 2022-11-20 15:42:29.369
38.0, -20355.398399281312, 21599.921178808356, -33042.76264223607, -31731.989292143502, -25557.38694159829, -25766.934545866796, -21642.32243804007, -752.2032561544486, -24944.323294678128, -1851.8643798666455, -25955.80678651414, -30120.87555180497, -26030.81924090615, -7761.129171982905, -20102.17548634714, -32298.091923963064, 0.052000000000000005, 0.9520000000000001, -0.156, 192.0, 0.5, 80.0, 14.5, 96.0, 125.5, 16.0, 0.0, 0.0, 0.0, 1.6689769493694754E9, 0.0, 2022-11-20 15:42:29.369
40.0, -20312.371291204847, 21820.734062282332, -33007.357479018865, -31724.32264379533, -25521.422984769702, -25738.167850752816, -21608.638359145923, -720.4861307723679, -24853.91048835641, -1779.78000399828, -25858.39788417791, -30040.722196188235, -25934.013835670215, -7671.319862761482, -20023.139717953174, -32224.822905638568, 0.052000000000000005, 0.9520000000000001, -0.156, 192.0, 0.0, 0.0, 0.0, 0.0, 0.0, 0.0, 0.0, 0.0, 0.0, 1.6689769493694818E9, 0.0, 2022-11-20 15:42:29.369
42.0, -20345.429521254246, 21629.291371022628, -33041.600351524394, -31761.8959262247, -25558.549232309968, -25775.159987826348, -21642.635362462446, -755.6454248005658, -24915.891875730977, -1838.073353537721, -25931.488088546765, -30111.62192960047, -26006.746412127784, -7751.272052678115, -20087.73625942901, -32298.24838617425, 0.052000000000000005, 0.9520000000000001, -0.156, 192.0, 0.0, 0.0, 0.0, 0.0, 0.0, 0.0, 0.0, 0.0, 0.0, 1.6689769493694882E9, 0.0, 2022-11-20 15:42:29.369
44.0, -20314.092375527904, 21785.35125080958, -33004.45175223968, -31732.011643887956, -25522.697034203655, -25741.34179846547, -21608.347786468006, -717.9603836489182, -24862.9182413719, -1795.9403152394673, -25860.096616756513, -30054.08853937251, -25938.305370605634, -7690.587066481957, -20027.900639522155, -32238.837449412043, 0.052000000000000005, 0.9520000000000001, -0.156, 192.0, 0.0, 0.0, 0.0, 0.0, 0.0, 0.0, 0.0, 0.0, 0.0, 1.668976949369495E9, 0.0, 2022-11-20 15:42:29.369
46.0, -20361.99216389563, 21663.28837433915, -33056.710130776184, -31774.18938567512, -25576.989421485596, -25790.560339756055, -21657.611031247503, -764.8096400272418, -24920.16105892194, -1840.5320454278049, -25928.80587921213, -30110.19141795533, -26015.798868632184, -7758.312852181537, -20083.668241938143, -32287.161920924416, 0.052000000000000005, 0.9520000000000001, -0.156, 192.0, 0.0, 0.0, 0.0, 0.0, 0.0, 0.0, 0.0, 0.0, 0.0, 1.668976949369501E9, 0.0, 2022-11-20 15:42:29.369
48.0, -20295.518075885546, 21770.576747724623, -32985.63158340831, -31705.256605774954, -25504.368603750303, -25726.768461080606, -21588.432382158328, -697.1509095610273, -24870.83075890908, -1803.1152252096208, -25860.92363130136, -30051.160460848867, -25948.162489910424, -7693.202220583227, -20030.940476768075, -32231.37196676397, 0.056, 0.9520000000000001, -0.16, 192.0, 0.5, 96.0, 14.5, 96.0, 125.5, 0.0, 0.0, 0.0, 0.0, 1.6689769493695076E9, 0.0, 2022-11-20 15:42:29.369
50.0, -20382.26519611659, 21679.33692685806, -33062.07454944546, -31772.848281007802, -25585.05840123396, -25805.848932963483, -21663.802464461623, -769.8164307852305, -24907.331157604596, -1834.3182604692295, -25920.714547719308, -30099.730801550246, -26007.349909228076, -7747.762828798632, -20073.989936588998, -32271.113368405506, 0.056, 0.9520000000000001, -0.16, 192.0, 0.0, 0.0, 0.0, 0.0, 0.0, 0.0, 0.0, 0.0, 0.0, 1.668976949369514E9, 0.0, 2022-11-20 15:42:29.369
52.0, -20305.241084723602, 21722.185220978885, -32974.433359436196, -31690.526806178907, -25505.799115395443, -25732.557562894533, -21589.12528623644, -700.2801537847703, -24881.78311369218, -1819.0967224951653, -25879.74380013273, -30070.606478524984, -25956.119710936513, -7704.71336897771, -20040.81994781732, -32239.86562965699, 0.056, 0.9520000000000001, -0.16, 192.0, 0.0, 0.0, 0.0, 0.0, 0.0, 0.0, 0.0, 0.0, 0.0, 1.6689769493695204E9, 0.0, 2022-11-20 15:42:29.369
54.0, -20405.08632720546, 21702.15805794693, -33074.904450762806, -31792.428409150652, -25603.610349131864, -25837.610761834476, -21690.982185719276, -803.0758265347274, -24919.401099610463, -1838.073353537721, -25928.716472234308, -30106.883359775948, -26006.72406038333, -7754.15542771285, -20072.581776688312, -32280.635211543467, 0.056, 0.9520000000000001, -0.16, 192.0, 0.0, 0.0, 0.0, 0.0, 0.0, 0.0, 0.0, 0.0, 0.0, 1.6689769493695269E9, 0.0, 2022-11-20 15:42:29.369
56.0, -20314.6958726282, 21677.23586287926, -32990.034877066006, -31694.639527158684, -25510.962368364617, -25744.38163571139, -21601.75402185369, -718.3627150491137, -24912.94144546288, -1843.594234418182, -25905.89534114544, -30095.103990448, -25982.964156027338, -7734.6870582922775, -20061.182387016106, -32273.505005062227, 0.056, 0.9520000000000001, -0.16, 192.0, 0.0, 0.0, 0.0, 0.0, 0.0, 0.0, 0.0, 0.0, 0.0, 1.6689769493695333E9, 0.0, 2022-11-20 15:42:29.369
58.0, -20397.240864901647, 21748.292058502684, -33076.62553508586, -31782.3030689124, -25600.101125252382, -25829.340616386013, -21686.511836828213, -801.6900183784984, -24913.701404774358, -1825.8916528095785, -25921.787431453162, -30097.38386838244, -26001.650214391975, -7745.214729930727, -20062.791712616887, -32274.57788879608, 0.052000000000000005, 0.9550000000000001, -0.161, 192.0, 0.5, 64.0, 14.5, 120.0, 125.0, 120.0, 0.0, 0.0, 0.0, 1.6689769493695397E9, 0.0, 2022-11-20 15:42:29.369
60.0, -20301.821267821942, 21652.671295722877, -32994.25935676806, -31687.241099743977, -25515.298606788947, -25742.638199643876, -21608.057213790085, -720.9778691503847, -24913.902570474456, -1847.4834379534052, -25908.443440013343, -30097.607385826992, -25993.201254987867, -7738.196282171761, -20071.6877069101, -32280.121121420998, 0.052000000000000005, 0.9550000000000001, -0.161, 192.0, 0.0, 0.0, 0.0, 0.0, 0.0, 0.0, 0.0, 0.0, 0.0, 1.6689769493695464E9, 0.0, 2022-11-20 15:42:29.369
62.0, -20384.634481028854, 21786.804114199178, -33075.664410074285, -31772.17772867414, -25602.001023531084, -25820.82460174854, -21691.362165375016, -797.9125735655515, -24888.622747495505, -1811.4077224025398, -25901.02266085418, -30075.300344860596, -25985.95928978435, -7726.483968077179, -20059.84128234879, -32266.598316025535, 0.052000000000000005, 0.9550000000000001, -0.161, 192.0, 0.0, 0.0, 0.0, 0.0, 0.0, 0.0, 0.0, 0.0, 0.0, 1.6689769493695529E9, 0.0, 2022-11-20 15:42:29.369
64.0, -20306.895113813294, 21623.882248864444, -32992.71708640064, -31685.676477632103, -25522.294702803458, -25743.040531044073, -21610.67236789136, -723.8165406962086, -24913.455535585348, -1845.4717809524277, -25906.342376034543, -30090.276013645653, -25993.558882899153, -7732.876566991397, -20077.67797442412, -32282.021019699696, 0.052000000000000005, 0.9550000000000001, -0.161, 192.0, 0.0, 0.0, 0.0, 0.0, 0.0, 0.0, 0.0, 0.0, 0.0, 1.66897694936956E9, 0.0, 2022-11-20 15:42:29.369
66.0, -20393.4634200887, 21803.70203300739, -33066.097863447416, -31780.29141191142, -25594.468485649646, -25823.86443899446, -21680.454514080826, -793.3528176966689, -24902.324366846606, -1816.4368649049838, -25902.184951565858, -30073.825129726545, -25990.67550786442, -7724.785235498576, -20056.01913404693, -32267.112406148008, 0.052000000000000005, 0.9550000000000001, -0.161, 192.0, 0.0, 0.0, 0.0, 0.0, 0.0, 0.0, 0.0, 0.0, 0.0, 1.6689769493695664E9, 0.0, 2022-11-20 15:42:29.369
68.0, -20315.88051508433, 21595.204960728286, -32997.925042858726, -31702.663803418138, -25515.61153121132, -25742.973475810704, -21601.306986964584, -718.6532877270326, -24931.806317783157, -1852.5796356892154, -25927.33066407808, -30106.950415009313, -26008.57925517312, -7746.220558431216, -20075.420448234137, -32291.565214582115, 0.048, 0.9555, -0.1595, 192.0, 0.5, 48.0, 14.5, 112.0, 125.5, 8.0, 0.0, 0.0, 0.0, 1.6689769493695729E9, 0.0, 2022-11-20 15:42:29.369
70.0, -20389.75303050912, 21823.5503820837, -33069.651790815806, -31785.43231313614, -25577.414104630247, -25803.01026141766, -21664.025981906176, -776.1419744660824, -24882.9230526594, -1797.9966757293555, -25893.64658518393, -30068.28189710163, -25972.23531868879, -7703.059339888017, -20029.085281978285, -32240.357368035005, 0.048, 0.9555, -0.1595, 192.0, 0.0, 0.0, 0.0, 0.0, 0.0, 0.0, 0.0, 0.0, 0.0, 1.6689769493695812E9, 0.0, 2022-11-20 15:42:29.369
72.0, -20337.51700371707, 21569.70162030478, -33023.11545885986, -31725.641396718194, -25536.488060532578, -25751.53419393709, -21619.300141251104, -729.5832907656778, -24947.184317968407, -1865.454240495472, -25951.51525157872, -30132.274941477175, -26024.985435603314, -7757.418782403324, -20087.445686751093, -32296.214377428816, 0.048, 0.9555, -0.1595, 192.0, 0.0, 0.0, 0.0, 0.0, 0.0, 0.0, 0.0, 0.0, 0.0, 1.668976949369588E9, 0.0, 2022-11-20 15:42:29.369
74.0, -20387.540207808044, 21829.384187386535, -33071.14935769431, -31788.986240504535, -25591.316889681446, -25805.714822496753, -21675.447723322835, -782.2216489579259, -24888.24276783976, -1801.3270856531963, -25898.78748640865, -30074.830958227034, -25972.10120822206, -7707.015598656607, -20038.897697794164, -32243.441908769837, 0.048, 0.9555, -0.1595, 192.0, 0.0, 0.0, 0.0, 0.0, 0.0, 0.0, 0.0, 0.0, 0.0, 1.668976949369594E9, 0.0, 2022-11-20 15:42:29.369
76.0, -20338.947515362208, 21562.75022777918, -33027.429345539735, -31731.27403632093, -25550.234383372594, -25760.161967296837, -21628.307894266592, -739.0380786702727, -24950.850004059077, -1867.041214351799, -25955.404455113945, -30137.371139212984, -26038.48588925432, -7771.2545122211595, -20107.472849783047, -32311.122990980508, 0.048, 0.9555, -0.1595, 192.0, 0.0, 0.0, 0.0, 0.0, 0.0, 0.0, 0.0, 0.0, 0.0, 1.6689769493696005E9, 0.0, 2022-11-20 15:42:29.369
78.0, -20361.79099819553, 21847.913783539985, -33033.017281653556, -31756.28563836642, -25562.90782247875, -25779.09389485048, -21641.942458384332, -751.8903317320743, -24867.321535029598, -1786.6419895460594, -25869.35023896101, -30053.127414360933, -25955.47151034731, -7688.687168203255, -20021.48568886348, -32232.17662956436, 0.047, 0.95475, -0.15875, 192.0, 0.5, 56.0, 14.5, 104.0, 125.5, 8.0, 0.0, 0.0, 0.0, 1.668976949369607E9, 0.0, 2022-11-20 15:42:29.369
80.0, -20339.573364206954, 21588.544140880604, -33015.51586574505, -31722.89213215019, -25542.76890072452, -25759.491414963177, -21622.049405819107, -737.5628635362225, -24937.908344019455, -1848.1316385426092, -25940.384082839977, -30117.500438392217, -26024.516048969752, -7754.4683521352235, -20083.31061402686, -32294.20272042784, 0.047, 0.95475, -0.15875, 192.0, 0.0, 0.0, 0.0, 0.0, 0.0, 0.0, 0.0, 0.0, 0.0, 1.6689769493696134E9, 0.0, 2022-11-20 15:42:29.369
82.0, -20347.12825383285, 21858.79908308972, -33011.11257208736, -31735.274998578432, -25541.316037334924, -25770.220252301726, -21620.99887382971, -741.4520670714459, -24860.54895645964, -1770.9287131939786, -25856.654448110396, -30034.307245529562, -25939.869992717504, -7672.236284284149, -20002.68787177657, -32217.715050901777, 0.047, 0.95475, -0.15875, 192.0, 0.0, 0.0, 0.0, 0.0, 0.0, 0.0, 0.0, 0.0, 0.0, 1.6689769493696198E9, 0.0, 2022-11-20 15:42:29.369
84.0, -20383.427486828266, 21562.72787603472, -33050.429290584245, -31753.29050460941, -25567.713447536644, -25800.149238127382, -21648.24565032073, -773.7950412982752, -24948.771291824734, -1863.4202317500392, -25962.065274961624, -30134.890095578445, -26031.065110095158, -7773.3108727110475, -20088.898550140686, -32313.313461937127, 0.047, 0.95475, -0.15875, 192.0, 0.0, 0.0, 0.0, 0.0, 0.0, 0.0, 0.0, 0.0, 0.0, 1.6689769493696263E9, 0.0, 2022-11-20 15:42:29.369
86.0, -20360.226376083658, 21809.6475970325, -33028.59163625141, -31734.13505961121, -25543.39474956927, -25773.640069203386, -21623.211696530783, -748.157590408038, -24881.961927647822, -1804.7692542993134, -25888.863311870493, -30066.42670231184, -25954.264516146723, -7697.627865985378, -20027.54301161087, -32250.974446651275, 0.047, 0.95475, -0.15875, 192.0, 0.0, 0.0, 0.0, 0.0, 0.0, 0.0, 0.0, 0.0, 0.0, 1.6689769493696325E9, 0.0, 2022-11-20 15:42:29.369
88.0, -20374.375030323867, 21593.014489771664, -33060.08524418894, -31747.434347562117, -25569.68040104871, -25786.224101331725, -21644.468205507783, -768.028291228806, -24950.961762781357, -1866.5047724848716, -25966.96030699734, -30135.180668256366, -26039.73758694382, -7774.763736100643, -20103.31542531436, -32318.990805028774, 0.0435, 0.9533750000000001, -0.158375, 192.0, 0.5, 32.0, 14.5, 96.0, 125.5, 8.0, 0.0, 0.0, 0.0, 1.668976949369639E9, 0.0, 2022-11-20 15:42:29.369
90.0, -20327.101090800894, 21809.938169710418, -33017.30400530148, -31721.059289104855, -25525.178077838194, -25737.340836207968, -21601.75402185369, -721.1566831060271, -24872.171863576397, -1796.3202948952073, -25875.31815473058, -30056.1448998624, -25954.376274869, -7686.9660838801965, -20033.130947724694, -32242.14550759143, 0.0435, 0.9533750000000001, -0.158375, 192.0, 0.0, 0.0, 0.0, 0.0, 0.0, 0.0, 0.0, 0.0, 0.0, 1.6689769493696454E9, 0.0, 2022-11-20 15:42:29.369
92.0, -20357.901794660305, 21638.90262113841, -33048.23881962762, -31751.971751686546, -25566.707619036155, -25766.24164178868, -21635.214583303285, -754.7737067668089, -24915.534247819694, -1835.1899785029864, -25931.912771691415, -30110.39258365543, -26015.15066804298, -7746.19820668676, -20078.59439594679, -32283.25036564474, 0.0435, 0.9533750000000001, -0.158375, 192.0, 0.0, 0.0, 0.0, 0.0, 0.0, 0.0, 0.0, 0.0, 0.0, 1.6689769493696518E9, 0.0, 2022-11-20 15:42:29.369
94.0, -20305.419898679247, 21784.680698475924, -32991.912423600246, -31714.018489601433, -25513.845743399354, -25725.42735641329, -21587.78418156912, -712.350095790636, -24859.409017492417, -1795.8956117505566, -25858.979029533748, -30052.1439376049, -25939.84764097305, -7683.412156511803, -20011.874438747698, -32223.034766082143, 0.0435, 0.9533750000000001, -0.158375, 192.0, 0.0, 0.0, 0.0, 0.0, 0.0, 0.0, 0.0, 0.0, 0.0, 1.6689769493696828E9, 0.0, 2022-11-20 15:42:29.369
96.0, -20373.391553567835, 21661.075551638074, -33066.18727042524, -31782.68304856814, -25589.14877046928, -25804.373717829432, -21660.472054537782, -787.6754746050209, -24915.958930964345, -1839.9061965830563, -25932.42686181389, -30112.717165078782, -26014.524819198232, -7756.412953902835, -20060.44477944908, -32281.998667955242, 0.0435, 0.9533750000000001, -0.158375, 192.0, 0.0, 0.0, 0.0, 0.0, 0.0, 0.0, 0.0, 0.0, 0.0, 1.6689769493696897E9, 0.0, 2022-11-20 15:42:29.369
98.0, -20314.87468658384, 21742.905288088954, -32995.15342654627, -31713.772620412426, -25523.412290026223, -25745.655685145342, -21597.28367296263, -726.2975843307477, -24880.06202936912, -1822.650649863559, -25882.001326322716, -30073.735722748726, -25965.28392616319, -7716.29157260556, -20024.033787731387, -32245.833545426554, 0.04375, 0.9506875000000001, -0.15718749999999998, 192.0, 0.5, 48.0, 14.5, 80.0, 125.5, 16.0, 0.0, 0.0, 0.0, 1.668976949369696E9, 0.0, 2022-11-20 15:42:29.369
100.0, -20385.640309529343, 21684.7684007607, -33054.02792144155, -31763.75112101449, -25584.119627966837, -25804.686642251807, -21657.007534147207, -783.3392361806913, -24910.59451229507, -1848.7351356429024, -25926.593056511054, -30106.52573186466, -26013.87661860903, -7764.124305739917, -20055.147416013173, -32273.639115528957, 0.04375, 0.9506875000000001, -0.15718749999999998, 192.0, 0.0, 0.0, 0.0, 0.0, 0.0, 0.0, 0.0, 0.0, 0.0, 1.6689769493697023E9, 0.0, 2022-11-20 15:42:29.369
102.0, -20323.033073310027, 21690.53515083017, -32991.73360964461, -31705.2342540305, -25531.704787219143, -25744.068711289015, -21599.876475319445, -725.1129418746165, -24880.129084602486, -1843.2589582513522, -25877.061590798094, -30074.406275082383, -25962.66877206192, -7721.410122085825, -20029.554668611847, -32232.400147008917, 0.04375, 0.9506875000000001, -0.15718749999999998, 192.0, 0.0, 0.0, 0.0, 0.0, 0.0, 0.0, 0.0, 0.0, 0.0, 1.6689769493697107E9, 0.0, 2022-11-20 15:42:29.369
104.0, -20398.76078352461, 21700.951063746343, -33073.004552484104, -31792.987202762033, -25611.12053526885, -25824.95967447277, -21683.069668182095, -805.2439457468922, -24916.629483298002, -1883.9167814155558, -25938.573591539098, -30127.558723397105, -26020.984473345816, -7786.185477517305, -20081.701288426077, -32279.897603976442, 0.04375, 0.9506875000000001, -0.15718749999999998, 192.0, 0.0, 0.0, 0.0, 0.0, 0.0, 0.0, 0.0, 0.0, 0.0, 1.6689769493697183E9, 0.0, 2022-11-20 15:42:29.369
106.0, -20303.855276567374, 21665.657659251414, -32992.94060384519, -31710.46456223304, -25528.977874395594, -25749.455481702746, -21608.906580079387, -734.6571367570325, -24877.245709567753, -1874.03731036631, -25892.059611327604, -30094.500493347707, -25971.47535937731, -7755.96591901373, -20057.226128247516, -32261.8150427121, 0.04375, 0.9506875000000001, -0.15718749999999998, 192.0, 0.0, 0.0, 0.0, 0.0, 0.0, 0.0, 0.0, 0.0, 0.0, 1.6689769493697252E9, 0.0, 2022-11-20 15:42:29.369
108.0, -20374.665603001788, 21756.003410339763, -33066.88017450335, -31786.99693524801, -25598.715317096154, -25825.227895406235, -21678.53226405767, -808.5967074151883, -24871.277793798185, -1865.8342201512123, -25907.32585279058, -30099.082600961043, -25994.117676510537, -7776.149544256872, -20061.67412539412, -32276.321324863595, 0.044875, 0.9493437500000002, -0.15759374999999998, 192.0, 0.5, 56.0, 14.5, 80.0, 125.5, 8.0, 0.0, 0.0, 0.0, 1.6689769493697317E9, 0.0, 2022-11-20 15:42:29.369
110.0, -20301.888323055307, 21632.62178094647, -33003.60238595038, -31723.003890872467, -25525.71451970512, -25760.6313539304, -21608.973635312752, -745.8330089846861, -24881.49254101426, -1889.1247378736423, -25903.369594021988, -30106.68219407585, -25992.262481720743, -7775.322529712025, -20057.82962534781, -32287.765418024712, 0.044875, 0.9493437500000002, -0.15759374999999998, 192.0, 0.0, 0.0, 0.0, 0.0, 0.0, 0.0, 0.0, 0.0, 0.0, 1.668976949369738E9, 0.0, 2022-11-20 15:42:29.369
112.0, -20368.183597109746, 21791.9450154239, -33073.76451179558, -31799.424505165163, -25599.16235198526, -25840.49413686921, -21681.86267398151, -816.9786115859284, -24858.82787213658, -1854.0548508232655, -25894.563006706598, -30087.750266522202, -25984.215853716836, -7768.304081953059, -20035.34377042577, -32285.172615667896, 0.044875, 0.9493437500000002, -0.15759374999999998, 192.0, 0.0, 0.0, 0.0, 0.0, 0.0, 0.0, 0.0, 0.0, 0.0, 1.6689769493697443E9, 0.0, 2022-11-20 15:42:29.369
114.0, -20288.41022114876, 21618.6519406619, -32998.32737425892, -31702.999079584966, -25528.70965346213, -25761.6818859198, -21612.214638258774, -745.6765467734989, -24886.45462828334, -1887.4483570394943, -25901.492047487744, -30097.58503408254, -25995.257615477756, -7779.479954180712, -20057.7849218589, -32303.836322288076, 0.044875, 0.9493437500000002, -0.15759374999999998, 192.0, 0.0, 0.0, 0.0, 0.0, 0.0, 0.0, 0.0, 0.0, 0.0, 1.6689769493697507E9, 0.0, 2022-11-20 15:42:29.369
116.0, -20374.956175679705, 21805.490172563812, -33066.50019484761, -31780.67139156716, -25601.598692130887, -25832.671026309854, -21684.72369727179, -814.9222510960402, -24854.938668601357, -1842.5437024287824, -25879.632041410452, -30062.381036565428, -25973.889347778484, -7751.294404422571, -20035.54493612587, -32267.514737548205, 0.044875, 0.9493437500000002, -0.15759374999999998, 192.0, 0.0, 0.0, 0.0, 0.0, 0.0, 0.0, 0.0, 0.0, 0.0, 1.6689769493697572E9, 0.0, 2022-11-20 15:42:29.369
118.0, -20321.557858175976, 21569.634565071414, -33007.69275518569, -31714.510227979452, -25544.668799003222, -25766.979249355707, -21630.52071696767, -757.7911922682754, -24910.996843695266, -1904.9050694590892, -25931.66690250241, -30122.328415194563, -26013.742508142295, -7791.818117120042, -20089.12206758524, -32309.267796190717, 0.0474375, 0.9476718750000002, -0.154796875, 192.0, 0.5, 72.0, 14.5, 72.0, 125.5, 32.0, 0.0, 0.0, 0.0, 1.6689769493697643E9, 0.0, 2022-11-20 15:42:29.369
120.0, -20372.877463445362, 21818.47653609235, -33057.82771799895, -31787.175749203656, -25593.149732726783, -25813.00149118918, -21677.68289776837, -798.2254979879258, -24845.10390104102, -1845.4717809524277, -25876.391038464433, -30072.081693659034, -25960.724170294307, -7740.699677550755, -20035.72375008151, -32244.425385525872, 0.0474375, 0.9476718750000002, -0.154796875, 192.0, 0.0, 0.0, 0.0, 0.0, 0.0, 0.0, 0.0, 0.0, 0.0, 1.6689769498490791E9, 0.0, 2022-11-20 15:42:29.849
122.0, -20328.352788490392, 21553.250736385675, -33025.73061296113, -31738.67246373564, -25558.77274975452, -25768.700333678764, -21639.729635683256, -763.0662039597278, -24915.40013735296, -1923.9040522461, -25942.3733880965, -30144.47899394977, -26024.940732114403, -7807.352579516481, -20109.640968995212, -32307.502008378746, 0.0474375, 0.9476718750000002, -0.154796875, 192.0, 0.0, 0.0, 0.0, 0.0, 0.0, 0.0, 0.0, 0.0, 0.0, 1.6689769498491025E9, 0.0, 2022-11-20 15:42:29.849
124.0, -20356.583041737445, 21838.526050868757, -33048.819964983464, -31779.129121199745, -25578.35287789737, -25800.260996849658, -21663.24367085024, -787.0943292491829, -24842.44404345084, -1845.1812082745087, -25873.552366918608, -30070.986458180723, -25955.449158602856, -7736.855177504442, -20034.047369247364, -32233.584789465047, 0.0474375, 0.9476718750000002, -0.154796875, 192.0, 0.0, 0.0, 0.0, 0.0, 0.0, 0.0, 0.0, 0.0, 0.0, 1.6689769498491223E9, 0.0, 2022-11-20 15:42:29.849
126.0, -20326.36348323387, 21565.678306302823, -33026.91525541726, -31739.65594049167, -25550.748473495063, -25777.10458959396, -21636.443929248326, -766.0836894611942, -24908.918131460923, -1904.838014225723, -25940.831117729085, -30133.839563589045, -26020.82801113463, -7804.938591115308, -20092.854808909276, -32298.40484838544, 0.0474375, 0.9476718750000002, -0.154796875, 192.0, 0.0, 0.0, 0.0, 0.0, 0.0, 0.0, 0.0, 0.0, 0.0, 1.6689769498491611E9, 0.0, 2022-11-20 15:42:29.849
128.0, -20359.421713283267, 21832.289914165725, -33053.156203407794, -31780.62668807825, -25574.82130227343, -25811.526276055134, -21663.154263872417, -792.9057828075628, -24842.332284728564, -1835.7040686254584, -25872.21126225129, -30063.90095518839, -25950.352960867043, -7733.837692002976, -20015.76364228292, -32239.57505697907, 0.05071875, 0.9508359375000002, -0.15039843749999998, 192.0, 0.5, 88.0, 14.5, 104.0, 125.5, 56.0, 0.0, 0.0, 0.0, 1.66897694984917E9, 0.0, 2022-11-20 15:42:29.849
130.0, -20333.001951337093, 21568.7404952932, -33034.29133108751, -31742.673425993136, -25551.19550838417, -25787.229929832214, -21643.95411538531, -775.1584977100489, -24922.865620001034, -1918.874909743656, -25956.14206268097, -30150.15633704142, -26034.373168274542, -7817.477919754734, -20094.93352114362, -32328.758517355745, 0.05071875, 0.9508359375000002, -0.15039843749999998, 192.0, 0.0, 0.0, 0.0, 0.0, 0.0, 0.0, 0.0, 0.0, 0.0, 1.6689769498491766E9, 0.0, 2022-11-20 15:42:29.849
132.0, -20352.380913779845, 21820.599951815602, -33046.69654926021, -31768.020304205456, -25571.692058049688, -25805.15602888537, -21664.584775517556, -792.5481548962779, -24839.359502716008, -1840.4426384499836, -25865.192814492326, -30062.09046388751, -25949.816519000116, -7729.367343111914, -20019.362273140225, -32253.835469941554, 0.05071875, 0.9508359375000002, -0.15039843749999998, 192.0, 0.0, 0.0, 0.0, 0.0, 0.0, 0.0, 0.0, 0.0, 0.0, 1.6689769498491836E9, 0.0, 2022-11-20 15:42:29.849
134.0, -20360.02521038356, 21562.034971956607, -33062.096901189914, -31761.694760524606, -25586.399505901278, -25811.43686907731, -21672.989031432753, -800.058341033261, -24924.49729734627, -1919.299592888307, -25961.014742972227, -30145.954209083822, -26040.564601488662, -7817.83554766602, -20115.810050464876, -32341.92369483992, 0.05071875, 0.9508359375000002, -0.15039843749999998, 192.0, 0.0, 0.0, 0.0, 0.0, 0.0, 0.0, 0.0, 0.0, 0.0, 1.6689769498491983E9, 0.0, 2022-11-20 15:42:29.849
136.0, -20331.571439691954, 21807.233608631326, -33029.932740918724, -31732.972768899534, -25552.76013049604, -25776.903423893862, -21642.747121184722, -767.7600702953423, -24839.314799227097, -1842.946033828978, -25871.07132328407, -30056.301362073587, -25946.351998609545, -7725.835767487975, -20038.338904182783, -32259.266943844195, 0.05071875, 0.9508359375000002, -0.15039843749999998, 192.0, 0.0, 0.0, 0.0, 0.0, 0.0, 0.0, 0.0, 0.0, 0.0, 1.668976949849204E9, 0.0, 2022-11-20 15:42:29.849
138.0, -20365.769608708575, 21585.57135886805, -33067.37191288137, -31758.699626767593, -25583.672593077732, -25801.266825350147, -21671.580871532067, -796.4597101759566, -24908.627558783002, -1904.7933107368126, -25953.504556835243, -30130.28563622065, -26025.611284448063, -7798.121309056439, -20106.60113174929, -32317.31442419463, 0.05071875, 0.9508359375000002, -0.15039843749999998, 192.0, 0.0, 0.0, 0.0, 0.0, 0.0, 0.0, 0.0, 0.0, 0.0, 1.6689769498492105E9, 0.0, 2022-11-20 15:42:29.849
140.0, -20334.276000771046, 21777.148160594483, -33029.48570602962, -31741.13115562572, -25542.09834839086, -25770.600231957465, -21633.068815835573, -758.6852620464877, -24853.68697091186, -1860.2909875262962, -25884.661183912896, -30073.95924019328, -25953.772777768707, -7728.696790778255, -20039.747064083465, -32252.650827485424, 0.054, 0.9520000000000001, -0.15, 192.0, 0.5, 88.0, 14.5, 96.0, 125.5, 40.0, 0.0, 0.0, 0.0, 1.6689769498492165E9, 0.0, 2022-11-20 15:42:29.849
142.0, -20378.621861770378, 21615.098013293507, -33076.44672113022, -31789.925013771655, -25600.794029330496, -25828.06656695206, -21686.04245019465, -814.2964022512916, -24922.12801243401, -1915.1645201640752, -25959.94185923837, -30142.62379915998, -26038.016502620758, -7808.537221972611, -20098.576855489835, -32319.907226551444, 0.054, 0.9520000000000001, -0.15, 192.0, 0.0, 0.0, 0.0, 0.0, 0.0, 0.0, 0.0, 0.0, 0.0, 1.6689769498492224E9, 0.0, 2022-11-20 15:42:29.849
144.0, -20313.48887842761, 21760.183186552906, -33009.70441218667, -31741.17585911463, -25548.401540327257, -25777.506920994154, -21630.476013478758, -762.2168376704261, -24857.26325002471, -1860.7827259043129, -25874.289974485633, -30070.67353375835, -25962.914641250925, -7746.734648553687, -20038.338904182783, -32267.872365459487, 0.054, 0.9520000000000001, -0.15, 192.0, 0.0, 0.0, 0.0, 0.0, 0.0, 0.0, 0.0, 0.0, 0.0, 1.668976949849229E9, 0.0, 2022-11-20 15:42:29.849
146.0, -20373.860940201397, 21653.900641667922, -33063.840337257425, -31795.892929541224, -25606.046689277493, -25834.705035055285, -21680.253348380727, -814.1622917845598, -24895.618843510016, -1895.0255984098435, -25930.079928646082, -30118.416859914883, -26022.996130346794, -7806.637323693911, -20080.49429422549, -32315.995671271765, 0.054, 0.9520000000000001, -0.15, 192.0, 0.0, 0.0, 0.0, 0.0, 0.0, 0.0, 0.0, 0.0, 0.0, 1.6689769498492353E9, 0.0, 2022-11-20 15:42:29.849
148.0, -20302.715337600155, 21727.884915814986, -32992.113589300345, -31724.501457750972, -25535.638694243276, -25762.754769653653, -21610.27003649116, -742.703764760943, -24853.82108137859, -1865.7224614289357, -25877.016887309182, -30075.032123927132, -25960.634763316484, -7753.730744568199, -20030.336979667783, -32265.27956310267, 0.054, 0.9520000000000001, -0.15, 192.0, 0.0, 0.0, 0.0, 0.0, 0.0, 0.0, 0.0, 0.0, 0.0, 1.668976949849241E9, 0.0, 2022-11-20 15:42:29.849
150.0, -20374.84441695743, 21696.5701218331, -33068.62361057087, -31790.05912423839, -25610.472334679645, -25833.565096088067, -21683.226130393283, -810.8989370940849, -24882.230148581286, -1880.3852057916172, -25924.760213465717, -30105.788124297636, -26009.272159251235, -7794.3215124990365, -20058.79075035939, -32289.687668047867, 0.046, 0.9500000000000001, -0.156, 192.0, 0.5, 56.0, 14.5, 88.0, 125.5, 16.0, 0.0, 0.0, 0.0, 1.668976949849247E9, 0.0, 2022-11-20 15:42:29.849
152.0, -20297.283863697514, 21703.074479469597, -32999.80258939297, -31706.329489508807, -25530.967179652118, -25752.6294294154, -21609.84535334651, -736.6464420135549, -24865.77926466218, -1868.1588015745642, -25886.248157769223, -30072.014638425666, -25973.777589056208, -7755.25066319116, -20037.48953789348, -32263.0667404016, 0.046, 0.9500000000000001, -0.156, 192.0, 0.0, 0.0, 0.0, 0.0, 0.0, 0.0, 0.0, 0.0, 0.0, 1.6689769498492534E9, 0.0, 2022-11-20 15:42:29.849
154.0, -20368.585928509943, 21739.35136072056, -33067.79659602602, -31771.90950774068, -25603.565645642957, -25819.25997963667, -21679.605147791524, -804.4839864354118, -24874.429389766385, -1860.3133392707516, -25911.70679470382, -30079.681286773837, -25998.945653312883, -7774.517866911634, -20052.174634000618, -32269.906374204922, 0.046, 0.9500000000000001, -0.156, 192.0, 0.0, 0.0, 0.0, 0.0, 0.0, 0.0, 0.0, 0.0, 0.0, 1.66897694984926E9, 0.0, 2022-11-20 15:42:29.849
156.0, -20297.01564276405, 21659.913260926398, -33000.20492079317, -31696.897053348668, -25536.39865355476, -25750.506013692146, -21615.254475504695, -741.5191223048118, -24868.1709013189, -1867.4211940075393, -25886.337564747046, -30067.499586045695, -25973.263498933735, -7755.675346335811, -20044.418578674624, -32260.00455141122, 0.046, 0.9500000000000001, -0.156, 192.0, 0.0, 0.0, 0.0, 0.0, 0.0, 0.0, 0.0, 0.0, 0.0, 1.668976949849266E9, 0.0, 2022-11-20 15:42:29.849
158.0, -20387.83078048596, 21751.62246842652, -33091.86942480438, -31792.67427833966, -25629.180744788737, -25839.93534325783, -21708.617712094514, -831.3060797817802, -24872.64125020996, -1863.9566736169666, -25910.27628305868, -30082.587013553028, -26000.219702746836, -7776.194247745782, -20064.043410306385, -32276.902470219433, 0.046, 0.9500000000000001, -0.156, 192.0, 0.0, 0.0, 0.0, 0.0, 0.0, 0.0, 0.0, 0.0, 0.0, 1.6689769498492723E9, 0.0, 2022-11-20 15:42:29.849
160.0, -20284.25279668007, 21636.04159784813, -32994.75109514607, -31689.498625933964, -25527.681473217188, -25739.41954844231, -21614.069833048565, -739.5074653038341, -24879.21266307982, -1885.459051782972, -25907.906998146416, -30091.952394479802, -25991.256653220258, -7769.980462787207, -20077.29799476838, -32287.54190058016, 0.04, 0.9460000000000001, -0.154, 192.0, 0.5, 32.0, 14.5, 72.0, 125.5, 24.0, 0.0, 0.0, 0.0, 1.6689769498492787E9, 0.0, 2022-11-20 15:42:29.849
162.0, -20380.767629238086, 21791.386221812514, -33084.44864564522, -31798.66454585368, -25610.852314335385, -25832.82748852104, -21700.05699396813, -826.6569169350764, -24844.522755685182, -1840.040307049788, -25891.74668690523, -30066.449054056295, -25972.0788564776, -7747.941642754275, -20043.323343196316, -32258.90931593291, 0.04, 0.9460000000000001, -0.154, 192.0, 0.0, 0.0, 0.0, 0.0, 0.0, 0.0, 0.0, 0.0, 0.0, 1.6689769498492851E9, 0.0, 2022-11-20 15:42:29.849
164.0, -20322.407224465278, 21586.59953911299, -33023.2942728155, -31735.1408881117, -25547.932153693695, -25767.850967389462, -21634.09699608052, -762.3062446482473, -24905.766535492723, -1908.391941594117, -25938.774757239196, -30124.988272784743, -26010.52385694073, -7797.741329400698, -20090.776096674934, -32309.804238057644, 0.04, 0.9460000000000001, -0.154, 192.0, 0.0, 0.0, 0.0, 0.0, 0.0, 0.0, 0.0, 0.0, 0.0, 1.668976949849292E9, 0.0, 2022-11-20 15:42:29.849
166.0, -20386.534379307555, 21805.847800475098, -33082.235822944145, -31814.48958092804, -25607.67836662273, -25830.569962331054, -21689.171694418394, -812.9105940950626, -24863.722904172293, -1860.1345253151092, -25904.733050433762, -30086.0515339436, -25977.80090305816, -7764.526637140112, -20047.72663685401, -32268.520566048694, 0.04, 0.9460000000000001, -0.154, 192.0, 0.0, 0.0, 0.0, 0.0, 0.0, 0.0, 0.0, 0.0, 0.0, 1.668976949849302E9, 0.0, 2022-11-20 15:42:29.849
168.0, -20323.636570410323, 21568.047591215087, -33024.16599084926, -31748.820155718346, -25556.24700263107, -25777.23870006069, -21636.93566762634, -763.446183615468, -24914.953102463856, -1922.6076510676924, -25943.021588685704, -30136.63353164596, -26024.203124547377, -7814.505137742179, -20102.846038680796, -32320.756592840746, 0.04, 0.9460000000000001, -0.154, 192.0, 0.0, 0.0, 0.0, 0.0, 0.0, 0.0, 0.0, 0.0, 0.0, 1.6689769498493092E9, 0.0, 2022-11-20 15:42:29.849
170.0, -20375.51496929109, 21818.87886749254, -33070.09882570491, -31811.00270879301, -25612.863971336363, -25834.39211063291, -21693.44087760936, -816.1515970410821, -24852.68114241137, -1863.6661009390475, -25887.63396592545, -30077.736685006224, -25973.3305541671, -7763.96784352873, -20050.453549677557, -32269.101711404528, 0.046, 0.9480000000000001, -0.154, 192.0, 0.5, 56.0, 14.5, 80.0, 125.5, 24.0, 0.0, 0.0, 0.0, 1.6689769498493164E9, 0.0, 2022-11-20 15:42:29.849
172.0, -20328.50925070158, 21551.350838106973, -33031.9443979197, -31745.780318472425, -25570.35095338237, -25785.598252486976, -21651.978391644763, -777.3266169222137, -24919.468154843828, -1934.454075629005, -25949.436539344377, -30140.321569481086, -26038.038854365215, -7827.3126873150695, -20113.485469041523, -32326.813915588133, 0.046, 0.9480000000000001, -0.154, 192.0, 0.0, 0.0, 0.0, 0.0, 0.0, 0.0, 0.0, 0.0, 0.0, 1.668976949849323E9, 0.0, 2022-11-20 15:42:29.849
174.0, -20357.432408026747, 21840.381245658547, -33048.10470916089, -31769.629629806237, -25595.139037983303, -25807.078278908528, -21672.653755265925, -793.6880938634985, -24842.68991263985, -1852.8031531337683, -25877.754494876208, -30057.776577207635, -25965.842719774573, -7750.377982899903, -20039.277677449903, -32245.00653088171, 0.046, 0.9480000000000001, -0.154, 192.0, 0.0, 0.0, 0.0, 0.0, 0.0, 0.0, 0.0, 0.0, 0.0, 1.6689769498493292E9, 0.0, 2022-11-20 15:42:29.849
176.0, -20337.762872906074, 21556.78231200961, -33040.080432901435, -31743.366330071254, -25582.890282021795, -25789.01806938864, -21658.728618470268, -782.7580908248533, -24907.666433771425, -1916.7514940204019, -25944.407396841932, -30125.412955929394, -26030.126336828034, -7813.767530175153, -20101.817858435854, -32304.931557766387, 0.046, 0.9480000000000001, -0.154, 192.0, 0.0, 0.0, 0.0, 0.0, 0.0, 0.0, 0.0, 0.0, 0.0, 1.6689769498493357E9, 0.0, 2022-11-20 15:42:29.849
178.0, -20359.399361538814, 21830.814699031675, -33065.47201460267, -31775.86576650927, -25606.24785497759, -25812.82267723354, -21682.600281548534, -805.1321870246157, -24851.384741232963, -1856.625301435626, -25884.705887401808, -30066.292591845107, -25974.80576930115, -7753.775448057109, -20049.87240432172, -32250.48270827326, 0.046, 0.9480000000000001, -0.154, 192.0, 0.0, 0.0, 0.0, 0.0, 0.0, 0.0, 0.0, 0.0, 0.0, 1.6689769498493428E9, 0.0, 2022-11-20 15:42:29.849
180.0, -20344.31193403148, 21570.30511740507, -33056.95599996519, -31746.920257439648, -25591.808628059465, -25789.82273218903, -21666.641136007445, -788.5471926387779, -24925.972512480323, -1915.589203308726, -25959.13719643798, -30129.92800830937, -26052.366322561065, -7819.511928500167, -20119.632198766732, -32311.68178459189, 0.052000000000000005, 0.9460000000000001, -0.158, 192.0, 0.5, 80.0, 14.5, 72.0, 125.5, 8.0, 0.0, 0.0, 0.0, 1.66897694984935E9, 0.0, 2022-11-20 15:42:29.849
182.0, -20332.73373040363, 21842.437606148436, -33032.77141246455, -31740.818231203346, -25571.893223749787, -25773.058923847548, -21648.871499165478, -772.2751226753144, -24840.58884866105, -1834.6088331471483, -25868.12089301597, -30041.392748521896, -25962.400551128456, -7729.143825667361, -20032.7286163245, -32224.37587074946, 0.052000000000000005, 0.9460000000000001, -0.158, 192.0, 0.0, 0.0, 0.0, 0.0, 0.0, 0.0, 0.0, 0.0, 0.0, 1.668976949849357E9, 0.0, 2022-11-20 15:42:29.849
184.0, -20344.803672409496, 21588.32062343605, -33041.57799977994, -31740.52765852543, -25581.415066887745, -25778.15512158336, -21658.862728936998, -782.0428350022835, -24911.622692540015, -1903.5416130473154, -25947.581344554586, -30117.925121536868, -26035.02136886375, -7803.932762614819, -20095.78288743292, -32297.846054774054, 0.052000000000000005, 0.9460000000000001, -0.158, 192.0, 0.0, 0.0, 0.0, 0.0, 0.0, 0.0, 0.0, 0.0, 0.0, 1.6689769498493638E9, 0.0, 2022-11-20 15:42:29.849
186.0, -20336.555878705487, 21803.724384751844, -33025.97648215014, -31737.21960034604, -25562.930174223206, -25761.368961497425, -21642.76947292918, -765.2790266608032, -24837.839584093046, -1845.941167585989, -25868.143244760424, -30047.539478247105, -25951.47054808981, -7724.047627931551, -20022.893848764164, -32225.404050994406, 0.052000000000000005, 0.9460000000000001, -0.158, 192.0, 0.0, 0.0, 0.0, 0.0, 0.0, 0.0, 0.0, 0.0, 0.0, 1.6689769498493712E9, 0.0, 2022-11-20 15:42:29.849
188.0, -20364.517911019077, 21602.22340848725, -33060.08524418894, -31755.078644165835, -25587.78531405751, -25783.67600246382, -21663.04250515014, -789.4859659059008, -24907.17469539341, -1904.010999680877, -25954.644495802462, -30122.037842516645, -26029.92517112794, -7798.948323601285, -20091.40194551968, -32292.906319249432, 0.052000000000000005, 0.9460000000000001, -0.158, 192.0, 0.0, 0.0, 0.0, 0.0, 0.0, 0.0, 0.0, 0.0, 0.0, 1.668976949849378E9, 0.0, 2022-11-20 15:42:29.849
190.0, -20348.22348931116, 21756.651610928966, -33043.38849108082, -31749.42365281864, -25568.316944636936, -25770.95785986875, -21647.686856709344, -771.7163290639317, -24862.985296605268, -1865.744813173391, -25896.93229161886, -30071.098216903, -25968.927260509405, -7738.1515786828495, -20043.658619363145, -32246.705263460313, 0.052000000000000005, 0.9500000000000001, -0.16, 192.0, 0.5, 80.0, 14.5, 88.0, 125.5, 0.0, 0.0, 0.0, 0.0, 1.668976949849385E9, 0.0, 2022-11-20 15:42:29.849
192.0, -20382.84634147243, 21615.902676093898, -33083.08518923345, -31784.135911957732, -25605.06321252146, -25810.229874876724, -21682.935557715366, -806.0709602917386, -24930.152288693465, -1925.2898604023292, -25975.923356523916, -30142.62379915998, -26053.953296417392, -7820.204832578282, -20112.12201262975, -32319.30372945115, 0.052000000000000005, 0.9500000000000001, -0.16, 192.0, 0.0, 0.0, 0.0, 0.0, 0.0, 0.0, 0.0, 0.0, 0.0, 1.6689769498493927E9, 0.0, 2022-11-20 15:42:29.849
194.0, -20299.183761976215, 21760.69727667538, -32993.07471431192, -31711.224521544522, -25533.29176107547, -25738.14549900836, -21609.8006498576, -733.8077704677308, -24845.640342907947, -1851.9537868444668, -25869.327887216557, -30051.60749573797, -25956.969077225815, -7729.8143780010205, -20027.811232544333, -32240.42442326837, 0.052000000000000005, 0.9500000000000001, -0.16, 192.0, 0.0, 0.0, 0.0, 0.0, 0.0, 0.0, 0.0, 0.0, 0.0, 1.6689769498494003E9, 0.0, 2022-11-20 15:42:29.849
196.0, -20370.21760585518, 21664.33890632855, -33060.59933431141, -31785.298202669408, -25605.979634044128, -25817.36008135797, -21679.582796047067, -808.060265548261, -24897.138762132974, -1898.9818571784328, -25936.13725139347, -30112.650109845414, -26025.030139092225, -7804.648018437389, -20079.332003513813, -32298.985993741277, 0.052000000000000005, 0.9500000000000001, -0.16, 192.0, 0.0, 0.0, 0.0, 0.0, 0.0, 0.0, 0.0, 0.0, 0.0, 1.6689769498494077E9, 0.0, 2022-11-20 15:42:29.849
198.0, -20289.796029304987, 21734.523383918215, -32984.04460955198, -31714.21965530153, -25524.86515341582, -25745.342760722968, -21603.340995710016, -732.0196309113063, -24846.646171408436, -1867.9352841300113, -25868.67968662735, -30061.062283642565, -25957.70668479284, -7745.997040986663, -20025.933686010085, -32252.851993185523, 0.052000000000000005, 0.9500000000000001, -0.16, 192.0, 0.0, 0.0, 0.0, 0.0, 0.0, 0.0, 0.0, 0.0, 0.0, 1.6689769498494167E9, 0.0, 2022-11-20 15:42:29.849
200.0, -20377.884254203353, 21707.745994060755, -33070.47880536065, -31799.044525509424, -25607.991291045106, -25824.91497098386, -21683.226130393283, -807.993210314895, -24879.726753202292, -1884.4979267713938, -25922.837963442562, -30097.540330593627, -26006.969929572337, -7794.008588076662, -20060.377724215716, -32287.63130755798, 0.048, 0.9540000000000001, -0.156, 192.0, 0.5, 64.0, 14.5, 104.0, 125.5, 16.0, 0.0, 0.0, 0.0, 1.6689769498494236E9, 0.0, 2022-11-20 15:42:29.849
202.0, -20305.30813995697, 21683.00261294873, -33004.40704875076, -31727.1389635967, -25536.353950065848, -25753.38938872688, -21616.17089702736, -741.7873432382755, -24871.076628098086, -1890.3764355631395, -25898.452210241823, -30080.083618174034, -25979.32082168112, -7766.337128440992, -20053.605145645757, -32279.405865598426, 0.048, 0.9540000000000001, -0.156, 192.0, 0.0, 0.0, 0.0, 0.0, 0.0, 0.0, 0.0, 0.0, 0.0, 1.6689769498494303E9, 0.0, 2022-11-20 15:42:29.849
204.0, -20372.89981518982, 21743.128805533506, -33070.07647396046, -31792.696630084116, -25611.724032369144, -25821.15987791537, -21682.37676410398, -802.4052742010682, -24872.127160087486, -1874.551400488782, -25915.663053472406, -30084.53161532064, -26003.81833360414, -7779.077622780517, -20070.413657476147, -32293.06278146062, 0.048, 0.9540000000000001, -0.156, 192.0, 0.0, 0.0, 0.0, 0.0, 0.0, 0.0, 0.0, 0.0, 0.0, 1.6689769498494377E9, 0.0, 2022-11-20 15:42:29.849
206.0, -20295.473372396635, 21652.023095133674, -32990.39250497729, -31704.004908085455, -25529.447261029156, -25742.28057173259, -21602.22340848725, -722.8107121957198, -24878.184482834877, -1889.7729384628462, -25900.84384689854, -30080.262432129675, -25985.735772339794, -7760.77154407162, -20063.529320183912, -32283.451531344836, 0.048, 0.9540000000000001, -0.156, 192.0, 0.0, 0.0, 0.0, 0.0, 0.0, 0.0, 0.0, 0.0, 0.0, 1.6689769498494446E9, 0.0, 2022-11-20 15:42:29.849
208.0, -20364.27204183007, 21779.763314695756, -33057.291276132026, -31776.938650243123, -25590.713392581154, -25807.10063065298, -21662.371952816484, -778.511259378345, -24859.67723842588, -1855.1277345571202, -25897.13345731896, -30062.29162958761, -25979.253766447757, -7746.712296809233, -20042.09399725127, -32261.077435145075, 0.048, 0.9540000000000001, -0.156, 192.0, 0.0, 0.0, 0.0, 0.0, 0.0, 0.0, 0.0, 0.0, 0.0, 1.6689769498494515E9, 0.0, 2022-11-20 15:42:29.849
210.0, -20293.618177606844, 21626.27388552116, -33001.25545278257, -31720.053460604366, -25522.607627225832, -25746.37094096791, -21599.965882297263, -716.0157818813065, -24886.141703860965, -1886.9566186614775, -25909.717489447296, -30086.0515339436, -25985.91458629544, -7758.15638997035, -20065.429218462614, -32288.48067384728, 0.044, 0.9510000000000001, -0.158, 192.0, 0.5, 32.0, 14.5, 80.0, 125.5, 0.0, 0.0, 0.0, 0.0, 1.6689769498494587E9, 0.0, 2022-11-20 15:42:29.849
212.0, -20375.850245457917, 21795.297777092193, -33080.201814198714, -31815.450705939616, -25595.519017639046, -25825.563171573063, -21678.91224371341, -792.3469891961801, -24858.894927369944, -1849.1598187875534, -25895.770000907185, -30067.23136511223, -25970.46953087682, -7743.9630322412295, -20048.48659616549, -32274.33201960707, 0.044, 0.9510000000000001, -0.158, 192.0, 0.0, 0.0, 0.0, 0.0, 0.0, 0.0, 0.0, 0.0, 0.0, 1.6689769498494656E9, 0.0, 2022-11-20 15:42:29.849
214.0, -20321.669616898253, 21571.914443005855, -33028.9939676516, -31755.033940676924, -25551.709598506644, -25772.34366802498, -21629.55959195609, -744.5813112951889, -24921.882143245002, -1919.3666481216728, -25946.530812565186, -30130.28563622065, -26016.782345388216, -7795.886134610908, -20108.813954450365, -32331.7312993683, 0.044, 0.9510000000000001, -0.158, 192.0, 0.0, 0.0, 0.0, 0.0, 0.0, 0.0, 0.0, 0.0, 0.0, 1.6689769498494728E9, 0.0, 2022-11-20 15:42:29.849
216.0, -20390.065954931495, 21790.827428201133, -33071.17170943877, -31819.943406575134, -25606.06904102195, -25827.887752996416, -21683.18142690437, -794.4927566638895, -24872.037753109667, -1870.5727899757374, -25904.196608566835, -30092.555891580094, -25979.969022270325, -7762.783201072598, -20059.43895094859, -32283.876214489486, 0.044, 0.9510000000000001, -0.158, 192.0, 0.0, 0.0, 0.0, 0.0, 0.0, 0.0, 0.0, 0.0, 0.0, 1.66897694984948E9, 0.0, 2022-11-20 15:42:29.849
218.0, -20324.821212866453, 21546.88048921591, -33013.034822110516, -31741.37702481473, -25549.58618278339, -25760.117263807926, -21621.110632551987, -730.6114710106219, -24927.961817736843, -1935.750476807413, -25946.530812565186, -30146.87063060649, -26024.381938503022, -7810.079492340028, -20101.482582269025, -32317.828514317098, 0.044, 0.9510000000000001, -0.158, 192.0, 0.0, 0.0, 0.0, 0.0, 0.0, 0.0, 0.0, 0.0, 0.0, 1.6689769498494868E9, 0.0, 2022-11-20 15:42:29.849
220.0, -20373.2574431011, 21811.681605777932, -33066.76841578107, -31798.217510964576, -25597.26245370656, -25804.619587018442, -21665.434141806858, -768.832954029197, -24859.274907025687, -1861.2744642823297, -25883.677707156865, -30076.70850476128, -25962.154681939446, -7741.660802562333, -20037.556593126847, -32244.447737270326, 0.044, 0.9485000000000001, -0.159, 192.0, 0.5, 48.0, 14.5, 72.0, 125.5, 0.0, 0.0, 0.0, 0.0, 1.6689769498494935E9, 0.0, 2022-11-20 15:42:29.849
222.0, -20322.07194829845, 21551.41789334034, -33032.883171186826, -31736.66080673466, -25548.267429860527, -25754.886955605383, -21621.13298429644, -729.3597733211247, -24927.537134592192, -1924.1499214351086, -25948.833042244085, -30138.0640432911, -26028.852287394082, -7797.629570678422, -20109.104527128286, -32304.082191477086, 0.044, 0.9485000000000001, -0.159, 192.0, 0.0, 0.0, 0.0, 0.0, 0.0, 0.0, 0.0, 0.0, 0.0, 1.668976949849501E9, 0.0, 2022-11-20 15:42:29.849
224.0, -20361.880405173353, 21824.153879183996, -33062.231011656644, -31779.82202527786, -25585.281918678513, -25792.795514201585, -21653.99004864574, -759.8252010137082, -24852.72584590028, -1848.1763420315199, -25879.02854431016, -30063.923306932844, -25956.969077225815, -7728.428569844791, -20041.624610617713, -32233.964769120787, 0.044, 0.9485000000000001, -0.159, 192.0, 0.0, 0.0, 0.0, 0.0, 0.0, 0.0, 0.0, 0.0, 0.0, 1.668976949849508E9, 0.0, 2022-11-20 15:42:29.849
226.0, -20328.956285590684, 21557.564623065547, -33027.80932519547, -31736.05730963437, -25562.170214911726, -25765.124054565917, -21626.60916168799, -736.512331546823, -24922.46328860084, -1917.4667498429717, -25947.827213743596, -30132.96784555529, -26027.555886215676, -7801.451718980279, -20107.472849783047, -32302.986955998775, 0.044, 0.9485000000000001, -0.159, 192.0, 0.0, 0.0, 0.0, 0.0, 0.0, 0.0, 0.0, 0.0, 0.0, 1.6689769498495147E9, 0.0, 2022-11-20 15:42:29.849
228.0, -20342.948477619706, 21832.200507187907, -33029.06102288497, -31759.794862245904, -25579.29165116449, -25785.53119725361, -21644.93759214134, -754.2149131554262, -24835.42559569187, -1833.6477081355702, -25853.12287248646, -30042.80090842258, -25941.926353207393, -7717.409159828325, -20027.34184591077, -32225.76167890569, 0.044, 0.9485000000000001, -0.159, 192.0, 0.0, 0.0, 0.0, 0.0, 0.0, 0.0, 0.0, 0.0, 0.0, 1.6689769498495219E9, 0.0, 2022-11-20 15:42:29.849
230.0, -20346.301239288, 21552.289611374094, -33035.6994909882, -31754.318684854352, -25583.44907563318, -25791.119133367436, -21650.033789877154, -762.4850586038898, -24921.59157056708, -1918.1149504321756, -25945.882611975983, -30133.884267077956, -26031.981531617825, -7809.475995239734, -20112.390233563216, -32317.046203261165, 0.047, 0.94825, -0.1615, 192.0, 0.5, 72.0, 14.5, 80.0, 125.0, 112.0, 0.0, 0.0, 0.0, 1.6689769498495317E9, 0.0, 2022-11-20 15:42:29.849
232.0, -20330.520907702554, 21809.42407958795, -33012.36426977686, -31745.46739405005, -25554.905897963752, -25767.538042967088, -21624.70926340929, -737.6969740029543, -24839.024226549176, -1846.4105542195505, -25858.26377371118, -30053.440338783308, -25936.89721070495, -7716.470386561202, -20025.129023209694, -32233.830658654057, 0.047, 0.94825, -0.1615, 192.0, 0.0, 0.0, 0.0, 0.0, 0.0, 0.0, 0.0, 0.0, 0.0, 1.6689769498495388E9, 0.0, 2022-11-20 15:42:29.849
234.0, -20351.84447191292, 21572.897919761886, -33042.36031083588, -31756.307990110876, -25566.14882542477, -25779.786798928595, -21635.549859470113, -749.2081223974375, -24915.064861186132, -1911.9458689625108, -25945.681446275885, -30133.504287422216, -26022.750261157784, -7792.868649109441, -20086.909244884166, -32296.259080917727, 0.047, 0.94825, -0.1615, 192.0, 0.0, 0.0, 0.0, 0.0, 0.0, 0.0, 0.0, 0.0, 0.0, 1.6689769498495457E9, 0.0, 2022-11-20 15:42:29.849
236.0, -20329.716244902163, 21785.083029876118, -33011.67136569874, -31743.276923093432, -25536.443357043667, -25757.636220173386, -21605.240893988717, -720.0167441388064, -24846.668523152894, -1848.1316385426092, -25864.96929704777, -30061.956353420777, -25935.33258859308, -7715.688075505266, -20009.48280209098, -32224.17470504936, 0.047, 0.94825, -0.1615, 192.0, 0.0, 0.0, 0.0, 0.0, 0.0, 0.0, 0.0, 0.0, 0.0, 1.668976949849553E9, 0.0, 2022-11-20 15:42:29.849
238.0, -20368.183597109746, 21582.866797788956, -33044.416671325765, -31769.272001894955, -25573.54725283948, -25793.622528746433, -21642.076568851062, -757.7911922682754, -24924.8325735131, -1917.0867701872314, -25952.208155656834, -30142.556743926616, -26025.745394914797, -7805.922067871341, -20081.187198303604, -32299.969470497308, 0.047, 0.94825, -0.1615, 192.0, 0.0, 0.0, 0.0, 0.0, 0.0, 0.0, 0.0, 0.0, 0.0, 1.6689769498495605E9, 0.0, 2022-11-20 15:42:29.849
240.0, -20320.999064564596, 21748.02383756922, -32996.49453121359, -31731.452850276575, -25532.464746530623, -25748.80728111354, -21601.75402185369, -715.6134504811109, -24855.899793612934, -1863.2414177943967, -25867.159768004392, -30073.892184959914, -25945.18970789787, -7732.1613111688275, -20021.128060952196, -32234.858838899, 0.0475, 0.947125, -0.16075, 192.0, 0.5, 64.0, 14.5, 72.0, 125.5, 0.0, 0.0, 0.0, 0.0, 1.6689769498495677E9, 0.0, 2022-11-20 15:42:29.849
242.0, -20362.394495295823, 21620.641245918425, -33050.58575279543, -31770.501347839996, -25581.191549443192, -25786.71583970974, -21643.350618285014, -755.3772038671021, -24902.614939524527, -1901.552307790793, -25930.772832724197, -30130.620912387483, -26010.501505196276, -7789.426480463324, -20078.907320369162, -32281.10459817703, 0.0475, 0.947125, -0.16075, 192.0, 0.0, 0.0, 0.0, 0.0, 0.0, 0.0, 0.0, 0.0, 0.0, 1.66897695033019E9, 0.0, 2022-11-20 15:42:30.330
244.0, -20301.754212588574, 21725.269761713716, -32997.45565622517, -31715.449001246572, -25526.809755183433, -25731.484679160676, -21587.56066412457, -697.5085374723122, -24852.748197644734, -1856.647653180081, -25862.890584813427, -30070.80764422508, -25943.066292174615, -7719.018485429107, -20027.25243893295, -32224.219408538273, 0.0475, 0.947125, -0.16075, 192.0, 0.0, 0.0, 0.0, 0.0, 0.0, 0.0, 0.0, 0.0, 0.0, 1.6689769503302166E9, 0.0, 2022-11-20 15:42:30.330
246.0, -20375.51496929109, 21644.892888652434, -33072.89279376183, -31786.9522317591, -25599.899959552284, -25807.078278908528, -21661.164958615896, -770.2634656743367, -24901.340890090574, -1897.5736972777484, -25931.935123435873, -30128.139868752944, -26011.127354041026, -7789.851163607975, -20080.18136980312, -32284.904394734433, 0.0475, 0.947125, -0.16075, 192.0, 0.0, 0.0, 0.0, 0.0, 0.0, 0.0, 0.0, 0.0, 0.0, 1.6689769503302522E9, 0.0, 2022-11-20 15:42:30.330
248.0, -20302.625930622333, 21682.019136192695, -32995.24283352409, -31714.197303557077, -25530.25192382955, -25742.57114441051, -21595.204960728286, -706.3151247877032, -24873.11063684352, -1879.915819158056, -25877.97801232076, -30086.76678976617, -25965.19451918537, -7749.282747421593, -20044.306819952348, -32252.851993185523, 0.0475, 0.947125, -0.16075, 192.0, 0.0, 0.0, 0.0, 0.0, 0.0, 0.0, 0.0, 0.0, 0.0, 1.6689769503302736E9, 0.0, 2022-11-20 15:42:30.330
250.0, -20378.5101030481, 21677.90641521292, -33069.76354953808, -31790.05912423839, -25608.30421546748, -25819.3940901034, -21670.48563605376, -779.3606256676467, -24893.853055698044, -1891.1810983635305, -25914.74663194974, -30114.19238021283, -26010.52385694073, -7792.220448520237, -20068.40200047517, -32281.305763877128, 0.04675, 0.9475625000000001, -0.159375, 192.0, 0.5, 56.0, 14.5, 80.0, 125.5, 8.0, 0.0, 0.0, 0.0, 1.668976950330299E9, 0.0, 2022-11-20 15:42:30.330
252.0, -20296.792125319498, 21653.677124223366, -32986.14567353078, -31700.339221994785, -25525.826278427397, -25733.04930127255, -21591.628681615435, -700.7942439072424, -24877.759799690226, -1889.035330895821, -25882.358954234, -30089.694868289815, -25974.71636232333, -7760.235102204693, -20051.14645375567, -32261.300952589627, 0.04675, 0.9475625000000001, -0.159375, 192.0, 0.0, 0.0, 0.0, 0.0, 0.0, 0.0, 0.0, 0.0, 0.0, 1.6689769503303308E9, 0.0, 2022-11-20 15:42:30.330
254.0, -20380.07472515997, 21717.893686043466, -33065.69553204722, -31787.66748758167, -25604.035032276515, -25814.230837134226, -21669.882138953464, -775.7619948103422, -24880.039677624667, -1880.1393366026089, -25904.08484984456, -30097.137999193434, -25996.82223758963, -7773.467334922235, -20056.10854102475, -32264.72076949129, 0.04675, 0.9475625000000001, -0.159375, 192.0, 0.0, 0.0, 0.0, 0.0, 0.0, 0.0, 0.0, 0.0, 0.0, 1.668976950330356E9, 0.0, 2022-11-20 15:42:30.330
0.0, -20300.591921876898, 21611.812306858577, -32994.974612590624, -31710.732783166502, -25530.20722034064, -25741.699426376752, -21595.786106084124, -705.8010346652311, -24896.44585805486, -1901.3064386017847, -25903.682518444362, -30107.62096734297, -25989.982603786302, -7773.087355266494, -20064.35633472876, -32273.52735680668, 0.04675, 0.9475625000000001, -0.159375, 192.0, 0.0, 0.0, 0.0, 0.0, 0.0, 0.0, 0.0, 0.0, 0.0, 1.668976950330366E9, 0.0, 2022-11-20 15:42:30.330
2.0, -20373.190387867737, 21747.286230002195, -33068.26598265958, -31790.9531940166, -25599.49762815209, -25814.029671434128, -21663.981278417265, -772.3645296531356, -24872.30597404313, -1865.9012753845782, -25899.07805908657, -30093.360554380484, -25982.42771416041, -7760.7491923271655, -20045.759683341945, -32259.848089200033, 0.04675, 0.9475625000000001, -0.159375, 192.0, 0.0, 0.0, 0.0, 0.0, 0.0, 0.0, 0.0, 0.0, 0.0, 1.668976950330372E9, 0.0, 2022-11-20 15:42:30.330
4.0, -20292.54529387299, 21585.280786190127, -32984.89397584128, -31700.741553394982, -25523.63580747078, -25736.33500770748, -21591.114591492962, -703.1635288195049, -24895.283567343184, -1896.5902205217149, -25903.07902134407, -30111.33135692255, -25990.697859608874, -7771.6344918769, -20067.150302785674, -32284.25619414523, 0.048375, 0.94978125, -0.15668749999999998, 192.0, 0.5, 72.0, 14.5, 96.0, 125.5, 24.0, 0.0, 0.0, 0.0, 1.6689769503303776E9, 0.0, 2022-11-20 15:42:30.330
6.0, -20359.30995456099, 21780.366811796048, -33048.52939230554, -31780.917260756167, -25589.97578501413, -25810.989834188204, -21662.48371153876, -774.286779676292, -24846.132081285967, -1847.46108620895, -25868.433817438345, -30073.668667515358, -25964.65807731844, -7742.644279318367, -20030.40403490115, -32248.649865227922, 0.048375, 0.94978125, -0.15668749999999998, 192.0, 0.0, 0.0, 0.0, 0.0, 0.0, 0.0, 0.0, 0.0, 0.0, 1.6689769503303928E9, 0.0, 2022-11-20 15:42:30.330
8.0, -20284.54336935799, 21570.528634849627, -32990.59367067739, -31701.725030151014, -25528.82141218441, -25738.79369959756, -21595.696699106302, -708.0809125996724, -24892.35548881954, -1899.004208922888, -25901.089716087547, -30114.929987779855, -26000.309109724654, -7778.6529396358665, -20070.860692365255, -32288.860653503023, 0.048375, 0.94978125, -0.15668749999999998, 192.0, 0.0, 0.0, 0.0, 0.0, 0.0, 0.0, 0.0, 0.0, 0.0, 1.6689769503303995E9, 0.0, 2022-11-20 15:42:30.330
10.0, -20353.833777169442, 21794.85074220309, -33065.15909018029, -31785.253499180497, -25593.529712382522, -25807.771182986642, -21657.745141714233, -768.9894162403842, -24839.493613182738, -1831.3901819455841, -25858.040256266628, -30060.838766198012, -25949.88357423348, -7728.137997166872, -20017.68589230608, -32233.04834759812, 0.048375, 0.94978125, -0.15668749999999998, 192.0, 0.0, 0.0, 0.0, 0.0, 0.0, 0.0, 0.0, 0.0, 0.0, 1.6689769503304062E9, 0.0, 2022-11-20 15:42:30.330
12.0, -20281.615290834343, 21553.45190208577, -33010.15144707578, -31706.508303464452, -25533.00118839755, -25739.821879842508, -21596.009623528676, -708.2150230664042, -24915.55659956415, -1908.23547938293, -25930.594018768552, -30134.331301967064, -26017.631711677517, -7791.527544442123, -20092.899512398188, -32306.45147638935, 0.048375, 0.94978125, -0.15668749999999998, 192.0, 0.0, 0.0, 0.0, 0.0, 0.0, 0.0, 0.0, 0.0, 0.0, 1.668976950330411E9, 0.0, 2022-11-20 15:42:30.330
14.0, -20325.335302988926, 21822.052815205196, -33048.752909750096, -31764.399321603698, -25574.418970873234, -25788.325165310525, -21637.98619961574, -749.0069566973397, -24832.229296234764, -1825.1763969870087, -25849.97127651826, -30050.735777704216, -25942.619257285507, -7713.654066759833, -20022.223296430504, -32231.95311211981, 0.0501875, 0.948890625, -0.15434375, 192.0, 0.5, 80.0, 14.5, 80.0, 125.5, 32.0, 0.0, 0.0, 0.0, 1.668976950330417E9, 0.0, 2022-11-20 15:42:30.330
16.0, -20287.896131026286, 21547.79691073858, -33014.2418163111, -31719.60642571526, -25540.086691389883, -25752.04828405956, -21606.045556789108, -716.1051888591277, -24904.805410481145, -1900.8817554571337, -25919.596960496543, -30122.77545008367, -26013.116659297546, -7787.951265329274, -20091.558407730867, -32307.122028723006, 0.0501875, 0.948890625, -0.15434375, 192.0, 0.0, 0.0, 0.0, 0.0, 0.0, 0.0, 0.0, 0.0, 0.0, 1.6689769503304217E9, 0.0, 2022-11-20 15:42:30.330
18.0, -20327.50342220109, 21817.35894886958, -33045.02016842606, -31764.1981559036, -25576.162406940748, -25788.34751705498, -21643.9094118964, -747.6882037744765, -24830.999950289723, -1825.6457836205702, -25848.49606138421, -30048.791175936603, -25940.339379351066, -7712.916459192808, -20018.87053476221, -32229.94145511883, 0.0501875, 0.948890625, -0.15434375, 192.0, 0.0, 0.0, 0.0, 0.0, 0.0, 0.0, 0.0, 0.0, 0.0, 1.6689769503304265E9, 0.0, 2022-11-20 15:42:30.330
20.0, -20316.10403252888, 21532.463614042237, -33041.66740675776, -31743.031053904422, -25572.16144468325, -25776.72460993822, -21636.399225759415, -741.5414740492671, -24924.094965946075, -1920.8642150001783, -25948.207193399336, -30142.802613115626, -26031.981531617825, -7809.073663839539, -20110.825611451342, -32316.956796283343, 0.0501875, 0.948890625, -0.15434375, 192.0, 0.0, 0.0, 0.0, 0.0, 0.0, 0.0, 0.0, 0.0, 0.0, 1.6689769503304312E9, 0.0, 2022-11-20 15:42:30.330
22.0, -20323.25659075458, 21807.099498164596, -33042.58382828043, -31764.734597770526, -25572.96610748364, -25790.090953122493, -21641.070740350573, -750.1021921756497, -24843.271057995687, -1848.265749009341, -25863.22586098026, -30062.8951266879, -25948.69893177735, -7725.701657021244, -20028.481784877993, -32239.508001745704, 0.0501875, 0.948890625, -0.15434375, 192.0, 0.0, 0.0, 0.0, 0.0, 0.0, 0.0, 0.0, 0.0, 0.0, 1.668976950330436E9, 0.0, 2022-11-20 15:42:30.330
24.0, -20314.87468658384, 21550.970858451234, -33046.18245913774, -31758.85608897878, -25569.523938837523, -25792.549645012576, -21638.43323450485, -752.7173462769207, -24922.55269557866, -1920.7301045334466, -25945.212059642323, -30148.055273062622, -26035.468403752853, -7814.21456506426, -20104.947102659597, -32322.902360308453, 0.0501875, 0.948890625, -0.15434375, 192.0, 0.0, 0.0, 0.0, 0.0, 0.0, 0.0, 0.0, 0.0, 0.0, 1.6689769503304408E9, 0.0, 2022-11-20 15:42:30.330
26.0, -20300.92719804373, 21803.903198707485, -33022.109630359366, -31756.039769177412, -25543.57356352491, -25778.15512158336, -21619.970693584764, -734.7912472237643, -24839.605371905014, -1843.2589582513522, -25850.30655268509, -30060.928173175835, -25942.52985030769, -7726.394561099359, -20019.25051441795, -32246.593504738037, 0.046, 0.9460000000000001, -0.154, 192.0, 0.5, 56.0, 14.5, 72.0, 125.5, 24.0, 0.0, 0.0, 0.0, 1.6689769503304455E9, 0.0, 2022-11-20 15:42:30.330
28.0, -20327.92810534574, 21564.895995246887, -33049.55757255049, -31773.85410950829, -25578.755209297564, -25802.183246872813, -21645.652847963913, -762.5968173261664, -24916.897704231465, -1909.3754183501505, -25936.98661768277, -30140.8133078591, -26030.752185672784, -7812.2252598077375, -20095.671128710645, -32324.176409742406, 0.046, 0.9460000000000001, -0.154, 192.0, 0.0, 0.0, 0.0, 0.0, 0.0, 0.0, 0.0, 0.0, 0.0, 1.6689769503304503E9, 0.0, 2022-11-20 15:42:30.330
30.0, -20286.890302525797, 21777.93047165042, -33002.55185396098, -31733.71037646656, -25529.29079881797, -25757.457406217745, -21602.201056742797, -718.1168458601053, -24833.81627009109, -1843.7283448849137, -25845.97031426076, -30060.525841775638, -25935.80197522664, -7725.165215154317, -20018.66936906211, -32246.347635549027, 0.046, 0.9460000000000001, -0.154, 192.0, 0.0, 0.0, 0.0, 0.0, 0.0, 0.0, 0.0, 0.0, 0.0, 1.668976950330455E9, 0.0, 2022-11-20 15:42:30.330
32.0, -20345.608335209887, 21582.26330068866, -33065.15909018029, -31786.81812129237, -25586.600671601376, -25811.682738266318, -21659.175653359373, -775.3373116656913, -24904.02309942521, -1908.1907758940192, -25931.264571102212, -30139.516906680696, -26020.023348334238, -7805.698550426788, -20091.848980408788, -32316.39800267196, 0.046, 0.9460000000000001, -0.154, 192.0, 0.0, 0.0, 0.0, 0.0, 0.0, 0.0, 0.0, 0.0, 0.0, 1.6689769503304596E9, 0.0, 2022-11-20 15:42:30.330
34.0, -20288.477276382124, 21742.614715411033, -33002.01541209405, -31732.726899710528, -25526.09449936086, -25755.24458351667, -21600.837600331022, -714.6970289584433, -24854.268116267696, -1868.1811533190196, -25863.561137147088, -30085.403333354396, -25948.386007354977, -7743.583052585489, -20036.483709392993, -32260.540993278148, 0.046, 0.9460000000000001, -0.154, 192.0, 0.0, 0.0, 0.0, 0.0, 0.0, 0.0, 0.0, 0.0, 0.0, 1.6689769503304644E9, 0.0, 2022-11-20 15:42:30.330
36.0, -20345.004838109595, 21623.904600608897, -33061.87338374536, -31781.364295645275, -25586.086581478907, -25812.06271792206, -21658.460397536805, -769.9058377630517, -24897.36227957753, -1896.5008135438936, -25919.50755351872, -30128.92217980888, -26013.139011042003, -7795.975541588729, -20082.148323315185, -32296.639060573467, 0.048, 0.9560000000000001, -0.156, 192.0, 0.5, 64.0, 14.5, 112.0, 125.5, 16.0, 0.0, 0.0, 0.0, 1.6689769503304691E9, 0.0, 2022-11-20 15:42:30.330
38.0, -20283.11285771285, 21711.81401155162, -32999.2884992705, -31718.13121058121, -25524.23930457107, -25750.550717181053, -21597.88717006292, -710.2043283229266, -24861.711247171315, -1868.5387812303045, -25866.466863926278, -30081.96116470828, -25963.585193584586, -7744.655936319344, -20043.837433318786, -32253.209621096805, 0.048, 0.9560000000000001, -0.156, 192.0, 0.0, 0.0, 0.0, 0.0, 0.0, 0.0, 0.0, 0.0, 0.0, 1.6689769503304756E9, 0.0, 2022-11-20 15:42:30.330
40.0, -20353.02911436905, 21657.43221729186, -33072.40105538381, -31775.798711275904, -25593.708526338163, -25808.4417353203, -21661.85786269401, -773.5715238537222, -24897.943424933368, -1885.1461273605976, -25922.636797742463, -30117.746307581227, -26013.04960406418, -7788.890038596397, -20077.230939535017, -32278.154167908928, 0.048, 0.9560000000000001, -0.156, 192.0, 0.0, 0.0, 0.0, 0.0, 0.0, 0.0, 0.0, 0.0, 0.0, 1.6689769503304803E9, 0.0, 2022-11-20 15:42:30.330
42.0, -20283.135209457305, 21673.234900621763, -33006.64222319629, -31705.591881941782, -25524.708691204632, -25732.401100683346, -21594.690870605813, -704.6610956980105, -24871.724828687293, -1869.5669614752487, -25878.894433843427, -30080.865929229967, -25965.730961052297, -7737.726895538199, -20045.111482752738, -32235.216466810285, 0.048, 0.9560000000000001, -0.156, 192.0, 0.0, 0.0, 0.0, 0.0, 0.0, 0.0, 0.0, 0.0, 0.0, 1.668976950330485E9, 0.0, 2022-11-20 15:42:30.330
44.0, -20348.916393389274, 21693.44087760936, -33067.81894777047, -31777.16216768768, -25591.942738526195, -25801.06565965005, -21659.645039992934, -770.1070034631496, -24892.8248754531, -1882.843897681701, -25920.08869887456, -30113.790048812636, -26009.607435418064, -7776.909503568352, -20069.07255280883, -32262.731464234766, 0.048, 0.9560000000000001, -0.156, 192.0, 0.0, 0.0, 0.0, 0.0, 0.0, 0.0, 0.0, 0.0, 0.0, 1.6689769503304899E9, 0.0, 2022-11-20 15:42:30.330
46.0, -20255.888432966287, 21657.14164461394, -32966.744359343575, -31686.83876834378, -25496.389030979757, -25716.017271997604, -21572.294422661595, -686.7349966448542, -24864.616973950502, -1878.1276796016311, -25867.94207906033, -30083.52578682015, -25964.680429062897, -7743.806570030042, -20038.428311160602, -32239.44094651234, 0.046, 0.9520000000000001, -0.158, 192.0, 0.5, 56.0, 14.5, 96.0, 125.5, 8.0, 0.0, 0.0, 0.0, 1.6689769503304946E9, 0.0, 2022-11-20 15:42:30.330
48.0, -20352.93970739123, 21725.023892524707, -33058.85589824389, -31792.09313298382, -25593.12738098233, -25818.030633691626, -21664.09303713954, -777.5948378556774, -24862.851186138534, -1866.4153655070504, -25880.92844258886, -30089.225481656253, -25975.968060012827, -7765.308948196048, -20037.15426172665, -32253.254324585716, 0.046, 0.9520000000000001, -0.158, 192.0, 0.0, 0.0, 0.0, 0.0, 0.0, 0.0, 0.0, 0.0, 0.0, 1.6689769503304992E9, 0.0, 2022-11-20 15:42:30.330
50.0, -20273.926290741718, 21608.19132425682, -32993.09706605638, -31718.399431514674, -25519.992473124563, -25747.24265900167, -21596.814286329067, -712.4842062573679, -24885.35939280503, -1903.7427787474132, -25893.73599216175, -30110.95137726681, -25981.421885659922, -7778.496477424679, -20054.320401468325, -32276.500138819236, 0.046, 0.9520000000000001, -0.158, 192.0, 0.0, 0.0, 0.0, 0.0, 0.0, 0.0, 0.0, 0.0, 0.0, 1.668976950330504E9, 0.0, 2022-11-20 15:42:30.330
52.0, -20330.94559084721, 21772.02961111422, -33055.27961913105, -31785.38760964723, -25579.515168609047, -25807.72647949773, -21657.387513802947, -771.2692941748255, -24856.145662801944, -1870.818659164746, -25885.041163568636, -30091.170083423865, -25972.883519277995, -7769.220503475726, -20036.841337304275, -32258.48463278826, 0.046, 0.9520000000000001, -0.158, 192.0, 0.0, 0.0, 0.0, 0.0, 0.0, 0.0, 0.0, 0.0, 0.0, 1.6689769503305087E9, 0.0, 2022-11-20 15:42:30.330
54.0, -20273.59101457489, 21584.677289089836, -33002.17187430523, -31718.980576870512, -25520.10423184684, -25746.48269969019, -21600.435268930825, -715.6358022255662, -24882.476017770296, -1900.2112031234747, -25893.60188169502, -30108.09035397653, -25981.3324786821, -7776.417765190336, -20055.706209624554, -32273.505005062227, 0.046, 0.9520000000000001, -0.158, 192.0, 0.0, 0.0, 0.0, 0.0, 0.0, 0.0, 0.0, 0.0, 0.0, 1.6689769503305137E9, 0.0, 2022-11-20 15:42:30.330
56.0, -20346.658867199287, 21777.952823394877, -33071.462282116685, -31802.598452877817, -25586.44420939019, -25816.95774995777, -21670.57504303158, -781.864021046641, -24859.990162848255, -1867.8235254077347, -25881.59899492252, -30089.069019445065, -25968.86020527604, -7761.509151638646, -20033.73444482499, -32254.707187975313, 0.048, 0.9560000000000001, -0.154, 192.0, 0.5, 64.0, 14.5, 112.0, 125.5, 24.0, 0.0, 0.0, 0.0, 1.6689769503305182E9, 0.0, 2022-11-20 15:42:30.330
58.0, -20282.62111933483, 21551.954335207265, -33009.97263312014, -31732.838658432804, -25527.010920883527, -25754.730493394196, -21611.387623713927, -726.2975843307477, -24902.16790463542, -1920.2160144109744, -25914.79133543865, -30131.403223443416, -26004.108906282057, -7799.417710234847, -20075.733372656512, -32303.188121698873, 0.048, 0.9560000000000001, -0.154, 192.0, 0.0, 0.0, 0.0, 0.0, 0.0, 0.0, 0.0, 0.0, 0.0, 1.668976950330523E9, 0.0, 2022-11-20 15:42:30.330
60.0, -20343.149643319804, 21797.667062004457, -33058.54297382152, -31794.641231851725, -25582.01856398804, -25809.402860331877, -21663.28837433915, -776.6337128440993, -24856.59269769105, -1863.263769538852, -25874.804064608106, -30083.99517345371, -25963.65224881795, -7758.558721370545, -20028.437081389082, -32263.24555435724, 0.048, 0.9560000000000001, -0.154, 192.0, 0.0, 0.0, 0.0, 0.0, 0.0, 0.0, 0.0, 0.0, 0.0, 1.6689769503305278E9, 0.0, 2022-11-20 15:42:30.330
62.0, -20288.186703704203, 21544.980590937208, -33008.273900541535, -31724.881437406715, -25525.938037149674, -25752.741188137676, -21606.626702144946, -723.6600784850215, -24908.895779716466, -1911.4541305844941, -25916.825344184082, -30125.256493718207, -26003.706574881864, -7797.0260735781285, -20069.743105142486, -32305.53505486668, 0.048, 0.9560000000000001, -0.154, 192.0, 0.0, 0.0, 0.0, 0.0, 0.0, 0.0, 0.0, 0.0, 0.0, 1.6689769503305323E9, 0.0, 2022-11-20 15:42:30.330
64.0, -20346.88238464384, 21800.192809127904, -33061.09107268942, -31787.980412004046, -25575.603613329367, -25805.334842841014, -21656.940478913843, -772.029253486306, -24855.54216570165, -1854.9265688570224, -25867.74091336023, -30070.964106436266, -25953.57161206861, -7740.789084528576, -20014.40018587115, -32253.679007730367, 0.048, 0.9560000000000001, -0.154, 192.0, 0.0, 0.0, 0.0, 0.0, 0.0, 0.0, 0.0, 0.0, 0.0, 1.668976950330538E9, 0.0, 2022-11-20 15:42:30.330
66.0, -20305.6434161238, 21531.591896008482, -33031.139735119315, -31741.42172830364, -25539.349083822857, -25764.54290921008, -21624.910429109386, -739.4627618149235, -24935.337893407097, -1933.2247296839632, -25948.810690499628, -30151.519793453193, -26032.450918251387, -7816.8073674210755, -20093.838285665308, -32323.282339964193, 0.046, 0.9540000000000001, -0.156, 192.0, 0.5, 56.0, 14.5, 104.0, 125.5, 16.0, 0.0, 0.0, 0.0, 1.6689769503305428E9, 0.0, 2022-11-20 15:42:30.330
68.0, -20302.223599222136, 21836.73791131233, -33023.2942728155, -31753.581077287326, -25544.110005391838, -25765.52638596611, -21625.22335353176, -735.126523390594, -24828.8094793331, -1836.1287517701094, -25846.05972123858, -30053.932077161324, -25930.83988795756, -7717.386808083869, -19999.603331041733, -32225.649920183412, 0.046, 0.9540000000000001, -0.156, 192.0, 0.0, 0.0, 0.0, 0.0, 0.0, 0.0, 0.0, 0.0, 0.0, 1.6689769503305476E9, 0.0, 2022-11-20 15:42:30.330
70.0, -20307.900942313783, 21549.294477617084, -33032.21261885317, -31744.46156554956, -25551.39667408427, -25768.4321127453, -21633.314685024583, -744.6707182730102, -24913.701404774358, -1913.622249796659, -25925.967207666305, -30131.269112976686, -26014.591874431597, -7798.92597185683, -20081.16484655915, -32298.38249664098, 0.046, 0.9540000000000001, -0.156, 192.0, 0.0, 0.0, 0.0, 0.0, 0.0, 0.0, 0.0, 0.0, 0.0, 1.6689769503305535E9, 0.0, 2022-11-20 15:42:30.330
72.0, -20318.629779652332, 21812.665082533968, -33037.130002633334, -31767.372103616253, -25558.59393579888, -25782.491360007687, -21643.08239735155, -752.4714770879123, -24851.764720888703, -1852.6913944114917, -25854.575735876053, -30061.017580153657, -25946.888440476472, -7731.893090235364, -20017.73059579499, -32236.266998799685, 0.046, 0.9540000000000001, -0.156, 192.0, 0.0, 0.0, 0.0, 0.0, 0.0, 0.0, 0.0, 0.0, 0.0, 1.6689769503305583E9, 0.0, 2022-11-20 15:42:30.330
74.0, -20307.45390742468, 21568.13699819291, -33036.168877621756, -31753.51402205396, -25555.777615997507, -25774.869415148427, -21635.23693504774, -748.3364043636805, -24922.530343834205, -1924.1722731795637, -25936.584286282574, -30140.902714836924, -26029.902819383482, -7814.1028063419835, -20088.049183851384, -32310.92182528041, 0.046, 0.9540000000000001, -0.156, 192.0, 0.0, 0.0, 0.0, 0.0, 0.0, 0.0, 0.0, 0.0, 0.0, 1.6689769503305633E9, 0.0, 2022-11-20 15:42:30.330
76.0, -20304.279959712025, 21796.772992226244, -33024.81419143846, -31759.28077212343, -25543.126528635807, -25773.95299362576, -21627.972618099764, -740.736811248876, -24842.62285740648, -1859.9557113594667, -25848.16078521738, -30068.348952334996, -25939.60177178404, -7731.2225379017045, -20003.00079619894, -32234.09887958752, 0.052000000000000005, 0.9520000000000001, -0.156, 192.0, 0.5, 80.0, 14.5, 96.0, 125.5, 16.0, 0.0, 0.0, 0.0, 1.668976950330568E9, 0.0, 2022-11-20 15:42:30.330
78.0, -20325.53646868902, 21586.577187368537, -33045.62366552635, -31756.486804066517, -25567.668744047733, -25784.01127863065, -21645.116406096986, -756.2936253897698, -24919.848134499567, -1929.5590435932927, -25936.51723104921, -30149.910467852413, -26028.517011227254, -7814.706303442276, -20081.053087836874, -32307.122028723006, 0.052000000000000005, 0.9520000000000001, -0.156, 192.0, 0.0, 0.0, 0.0, 0.0, 0.0, 0.0, 0.0, 0.0, 0.0, 1.6689769503305728E9, 0.0, 2022-11-20 15:42:30.330
80.0, -20297.19445671969, 21773.08014310362, -33012.319566287944, -31727.295425807886, -25536.733929721588, -25751.020103814615, -21613.667501648368, -723.257747084826, -24845.841508608046, -1855.2171415349414, -25845.433872393834, -30058.782405708123, -25937.076024660593, -7722.058322675029, -20004.587770055266, -32218.854989869, 0.052000000000000005, 0.9520000000000001, -0.156, 192.0, 0.0, 0.0, 0.0, 0.0, 0.0, 0.0, 0.0, 0.0, 0.0, 1.6689769503305776E9, 0.0, 2022-11-20 15:42:30.330
82.0, -20354.88430915884, 21597.104859006984, -33071.59639258342, -31782.593641590316, -25591.987442015106, -25805.223084118737, -21666.75289472972, -777.05839598875, -24923.82674501261, -1915.8127207532789, -25938.99827468375, -30136.29825547913, -26030.573371717142, -7808.514870228157, -20084.49525648299, -32298.114275707518, 0.052000000000000005, 0.9520000000000001, -0.156, 192.0, 0.0, 0.0, 0.0, 0.0, 0.0, 0.0, 0.0, 0.0, 0.0, 1.6689769503305824E9, 0.0, 2022-11-20 15:42:30.330
84.0, -20281.481180367613, 21749.096721303074, -32991.19716777768, -31717.12538208072, -25516.86322890082, -25737.720815863708, -21594.46735316126, -707.9244503884853, -24869.78022691968, -1869.3210922862402, -25866.82449183756, -30077.267298372662, -25958.153719681948, -7743.650107818856, -20023.29618016436, -32244.492440759237, 0.052000000000000005, 0.9520000000000001, -0.156, 192.0, 0.0, 0.0, 0.0, 0.0, 0.0, 0.0, 0.0, 0.0, 0.0, 1.6689769503305871E9, 0.0, 2022-11-20 15:42:30.330
86.0, -20330.342093746913, 21652.246612578227, -33047.45650857169, -31767.126234427244, -25569.613345815345, -25786.67113622083, -21646.345752042027, -759.3111108912362, -24888.376878306495, -1883.4473947819943, -25902.296710288134, -30106.637490586938, -25999.951481813372, -7780.01639604764, -20046.743160097976, -32271.538051550157, 0.052000000000000005, 0.9560000000000001, -0.156, 192.0, 0.5, 80.0, 14.5, 112.0, 125.5, 16.0, 0.0, 0.0, 0.0, 1.668976950330592E9, 0.0, 2022-11-20 15:42:30.330
88.0, -20274.35097388637, 21716.083194742587, -32986.324487486425, -31711.60450120026, -25513.890446888265, -25727.23784771417, -21590.8463705595, -703.8117294087087, -24851.87647961098, -1864.5825224617151, -25848.78663406213, -30069.600650024495, -25949.727112022298, -7730.596689056956, -20009.549857324346, -32230.455545241304, 0.052000000000000005, 0.9560000000000001, -0.156, 192.0, 0.0, 0.0, 0.0, 0.0, 0.0, 0.0, 0.0, 0.0, 0.0, 1.6689769503306131E9, 0.0, 2022-11-20 15:42:30.330
90.0, -20346.16712882127, 21680.990955947753, -33055.458433086686, -31776.51396709847, -25581.01273548755, -25790.761505456154, -21654.57119400158, -767.2683319173256, -24889.91914867391, -1889.3706070626506, -25904.040146355648, -30111.9572057673, -26003.34894697058, -7780.128154769916, -20049.73829385499, -32268.855842215522, 0.052000000000000005, 0.9560000000000001, -0.156, 192.0, 0.0, 0.0, 0.0, 0.0, 0.0, 0.0, 0.0, 0.0, 0.0, 1.6689769503306184E9, 0.0, 2022-11-20 15:42:30.330
92.0, -20279.380116388813, 21681.616804792502, -32992.87354861183, -31708.69877442107, -25514.76216492202, -25721.71696683371, -21587.60536761348, -702.2471072968373, -24873.24474731025, -1879.1111563576649, -25869.104369772, -30082.877586230945, -25966.669734319417, -7742.554872340545, -20023.184421442085, -32244.783013437154, 0.052000000000000005, 0.9560000000000001, -0.156, 192.0, 0.0, 0.0, 0.0, 0.0, 0.0, 0.0, 0.0, 0.0, 0.0, 1.6689769503306231E9, 0.0, 2022-11-20 15:42:30.330
94.0, -20354.951364392207, 21714.07153774161, -33070.92584024976, -31786.326382914354, -25587.271223935037, -25791.275595578623, -21657.499272525227, -767.8941807620741, -24888.600395751047, -1879.6699499690474, -25902.78844866615, -30101.876569017957, -26000.197351002378, -7766.650052863366, -20040.574078628313, -32255.780071709167, 0.052000000000000005, 0.9560000000000001, -0.156, 192.0, 0.0, 0.0, 0.0, 0.0, 0.0, 0.0, 0.0, 0.0, 0.0, 1.668976950330628E9, 0.0, 2022-11-20 15:42:30.330
96.0, -20264.739723770588, 21658.594508003534, -32984.40223746327, -31702.976727840512, -25504.815638639408, -25715.61494059741, -21582.93385302232, -694.6251624375776, -24879.905567157934, -1885.749624460891, -25878.626212909963, -30093.91934799187, -25973.844644289573, -7752.1214189674165, -20037.981276271497, -32254.841298442043, 0.056, 0.9580000000000001, -0.154, 192.0, 0.5, 96.0, 14.5, 120.0, 125.5, 24.0, 0.0, 0.0, 0.0, 1.6689769503306327E9, 0.0, 2022-11-20 15:42:30.330
98.0, -20354.392570780823, 21753.20944228285, -33070.72467454966, -31802.084362755344, -25592.12155248184, -25816.30954936857, -21677.57113904609, -791.4529194179678, -24863.901718127934, -1866.2141998069526, -25877.575680920563, -30088.13024617794, -25979.544339125674, -7763.677270850811, -20034.78497681439, -32255.757719964713, 0.056, 0.9580000000000001, -0.154, 192.0, 0.0, 0.0, 0.0, 0.0, 0.0, 0.0, 0.0, 0.0, 0.0, 1.6689769503306372E9, 0.0, 2022-11-20 15:42:30.330
100.0, -20273.926290741718, 21612.438155703327, -32995.555757946466, -31715.694870435582, -25521.57944698089, -25738.301961219546, -21604.995024799708, -720.7990551947422, -24892.534302775184, -1907.0284851823433, -25890.092657815538, -30110.213769699785, -25991.636632875998, -7783.503268182668, -20060.57888991581, -32287.34073488006, 0.056, 0.9580000000000001, -0.154, 192.0, 0.0, 0.0, 0.0, 0.0, 0.0, 0.0, 0.0, 0.0, 0.0, 1.668976950330642E9, 0.0, 2022-11-20 15:42:30.330
102.0, -20351.665657957277, 21775.40472452697, -33072.378703639355, -31794.931804529646, -25600.72697409713, -25812.86738072245, -21682.39911584844, -793.4422246744901, -24867.030962351677, -1864.8954468840896, -25877.530977431656, -30080.597708296504, -25980.393705414976, -7761.844427805475, -20040.708189095043, -32261.43506305636, 0.056, 0.9580000000000001, -0.154, 192.0, 0.0, 0.0, 0.0, 0.0, 0.0, 0.0, 0.0, 0.0, 0.0, 1.6689769503306484E9, 0.0, 2022-11-20 15:42:30.330
104.0, -20272.026392463016, 21590.108762992473, -32998.81911263694, -31708.56466395434, -25522.473516759102, -25730.478850660187, -21605.84439108901, -716.9769068928847, -24905.095983159066, -1907.006133437888, -25901.156771320915, -30110.034955744144, -26004.041851048692, -7782.720957126732, -20077.230939535017, -32294.4709413613, 0.056, 0.9580000000000001, -0.154, 192.0, 0.0, 0.0, 0.0, 0.0, 0.0, 0.0, 0.0, 0.0, 0.0, 1.668976950330653E9, 0.0, 2022-11-20 15:42:30.330
106.0, -20337.27113452806, 21812.419213344958, -33056.03957844253, -31782.772455545957, -25583.62788958882, -25790.82856068952, -21665.34473482904, -775.4714221324232, -24860.012514592712, -1846.812885619746, -25866.355105204002, -30062.604554009984, -25969.061370976135, -7739.447979861257, -20031.611029101736, -32252.203792596316, 0.053000000000000005, 0.9560000000000001, -0.158, 192.0, 0.5, 72.0, 14.5, 104.0, 125.0, 120.0, 0.0, 0.0, 0.0, 1.668976950810722E9, 0.0, 2022-11-20 15:42:30.810
108.0, -20271.691116296188, 21583.33618442252, -32996.472179469136, -31710.41985874413, -25525.91568540522, -25732.892839061362, -21614.628626659945, -727.0575436422281, -24896.848189455057, -1892.6116100086701, -25896.440553240845, -30100.557816095094, -25999.795019602185, -7774.517866911634, -20072.581776688312, -32296.05791521763, 0.053000000000000005, 0.9560000000000001, -0.158, 192.0, 0.0, 0.0, 0.0, 0.0, 0.0, 0.0, 0.0, 0.0, 0.0, 1.6689769508107843E9, 0.0, 2022-11-20 15:42:30.810
110.0, -20326.564648933967, 21836.670856078967, -33046.11540390437, -31776.51396709847, -25585.796008800986, -25793.086086879503, -21676.073572167585, -783.4509949029679, -24839.605371905014, -1831.1219610121204, -25843.846898537508, -30044.633751467914, -25953.348094624056, -7725.5898982989675, -20021.217467930015, -32246.347635549027, 0.053000000000000005, 0.9560000000000001, -0.158, 192.0, 0.0, 0.0, 0.0, 0.0, 0.0, 0.0, 0.0, 0.0, 0.0, 1.6689769508108077E9, 0.0, 2022-11-20 15:42:30.810
112.0, -20265.276165637515, 21578.50820762017, -32996.04749632448, -31707.89411162068, -25536.666874488223, -25738.681940875285, -21626.765623899177, -738.255767614337, -24900.044488912165, -1900.300610101296, -25899.949777120328, -30106.81630454258, -26010.277987751724, -7788.01832056264, -20081.701288426077, -32306.63029034499, 0.053000000000000005, 0.9560000000000001, -0.158, 192.0, 0.0, 0.0, 0.0, 0.0, 0.0, 0.0, 0.0, 0.0, 0.0, 1.668976950810814E9, 0.0, 2022-11-20 15:42:30.810
114.0, -20303.564703889457, 21854.775769087766, -33028.50222927359, -31751.077681908333, -25568.87573824832, -25776.25522330466, -21661.455531293814, -772.8786197756076, -24820.896961795923, -1815.6322021045928, -25821.45045059329, -30019.577445933515, -25933.23152461428, -7707.820261456998, -20001.68204327608, -32223.79472539362, 0.053000000000000005, 0.9560000000000001, -0.158, 192.0, 0.0, 0.0, 0.0, 0.0, 0.0, 0.0, 0.0, 0.0, 0.0, 1.66897695081082E9, 0.0, 2022-11-20 15:42:30.810
116.0, -20284.85629378036, 21573.121437206442, -33013.5936157219, -31718.37707977022, -25546.85926995984, -25749.746054380663, -21633.828775147056, -745.5200845623118, -24900.536227290184, -1896.009075165877, -25902.83315215506, -30099.23906317223, -26013.362528486556, -7786.610160661956, -20077.25329127947, -32293.956851238832, 0.052500000000000005, 0.9540000000000001, -0.158, 192.0, 0.5, 80.0, 14.5, 96.0, 125.5, 8.0, 0.0, 0.0, 0.0, 1.6689769508108263E9, 0.0, 2022-11-20 15:42:30.810
118.0, -20293.796991562485, 21855.826301077166, -33016.90167390128, -31738.560705013362, -25546.43458681519, -25750.506013692146, -21625.67038842087, -733.092514645161, -24825.52377289817, -1820.4825306513944, -25828.62536056344, -30027.735832659702, -25933.767966481206, -7704.601610255434, -19998.77631649689, -32216.17278053436, 0.052500000000000005, 0.9540000000000001, -0.158, 192.0, 0.0, 0.0, 0.0, 0.0, 0.0, 0.0, 0.0, 0.0, 0.0, 1.6689769508108332E9, 0.0, 2022-11-20 15:42:30.810
120.0, -20298.26734045355, 21576.65301283038, -33025.462392027664, -31733.442155533096, -25549.653238016755, -25751.3777317259, -21625.580981443047, -734.5006745458454, -24900.379765078997, -1895.2491158543965, -25908.711660946807, -30108.000946998713, -26012.066127308146, -7780.01639604764, -20067.6867446526, -32280.948135965842, 0.052500000000000005, 0.9540000000000001, -0.158, 192.0, 0.0, 0.0, 0.0, 0.0, 0.0, 0.0, 0.0, 0.0, 0.0, 1.6689769508108392E9, 0.0, 2022-11-20 15:42:30.810
