%OpenBCI Raw EEG Data
%Number of channels = 16
%Sample Rate = 125 Hz
%Board = OpenBCI_GUI$BoardCytonSerialDaisy
Sample Index, EXG Channel 0, EXG Channel 1, EXG Channel 2, EXG Channel 3, EXG Channel 4, EXG Channel 5, EXG Channel 6, EXG Channel 7, EXG Channel 8, EXG Channel 9, EXG Channel 10, EXG Channel 11, EXG Channel 12, EXG Channel 13, EXG Channel 14, EXG Channel 15, Accel Channel 0, Accel Channel 1, Accel Channel 2, Other, Other, Other, Other, Other, Other, Other, Analog Channel 0, Analog Channel 1, Analog Channel 2, Timestamp, Other, Timestamp (Formatted)
0.0, -29058.586544822043, -35699.40158121605, -62597.69202443267, -59551.283365641044, -27209.53848475677, -45866.6736920683, -60176.081678400245, -37890.16311051406, 0.0, 0.0, 0.0, 0.0, 0.0, 0.0, 0.0, 0.0, 0.0, 0.0, 0.0, 192.0, 0.0, 0.0, 0.0, 0.0, 0.0, 0.0, 0.0, 0.0, 0.0, 1.65816522853882E9, 0.0, 2022-07-18 13:27:08.538
30.0, -29085.878024801976, -35713.617290689624, -62630.236164359594, -59585.99562478014, -27252.72205504442, -45926.17403580833, -60223.199155712035, -38006.61569912621, -20689.020537021224, -66028.77420530013, -64068.973251458796, -77659.03504598558, -58042.67472537455, -58452.06927681796, -55509.775043699156, -55425.15133919136, 0.0, 0.0, 0.0, 192.0, 0.0, 0.0, 0.0, 0.0, 0.0, 0.0, 0.0, 0.0, 0.0, 1.6581652285388288E9, 0.0, 2022-07-18 13:27:08.538
32.0, -29062.878079757462, -35717.99823260286, -62600.39658551176, -59551.12690342986, -27223.82124946371, -45883.70572134325, -60205.42951887006, -37885.80452034528, -20643.154757398934, -65960.80255041154, -64009.65172167441, -77593.41032426481, -57979.240474610386, -58390.736090032595, -55455.6391186284, -55367.46148675222, 0.039, 0.47500000000000003, 0.081, 192.0, 1.0, 56.0, 14.5, 88.0, 2.5, 8.0, 0.0, 0.0, 0.0, 1.6581652285388362E9, 0.0, 2022-07-18 13:27:08.538
34.0, -29089.99074578175, -35718.40056400306, -62635.757045240054, -59587.06850851399, -27255.985409734894, -45916.585137437, -60232.92216455009, -37915.10765732618, -20694.496714412777, -66034.87623153641, -64071.61075730452, -77656.9786854957, -58042.29474571881, -58453.41038148527, -55512.05492163359, -55414.95894371974, 0.039, 0.47500000000000003, 0.081, 192.0, 0.0, 0.0, 0.0, 0.0, 0.0, 0.0, 0.0, 0.0, 0.0, 1.6581652285388432E9, 0.0, 2022-07-18 13:27:08.538
36.0, -29052.37275986347, -35718.668784936526, -62583.14103879226, -59534.83248172194, -27201.693022452953, -45862.493915855164, -60186.58699829424, -37876.21562197395, -20647.356885356534, -65961.40604751183, -64006.92480885087, -77587.0624288395, -57972.467896040434, -58387.40568010875, -55436.506025374656, -55341.287593995046, 0.039, 0.47500000000000003, 0.081, 192.0, 0.0, 0.0, 0.0, 0.0, 0.0, 0.0, 0.0, 0.0, 0.0, 1.6581652285388503E9, 0.0, 2022-07-18 13:27:08.538
38.0, -29092.42708592738, -35705.861235363634, -62639.80271098646, -59587.60495038092, -27252.654999811057, -45905.498672187176, -60242.82398734379, -37950.1104891432, -20684.013746263237, -66023.72271105323, -64059.38435308747, -77642.20418241074, -58029.084864745724, -58447.509520949076, -55490.66430218986, -55394.46239405422, 0.039, 0.47500000000000003, 0.081, 192.0, 0.0, 0.0, 0.0, 0.0, 0.0, 0.0, 0.0, 0.0, 0.0, 1.6581652285388575E9, 0.0, 2022-07-18 13:27:08.538
40.0, -29044.683759770844, -35710.10806681014, -62568.83592234086, -59516.79462394651, -27172.367533727593, -45844.59016854646, -60169.644375997115, -37866.0902817357, -20643.244164376756, -65961.070771345, -64008.37767224046, -77585.49780672762, -57970.72445997292, -58383.13649691779, -55437.98124050871, -55334.783236358555, 0.039, 0.47500000000000003, 0.081, 192.0, 0.0, 0.0, 0.0, 0.0, 0.0, 0.0, 0.0, 0.0, 0.0, 1.6581652285388644E9, 0.0, 2022-07-18 13:27:08.538
42.0, -29088.783751581166, -35696.65231664805, -62650.509196580555, -59599.69724413124, -27243.64724679557, -45922.46364622875, -60251.58587117027, -37944.36609081818, -20667.85343502205, -66001.84035323147, -64045.59332675855, -77624.76982173561, -58004.542649333795, -58425.7389218496, -55475.88979910491, -55383.59944624895, 0.039, 0.47500000000000003, 0.081, 192.0, 0.0, 0.0, 0.0, 0.0, 0.0, 0.0, 0.0, 0.0, 0.0, 1.6581652285388713E9, 0.0, 2022-07-18 13:27:08.538
44.0, -29034.044329410117, -35707.98465108689, -62571.54048341996, -59523.07546413845, -27171.249946504828, -45852.54738957255, -60143.73870417342, -37873.041674261294, -20654.330629626587, -65966.47989350319, -64016.24548628873, -77589.23054805167, -57984.29196885729, -58398.71566280314, -55455.41560118385, -55359.41485874831, 0.074, 0.9480000000000001, 0.162, 192.0, 1.0, 40.0, 14.5, 80.0, 2.5, 8.0, 0.0, 0.0, 0.0, 1.658165228538878E9, 0.0, 2022-07-18 13:27:08.538
46.0, -29083.91107128991, -35683.44243567496, -62649.57042331343, -59600.34544472044, -27245.34597937417, -45919.31205026055, -60223.7132458345, -37939.91809367157, -20668.345173400066, -65999.67223401931, -64037.34553305454, -77616.29851058705, -58010.01882672535, -58420.8885933028, -55473.2969967481, -55384.001777649144, 0.074, 0.9480000000000001, 0.162, 192.0, 0.0, 0.0, 0.0, 0.0, 0.0, 0.0, 0.0, 0.0, 0.0, 1.658165228538885E9, 0.0, 2022-07-18 13:27:08.538
48.0, -29046.98598944974, -35720.188703559485, -62584.99623358205, -59538.6546300238, -27189.980708358373, -45869.15473570285, -60171.186646364535, -37888.06204653526, -20663.4277896199, -65982.79666695556, -64027.801338172125, -77604.9661761482, -58001.614570810154, -58412.126709476324, -55472.06765080305, -55380.24668458065, 0.074, 0.9480000000000001, 0.162, 192.0, 0.0, 0.0, 0.0, 0.0, 0.0, 0.0, 0.0, 0.0, 0.0, 1.6581652285388925E9, 0.0, 2022-07-18 13:27:08.538
50.0, -29071.103521717017, -35670.545479124245, -62644.04954243297, -59594.6681016288, -27247.7823195198, -45903.64347739738, -60238.577155897285, -37923.78013417484, -20655.559975571632, -65983.44486754476, -64021.72166368028, -77601.32284180199, -58000.80990800976, -58410.450328642175, -55470.480676946725, -55372.133001343376, 0.074, 0.9480000000000001, 0.162, 192.0, 0.0, 0.0, 0.0, 0.0, 0.0, 0.0, 0.0, 0.0, 0.0, 1.6581652285389004E9, 0.0, 2022-07-18 13:27:08.538
52.0, -29047.6565417834, -35722.37917451611, -62581.308195746926, -59537.71585675667, -27189.064286835706, -45870.33937815898, -60175.43347781104, -37925.09888709771, -20665.171225687413, -65989.25632110314, -64028.02485561668, -77606.32963255998, -58007.80600402427, -58417.22290721213, -55475.845095616, -55381.78895494807, 0.074, 0.9480000000000001, 0.162, 192.0, 0.0, 0.0, 0.0, 0.0, 0.0, 0.0, 0.0, 0.0, 0.0, 1.6581652285389073E9, 0.0, 2022-07-18 13:27:08.538
54.0, -29088.873158558985, -35686.23640373188, -62659.82987401842, -59607.788575624065, -27258.980543491907, -45924.27413752963, -60256.056220061335, -37946.19893386352, -20665.14887394296, -65990.19509437027, -64027.33195153856, -77608.20717909423, -58006.95663773497, -58416.32883743392, -55471.30769149157, -55376.6704054678, 0.066, 0.9460000000000001, 0.166, 192.0, 1.0, 8.0, 14.5, 72.0, 2.5, 24.0, 0.0, 0.0, 0.0, 1.658165228538915E9, 0.0, 2022-07-18 13:27:08.538
56.0, -29059.502966344713, -35728.660014708046, -62588.371346994805, -59541.89563296982, -27199.547254985246, -45880.44236665277, -60183.30129185931, -37921.58966321822, -20693.11090625655, -66009.43994634628, -64053.796416973644, -77631.27417937209, -58027.92257403405, -58442.592137168904, -55502.3989680289, -55402.5760772915, 0.066, 0.9460000000000001, 0.166, 192.0, 0.0, 0.0, 0.0, 0.0, 0.0, 0.0, 0.0, 0.0, 0.0, 1.658165228538922E9, 0.0, 2022-07-18 13:27:08.538
58.0, -29081.765303822198, -35686.1246450096, -62654.085475693406, -59597.640883641354, -27253.77258703382, -45915.15462579187, -60243.896871077646, -37904.91526185456, -20653.28009763719, -65981.34380356596, -64022.39221601394, -77601.68046971328, -57996.160745163055, -58409.01981699703, -55470.83830485801, -55377.34095780146, 0.066, 0.9460000000000001, 0.166, 192.0, 0.0, 0.0, 0.0, 0.0, 0.0, 0.0, 0.0, 0.0, 0.0, 1.6581652285389287E9, 0.0, 2022-07-18 13:27:08.538
60.0, -29054.742044775732, -35728.54825598577, -62589.555989450935, -59537.4029323343, -27205.314005054715, -45879.7271108302, -60171.879550442645, -37873.2875434503, -20687.299452698167, -66013.39620511487, -64052.65647800642, -77630.42481308279, -58031.00711476888, -58439.664058645256, -55509.84209893252, -55408.745158761165, 0.066, 0.9460000000000001, 0.166, 192.0, 0.0, 0.0, 0.0, 0.0, 0.0, 0.0, 0.0, 0.0, 0.0, 1.6581652285389402E9, 0.0, 2022-07-18 13:27:08.538
62.0, -29082.27939394467, -35691.37730495659, -62641.836719731895, -59588.78959283705, -27243.289618884282, -45909.58904142249, -60224.47320514599, -37920.40502076209, -20652.587193559077, -65963.03772485706, -64007.28243676215, -77587.93414687326, -57982.50382930086, -58388.36680512033, -55456.577891895526, -55364.04166985055, 0.066, 0.9460000000000001, 0.166, 192.0, 0.0, 0.0, 0.0, 0.0, 0.0, 0.0, 0.0, 0.0, 0.0, 1.658165228538947E9, 0.0, 2022-07-18 13:27:08.538
64.0, -29065.537937347646, -35725.9331018845, -62589.04189932846, -59543.192034148226, -27219.417955806013, -45881.828174809, -60187.190495394534, -37905.78697988832, -20698.207103992358, -66019.81115577354, -64055.763370485714, -77640.30428413204, -58040.01486778437, -58444.51438719206, -55514.804186201596, -55418.35640887695, 0.074, 0.9460000000000001, 0.166, 192.0, 1.0, 40.0, 14.5, 72.0, 2.5, 24.0, 0.0, 0.0, 0.0, 1.6581652285389543E9, 0.0, 2022-07-18 13:27:08.538
66.0, -29081.273565444182, -35695.087694536174, -62629.4315015592, -59576.98787176465, -27250.19630792097, -45905.65513439836, -60229.904679048625, -37928.764573188375, -20648.742693512762, -65964.84821615794, -63996.397137212414, -77581.54154795904, -57977.74290773188, -58386.243389397074, -55456.46613317325, -55359.34780351494, 0.074, 0.9460000000000001, 0.166, 192.0, 0.0, 0.0, 0.0, 0.0, 0.0, 0.0, 0.0, 0.0, 0.0, 1.658165228538962E9, 0.0, 2022-07-18 13:27:08.538
68.0, -29075.059780485604, -35729.352918786164, -62609.35963503834, -59561.09578145693, -27243.803709006752, -45910.55016643407, -60224.22733595697, -37946.91418968608, -20695.52489465772, -66029.22124018923, -64059.16083564292, -77641.84655449945, -58043.993478297416, -58446.928375593234, -55527.16470088538, -55428.83937702649, 0.074, 0.9460000000000001, 0.166, 192.0, 0.0, 0.0, 0.0, 0.0, 0.0, 0.0, 0.0, 0.0, 0.0, 1.658165228538969E9, 0.0, 2022-07-18 13:27:08.538
70.0, -29086.32505969108, -35711.248005777365, -62633.00778067205, -59579.15599097681, -27255.87365101262, -45915.31108800305, -60248.18840601306, -37957.97830319146, -20654.755312771238, -65971.79960868355, -64009.91994260788, -77591.33161203047, -57989.723442759925, -58394.20061042316, -55478.41554622836, -55376.178667089785, 0.074, 0.9460000000000001, 0.166, 192.0, 0.0, 0.0, 0.0, 0.0, 0.0, 0.0, 0.0, 0.0, 0.0, 1.658165228538976E9, 0.0, 2022-07-18 13:27:08.538
72.0, -29069.315382160592, -35710.93508135499, -62604.62106521381, -59553.16091217529, -27238.394586848568, -45902.615297152435, -60220.51694637739, -37927.49052375442, -20692.842685323085, -66023.05215871957, -64060.83721647707, -77642.13712717738, -58040.81953058476, -58442.03334355752, -55527.8576049635, -55426.31362990304, 0.074, 0.9460000000000001, 0.166, 192.0, 0.0, 0.0, 0.0, 0.0, 0.0, 0.0, 0.0, 0.0, 0.0, 1.658165228538983E9, 0.0, 2022-07-18 13:27:08.538
74.0, -29081.38532416646, -35717.12651456911, -62619.619085743325, -59573.34453741843, -27241.792052005774, -45919.58027119402, -60234.91146980661, -37981.537041847354, -20641.925411453893, -65958.92500387729, -63995.95010232331, -77579.39578049134, -57972.669061740526, -58386.31044463044, -55464.26689198815, -55370.993062376154, 0.074, 0.9500000000000001, 0.166, 192.0, 1.0, 40.0, 14.5, 88.0, 2.5, 24.0, 0.0, 0.0, 0.0, 1.6581652285389905E9, 0.0, 2022-07-18 13:27:08.538
76.0, -29082.18998696685, -35721.46275299344, -62620.043768887976, -59565.92375825927, -27246.955304974952, -45911.82421586802, -60227.468338902996, -37916.42641024905, -20706.387842463, -66036.95494377076, -64071.007260204235, -77651.99424648217, -58039.90310906209, -58459.13242806583, -55528.12582589696, -55440.976374265716, 0.074, 0.9500000000000001, 0.166, 192.0, 0.0, 0.0, 0.0, 0.0, 0.0, 0.0, 0.0, 0.0, 0.0, 1.6581652285389977E9, 0.0, 2022-07-18 13:27:08.538
78.0, -29082.592318367046, -35723.09443033867, -62612.265361817525, -59552.69152554173, -27214.902903426042, -45891.55118364706, -60191.5043820744, -37890.63249714762, -20654.822368004607, -65955.34872476444, -64005.51664895018, -77578.4570072242, -57971.01503265084, -58378.24146488208, -55456.39907793988, -55356.50913196911, 0.074, 0.9500000000000001, 0.166, 192.0, 0.0, 0.0, 0.0, 0.0, 0.0, 0.0, 0.0, 0.0, 0.0, 1.6581652285390043E9, 0.0, 2022-07-18 13:27:08.539
80.0, -29088.694344603344, -35713.147904056066, -62628.76094922554, -59567.77895304906, -27232.33726410118, -45914.10409380247, -60213.118518962685, -37940.432183794044, -20705.538476173697, -66036.8878885374, -64076.796362018154, -77649.24498191416, -58047.23448124343, -58450.9963930841, -55521.91204093838, -55425.06193221354, 0.074, 0.9500000000000001, 0.166, 192.0, 0.0, 0.0, 0.0, 0.0, 0.0, 0.0, 0.0, 0.0, 0.0, 1.6581652285390117E9, 0.0, 2022-07-18 13:27:08.539
82.0, -29081.47473114428, -35728.101221096666, -62606.83388791489, -59541.87328122536, -27207.23625507787, -45888.62310512341, -60193.069004186276, -37934.08428836874, -20649.837928991074, -65954.05232358603, -64005.29313150563, -77574.14312054434, -57971.14914311757, -58370.26189211153, -55455.57206339503, -55346.98728883115, 0.074, 0.9500000000000001, 0.166, 192.0, 0.0, 0.0, 0.0, 0.0, 0.0, 0.0, 0.0, 0.0, 0.0, 1.6581652285390184E9, 0.0, 2022-07-18 13:27:08.539
84.0, -29114.08592630457, -35725.59782571767, -62659.248728662584, -59590.62243588239, -27263.16031970505, -45929.99618411019, -60267.56736845581, -37981.55939359181, -20711.90872334346, -66035.79265305909, -64085.84881852256, -77656.46459537323, -58054.78937086933, -58447.643631415805, -55538.13940741294, -55433.75676080665, 0.07200000000000001, 0.9520000000000001, 0.158, 192.0, 1.0, 32.0, 14.5, 96.0, 2.0, 120.0, 0.0, 0.0, 0.0, 1.6581652285390255E9, 0.0, 2022-07-18 13:27:08.539
86.0, -29060.687608800843, -35720.21105530394, -62583.99040508156, -59523.92483042775, -27189.444266491446, -45858.649415808846, -60189.26920762887, -37907.530415955836, -20655.09058893807, -65950.23017528417, -64016.536058966645, -77579.4628357247, -57977.13941063159, -58369.16665663322, -55462.83638034301, -55352.4634662227, 0.07200000000000001, 0.9520000000000001, 0.158, 192.0, 0.0, 0.0, 0.0, 0.0, 0.0, 0.0, 0.0, 0.0, 0.0, 1.6581652285390327E9, 0.0, 2022-07-18 13:27:08.539
88.0, -29104.318213977604, -35714.51136046783, -62647.42465584572, -59593.79638359504, -27249.235182909393, -45920.22847178322, -60250.49063569196, -37984.50982385991, -20706.90193258547, -66024.57207734253, -64074.53883582817, -77644.79698476756, -58039.657239873086, -58441.206329012675, -55511.89845942241, -55418.758740277146, 0.07200000000000001, 0.9520000000000001, 0.158, 192.0, 0.0, 0.0, 0.0, 0.0, 0.0, 0.0, 0.0, 0.0, 0.0, 1.65816522853904E9, 0.0, 2022-07-18 13:27:08.539
90.0, -29051.32222787407, -35721.59686346017, -62563.94089030515, -59523.0978158829, -27177.173158785485, -45866.94191300177, -60153.57347173375, -37920.60618646219, -20653.19069065937, -65962.99302136815, -64013.272704276176, -77584.7154956717, -57984.67194851303, -58387.91977023122, -55445.33496443451, -55357.42555349178, 0.07200000000000001, 0.9520000000000001, 0.158, 192.0, 0.0, 0.0, 0.0, 0.0, 0.0, 0.0, 0.0, 0.0, 0.0, 1.658165228539047E9, 0.0, 2022-07-18 13:27:08.539
92.0, -29080.290088688147, -35692.8748718351, -62636.181728384705, -59596.03155804057, -27248.810499764742, -45930.8902538884, -60246.266155989906, -37976.172623178085, -20673.441371135876, -66007.6294550454, -64044.3192773246, -77623.96515893521, -58017.5960680957, -58428.71170386216, -55481.455383474284, -55397.65869351134, 0.07200000000000001, 0.9520000000000001, 0.158, 192.0, 0.0, 0.0, 0.0, 0.0, 0.0, 0.0, 0.0, 0.0, 0.0, 1.6581652285390563E9, 0.0, 2022-07-18 13:27:08.539
94.0, -29055.07732094256, -35728.660014708046, -62577.44134395616, -59543.16968240377, -27192.841731648652, -45881.73876783118, -60180.08264065775, -37908.357430500684, -20663.51719659772, -65978.61689074241, -64022.77219566968, -77599.35588828992, -57999.4911550869, -58409.109223974854, -55470.65949090237, -55372.80355367703, 0.07200000000000001, 0.9520000000000001, 0.164, 192.0, 1.0, 32.0, 14.5, 96.0, 2.5, 16.0, 0.0, 0.0, 0.0, 1.6581652285390637E9, 0.0, 2022-07-18 13:27:08.539
96.0, -29083.508739889712, -35679.77674958429, -62637.8357574744, -59600.61366565391, -27248.38581662009, -45931.203178310774, -60255.47507470549, -37971.635219053656, -20667.98754548878, -65998.88992296338, -64033.83630917506, -77613.70570823023, -58011.76226279286, -58429.47166317364, -55483.131764308426, -55397.65869351134, 0.07200000000000001, 0.9520000000000001, 0.164, 192.0, 0.0, 0.0, 0.0, 0.0, 0.0, 0.0, 0.0, 0.0, 0.0, 1.6581652285390708E9, 0.0, 2022-07-18 13:27:08.539
98.0, -29051.143413918428, -35718.713488425434, -62564.41027693872, -59530.250374108604, -27181.978783843373, -45878.564820118525, -60166.47042828446, -37938.26406458188, -20665.350039643054, -65975.1747220963, -64023.040416603144, -77593.61148996491, -57997.52420157483, -58416.105319989365, -55476.87327586094, -55388.6732922403, 0.07200000000000001, 0.9520000000000001, 0.164, 192.0, 0.0, 0.0, 0.0, 0.0, 0.0, 0.0, 0.0, 0.0, 0.0, 1.6581652285390778E9, 0.0, 2022-07-18 13:27:08.539
100.0, -29101.99363255425, -35700.09448529416, -62651.96205997015, -59612.124814048395, -27265.01551449484, -45944.502466261685, -60270.89777837966, -38000.17839672308, -20671.295603668168, -65991.71501299323, -64036.58557374306, -77609.39182155035, -58005.86140225666, -58422.117939247844, -55482.84119163051, -55398.03867316707, 0.07200000000000001, 0.9520000000000001, 0.164, 192.0, 0.0, 0.0, 0.0, 0.0, 0.0, 0.0, 0.0, 0.0, 0.0, 1.658165228539085E9, 0.0, 2022-07-18 13:27:08.539
102.0, -29047.388320849936, -35723.42970650551, -62565.214939739104, -59524.59538276141, -27191.075943836684, -45874.80972705004, -60170.896073686614, -37912.98424160293, -20680.258653194745, -65997.21354212923, -64040.452425533826, -77611.11290587341, -58014.17625119403, -58421.17916598072, -55492.36303476847, -55401.16791739082, 0.07200000000000001, 0.9520000000000001, 0.164, 192.0, 0.0, 0.0, 0.0, 0.0, 0.0, 0.0, 0.0, 0.0, 0.0, 1.658165228539092E9, 0.0, 2022-07-18 13:27:08.539
104.0, -29072.265812428694, -35673.562964625715, -62628.91741143673, -59580.13946773285, -27241.188554905482, -45917.36744849294, -60228.854147059224, -37964.03562593885, -20653.43655984838, -65955.59459395344, -64004.53317219415, -77572.7126088992, -57980.9839106779, -58384.008214951544, -55447.99482202469, -55360.644204693344, 0.07, 0.9520000000000001, 0.158, 192.0, 1.0, 24.0, 14.5, 96.0, 2.0, 120.0, 0.0, 0.0, 0.0, 1.6581652285390992E9, 0.0, 2022-07-18 13:27:08.539
106.0, -29040.615742279977, -35715.517188968326, -62573.01569855401, -59524.32716182795, -27203.39175503156, -45885.158584732846, -60197.49464958843, -37960.83932648174, -20682.67264159592, -65984.24953034514, -64038.03843713265, -77601.94869064674, -58016.18790819501, -58416.15002347828, -55496.900438892895, -55404.408920336835, 0.07, 0.9520000000000001, 0.158, 192.0, 0.0, 0.0, 0.0, 0.0, 0.0, 0.0, 0.0, 0.0, 0.0, 1.6581652285391068E9, 0.0, 2022-07-18 13:27:08.539
108.0, -29069.874175771976, -35669.13731922356, -62617.56272525343, -59568.136580960345, -27233.477203068403, -45908.337343732994, -60233.01157152791, -37970.83055625326, -20638.684408507874, -65952.13007356288, -63998.47584944676, -77565.96238207369, -57980.17924787751, -58377.57091254841, -55452.53222614912, -55363.661690194815, 0.07, 0.9520000000000001, 0.158, 192.0, 0.0, 0.0, 0.0, 0.0, 0.0, 0.0, 0.0, 0.0, 0.0, 1.658165228539114E9, 0.0, 2022-07-18 13:27:08.539
110.0, -29044.54964930411, -35709.63868017658, -62559.00115478053, -59521.935525171226, -27196.976804372884, -45872.909828771335, -60172.5501027763, -37930.373898789156, -20664.634783820486, -65986.32824257949, -64025.52146023768, -77598.12654234488, -58009.035349969316, -58415.188898466695, -55486.149249809896, -55392.89777194236, 0.07, 0.9520000000000001, 0.158, 192.0, 0.0, 0.0, 0.0, 0.0, 0.0, 0.0, 0.0, 0.0, 0.0, 1.658165228539121E9, 0.0, 2022-07-18 13:27:08.539
112.0, -29081.5641381221, -35697.054648048244, -62612.5782862399, -59583.55928463451, -27231.62200827861, -45910.728980389715, -60208.98344623845, -37955.117279901184, -20636.60569627353, -65959.34968702194, -63993.20083775531, -77575.14894904483, -57971.50677102885, -58376.83330498139, -55439.367048664935, -55353.446942978735, 0.07, 0.9520000000000001, 0.158, 192.0, 0.0, 0.0, 0.0, 0.0, 0.0, 0.0, 0.0, 0.0, 0.0, 1.6581652285391273E9, 0.0, 2022-07-18 13:27:08.539
114.0, -29053.378588363958, -35723.049726849764, -62567.76303860701, -59545.96365046068, -27197.602653217633, -45898.41316919484, -60182.60838778119, -37964.43795733905, -20680.817446806126, -66017.84420226148, -64044.14046336895, -77631.60945553893, -58026.53676587782, -58432.48914867511, -55488.92086612235, -55414.46720534172, 0.07500000000000001, 0.9540000000000001, 0.159, 192.0, 1.0, 64.0, 14.5, 112.0, 2.5, 0.0, 0.0, 0.0, 0.0, 1.6581652285391345E9, 0.0, 2022-07-18 13:27:08.539
116.0, -29057.781882021653, -35687.35399095464, -62596.552085465446, -59561.87809251286, -27219.976749417398, -45899.486052928696, -60205.8094985258, -37953.865582211685, -20624.04401588965, -65944.08344555896, -63977.17463698085, -77559.81565234848, -57959.526236000806, -58361.63411875178, -55423.989048479685, -55346.98728883115, 0.07500000000000001, 0.9540000000000001, 0.159, 192.0, 0.0, 0.0, 0.0, 0.0, 0.0, 0.0, 0.0, 0.0, 0.0, 1.6581652285391407E9, 0.0, 2022-07-18 13:27:08.539
118.0, -29059.27944890016, -35717.90882562505, -62591.45588772964, -59548.712915028686, -27223.53067678579, -45894.97100054872, -60213.274981173876, -37958.492393313936, -20678.805789805152, -66015.92195223832, -64046.174472114384, -77621.93115018978, -58025.41917865505, -58426.56593639445, -55496.58751447052, -55414.266039641625, 0.07500000000000001, 0.9540000000000001, 0.159, 192.0, 0.0, 0.0, 0.0, 0.0, 0.0, 0.0, 0.0, 0.0, 0.0, 1.658165228539148E9, 0.0, 2022-07-18 13:27:08.539
120.0, -29063.07924545756, -35694.752418369346, -62604.35284428035, -59563.06273496899, -27217.808630205232, -45898.569631406026, -60210.883344517155, -37955.31844560128, -20632.42592006039, -65952.21948054069, -63989.66926213137, -77564.15189077282, -57975.2842158418, -58373.815819479925, -55447.03369701311, -55352.44111447825, 0.07500000000000001, 0.9540000000000001, 0.159, 192.0, 0.0, 0.0, 0.0, 0.0, 0.0, 0.0, 0.0, 0.0, 0.0, 1.6581652285391555E9, 0.0, 2022-07-18 13:27:08.539
122.0, -29070.544728105633, -35706.46473246393, -62604.62106521381, -59563.398011135825, -27227.82221172121, -45916.49573045918, -60210.99510323943, -37966.293152128834, -20683.767877074228, -66033.19985070227, -64059.29494610965, -77638.40438585334, -58047.949737066, -58454.28209951903, -55514.08893037903, -55432.21449043924, 0.07500000000000001, 0.9540000000000001, 0.159, 192.0, 0.0, 0.0, 0.0, 0.0, 0.0, 0.0, 0.0, 0.0, 0.0, 1.658165228539163E9, 0.0, 2022-07-18 13:27:08.539
124.0, -29057.37955062146, -35695.53472942528, -62602.4752977461, -59553.78676102004, -27218.56858951671, -45889.763044090636, -60228.3177051923, -37953.597361278225, -20614.857448918516, -65941.11066354641, -63975.14062823542, -77551.63491387785, -57961.73905870188, -58361.65647049624, -55436.79659805258, -55340.14765502783, 0.07550000000000001, 0.9530000000000001, 0.1615, 192.0, 1.0, 48.0, 14.5, 96.0, 2.5, 16.0, 0.0, 0.0, 0.0, 1.6581652285391724E9, 0.0, 2022-07-18 13:27:08.539
126.0, -29070.70119031682, -35698.70867713793, -62620.803728199455, -59560.55933959, -27233.52190655731, -45898.6813901283, -60230.30701044882, -37927.75874468789, -20687.612377120542, -66028.01424598864, -64058.53498679817, -77633.30818811753, -58047.36859171017, -58442.48037844663, -55523.29784909461, -55422.75970253464, 0.07550000000000001, 0.9530000000000001, 0.1615, 192.0, 0.0, 0.0, 0.0, 0.0, 0.0, 0.0, 0.0, 0.0, 0.0, 1.658165228539179E9, 0.0, 2022-07-18 13:27:08.539
128.0, -29062.252230912716, -35691.69022937897, -62602.765870424024, -59537.090007911924, -27200.418973019, -45874.18387820529, -60184.01654768188, -37913.16305555857, -20632.247106104747, -65936.6626663998, -63985.98122429624, -77548.86329756539, -57974.52425653032, -58360.248310595554, -55445.178502223316, -55339.96884107219, 0.07550000000000001, 0.9530000000000001, 0.1615, 192.0, 0.0, 0.0, 0.0, 0.0, 0.0, 0.0, 0.0, 0.0, 0.0, 1.6581652285391855E9, 0.0, 2022-07-18 13:27:08.539
130.0, -29068.42131238238, -35674.5687931262, -62627.82217595842, -59563.91210125829, -27228.24689486586, -45895.19451799327, -60207.57528633777, -37928.764573188375, -20682.247958451266, -66015.25139990466, -64050.57776577208, -77616.94671117625, -58031.96823978046, -58432.42209344174, -55509.50682276569, -55419.11636818843, 0.07550000000000001, 0.9530000000000001, 0.1615, 192.0, 0.0, 0.0, 0.0, 0.0, 0.0, 0.0, 0.0, 0.0, 0.0, 1.6581652285391924E9, 0.0, 2022-07-18 13:27:08.539
132.0, -29043.6555795259, -35683.06245601922, -62586.29263476046, -59536.553566045, -27194.00402236033, -45860.258741409634, -60176.349899333705, -37865.86676429114, -20625.630989745976, -65944.26225951461, -63982.002613783196, -77550.47262316616, -57964.80124769226, -58361.567063518414, -55444.70911558976, -55344.68505915226, 0.07550000000000001, 0.9530000000000001, 0.1615, 192.0, 0.0, 0.0, 0.0, 0.0, 0.0, 0.0, 0.0, 0.0, 0.0, 1.658165228539199E9, 0.0, 2022-07-18 13:27:08.539
134.0, -29087.57675738058, -35687.21988048791, -62649.950402969174, -59611.9236483483, -27264.099092972174, -45919.9378991053, -60258.51491195142, -37946.93654143054, -20659.873862251505, -66017.57598132802, -64038.2619545772, -77621.75233623415, -58020.16651870806, -58430.298677718485, -55501.28138080614, -55413.81900475252, 0.07575000000000001, 0.9495, 0.16075, 192.0, 1.0, 48.0, 14.5, 72.0, 2.5, 0.0, 0.0, 0.0, 0.0, 1.6581652285392065E9, 0.0, 2022-07-18 13:27:08.539
136.0, -29054.27265814217, -35705.81653187472, -62587.20905628313, -59562.39218263533, -27200.374269530093, -45873.24510493816, -60185.33530060474, -37910.7490671574, -20643.31121961012, -65979.57801575398, -64007.170678039874, -77596.04783011053, -57989.3881665931, -58402.336645404896, -55473.69932814829, -55383.77826020459, 0.07575000000000001, 0.9495, 0.16075, 192.0, 0.0, 0.0, 0.0, 0.0, 0.0, 0.0, 0.0, 0.0, 0.0, 1.658165228539214E9, 0.0, 2022-07-18 13:27:08.539
138.0, -29084.5145683902, -35674.65820010402, -62637.34401909638, -59609.91199134732, -27243.468432839923, -45914.34996299147, -60237.325458207786, -37978.22898366797, -20666.19940593236, -66022.67217906383, -64037.926678410375, -77629.10606015993, -58018.98187625193, -58430.298677718485, -55495.916962136864, -55417.46233909873, 0.07575000000000001, 0.9495, 0.16075, 192.0, 0.0, 0.0, 0.0, 0.0, 0.0, 0.0, 0.0, 0.0, 0.0, 1.6581652285392215E9, 0.0, 2022-07-18 13:27:08.539
140.0, -29049.847012740018, -35700.407409716536, -62567.248948484536, -59536.01712417807, -27175.51912969579, -45860.28109315409, -60151.539462988316, -37911.084343324226, -20636.650399762442, -65968.13392259287, -63998.14057327993, -77581.07216132549, -57973.49607628537, -58385.639892296786, -55452.53222614912, -55371.57420773199, 0.07575000000000001, 0.9495, 0.16075, 192.0, 0.0, 0.0, 0.0, 0.0, 0.0, 0.0, 0.0, 0.0, 0.0, 1.658165228539229E9, 0.0, 2022-07-18 13:27:08.539
142.0, -29110.397888469448, -35688.248060732854, -62657.572347828434, -59605.77691862309, -27262.936802260498, -45925.61524219695, -60249.86478684721, -37943.516724528876, -20666.62408907701, -66008.18824865678, -64034.35039929753, -77615.40444080884, -58017.03727448431, -58427.3929509393, -55482.90824686387, -55400.31855110152, 0.07575000000000001, 0.9495, 0.16075, 192.0, 0.0, 0.0, 0.0, 0.0, 0.0, 0.0, 0.0, 0.0, 0.0, 1.658165228539236E9, 0.0, 2022-07-18 13:27:08.539
144.0, -29062.967486735284, -35720.16635181503, -62587.030242327484, -59530.11626364187, -27214.00883364783, -45867.41129963533, -60219.488766132454, -37921.88023589614, -20663.986583231283, -65984.27188208961, -64022.95100962532, -77595.75725743262, -58006.353140634674, -58405.331779161905, -55488.876162633445, -55385.23112359418, 0.074875, 0.9497500000000001, 0.159375, 192.0, 1.0, 40.0, 14.5, 88.0, 2.0, 120.0, 0.0, 0.0, 0.0, 1.6581652285392432E9, 0.0, 2022-07-18 13:27:08.539
146.0, -29107.08983029006, -35686.66108687653, -62661.126275196824, -59612.08011055948, -27267.608316851656, -45928.05158234258, -60252.05525780383, -37977.80430052332, -20664.74654254276, -66000.0745654195, -64029.544774239635, -77608.07306862749, -58014.93621050551, -58414.74186357759, -55504.61179072998, -55400.25149586815, 0.074875, 0.9497500000000001, 0.159375, 192.0, 0.0, 0.0, 0.0, 0.0, 0.0, 0.0, 0.0, 0.0, 0.0, 1.6581652285392509E9, 0.0, 2022-07-18 13:27:08.539
148.0, -29067.683704815354, -35726.82717166271, -62582.492838203056, -59547.70708652819, -27197.33443228417, -45880.48707014169, -60168.21386435198, -37949.9093234431, -20669.84274027857, -65998.64405377436, -64032.80812893011, -77611.02349889559, -58013.14807094909, -58417.26761070104, -55497.63804645992, -55408.83456573899, 0.074875, 0.9497500000000001, 0.159375, 192.0, 0.0, 0.0, 0.0, 0.0, 0.0, 0.0, 0.0, 0.0, 0.0, 1.658165228539258E9, 0.0, 2022-07-18 13:27:08.539
0.0, -14625.349894207704, -17902.07092786681, -31381.11160768409, -29887.09865654691, -13698.825383046316, -23049.09653056819, -30201.006555677242, -19090.557884044396, -10348.924738040536, -33022.42255478174, -32037.358824891908, -38827.57292122518, -29023.673119982854, -29228.236285237825, -27760.911316980284, -27714.665557702254, 0.0724375, 0.9508750000000001, 0.16068749999999998, 192.0, 1.0, 24.0, 14.5, 96.0, 2.5, 8.0, 0.0, 0.0, 0.0, 1.6581652291084487E9, 0.0, 2022-07-18 13:27:09.108
2.0, -29184.58332831661, -35817.3517367067, -62657.88527225081, -59675.55906481255, -27284.014497281853, -46003.66753383488, -60258.8725398627, -38060.46105151904, -20778.271052631266, -66156.15679695092, -64145.1927000514, -77721.3964130159, -58137.06614220931, -58567.046650296055, -55617.711617673835, -55553.27153840918, 0.0724375, 0.9508750000000001, 0.16068749999999998, 192.0, 0.0, 0.0, 0.0, 0.0, 0.0, 0.0, 0.0, 0.0, 0.0, 1.6581652291085036E9, 0.0, 2022-07-18 13:27:09.108
4.0, -29219.049718266695, -35782.01362872287, -62728.65089519631, -59742.68135341184, -27331.42254727156, -46039.74324938575, -60316.517688812935, -38108.89728175369, -20737.948505633893, -66114.20257260831, -64105.339539687586, -77678.30224970606, -58084.60659797271, -58519.929172984266, -55558.30068091163, -55499.22502031625, 0.0724375, 0.9508750000000001, 0.16068749999999998, 192.0, 0.0, 0.0, 0.0, 0.0, 0.0, 0.0, 0.0, 0.0, 0.0, 1.658165229108533E9, 0.0, 2022-07-18 13:27:09.108
6.0, -29201.704764569375, -35824.41488795458, -62680.862865550866, -59698.96134125726, -27301.426506212534, -46017.19033923034, -60295.618807747225, -38066.406615544154, -20776.035878185736, -66161.05182898663, -64156.010944367765, -77726.33614854052, -58126.00202870394, -58574.26626375512, -55609.888507114476, -55548.13063718446, 0.0724375, 0.9508750000000001, 0.16068749999999998, 192.0, 0.0, 0.0, 0.0, 0.0, 0.0, 0.0, 0.0, 0.0, 0.0, 1.6581652291085484E9, 0.0, 2022-07-18 13:27:09.108
8.0, -29239.68037839894, -35799.87267254265, -62750.555604762514, -59752.09143782753, -27359.786910985342, -46056.909389127424, -60361.48939865702, -38127.89626454071, -20748.900860416994, -66128.73120650425, -64117.54359216018, -77687.51116842165, -58090.485106764456, -58535.933022014266, -55582.127640500985, -55503.31538955157, 0.07200000000000001, 0.9540000000000001, 0.16, 192.0, 1.0, 32.0, 14.5, 104.0, 2.5, 0.0, 0.0, 0.0, 0.0, 1.658165229108554E9, 0.0, 2022-07-18 13:27:09.108
10.0, -29183.57749981612, -35804.32066968926, -62671.273967179535, -59668.741782753685, -27304.779267880833, -45988.98243772775, -60285.60522623125, -38068.41827254513, -20788.150523680513, -66174.68639310436, -64163.208206082374, -77729.93477939782, -58149.471360382006, -58573.573359677, -55636.19651033837, -55537.51355856819, 0.07200000000000001, 0.9540000000000001, 0.16, 192.0, 0.0, 0.0, 0.0, 0.0, 0.0, 0.0, 0.0, 0.0, 0.0, 1.6581652291085591E9, 0.0, 2022-07-18 13:27:09.108
12.0, -29244.64246566802, -35820.07864953025, -62746.17466284927, -59741.16143478888, -27366.13480641065, -46042.4701622093, -60360.68473585662, -38115.356935901276, -20737.076787600137, -66112.19091560732, -64100.556266374144, -77669.27214494612, -58088.29463580783, -58506.33931235544, -55571.59996886253, -55464.535112921614, 0.07200000000000001, 0.9540000000000001, 0.16, 192.0, 0.0, 0.0, 0.0, 0.0, 0.0, 0.0, 0.0, 0.0, 0.0, 1.6581652291085644E9, 0.0, 2022-07-18 13:27:09.108
14.0, -29222.35777644608, -35840.575199195766, -62710.21070602068, -59713.6464373644, -27342.665474732577, -46033.127133026974, -60316.47298532403, -38099.911880482665, -20814.279712948766, -66206.67173941991, -64191.37140409606, -77763.61885829197, -58171.5325321594, -58602.07183385752, -55659.82230422763, -55559.77589604568, 0.07200000000000001, 0.9540000000000001, 0.16, 192.0, 0.0, 0.0, 0.0, 0.0, 0.0, 0.0, 0.0, 0.0, 0.0, 1.6581652291085708E9, 0.0, 2022-07-18 13:27:09.108
16.0, -29237.556962675688, -35817.06116402878, -62729.03087485205, -59734.12063528546, -27352.813166715285, -46041.77725813118, -60350.31352642936, -38105.61157531876, -20747.984438894324, -66122.27155235667, -64115.822507837125, -77691.60153765697, -58093.94962715502, -58532.44614987924, -55579.400727677435, -55489.278494033635, 0.07200000000000001, 0.9540000000000001, 0.16, 192.0, 0.0, 0.0, 0.0, 0.0, 0.0, 0.0, 0.0, 0.0, 0.0, 1.6581652291085775E9, 0.0, 2022-07-18 13:27:09.108
18.0, -29211.561883874165, -35812.99314653792, -62703.81810710646, -59708.237315206214, -27341.65964623209, -46040.10087729703, -60338.265936167954, -38132.63483436523, -20798.74525055233, -66187.76216361072, -64170.696040474904, -77746.11744238346, -58163.37414543321, -58594.382833764896, -55649.89812968947, -55565.78851530416, 0.074, 0.9480000000000001, 0.162, 192.0, 1.0, 40.0, 14.5, 80.0, 2.5, 8.0, 0.0, 0.0, 0.0, 1.6581652291085844E9, 0.0, 2022-07-18 13:27:09.108
20.0, -29197.10030521158, -35793.100093972695, -62690.07178426645, -59691.40645163137, -27322.995939611905, -46027.71801086879, -60315.534212056904, -38090.054761177875, -20740.228383568334, -66106.64768298241, -64089.15687670194, -77659.6832465748, -58089.25576081941, -58515.168251415285, -55566.392012404445, -55487.803278899584, 0.074, 0.9480000000000001, 0.162, 192.0, 0.0, 0.0, 0.0, 0.0, 0.0, 0.0, 0.0, 0.0, 0.0, 1.6581652291085913E9, 0.0, 2022-07-18 13:27:09.108
22.0, -29206.286872182714, -35798.844492297714, -62690.38470868883, -59698.67076857934, -27332.964817638975, -46037.15044702893, -60333.88499425471, -38111.95947074407, -20778.561625309187, -66173.83702681506, -64145.41621749595, -77717.1942850583, -58152.064162738825, -58573.41689746582, -55626.518204989225, -55554.8138087766, 0.074, 0.9480000000000001, 0.162, 192.0, 0.0, 0.0, 0.0, 0.0, 0.0, 0.0, 0.0, 0.0, 0.0, 1.6581652291085973E9, 0.0, 2022-07-18 13:27:09.108
24.0, -29193.568729587645, -35794.642364340114, -62680.92992078423, -59692.8369632765, -27314.72579416344, -46012.67528685037, -60297.228133348006, -38076.08492089331, -20737.38971202251, -66096.07530785505, -64087.25697842324, -77653.73768254968, -58084.47248750598, -58507.68041702276, -55558.85947452301, -55489.7478806672, 0.074, 0.9480000000000001, 0.162, 192.0, 0.0, 0.0, 0.0, 0.0, 0.0, 0.0, 0.0, 0.0, 0.0, 1.6581652291086037E9, 0.0, 2022-07-18 13:27:09.108
26.0, -29208.656157094978, -35785.500500857896, -62710.68009265424, -59717.28977171061, -27345.235925344936, -46038.9162348409, -60335.62843032223, -38124.43174415013, -20786.317680635177, -66166.48330288928, -64153.149921077485, -77721.597578716, -58150.16426446012, -58572.20990326523, -55628.753379434755, -55564.04507923664, 0.074, 0.9480000000000001, 0.162, 192.0, 0.0, 0.0, 0.0, 0.0, 0.0, 0.0, 0.0, 0.0, 0.0, 1.6581652291086104E9, 0.0, 2022-07-18 13:27:09.108
28.0, -29200.900101768984, -35808.36633543567, -62687.47898190963, -59686.69023355129, -27310.38955573911, -46007.78025481466, -60307.84521196428, -38105.45511310758, -20735.109834088067, -66087.93927287332, -64089.805077291145, -77655.21289768373, -58080.00213861492, -58507.4568995782, -55562.32399491358, -55484.182296297826, 0.07200000000000001, 0.9380000000000001, 0.162, 192.0, 1.0, 32.0, 14.5, 40.0, 2.5, 8.0, 0.0, 0.0, 0.0, 1.6581652291086173E9, 0.0, 2022-07-18 13:27:09.108
30.0, -29224.12356425805, -35791.89309977211, -62725.588706205934, -59713.53467864212, -27343.224268343958, -46039.83265636357, -60339.249412923986, -38100.26950839395, -20795.750116795316, -66169.43373315736, -64161.28595605922, -77729.62185497546, -58150.9242237716, -58579.96595859122, -55631.703809702856, -55543.59323306003, 0.07200000000000001, 0.9380000000000001, 0.162, 192.0, 0.0, 0.0, 0.0, 0.0, 0.0, 0.0, 0.0, 0.0, 0.0, 1.6581652291086242E9, 0.0, 2022-07-18 13:27:09.108
32.0, -29189.947746985883, -35813.9542715495, -62670.60341484588, -59662.05861116155, -27300.241863756404, -45995.956181997804, -60301.16204037214, -38063.277371320415, -20738.328485289632, -66108.88285742795, -64094.2307226933, -77663.30422917656, -58082.19260957153, -58514.20712640371, -55565.38618390396, -55469.38544146842, 0.07200000000000001, 0.9380000000000001, 0.162, 192.0, 0.0, 0.0, 0.0, 0.0, 0.0, 0.0, 0.0, 0.0, 0.0, 1.6581652291086311E9, 0.0, 2022-07-18 13:27:09.108
34.0, -29241.468517955367, -35808.768666835866, -62735.46817725518, -59729.136196271924, -27368.012352944894, -46058.96574961731, -60364.216311480566, -38148.45986943959, -20778.271052631266, -66182.95653855283, -64148.23253729732, -77727.25257006318, -58138.2731364099, -58574.35567073294, -55625.06534159963, -55530.20453813131, 0.07200000000000001, 0.9380000000000001, 0.162, 192.0, 0.0, 0.0, 0.0, 0.0, 0.0, 0.0, 0.0, 0.0, 0.0, 1.658165229108638E9, 0.0, 2022-07-18 13:27:09.108
36.0, -29217.149819987993, -35837.71417590549, -62674.82789454793, -59675.69317527929, -27314.234055785426, -46009.926022282365, -60305.23005786301, -38100.82830200533, -20756.098122131603, -66131.74869200573, -64112.3356357021, -77686.57239515452, -58105.013740660404, -58534.39075164685, -55590.2189719938, -55493.99471211371, 0.07200000000000001, 0.9380000000000001, 0.162, 192.0, 0.0, 0.0, 0.0, 0.0, 0.0, 0.0, 0.0, 0.0, 0.0, 1.658165229108645E9, 0.0, 2022-07-18 13:27:09.108
38.0, -29223.16243924647, -35781.23131766693, -62723.219421293674, -59720.329608956534, -27358.155233640104, -46048.527484956685, -60362.18230273513, -38159.92631434516, -20776.326450863657, -66162.92937552088, -64140.476481971324, -77712.63452918941, -58143.92812775709, -58565.9737665622, -55614.24709728326, -55523.14138688343, 0.078, 0.9560000000000001, 0.162, 192.0, 1.0, 56.0, 14.5, 112.0, 2.5, 8.0, 0.0, 0.0, 0.0, 1.6581652291086533E9, 0.0, 2022-07-18 13:27:09.108
40.0, -29182.795188760185, -35812.70257386, -62656.96885072814, -59655.35308782496, -27309.58489293872, -45998.191356443334, -60311.0862149103, -38090.97118270054, -20751.761883707273, -66115.0072354087, -64107.79823157767, -77673.04958975907, -58111.518098296896, -58527.34995214343, -55589.05668128213, -55490.28432253413, 0.078, 0.9560000000000001, 0.162, 192.0, 0.0, 0.0, 0.0, 0.0, 0.0, 0.0, 0.0, 0.0, 0.0, 1.6581652291086586E9, 0.0, 2022-07-18 13:27:09.108
42.0, -29226.06816602566, -35784.427617124034, -62738.97740113466, -59733.62889690744, -27382.496283351935, -46054.473048981796, -60373.80520985189, -38130.35495643079, -20762.803645468193, -66142.27636364417, -64128.40653996546, -77694.48491269171, -58131.94759272905, -58544.62785060738, -55606.40163497945, -55510.825575688556, 0.078, 0.9560000000000001, 0.162, 192.0, 0.0, 0.0, 0.0, 0.0, 0.0, 0.0, 0.0, 0.0, 0.0, 1.658165229108664E9, 0.0, 2022-07-18 13:27:09.108
44.0, -29178.078970680115, -35815.76476285038, -62656.7900367725, -59657.632965759396, -27306.36624173716, -45996.023237231166, -60299.44095604908, -38095.977973458525, -20767.899843204003, -66132.86627922849, -64125.813737608645, -77688.9863835557, -58127.99133396046, -58540.135149971866, -55604.81466112312, -55508.63510473193, 0.078, 0.9560000000000001, 0.162, 192.0, 0.0, 0.0, 0.0, 0.0, 0.0, 0.0, 0.0, 0.0, 0.0, 1.6581652291086693E9, 0.0, 2022-07-18 13:27:09.108
46.0, -29219.11677350006, -35782.1477391896, -62725.83457539494, -59723.07887352454, -27357.305867350802, -46041.28551975316, -60363.076372513344, -38131.69606109811, -20748.20795633888, -66133.84975598453, -64114.01201653624, -77681.90088056336, -58111.78631923036, -58536.73768481466, -55587.357948703524, -55501.70606395079, 0.078, 0.9560000000000001, 0.162, 192.0, 0.0, 0.0, 0.0, 0.0, 0.0, 0.0, 0.0, 0.0, 0.0, 1.6581652291086743E9, 0.0, 2022-07-18 13:27:09.108
48.0, -29174.212118889347, -35818.8046000963, -62647.44700759018, -59650.927442422806, -27287.367258950148, -45982.65689404689, -60279.2796825504, -38062.53976375339, -20744.609325481575, -66135.9061164744, -64114.615513636534, -77685.1865869983, -58103.09149063725, -58545.25369945213, -55587.42500393689, -55499.22502031625, 0.07200000000000001, 0.9520000000000001, 0.17, 192.0, 1.0, 32.0, 14.5, 96.0, 2.5, 40.0, 0.0, 0.0, 0.0, 1.6581652291086795E9, 0.0, 2022-07-18 13:27:09.108
50.0, -29228.705671871387, -35792.22837593894, -62731.28840104204, -59737.674562653854, -27354.46719580498, -46038.670365651895, -60360.215349223065, -38119.08967722532, -20738.619057967553, -66125.82547972507, -64104.19960072036, -77677.74345609469, -58095.64835973363, -58529.74158880015, -55570.2141607063, -55486.350415509994, 0.07200000000000001, 0.9520000000000001, 0.17, 192.0, 0.0, 0.0, 0.0, 0.0, 0.0, 0.0, 0.0, 0.0, 0.0, 1.6581652291086848E9, 0.0, 2022-07-18 13:27:09.108
52.0, -29197.457933122867, -35829.13110603465, -62683.96975803015, -59692.14405919839, -27312.222398784448, -46001.83469078955, -60296.64698799217, -38066.428967288615, -20777.48874157533, -66175.0216692712, -64150.08773208711, -77719.22829380374, -58142.631726578686, -58568.54421717456, -55616.86225138453, -55528.148177641415, 0.07200000000000001, 0.9520000000000001, 0.17, 192.0, 0.0, 0.0, 0.0, 0.0, 0.0, 0.0, 0.0, 0.0, 0.0, 1.65816522910869E9, 0.0, 2022-07-18 13:27:09.108
54.0, -29219.11677350006, -35781.432483367025, -62747.627526238866, -59744.87182436846, -27352.54494578182, -46040.1679325304, -60343.38448564822, -38122.151866215696, -20744.408159781477, -66128.01595068169, -64112.112118257544, -77680.09038926249, -58109.12646164018, -58526.94762074323, -55581.23357072277, -55490.86546788996, 0.07200000000000001, 0.9520000000000001, 0.17, 192.0, 0.0, 0.0, 0.0, 0.0, 0.0, 0.0, 0.0, 0.0, 0.0, 1.6581652291086953E9, 0.0, 2022-07-18 13:27:09.108
56.0, -29198.73198255682, -35827.32061473377, -62708.064938552976, -59701.55414361408, -27330.93080889354, -45999.57716459956, -60303.28545609539, -38046.982949612495, -20783.814285256183, -66169.07610524609, -64159.721333947346, -77722.87162814995, -58158.88144479769, -58567.8736648409, -55638.56579525064, -55536.127750411964, 0.07200000000000001, 0.9520000000000001, 0.17, 192.0, 0.0, 0.0, 0.0, 0.0, 0.0, 0.0, 0.0, 0.0, 0.0, 1.6581652291087005E9, 0.0, 2022-07-18 13:27:09.108
58.0, -29239.16628827647, -35803.13602723313, -62765.2630526141, -59757.053525096606, -27375.835463504252, -46032.501284182224, -60356.95199453259, -38078.789481972395, -20736.71915968885, -66128.32887510405, -64116.11308051504, -77685.6336218874, -58105.03609240486, -58525.85238526492, -55592.76707086171, -55487.78092715513, 0.068, 0.9470000000000001, 0.169, 192.0, 1.0, 0.0, 14.5, 56.0, 2.5, 32.0, 0.0, 0.0, 0.0, 1.6581652291087058E9, 0.0, 2022-07-18 13:27:09.108
60.0, -29231.343177717114, -35835.30018750432, -62741.23492732465, -59738.41217022088, -27372.95208846952, -46038.13392378497, -60352.459293897075, -38089.36185709976, -20805.383718655554, -66202.46961146231, -64186.766944738265, -77757.2039076333, -58183.46836369853, -58599.8813629009, -55678.06132770316, -55576.94203578735, 0.068, 0.9470000000000001, 0.169, 192.0, 0.0, 0.0, 0.0, 0.0, 0.0, 0.0, 0.0, 0.0, 0.0, 1.658165229108711E9, 0.0, 2022-07-18 13:27:09.108
62.0, -29238.87571559855, -35803.47130339996, -62762.33497409046, -59759.64632745342, -27381.669268807087, -46048.14750530094, -60357.33197418833, -38105.47746485203, -20746.844499927105, -66122.62918026796, -64115.040196781185, -77683.44315093079, -58114.98261868747, -58528.15461494382, -55610.4249489814, -55514.46891003477, 0.068, 0.9470000000000001, 0.169, 192.0, 0.0, 0.0, 0.0, 0.0, 0.0, 0.0, 0.0, 0.0, 0.0, 1.6581652291087165E9, 0.0, 2022-07-18 13:27:09.108
64.0, -29213.68529959742, -35811.11560000367, -62715.88804911233, -59726.275172981645, -27351.092082392228, -46037.39631621794, -60341.551642602884, -38093.474578079535, -20799.572265097173, -66197.28400674868, -64177.468619044856, -77750.92306744136, -58182.50723868695, -58600.12723208991, -55675.60263581308, -55593.07999528408, 0.068, 0.9470000000000001, 0.169, 192.0, 0.0, 0.0, 0.0, 0.0, 0.0, 0.0, 0.0, 0.0, 0.0, 1.6581652291087215E9, 0.0, 2022-07-18 13:27:09.108
66.0, -29215.696956598396, -35793.07774222824, -62722.9064968713, -59735.3499812305, -27352.16496612608, -46033.61887140499, -60334.82376752183, -38087.01492393195, -20726.169136305947, -66106.2006480933, -64090.00624299124, -77665.49470013317, -58083.913693894596, -58510.96612345769, -55585.703919613836, -55502.04134011762, 0.068, 0.9470000000000001, 0.169, 192.0, 0.0, 0.0, 0.0, 0.0, 0.0, 0.0, 0.0, 0.0, 0.0, 1.6581652291087267E9, 0.0, 2022-07-18 13:27:09.108
68.0, -29222.22366597935, -35807.584024379736, -62734.484700499146, -59745.63178367994, -27370.381637857157, -46044.92885409938, -60349.12888397323, -38109.67959280963, -20785.043631201224, -66190.53377992318, -64171.679517230936, -77750.11840464096, -58166.97277629052, -58590.87360988541, -55668.45007758738, -55582.86524806801, 0.07, 0.9455, 0.1665, 192.0, 1.0, 32.0, 14.5, 64.0, 2.5, 16.0, 0.0, 0.0, 0.0, 1.6581652291087327E9, 0.0, 2022-07-18 13:27:09.108
70.0, -29226.381090448034, -35818.04464078482, -62738.820938923476, -59739.88738535492, -27356.210631872495, -46029.14852251393, -60341.90927051417, -38102.68349679512, -20730.035988096715, -66114.42609005286, -64112.62620838001, -77691.84740684598, -58105.39372031614, -58519.59389681744, -55607.45216696885, -55513.01604664517, 0.07, 0.9455, 0.1665, 192.0, 0.0, 0.0, 0.0, 0.0, 0.0, 0.0, 0.0, 0.0, 0.0, 1.6581652291087396E9, 0.0, 2022-07-18 13:27:09.108
72.0, -29239.68037839894, -35829.62284441267, -62758.93750893325, -59744.33538250153, -27372.88503323615, -46044.90650235493, -60340.72462805804, -38101.83413050582, -20797.270035418278, -66202.71548065133, -64188.28686336123, -77764.28941062563, -58183.580122420804, -58586.894999372365, -55669.63472004351, -55572.85166655203, 0.07, 0.9455, 0.1665, 192.0, 0.0, 0.0, 0.0, 0.0, 0.0, 0.0, 0.0, 0.0, 0.0, 1.6581652291087449E9, 0.0, 2022-07-18 13:27:09.108
74.0, -29219.832029322628, -35838.65294917261, -62741.6596104693, -59724.732902614225, -27356.389445828136, -46027.762714357705, -60343.228023437034, -38105.20924391857, -20739.379017279032, -66134.96734320729, -64122.796252107175, -77698.32941273802, -58117.46366232201, -58527.193489932244, -55607.76509139122, -55507.29400006461, 0.07, 0.9455, 0.1665, 192.0, 0.0, 0.0, 0.0, 0.0, 0.0, 0.0, 0.0, 0.0, 0.0, 1.65816522910875E9, 0.0, 2022-07-18 13:27:09.108
76.0, -29248.59872443661, -35836.238960771436, -62775.83542774146, -59766.15068508991, -27393.04630673484, -46066.431232265386, -60386.09866930231, -38108.33848814231, -20780.372116610066, -66221.89327739397, -64187.03516567173, -77771.08434094004, -58186.239980010985, -58603.70351120276, -55682.30815914967, -55580.25009396674, 0.07, 0.9455, 0.1665, 192.0, 0.0, 0.0, 0.0, 0.0, 0.0, 0.0, 0.0, 0.0, 0.0, 1.658165229108755E9, 0.0, 2022-07-18 13:27:09.108
78.0, -29241.73673888883, -35875.24275484595, -62741.77136919158, -59751.68910642733, -27364.03374243185, -46047.07462156709, -60341.46223562506, -38106.03625846341, -20737.456767255877, -66175.8710355605, -64135.112063302055, -77724.81622991756, -58131.1205781842, -58559.11178101442, -55627.501681745256, -55529.57868928656, 0.069, 0.9457500000000001, 0.16625, 192.0, 1.0, 16.0, 14.5, 72.0, 2.5, 24.0, 0.0, 0.0, 0.0, 1.6581652291087604E9, 0.0, 2022-07-18 13:27:09.108
80.0, -29261.719198431874, -35848.24184754394, -62763.29609910204, -59786.93780743335, -27393.5156933684, -46078.94820916036, -60371.23475923953, -38159.63574166724, -20780.282709632243, -66238.05358863516, -64186.699889504904, -77784.9647742468, -58176.15934326164, -58623.238935856694, -55674.2391794013, -55589.41430919342, 0.069, 0.9457500000000001, 0.16625, 192.0, 0.0, 0.0, 0.0, 0.0, 0.0, 0.0, 0.0, 0.0, 0.0, 1.6581652291087656E9, 0.0, 2022-07-18 13:27:09.108
82.0, -29244.41894822347, -35888.20676663003, -62719.553735203, -59742.90487085639, -27353.573126026768, -46042.850141865034, -60323.22321214953, -38082.835147718804, -20755.360514564578, -66182.86713157501, -64141.817586638645, -77737.60142774599, -58127.54429907135, -58576.99317657867, -55619.00801885224, -55528.95284044181, 0.069, 0.9457500000000001, 0.16625, 192.0, 0.0, 0.0, 0.0, 0.0, 0.0, 0.0, 0.0, 0.0, 0.0, 1.6581652291087708E9, 0.0, 2022-07-18 13:27:09.108
84.0, -29253.985494850338, -35837.155382294106, -62767.49822705964, -59780.74637421923, -27408.401955175636, -46082.12215687301, -60390.39020423773, -38155.81359336538, -20786.183570168447, -66241.20518460336, -64184.688232503926, -77780.89675675593, -58178.193352007074, -58620.243802099685, -55672.04870844469, -55577.90316079893, 0.069, 0.9457500000000001, 0.16625, 192.0, 0.0, 0.0, 0.0, 0.0, 0.0, 0.0, 0.0, 0.0, 0.0, 1.658165229108776E9, 0.0, 2022-07-18 13:27:09.108
86.0, -29199.670755823943, -35849.65000744462, -62695.07857502444, -59704.593980859994, -27341.346721809714, -46008.92019378188, -60321.16685165964, -38082.34340934079, -20736.67445619994, -66167.80205581214, -64123.69032188539, -77711.96397685575, -58123.968019958505, -58554.86494956791, -55628.06047535664, -55523.72253223926, 0.069, 0.9457500000000001, 0.16625, 192.0, 0.0, 0.0, 0.0, 0.0, 0.0, 0.0, 0.0, 0.0, 0.0, 1.6581652291087813E9, 0.0, 2022-07-18 13:27:09.108
88.0, -29247.101157558103, -35825.197199010516, -62772.99675619564, -59775.694879972325, -27403.12694348418, -46067.615874721516, -60390.546666448914, -38144.25774148199, -20765.128226891546, -66207.69991966485, -64157.17323507944, -77746.40801506139, -58157.33917443028, -58591.298293030064, -55662.41510658445, -55562.43575363586, 0.07150000000000001, 0.9448750000000001, 0.16412500000000002, 192.0, 1.0, 40.0, 14.5, 64.0, 2.5, 8.0, 0.0, 0.0, 0.0, 1.6581652291087866E9, 0.0, 2022-07-18 13:27:09.108
90.0, -29204.141104715003, -35856.154365081115, -62687.635444120824, -59697.93316101231, -27322.88418088963, -46013.569356628585, -60304.157174129155, -38096.64852579219, -20755.516976775765, -66179.2685007177, -64136.564926691644, -77723.72099443925, -58135.99325847546, -58567.113705529424, -55639.728085962306, -55543.41441910439, 0.07150000000000001, 0.9448750000000001, 0.16412500000000002, 192.0, 0.0, 0.0, 0.0, 0.0, 0.0, 0.0, 0.0, 0.0, 0.0, 1.6581652291087918E9, 0.0, 2022-07-18 13:27:09.108
92.0, -29236.41702370847, -35813.52958840485, -62743.291287814536, -59754.97481286226, -27373.68969603654, -46055.34476701555, -60366.33972720382, -38116.16159870167, -20735.48981374381, -66181.5707303966, -64123.69032188539, -77721.35170952699, -58123.56568855831, -58565.61613865091, -55621.22084155332, -55531.09860790952, 0.07150000000000001, 0.9448750000000001, 0.16412500000000002, 192.0, 0.0, 0.0, 0.0, 0.0, 0.0, 0.0, 0.0, 0.0, 0.0, 1.658165229108797E9, 0.0, 2022-07-18 13:27:09.108
94.0, -29218.848552566596, -35872.69465597805, -62687.92601679874, -59706.67269309434, -27341.21261134298, -46022.84533057753, -60310.70623525456, -38097.43083684812, -20746.86685167156, -66190.69024213437, -64133.81566212364, -77728.5489712416, -58132.908717740625, -58574.13215328839, -55626.652315455955, -55529.89161370893, 0.07150000000000001, 0.9448750000000001, 0.16412500000000002, 192.0, 0.0, 0.0, 0.0, 0.0, 0.0, 0.0, 0.0, 0.0, 0.0, 1.6581652291088023E9, 0.0, 2022-07-18 13:27:09.108
96.0, -29247.5034889583, -35826.04656529982, -62761.44090431224, -59773.12442935997, -27400.914120783105, -46068.46524101082, -60374.00637555199, -38159.479279456056, -20751.806587196184, -66206.58233244209, -64143.918650617445, -77740.61891324747, -58140.68712481107, -58589.621912195915, -55633.11196960354, -55538.295869624126, 0.07150000000000001, 0.9448750000000001, 0.16412500000000002, 192.0, 0.0, 0.0, 0.0, 0.0, 0.0, 0.0, 0.0, 0.0, 0.0, 1.6581652291088073E9, 0.0, 2022-07-18 13:27:09.108
98.0, -29222.73775610182, -35870.59359199925, -62706.92499958575, -59717.602696132984, -27351.628524259155, -46029.61790914749, -60339.33881990181, -38107.6455840642, -20761.663706500975, -66205.35298649705, -64154.31221178916, -77744.5975237605, -58152.08651448328, -58596.86387739943, -55656.67070825943, -55548.46591335129, 0.07075000000000001, 0.9454375000000002, 0.1650625, 192.0, 1.0, 24.0, 14.5, 72.0, 2.5, 24.0, 0.0, 0.0, 0.0, 1.6581652291088128E9, 0.0, 2022-07-18 13:27:09.108
100.0, -29252.64439018302, -35825.28660598834, -62768.28053811557, -59772.766801448684, -27394.27565267988, -46061.58090371858, -60376.085087786334, -38152.72905263055, -20750.979572651337, -66184.74467810926, -64145.17034830694, -77733.84633467751, -58133.4228078631, -58570.08648754198, -55647.32767907711, -55535.52425331167, 0.07075000000000001, 0.9454375000000002, 0.1650625, 192.0, 0.0, 0.0, 0.0, 0.0, 0.0, 0.0, 0.0, 0.0, 0.0, 1.6581652291088178E9, 0.0, 2022-07-18 13:27:09.108
102.0, -29221.821334579152, -35858.99303662694, -62709.6519124093, -59720.262553723165, -27349.862736447187, -46031.38369695946, -60316.07065392383, -38106.17036893015, -20773.219558384368, -66208.39282374296, -64169.89137767451, -77753.4488145648, -58159.35083143126, -58594.78516516509, -55666.55017930868, -55565.72146007079, 0.07075000000000001, 0.9454375000000002, 0.1650625, 192.0, 0.0, 0.0, 0.0, 0.0, 0.0, 0.0, 0.0, 0.0, 0.0, 1.6581652291088243E9, 0.0, 2022-07-18 13:27:09.108
104.0, -29245.245962768313, -35821.9561960645, -62763.87724445787, -59772.94561540433, -27400.154161471626, -46064.44192700886, -60391.261922271486, -38161.155660290206, -20737.277953300232, -66174.50757914872, -64131.17815627792, -77716.09904957999, -58124.660924036616, -58562.44219093826, -55630.094484102076, -55536.686544023345, 0.07075000000000001, 0.9454375000000002, 0.1650625, 192.0, 0.0, 0.0, 0.0, 0.0, 0.0, 0.0, 0.0, 0.0, 0.0, 1.6581652291088295E9, 0.0, 2022-07-18 13:27:09.108
106.0, -29206.845665794095, -35834.87550435967, -62698.9007233263, -59716.283943210125, -27346.59938175671, -46031.36134521501, -60330.711046542056, -38122.97888076054, -20769.53152054924, -66219.74750992627, -64164.88458691652, -77751.03482616364, -58169.61028213624, -58611.52662176212, -55677.03314745822, -55585.413346935915, 0.07075000000000001, 0.9454375000000002, 0.1650625, 192.0, 0.0, 0.0, 0.0, 0.0, 0.0, 0.0, 0.0, 0.0, 0.0, 1.6581652291088345E9, 0.0, 2022-07-18 13:27:09.108
108.0, -29238.316921987167, -35814.69187911652, -62747.02402913857, -59759.84749315352, -27382.004544973915, -46057.64699669445, -60374.00637555199, -38169.7610819055, -20718.636598424506, -66150.56886083708, -64100.556266374144, -77689.03108704461, -58099.93989466905, -58545.45486515223, -55601.66306515492, -55513.17250885636, 0.067375, 0.94471875, 0.16653125000000002, 192.0, 1.0, 0.0, 14.5, 64.0, 2.5, 32.0, 0.0, 0.0, 0.0, 1.6581652291088395E9, 0.0, 2022-07-18 13:27:09.108
110.0, -29217.149819987993, -35834.920207848576, -62711.10477579889, -59725.55991715907, -27369.487568078945, -46045.10766805502, -60345.93258451612, -38134.66884311067, -20789.156352181002, -66231.90685890995, -64178.876778945545, -77767.59746880502, -58178.908607829646, -58622.25545910066, -55680.45296435988, -55593.303512728635, 0.067375, 0.94471875, 0.16653125000000002, 192.0, 0.0, 0.0, 0.0, 0.0, 0.0, 0.0, 0.0, 0.0, 0.0, 1.6581652291088448E9, 0.0, 2022-07-18 13:27:09.108
112.0, -29201.503598869276, -35790.77551254934, -62714.36813048937, -59724.24116423621, -27358.7587307404, -46027.51684516869, -60347.16193046117, -38112.40650563318, -20702.297473227678, -66129.66997977138, -64080.55145508665, -77668.333371679, -58084.45013576152, -58518.76688227259, -55578.774878832686, -55483.26587477516, 0.067375, 0.94471875, 0.16653125000000002, 192.0, 0.0, 0.0, 0.0, 0.0, 0.0, 0.0, 0.0, 0.0, 0.0, 1.65816522910885E9, 0.0, 2022-07-18 13:27:09.108
114.0, -29220.010843278273, -35830.87454210217, -62726.23690679514, -59736.95930683128, -27374.38260011466, -46048.12515355649, -60355.72264858754, -38129.17031397466, -20772.705468261895, -66226.18481232939, -64168.14794160699, -77754.2087738763, -58173.36537520473, -58604.17289783632, -55664.87379847453, -55570.661195595414, 0.067375, 0.94471875, 0.16653125000000002, 192.0, 0.0, 0.0, 0.0, 0.0, 0.0, 0.0, 0.0, 0.0, 0.0, 1.6581652291088552E9, 0.0, 2022-07-18 13:27:09.108
116.0, -29206.82331404964, -35809.86390231418, -62719.710197414184, -59723.92823981384, -27350.533288780844, -46026.60042364603, -60335.36020938876, -38114.57462484534, -20700.598740649075, -66142.2093084108, -64097.11409772803, -77679.19631948428, -58088.42874627456, -58529.89805101133, -55585.45805042482, -55491.580723712534, 0.067375, 0.94471875, 0.16653125000000002, 192.0, 0.0, 0.0, 0.0, 0.0, 0.0, 0.0, 0.0, 0.0, 0.0, 1.6581652291088605E9, 0.0, 2022-07-18 13:27:09.108
118.0, -29241.468517955367, -35845.269065531385, -62751.85200594092, -59753.63370819494, -27383.010373474404, -46066.29712179865, -60357.33197418833, -38151.47735494105, -20779.366288109577, -66229.51522225323, -64180.821380713154, -77763.9541344588, -58171.89016007068, -58612.2865810736, -55665.70081301938, -55578.26078871021, 0.06668750000000001, 0.9443593750000001, 0.16526562500000003, 192.0, 1.0, 8.0, 14.5, 64.0, 2.5, 16.0, 0.0, 0.0, 0.0, 1.6581652291088665E9, 0.0, 2022-07-18 13:27:09.108
120.0, -29231.477288183843, -35834.003786325906, -62729.20968880769, -59726.16341425937, -27349.348646324714, -46034.73645862776, -60329.01231396345, -38116.22865393504, -20742.48590975832, -66166.97504126729, -64128.607705665556, -77708.70062216528, -58116.21196463251, -58552.80858907802, -55612.615419938025, -55520.0568461486, 0.06668750000000001, 0.9443593750000001, 0.16526562500000003, 192.0, 0.0, 0.0, 0.0, 0.0, 0.0, 0.0, 0.0, 0.0, 0.0, 1.658165229589038E9, 0.0, 2022-07-18 13:27:09.589
122.0, -29234.293607985215, -35819.676318130056, -62744.92296515977, -59744.55889994609, -27367.408855844602, -46055.90356062693, -60346.91606127215, -38128.47740989654, -20783.34489862262, -66223.23438206129, -64181.46958130236, -77761.36133210198, -58174.25944498294, -58606.11749960393, -55661.29751936168, -55574.371585174995, 0.06668750000000001, 0.9443593750000001, 0.16526562500000003, 192.0, 0.0, 0.0, 0.0, 0.0, 0.0, 0.0, 0.0, 0.0, 0.0, 1.6581652295890965E9, 0.0, 2022-07-18 13:27:09.589
124.0, -29219.92143630045, -35831.67920490255, -62715.44101422322, -59719.16731824486, -27346.17469861206, -46023.53823465565, -60332.946220987586, -38102.10235143928, -20726.973799106338, -66147.55137533562, -64112.64856012447, -77690.39454345638, -58106.51130753891, -58538.61523134891, -55597.84091685306, -55500.78964242812, 0.06668750000000001, 0.9443593750000001, 0.16526562500000003, 192.0, 0.0, 0.0, 0.0, 0.0, 0.0, 0.0, 0.0, 0.0, 0.0, 1.6581652295891361E9, 0.0, 2022-07-18 13:27:09.589
126.0, -29237.668721397964, -35814.53541690534, -62750.57795650697, -59753.767818661676, -27387.212501432005, -46063.83842990857, -60352.48164564153, -38146.336453716336, -20776.818189241672, -66224.82135591762, -64178.586206267624, -77760.89194546842, -58177.27693048441, -58609.336150805495, -55670.05940318816, -55573.09753574104, 0.06668750000000001, 0.9443593750000001, 0.16526562500000003, 192.0, 0.0, 0.0, 0.0, 0.0, 0.0, 0.0, 0.0, 0.0, 0.0, 1.658165229589185E9, 0.0, 2022-07-18 13:27:09.589
128.0, -29198.441409878902, -35821.24094024193, -62688.73067959913, -59692.501687109674, -27332.003692627397, -46008.5625658706, -60299.55271477136, -38087.70782801006, -20720.82706938113, -66142.99161946675, -64105.38424317649, -77685.72302886522, -58105.59488601624, -58532.28968766805, -55601.75247213274, -55495.11229933647, 0.06668750000000001, 0.9443593750000001, 0.16526562500000003, 192.0, 0.0, 0.0, 0.0, 0.0, 0.0, 0.0, 0.0, 0.0, 0.0, 1.658165229589216E9, 0.0, 2022-07-18 13:27:09.589
130.0, -29233.73481437383, -35806.35467843469, -62744.23006108166, -59750.035077337634, -27396.913158525607, -46059.23397055078, -60369.55837840538, -38151.94674157462, -20764.748247235806, -66204.5259719522, -64157.50851124627, -77740.17187835835, -58161.09426749877, -58588.90665637334, -55656.04485941469, -55548.980003473764, 0.068, 0.9460000000000001, 0.154, 192.0, 1.0, 16.0, 14.5, 72.0, 2.0, 104.0, 0.0, 0.0, 0.0, 1.658165229589223E9, 0.0, 2022-07-18 13:27:09.589
132.0, -29189.433656863413, -35818.58108265175, -62670.44695263469, -59681.90696023786, -27328.56152398128, -45998.884260521445, -60289.85205767776, -38071.8380894468, -20721.29645601469, -66138.96830546479, -64097.53878087268, -77680.22449972921, -58101.95155167003, -58530.63565857836, -55598.04208255316, -55493.905305135886, 0.068, 0.9460000000000001, 0.154, 192.0, 0.0, 0.0, 0.0, 0.0, 0.0, 0.0, 0.0, 0.0, 0.0, 1.658165229589229E9, 0.0, 2022-07-18 13:27:09.589
134.0, -29241.73673888883, -35808.43339066904, -62764.27957585807, -59774.085554371544, -27411.6206063772, -46078.97056090481, -60401.81194565439, -38169.045826082925, -20754.53350001973, -66193.01482355772, -64139.82828138212, -77726.87259040745, -58151.55007261635, -58579.697737657756, -55644.891338931484, -55544.84493074953, 0.068, 0.9460000000000001, 0.154, 192.0, 0.0, 0.0, 0.0, 0.0, 0.0, 0.0, 0.0, 0.0, 0.0, 1.6581652295892422E9, 0.0, 2022-07-18 13:27:09.589
136.0, -29198.128485456527, -35835.121373548674, -62689.46828716616, -59706.65034134989, -27351.427358559056, -46026.24279573474, -60333.10268319878, -38130.69023259762, -20741.547136491197, -66172.63003261448, -64123.35504571856, -77709.97467159924, -58139.681296310584, -58573.08162129899, -55640.62215574052, -55546.85658775051, 0.068, 0.9460000000000001, 0.154, 192.0, 0.0, 0.0, 0.0, 0.0, 0.0, 0.0, 0.0, 0.0, 0.0, 1.6581652295892491E9, 0.0, 2022-07-18 13:27:09.589
138.0, -29233.73481437383, -35791.98250674993, -62757.819921710485, -59759.892196642424, -27407.66434760861, -46077.65180798195, -60392.06658507188, -38173.69498892963, -20741.21186032437, -66190.66789038992, -64127.51247018725, -77718.26716879215, -58144.285755668374, -58583.49753421516, -55650.59103376759, -55558.010108233706, 0.068, 0.9460000000000001, 0.154, 192.0, 0.0, 0.0, 0.0, 0.0, 0.0, 0.0, 0.0, 0.0, 0.0, 1.6581652295892565E9, 0.0, 2022-07-18 13:27:09.589
140.0, -29208.656157094978, -35836.730699149455, -62690.74233660011, -59695.027434233125, -27347.47109979047, -46024.275842222676, -60315.55656380136, -38095.01684844695, -20750.085502873124, -66173.47939890379, -64126.61840040903, -77709.32647101003, -58142.49761611195, -58569.50534218614, -55644.04197264218, -55543.77204701568, 0.074, 0.9440000000000001, 0.156, 192.0, 1.0, 40.0, 14.5, 64.0, 2.0, 112.0, 0.0, 0.0, 0.0, 1.658165229589264E9, 0.0, 2022-07-18 13:27:09.589
142.0, -29245.380073235046, -35797.52573937485, -62761.41855256779, -59764.25078681121, -27402.47874289498, -46074.321398058106, -60380.913064588676, -38144.88359032674, -20748.096197616604, -66180.18492224037, -64131.535784189204, -77714.19915130129, -58139.72599979949, -58568.54421717456, -55639.21399583984, -55536.127750411964, 0.074, 0.9440000000000001, 0.156, 192.0, 0.0, 0.0, 0.0, 0.0, 0.0, 0.0, 0.0, 0.0, 0.0, 1.658165229589271E9, 0.0, 2022-07-18 13:27:09.589
144.0, -29212.21008446337, -35835.814277626785, -62683.9474062857, -59699.02839649063, -27327.287474547324, -46020.990135787746, -60297.25048509247, -38120.00609874798, -20766.581090281143, -66191.02551830119, -64152.27820304373, -77730.89590440941, -58151.974755761, -58587.878476128404, -55650.278109345214, -55550.92460524137, 0.074, 0.9440000000000001, 0.156, 192.0, 0.0, 0.0, 0.0, 0.0, 0.0, 0.0, 0.0, 0.0, 0.0, 1.658165229589278E9, 0.0, 2022-07-18 13:27:09.589
146.0, -29250.655084926497, -35799.403285909095, -62763.92194794679, -59772.07389737057, -27388.978289243973, -46061.960883374326, -60385.56222743538, -38137.26164546748, -20740.429549268432, -66170.26074770221, -64126.75251087577, -77707.18070354233, -58127.07491243779, -58562.93392931628, -55616.728140917796, -55522.8061107166, 0.074, 0.9440000000000001, 0.156, 192.0, 0.0, 0.0, 0.0, 0.0, 0.0, 0.0, 0.0, 0.0, 0.0, 1.6581652295892851E9, 0.0, 2022-07-18 13:27:09.589
148.0, -29206.21981694935, -35826.91828333357, -62695.257388980084, -59701.82236454754, -27338.284532819336, -46020.45369392082, -60302.681958995105, -38099.57660431583, -20771.498474061307, -66193.26069274673, -64156.48033100132, -77730.58297998703, -58158.72498258651, -58584.57041794901, -55652.736801235296, -55553.27153840918, 0.074, 0.9440000000000001, 0.156, 192.0, 0.0, 0.0, 0.0, 0.0, 0.0, 0.0, 0.0, 0.0, 0.0, 1.6581652295892923E9, 0.0, 2022-07-18 13:27:09.589
150.0, -29242.228477266846, -35794.776474806844, -62760.25626185611, -59766.262443812186, -27391.772257300887, -46056.95409261633, -60359.880073056236, -38151.96909331907, -20739.669589956953, -66156.08974171754, -64119.30937997215, -77697.14477028188, -58124.75033101444, -58546.706562841726, -55613.10715831604, -55516.838194947035, 0.074, 0.9460000000000001, 0.154, 192.0, 1.0, 40.0, 14.5, 72.0, 2.0, 104.0, 0.0, 0.0, 0.0, 1.6581652295892992E9, 0.0, 2022-07-18 13:27:09.589
152.0, -29229.800907349698, -35847.079556832265, -62718.23498228014, -59733.18186201833, -27362.200899386517, -46048.61689193451, -60325.99482846199, -38141.30731121389, -20785.1553899235, -66212.21497204482, -64170.38311605253, -77750.856012208, -58171.75604960395, -58602.16124083534, -55665.85727523056, -55577.99256777675, 0.074, 0.9460000000000001, 0.154, 192.0, 0.0, 0.0, 0.0, 0.0, 0.0, 0.0, 0.0, 0.0, 0.0, 1.6581652295893064E9, 0.0, 2022-07-18 13:27:09.589
154.0, -29249.55984944819, -35805.59471912321, -62756.501168787625, -59766.24009206773, -27381.691620551544, -46068.085261355074, -60365.266843469966, -38136.7028518561, -20747.29153481621, -66170.14898897994, -64129.1888510214, -77709.97467159924, -58128.50542408293, -58560.765810104116, -55620.19266130837, -55528.639916019434, 0.074, 0.9460000000000001, 0.154, 192.0, 0.0, 0.0, 0.0, 0.0, 0.0, 0.0, 0.0, 0.0, 0.0, 1.6581652295893135E9, 0.0, 2022-07-18 13:27:09.589
156.0, -29236.014692308272, -35844.82203064227, -62718.74907240261, -59733.830062607536, -27357.149405139615, -46059.34572927305, -60329.92873548612, -38144.19068624863, -20785.870645746072, -66215.85830639105, -64178.116819634066, -77755.66163726589, -58173.07480252681, -58618.20979335425, -55666.97486245333, -55581.14416374495, 0.074, 0.9460000000000001, 0.154, 192.0, 0.0, 0.0, 0.0, 0.0, 0.0, 0.0, 0.0, 0.0, 0.0, 1.658165229589321E9, 0.0, 2022-07-18 13:27:09.589
158.0, -29249.53749770373, -35816.390611695126, -62746.442883782736, -59752.136141316434, -27380.730495539963, -46059.23397055078, -60363.67986961364, -38135.07117451086, -20752.72300871885, -66165.1198464775, -64135.55909819116, -77706.51015120867, -58128.93010722758, -58564.453847939236, -55613.442434482866, -55526.09181715153, 0.074, 0.9460000000000001, 0.154, 192.0, 0.0, 0.0, 0.0, 0.0, 0.0, 0.0, 0.0, 0.0, 0.0, 1.658165229589328E9, 0.0, 2022-07-18 13:27:09.589
160.0, -29211.45012515189, -35813.79780933831, -62702.097022783404, -59708.01379776166, -27350.68975099203, -46029.841426592044, -60329.6381628082, -38133.21597972107, -20788.754020780805, -66211.34325401107, -64175.14403762151, -77745.93862842783, -58180.20500900805, -58601.96007513524, -55659.2858623607, -55563.28511992516, 0.07200000000000001, 0.9480000000000001, 0.162, 192.0, 1.0, 32.0, 14.5, 80.0, 2.5, 8.0, 0.0, 0.0, 0.0, 1.6581652295893352E9, 0.0, 2022-07-18 13:27:09.589
162.0, -29211.472476896346, -35793.390666650615, -62708.15434553079, -59711.65713210787, -27346.822899201263, -46021.615984632495, -60312.807299233355, -38107.33265964183, -20721.207049036868, -66127.8594884705, -64090.76620230272, -77663.90772627684, -58093.0108538879, -58516.66581829379, -55574.12571598598, -55482.77413639714, 0.07200000000000001, 0.9480000000000001, 0.162, 192.0, 0.0, 0.0, 0.0, 0.0, 0.0, 0.0, 0.0, 0.0, 0.0, 1.6581652295893424E9, 0.0, 2022-07-18 13:27:09.589
164.0, -29216.568674632155, -35810.17682673655, -62701.40411870529, -59710.98657977422, -27357.88701270664, -46037.03868830665, -60352.7945700639, -38120.92252027065, -20765.552910036196, -66201.32967249509, -64155.07217110064, -77733.95809339978, -58159.01555526442, -58585.19626679376, -55646.523016276726, -55552.64568956444, 0.07200000000000001, 0.9480000000000001, 0.162, 192.0, 0.0, 0.0, 0.0, 0.0, 0.0, 0.0, 0.0, 0.0, 0.0, 1.6581652295893497E9, 0.0, 2022-07-18 13:27:09.589
166.0, -29208.58910186161, -35802.979565021946, -62684.95323478618, -59703.09641398149, -27335.89289616262, -46018.598499131025, -60287.75099369896, -38085.87498496473, -20709.941769831392, -66120.10343314451, -64077.779838774186, -77658.72212156322, -58075.39767925712, -58517.64929504983, -55568.11309672751, -55478.236732272715, 0.07200000000000001, 0.9480000000000001, 0.162, 192.0, 0.0, 0.0, 0.0, 0.0, 0.0, 0.0, 0.0, 0.0, 0.0, 1.658165229589359E9, 0.0, 2022-07-18 13:27:09.589
168.0, -29219.96613978936, -35805.23709121193, -62703.3487204729, -59720.10609151198, -27362.60323078671, -46051.656729180424, -60329.884031997215, -38129.86321805277, -20770.87262521656, -66199.34036723858, -64147.003191352276, -77727.07375610755, -58156.19923546306, -58592.79585990857, -55633.44724577037, -55553.69622155383, 0.07200000000000001, 0.9480000000000001, 0.162, 192.0, 0.0, 0.0, 0.0, 0.0, 0.0, 0.0, 0.0, 0.0, 0.0, 1.658165229589367E9, 0.0, 2022-07-18 13:27:09.589
170.0, -29209.50552338428, -35808.075762757755, -62681.66752835125, -59693.39575688789, -27334.417681028568, -46019.67138286488, -60310.97445618802, -38098.97310721554, -20733.075825342636, -66121.84686921202, -64090.565036602624, -77658.31979016302, -58105.05844414931, -58523.99719047514, -55579.534838144165, -55490.060805089575, 0.068, 0.9500000000000001, 0.162, 192.0, 1.0, 16.0, 14.5, 88.0, 2.5, 8.0, 0.0, 0.0, 0.0, 1.658165229589374E9, 0.0, 2022-07-18 13:27:09.589
172.0, -29206.197465204892, -35792.206024194486, -62705.539191429525, -59719.72611185624, -27351.203841114504, -46045.0182610772, -60328.25235465197, -38128.09743024081, -20772.571357795165, -66186.91279732142, -64146.66791518545, -77718.15541006987, -58161.27308145441, -58582.69287141477, -55632.597879481065, -55550.63403256346, 0.068, 0.9500000000000001, 0.162, 192.0, 0.0, 0.0, 0.0, 0.0, 0.0, 0.0, 0.0, 0.0, 0.0, 1.6581652295893807E9, 0.0, 2022-07-18 13:27:09.589
174.0, -29172.736903755296, -35797.77160856385, -62660.70159205217, -59674.687346778795, -27301.53826493481, -45996.96201049829, -60274.854037148245, -38085.89733670918, -20702.94567381688, -66103.6525492254, -64072.03544044917, -77645.53459233459, -58072.13432456664, -58499.365568085384, -55553.00331747572, -55469.430144957325, 0.068, 0.9500000000000001, 0.162, 192.0, 0.0, 0.0, 0.0, 0.0, 0.0, 0.0, 0.0, 0.0, 0.0, 1.6581652295893884E9, 0.0, 2022-07-18 13:27:09.589
176.0, -29219.854381067085, -35789.99320149341, -62730.640200452835, -59741.13908304442, -27366.93946921104, -46053.37781350349, -60345.48554962702, -38142.31313971438, -20741.01069462427, -66178.55324489513, -64135.20147027988, -77714.22150304574, -58127.812520004816, -58560.54229265956, -55612.5260129602, -55538.8099597466, 0.068, 0.9500000000000001, 0.162, 192.0, 0.0, 0.0, 0.0, 0.0, 0.0, 0.0, 0.0, 0.0, 0.0, 1.6581652295893953E9, 0.0, 2022-07-18 13:27:09.589
178.0, -29205.63867159351, -35829.08640254574, -62699.235999493125, -59712.372387930445, -27337.12224210766, -46024.70052536733, -60311.063863165844, -38122.68830808262, -20729.85717414107, -66140.42116885439, -64108.178211233404, -77681.34208695199, -58105.79605171634, -58533.65314407983, -55585.94978880284, -55506.28817156413, 0.068, 0.9500000000000001, 0.162, 192.0, 0.0, 0.0, 0.0, 0.0, 0.0, 0.0, 0.0, 0.0, 0.0, 1.658165229589403E9, 0.0, 2022-07-18 13:27:09.589
180.0, -29223.229494479838, -35784.449968868495, -62746.286421571545, -59758.34992627501, -27390.542911355846, -46065.26894155371, -60367.837294082325, -38159.747500389516, -20765.217633869368, -66196.9710823263, -64155.96624087886, -77732.03584337662, -58163.664718111126, -58586.470316227715, -55640.91272841844, -55561.295814668636, 0.074, 0.9520000000000001, 0.162, 192.0, 1.0, 40.0, 14.5, 96.0, 2.5, 8.0, 0.0, 0.0, 0.0, 1.6581652295894105E9, 0.0, 2022-07-18 13:27:09.589
182.0, -29184.851549250074, -35808.209873224485, -62673.48678988061, -59696.25678017817, -27331.73547169393, -46023.73940035575, -60300.156211871654, -38123.35886041628, -20722.883429871017, -66128.03830242614, -64099.818658807126, -77670.52384263562, -58115.630819276674, -58530.50154811163, -55591.560076661124, -55511.69729372231, 0.074, 0.9520000000000001, 0.162, 192.0, 0.0, 0.0, 0.0, 0.0, 0.0, 0.0, 0.0, 0.0, 0.0, 1.658165229589418E9, 0.0, 2022-07-18 13:27:09.589
184.0, -29205.77278206024, -35764.087529669705, -62717.29620901302, -59745.60943193549, -27376.148387926627, -46059.39043276196, -60360.66238411217, -38143.54248565942, -20745.39163653751, -66173.99348902625, -64129.47942369931, -77706.21957853074, -58144.97865974649, -58568.16423751882, -55622.114911331526, -55547.28127089516, 0.074, 0.9520000000000001, 0.162, 192.0, 0.0, 0.0, 0.0, 0.0, 0.0, 0.0, 0.0, 0.0, 0.0, 1.658165229589425E9, 0.0, 2022-07-18 13:27:09.589
186.0, -29171.4852060658, -35792.60835559468, -62637.54518479648, -59670.46286707674, -27303.102887046683, -45986.54609758212, -60287.48277276549, -38044.94894086706, -20708.198333763878, -66131.54752630563, -64088.195751690364, -77662.83484254299, -58096.3636155562, -58523.19252767474, -55577.299663698635, -55494.44174700281, 0.074, 0.9520000000000001, 0.162, 192.0, 0.0, 0.0, 0.0, 0.0, 0.0, 0.0, 0.0, 0.0, 0.0, 1.658165229589432E9, 0.0, 2022-07-18 13:27:09.589
188.0, -29203.91758727045, -35751.97288417493, -62724.24760153861, -59744.2012720348, -27369.822844245773, -46044.325356999085, -60360.349459689794, -38129.907921541686, -20720.692958914395, -66156.33561090656, -64106.233609465795, -77681.85617707446, -58103.337359826255, -58543.08558023997, -55594.73402437378, -55519.16277637038, 0.074, 0.9520000000000001, 0.162, 192.0, 0.0, 0.0, 0.0, 0.0, 0.0, 0.0, 0.0, 0.0, 0.0, 1.6581652295894392E9, 0.0, 2022-07-18 13:27:09.589
190.0, -29152.262705834237, -35773.72113152994, -62652.02911520352, -59660.96337568324, -27301.02417481234, -45978.70063527831, -60270.249577790455, -38051.07331884782, -20713.227476266322, -66133.00038969523, -64098.052870995154, -77665.38294141089, -58100.5657435138, -58530.970934745186, -55595.06930054061, -55514.35715131249, 0.068, 0.9480000000000001, 0.168, 192.0, 1.0, 16.0, 14.5, 80.0, 2.5, 32.0, 0.0, 0.0, 0.0, 1.6581652295894463E9, 0.0, 2022-07-18 13:27:09.589
192.0, -29189.947746985883, -35733.465639765935, -62741.90547965831, -59734.187690518826, -27368.593498300732, -46033.149484771435, -60349.97825026253, -38099.46484559355, -20695.860170824548, -66119.49993604422, -64083.83716152158, -77649.26733365862, -58090.39569978663, -58508.9097629678, -55583.98283529077, -55498.867392404965, 0.068, 0.9480000000000001, 0.168, 192.0, 0.0, 0.0, 0.0, 0.0, 0.0, 0.0, 0.0, 0.0, 0.0, 1.6581652295894532E9, 0.0, 2022-07-18 13:27:09.589
194.0, -29152.642685489976, -35774.52579433034, -62680.7958103175, -59680.275282892624, -27317.519762220356, -45997.565507598585, -60265.51100796593, -38056.12481309471, -20723.10694731557, -66147.55137533562, -64107.574714133116, -77676.96114503875, -58128.21485140501, -58537.25177493713, -55625.64648695547, -55533.44554107732, 0.068, 0.9480000000000001, 0.168, 192.0, 0.0, 0.0, 0.0, 0.0, 0.0, 0.0, 0.0, 0.0, 0.0, 1.6581652295894604E9, 0.0, 2022-07-18 13:27:09.589
196.0, -29192.987584231807, -35739.768831702335, -62743.11247385889, -59749.900966870904, -27369.733437267954, -46035.58582491706, -60340.85873852477, -38100.26950839395, -20694.831990579605, -66130.96638094979, -64078.09276319656, -77659.4820808747, -58101.25864759191, -58514.49769908163, -55598.80204186464, -55506.98107564224, 0.068, 0.9480000000000001, 0.168, 192.0, 0.0, 0.0, 0.0, 0.0, 0.0, 0.0, 0.0, 0.0, 0.0, 1.6581652295894675E9, 0.0, 2022-07-18 13:27:09.589
198.0, -29157.180089614405, -35772.335323373714, -62672.033926491014, -59691.27234116464, -27309.40607898308, -45989.74239703923, -60272.55180746935, -38059.54462999638, -20725.3421217611, -66168.74082907925, -64118.10238577156, -77699.35759298297, -58132.774607273896, -58553.81441757851, -55633.96133589284, -55542.1627214149, 0.068, 0.9480000000000001, 0.168, 192.0, 0.0, 0.0, 0.0, 0.0, 0.0, 0.0, 0.0, 0.0, 0.0, 1.658165229589476E9, 0.0, 2022-07-18 13:27:09.589
200.0, -29200.274252924235, -35742.51809627034, -62726.12514807286, -59741.18378653334, -27350.198012614015, -46020.47604566527, -60319.46811908104, -38059.05289161836, -20690.67456611092, -66118.24823835472, -64075.81288526212, -77653.26829591612, -58079.37628977017, -58504.886448965844, -55573.27634969668, -55486.81980214355, 0.067, 0.9470000000000001, 0.165, 192.0, 1.0, 8.0, 14.5, 72.0, 2.5, 8.0, 0.0, 0.0, 0.0, 1.6581652295894835E9, 0.0, 2022-07-18 13:27:09.589
202.0, -29173.206290388858, -35773.92229723004, -62684.908531297275, -59700.23539069121, -27320.201971554994, -46001.477062878264, -60287.54982799886, -38077.314266838344, -20739.28961030121, -66172.0712390031, -64131.49108070029, -77705.95135759728, -58130.941764228555, -58559.2235397367, -55633.60370798156, -55546.834236006056, 0.067, 0.9470000000000001, 0.165, 192.0, 0.0, 0.0, 0.0, 0.0, 0.0, 0.0, 0.0, 0.0, 0.0, 1.6581652295894904E9, 0.0, 2022-07-18 13:27:09.589
204.0, -29194.954537743874, -35744.6862154825, -62732.69656094272, -59734.72413238575, -27354.511899293888, -46013.68111535086, -60337.79654953439, -38055.6330747167, -20684.930167785904, -66104.27839807015, -64069.80026600364, -77642.11477543293, -58074.794182156824, -58493.9564459272, -55572.29287294065, -55481.7459561522, 0.067, 0.9470000000000001, 0.165, 192.0, 0.0, 0.0, 0.0, 0.0, 0.0, 0.0, 0.0, 0.0, 0.0, 1.6581652295894976E9, 0.0, 2022-07-18 13:27:09.589
206.0, -29183.33163062711, -35772.51413732936, -62696.576141902944, -59697.32966391202, -27335.825840929254, -45997.18552794284, -60297.004615903454, -38044.85953388924, -20742.01652312476, -66176.18395998287, -64138.241307525794, -77707.62773843143, -58148.89021502617, -58557.055420524535, -55649.18287386691, -55542.43094234836, 0.067, 0.9470000000000001, 0.165, 192.0, 0.0, 0.0, 0.0, 0.0, 0.0, 0.0, 0.0, 0.0, 0.0, 1.6581652295895045E9, 0.0, 2022-07-18 13:27:09.589
208.0, -29194.976889488327, -35753.69396849799, -62711.14947928781, -59719.54729790059, -27346.733492223444, -46006.88618503645, -60315.333046356805, -38058.47174626252, -20681.19742646187, -66108.27936032765, -64068.45916133633, -77642.53945857758, -58079.286882792345, -58494.537591283035, -55572.18111421837, -55473.7440316372, 0.067, 0.9470000000000001, 0.165, 192.0, 0.0, 0.0, 0.0, 0.0, 0.0, 0.0, 0.0, 0.0, 0.0, 1.6581652295895119E9, 0.0, 2022-07-18 13:27:09.589
210.0, -29180.44825559238, -35772.17886116253, -62685.06499350846, -59702.38115815892, -27341.011445642886, -46011.55769962761, -60304.783022973905, -38062.718577709034, -20731.935886375417, -66181.66013737442, -64130.97699057782, -77712.16514255585, -58136.060313708826, -58567.56074041853, -55637.850539428066, -55548.68943079584, 0.0695, 0.9495, 0.1655, 192.0, 1.0, 32.0, 14.5, 96.0, 2.5, 24.0, 0.0, 0.0, 0.0, 1.658165229589519E9, 0.0, 2022-07-18 13:27:09.589
212.0, -29180.805883503665, -35760.4888988124, -62689.35652844388, -59699.69894882428, -27338.619808986165, -46000.33712391104, -60296.5799327588, -38048.54757172437, -20680.057487494647, -66104.9042469149, -64063.7205915118, -77642.58416206649, -58066.904016364104, -58492.41417555978, -55565.14031471495, -55474.41458397086, 0.0695, 0.9495, 0.1655, 192.0, 0.0, 0.0, 0.0, 0.0, 0.0, 0.0, 0.0, 0.0, 0.0, 1.6581652295895262E9, 0.0, 2022-07-18 13:27:09.589
214.0, -29200.184845946416, -35781.7454077894, -62705.87446759635, -59711.63478036342, -27356.925887695063, -46027.15921725741, -60322.77617726042, -38078.54361278339, -20732.58408696462, -66179.96140479582, -64131.759301633756, -77708.85708437648, -58136.73086604248, -58560.5199409151, -55632.82139692562, -55539.972250458275, 0.0695, 0.9495, 0.1655, 192.0, 0.0, 0.0, 0.0, 0.0, 0.0, 0.0, 0.0, 0.0, 0.0, 1.6581652295895336E9, 0.0, 2022-07-18 13:27:09.589
216.0, -29197.189712189404, -35788.920317759555, -62693.715118612665, -59708.8408123065, -27332.540134494324, -46011.20007171632, -60309.65570326516, -38076.44254880459, -20691.47922891131, -66128.84296522653, -64077.46691435182, -77657.09044421797, -58075.442382746034, -58507.702768767216, -55581.010053278216, -55483.489392219715, 0.0695, 0.9495, 0.1655, 192.0, 0.0, 0.0, 0.0, 0.0, 0.0, 0.0, 0.0, 0.0, 0.0, 1.6581652295895405E9, 0.0, 2022-07-18 13:27:09.589
218.0, -29214.15468623098, -35794.97764050694, -62726.05809283949, -59747.799902892104, -27370.448693090522, -46041.15140928643, -60335.382561133214, -38118.93321501413, -20743.804662681185, -66204.34715799656, -64145.14799656248, -77734.62864573344, -58148.353773159244, -58589.17487730681, -55654.92727219192, -55564.98385250376, 0.0695, 0.9495, 0.1655, 192.0, 0.0, 0.0, 0.0, 0.0, 0.0, 0.0, 0.0, 0.0, 0.0, 1.6581652295895479E9, 0.0, 2022-07-18 13:27:09.589
220.0, -29209.282005939724, -35810.35564069219, -62710.25540950959, -59725.984600303724, -27348.70044573551, -46014.95516478481, -60311.287380610396, -38077.96246742755, -20701.91749357194, -66129.22294488228, -64092.10730697004, -77675.88826130489, -58085.52301949538, -58522.00788521861, -55596.745681374756, -55503.80712792959, 0.07175000000000001, 0.95075, 0.16175, 192.0, 1.0, 40.0, 14.5, 96.0, 2.0, 120.0, 0.0, 0.0, 0.0, 1.6581652295895548E9, 0.0, 2022-07-18 13:27:09.589
222.0, -29228.77272710475, -35799.470341142456, -62751.33791581845, -59758.52874023065, -27386.09491420924, -46049.77918264618, -60346.938413016615, -38099.911880482665, -20757.01454365427, -66204.74948939675, -64165.26456657226, -77745.53629702763, -58159.28377619789, -58584.43630748228, -55663.845618229585, -55570.728250828775, 0.07175000000000001, 0.95075, 0.16175, 192.0, 0.0, 0.0, 0.0, 0.0, 0.0, 0.0, 0.0, 0.0, 0.0, 1.658165229589562E9, 0.0, 2022-07-18 13:27:09.589
224.0, -29193.25580516527, -35808.32163194676, -62691.85992382288, -59701.93412326981, -27326.907494891584, -46004.09221697953, -60291.68490072309, -38052.19090607058, -20716.826107123627, -66142.90221248892, -64107.775879833214, -77681.27503171861, -58099.9622464135, -58524.0642457085, -55606.71455940182, -55502.17545058435, 0.07175000000000001, 0.95075, 0.16175, 192.0, 0.0, 0.0, 0.0, 0.0, 0.0, 0.0, 0.0, 0.0, 0.0, 1.658165229589569E9, 0.0, 2022-07-18 13:27:09.589
226.0, -29235.612360908075, -35793.860053284174, -62748.454540783714, -59760.853321654, -27390.542911355846, -46058.20579030583, -60355.320317187354, -38116.742744057505, -20744.609325481575, -66199.00509107174, -64151.36178152106, -77728.5489712416, -58147.34794465875, -58574.73565038868, -55650.836902956595, -55554.27736690967, 0.07175000000000001, 0.95075, 0.16175, 192.0, 0.0, 0.0, 0.0, 0.0, 0.0, 0.0, 0.0, 0.0, 0.0, 1.658165229589576E9, 0.0, 2022-07-18 13:27:09.589
228.0, -29201.570654102645, -35818.78224835185, -62680.61699636185, -59697.57553310103, -27336.541096751822, -45996.26910642017, -60296.75874671445, -38074.609705759256, -20722.570505448643, -66138.47656708676, -64104.423118164916, -77679.57629914001, -58103.87380169318, -58529.920402755786, -55613.59889669406, -55509.37271229896, 0.07175000000000001, 0.95075, 0.16175, 192.0, 0.0, 0.0, 0.0, 0.0, 0.0, 0.0, 0.0, 0.0, 0.0, 1.6581652295895832E9, 0.0, 2022-07-18 13:27:09.589
230.0, -29232.08078528414, -35790.41788463806, -62735.91521214428, -59758.841664653024, -27378.361210627703, -46051.72378441379, -60347.58661360582, -38128.79033431892, -20754.645258742006, -66194.49003869177, -64141.638772683, -77724.83858166201, -58147.169130703114, -58575.04857481105, -55642.36559180803, -55552.131599441964, 0.07187500000000001, 0.952375, 0.159875, 192.0, 1.0, 32.0, 14.5, 104.0, 2.0, 120.0, 0.0, 0.0, 0.0, 1.6581652295895917E9, 0.0, 2022-07-18 13:27:09.589
232.0, -29203.515255870254, -35825.532475177344, -62678.31476668296, -59707.678521594826, -27334.84236417322, -46016.76565608569, -60304.69361599608, -38087.70782801006, -20730.125395074534, -66152.37935213797, -64104.66898735392, -77684.49368292019, -58105.81840346079, -58536.715333070206, -55609.15089954745, -55515.54179376862, 0.07187500000000001, 0.952375, 0.159875, 192.0, 0.0, 0.0, 0.0, 0.0, 0.0, 0.0, 0.0, 0.0, 0.0, 1.658165229589599E9, 0.0, 2022-07-18 13:27:09.589
234.0, -29229.957369560885, -35780.98544847792, -62746.17466284927, -59763.58023447755, -27400.690603338553, -46073.963770146824, -60374.00637555199, -38152.952570075104, -20748.14090110551, -66183.73884960877, -64137.45899646986, -77718.13305832542, -58149.69487782656, -58574.8250573665, -55643.997269153275, -55553.45035236482, 0.07187500000000001, 0.952375, 0.159875, 192.0, 0.0, 0.0, 0.0, 0.0, 0.0, 0.0, 0.0, 0.0, 0.0, 1.658165229589606E9, 0.0, 2022-07-18 13:27:09.589
236.0, -29195.938014499905, -35815.63065238365, -62672.83858929141, -59690.132402197414, -27337.010483385384, -46018.2632229642, -60293.96477865754, -38096.11208392526, -20729.790118907706, -66153.67575331638, -64114.72727235881, -77687.53352016611, -58127.387836860165, -58552.67447861129, -55628.03812361218, -55531.232718376246, 0.07187500000000001, 0.952375, 0.159875, 192.0, 0.0, 0.0, 0.0, 0.0, 0.0, 0.0, 0.0, 0.0, 0.0, 1.6581652295896132E9, 0.0, 2022-07-18 13:27:09.589
238.0, -29223.385956691025, -35775.86689899766, -62742.866604669885, -59758.864016397485, -27394.990908502452, -46060.8209444071, -60357.46608465506, -38146.247046738514, -20733.500508487286, -66162.14706446494, -64117.007150293255, -77693.43438070231, -58126.046732192845, -58554.23910072316, -55627.12170208951, -55536.46302657879, 0.07187500000000001, 0.952375, 0.159875, 192.0, 0.0, 0.0, 0.0, 0.0, 0.0, 0.0, 0.0, 0.0, 0.0, 1.6581652295896204E9, 0.0, 2022-07-18 13:27:09.589
240.0, -29177.453121835366, -35808.65690811359, -62659.62870831832, -59683.918617238836, -27324.135878579127, -45994.905650008404, -60284.39823203066, -38093.58633680181, -20734.3945782655, -66157.96728825179, -64114.481403169804, -77689.23225274471, -58120.950534457035, -58545.20899596322, -55627.79225442318, -55532.193843387824, 0.06993750000000001, 0.9501875, 0.1619375, 192.0, 1.0, 16.0, 14.5, 80.0, 2.5, 16.0, 0.0, 0.0, 0.0, 1.6581652300685196E9, 0.0, 2022-07-18 13:27:10.068
242.0, -29232.147840517504, -35780.76193103337, -62739.20091857921, -59758.97577511976, -27390.98994624495, -46045.308833755116, -60365.75858184798, -38147.49874442801, -20713.786269877706, -66143.52806133367, -64098.07522273961, -77677.92227005033, -58101.43746154755, -58526.25471666512, -55612.257792026736, -55509.46211927678, 0.06993750000000001, 0.9501875, 0.1619375, 192.0, 0.0, 0.0, 0.0, 0.0, 0.0, 0.0, 0.0, 0.0, 0.0, 1.6581652300685606E9, 0.0, 2022-07-18 13:27:10.068
244.0, -29205.258691937768, -35824.72781237696, -62679.253539950085, -59704.70573958227, -27332.808355427787, -46008.00377225921, -60294.45651703555, -38100.15774967167, -20741.502433002286, -66171.19952096934, -64135.69320865789, -77711.24872103319, -58133.0204764629, -58559.17883624779, -55643.505530775255, -55539.70402952481, 0.06993750000000001, 0.9501875, 0.1619375, 192.0, 0.0, 0.0, 0.0, 0.0, 0.0, 0.0, 0.0, 0.0, 0.0, 1.658165230068592E9, 0.0, 2022-07-18 13:27:10.068
246.0, -29243.435471467434, -35798.419809153056, -62752.38844780785, -59777.50537127321, -27376.908347238106, -46050.405031490925, -60341.90927051417, -38112.38415388872, -20718.726005402328, -66157.31908766259, -64118.01297879374, -77694.99900281418, -58103.3150080818, -58542.8173593065, -55612.50366121575, -55523.34255258353, 0.06993750000000001, 0.9501875, 0.1619375, 192.0, 0.0, 0.0, 0.0, 0.0, 0.0, 0.0, 0.0, 0.0, 0.0, 1.6581652300686333E9, 0.0, 2022-07-18 13:27:10.068
248.0, -29214.087630997616, -35824.88427458814, -62689.89297031081, -59719.212021733765, -27323.331215778737, -46015.89393805194, -60282.72185119651, -38091.41821758964, -20761.171968122955, -66199.9215125944, -64162.82822642663, -77736.17091610086, -58145.73861905797, -58594.33813027598, -55652.96031867985, -55574.39393691945, 0.06993750000000001, 0.9501875, 0.1619375, 192.0, 0.0, 0.0, 0.0, 0.0, 0.0, 0.0, 0.0, 0.0, 0.0, 1.6581652300686707E9, 0.0, 2022-07-18 13:27:10.068
250.0, -29233.220724251358, -35785.03111422433, -62731.93660163124, -59755.354792517996, -27356.32239059477, -46031.942490570844, -60326.53127032892, -38108.38319163123, -20707.2372087523, -66134.54266006264, -64096.75646981675, -77669.16038622384, -58087.199400329526, -58517.98457121666, -55581.14416374495, -55503.09187210702, 0.06796875000000001, 0.95009375, 0.16396875, 192.0, 1.0, 8.0, 14.5, 88.0, 2.5, 24.0, 0.0, 0.0, 0.0, 1.658165230068702E9, 0.0, 2022-07-18 13:27:10.068
252.0, -29223.11773575756, -35826.35948972219, -62699.07953728194, -59726.05165553709, -27338.776271197352, -46027.762714357705, -60306.32529334132, -38113.36763064476, -20765.463503058374, -66203.20721902934, -64157.39675252399, -77729.89007590892, -58156.64627035216, -58580.70356615825, -55645.807760454154, -55561.69814606883, 0.06796875000000001, 0.95009375, 0.16396875, 192.0, 0.0, 0.0, 0.0, 0.0, 0.0, 0.0, 0.0, 0.0, 0.0, 1.658165230068711E9, 0.0, 2022-07-18 13:27:10.068
254.0, -29251.12447156006, -35805.77353307886, -62738.79858717902, -59757.16528381888, -27368.280573878357, -46042.13488604246, -60331.761578531456, -38125.750497073, -20731.91353463096, -66154.61452658351, -64114.54845840317, -77685.7900840986, -58105.19255461604, -58531.84265277895, -55598.28795174217, -55506.31052330858, 0.06796875000000001, 0.95009375, 0.16396875, 192.0, 0.0, 0.0, 0.0, 0.0, 0.0, 0.0, 0.0, 0.0, 0.0, 1.6581652300687177E9, 0.0, 2022-07-18 13:27:10.068
0.0, -29214.73583158682, -35803.53835863333, -62694.22920873514, -59707.03032100562, -27335.155288595593, -46006.75207456971, -60299.329197326806, -38120.319023170356, -20769.77738973825, -66198.2227800158, -64165.55513925018, -77734.27101782216, -58159.23907270898, -58575.227388766696, -55654.904920447465, -55561.27346292418, 0.06796875000000001, 0.95009375, 0.16396875, 192.0, 0.0, 0.0, 0.0, 0.0, 0.0, 0.0, 0.0, 0.0, 0.0, 1.6581652300687249E9, 0.0, 2022-07-18 13:27:10.068
2.0, -29217.999186277295, -35784.82994852423, -62712.51293569958, -59721.82717583504, -27347.627562001653, -46007.847310048026, -60321.613886548745, -38120.60959584828, -20700.4869819268, -66115.2084011088, -64082.764277787726, -77649.08851970299, -58077.99048161394, -58490.223704603166, -55575.2209514643, -55473.16288628136, 0.06796875000000001, 0.95009375, 0.16396875, 192.0, 0.0, 0.0, 0.0, 0.0, 0.0, 0.0, 0.0, 0.0, 0.0, 1.6581652300687315E9, 0.0, 2022-07-18 13:27:10.068
4.0, -29221.754279345787, -35802.64428885511, -62706.053281552, -59723.16828050236, -27349.370998069167, -46025.371077700984, -60312.56143004435, -38125.146999972705, -20774.583014796142, -66211.58912320007, -64163.58818573811, -77734.38277654443, -58159.88727329818, -58582.06702257002, -55663.53269380721, -55572.3152246851, 0.06598437500000001, 0.9490468750000001, 0.16598437500000002, 192.0, 1.0, 0.0, 14.5, 80.0, 2.5, 32.0, 0.0, 0.0, 0.0, 1.6581652300687392E9, 0.0, 2022-07-18 13:27:10.068
6.0, -29222.78245959073, -35796.09522772971, -62707.215572263674, -59725.42580669234, -27350.354474825202, -46023.9629178003, -60315.534212056904, -38121.727183071045, -20704.66675813994, -66125.3560930915, -64077.46691435182, -77650.4743278592, -58078.728089180964, -58502.20423963121, -55582.90995155692, -55492.47479349075, 0.06598437500000001, 0.9490468750000001, 0.16598437500000002, 192.0, 0.0, 0.0, 0.0, 0.0, 0.0, 0.0, 0.0, 0.0, 0.0, 1.6581652300687563E9, 0.0, 2022-07-18 13:27:10.068
8.0, -29230.4491079389, -35803.98539352243, -62719.441976480724, -59743.57542319005, -27378.875300750173, -46046.135848299964, -60340.90344201368, -38117.27918592444, -20766.938718192425, -66216.17123081342, -64149.931269875924, -77730.67238696486, -58162.0777442548, -58592.57234246402, -55668.5394845652, -55576.38324217597, 0.06598437500000001, 0.9490468750000001, 0.16598437500000002, 192.0, 0.0, 0.0, 0.0, 0.0, 0.0, 0.0, 0.0, 0.0, 0.0, 1.6581652300687635E9, 0.0, 2022-07-18 13:27:10.068
10.0, -29209.572578617644, -35798.911547531075, -62680.080554494925, -59708.55023962859, -27329.589704226222, -46001.52176636717, -60288.130973354695, -38082.72338899653, -20712.95925533286, -66129.66997977138, -64090.788554047176, -77663.72891232121, -58084.27132180588, -58523.81837651949, -55594.68932088486, -55493.70413943579, 0.06598437500000001, 0.9490468750000001, 0.16598437500000002, 192.0, 0.0, 0.0, 0.0, 0.0, 0.0, 0.0, 0.0, 0.0, 0.0, 1.6581652300687711E9, 0.0, 2022-07-18 13:27:10.068
12.0, -29226.31403521467, -35792.45189338349, -62709.83072636494, -59734.43355970783, -27363.430245331558, -46022.57710964407, -60321.904459226665, -38120.78840980392, -20751.314848818165, -66195.31705323662, -64150.95945012086, -77722.93868338331, -58140.48595911098, -58574.668595155315, -55644.891338931484, -55544.7108202828, 0.06598437500000001, 0.9490468750000001, 0.16598437500000002, 192.0, 0.0, 0.0, 0.0, 0.0, 0.0, 0.0, 0.0, 0.0, 0.0, 1.6581652300687788E9, 0.0, 2022-07-18 13:27:10.068
14.0, -29198.97785174583, -35799.58209986473, -62672.12333346884, -59691.20528593127, -27327.332178036235, -45976.95719921079, -60293.36128155724, -38066.63013298871, -20705.67258664043, -66123.74676749072, -64085.960577244834, -77654.4305866278, -58087.55702824081, -58500.86313496389, -55582.44056492336, -55475.04043281561, 0.06598437500000001, 0.9490468750000001, 0.16598437500000002, 192.0, 0.0, 0.0, 0.0, 0.0, 0.0, 0.0, 0.0, 0.0, 0.0, 1.6581652300687861E9, 0.0, 2022-07-18 13:27:10.068
16.0, -29230.02442479425, -35787.04277122531, -62722.995903849114, -59747.28581276963, -27375.6119460597, -46033.61887140499, -60335.15904368866, -38141.39671819171, -20752.186566851924, -66192.05369854614, -64141.59406919409, -77713.72976466773, -58141.916470756114, -58565.81730435101, -55646.21009185435, -55542.274480137174, 0.07200000000000001, 0.9440000000000001, 0.162, 192.0, 1.0, 32.0, 14.5, 64.0, 2.5, 8.0, 0.0, 0.0, 0.0, 1.6581652300687933E9, 0.0, 2022-07-18 13:27:10.068
18.0, -29206.4433343939, -35806.89112030162, -62670.156379956774, -59700.88359128041, -27327.98037862544, -45998.77250179917, -60289.49442976647, -38087.90899371016, -20724.11277581606, -66135.0567501851, -64091.839086036576, -77666.25465944466, -58096.25185683392, -58528.57929808847, -55600.56782967661, -55504.63414247443, 0.07200000000000001, 0.9440000000000001, 0.162, 192.0, 0.0, 0.0, 0.0, 0.0, 0.0, 0.0, 0.0, 0.0, 0.0, 1.6581652300688007E9, 0.0, 2022-07-18 13:27:10.068
20.0, -29259.93105887545, -35800.23030045394, -62746.912270416295, -59773.92909216036, -27388.620661332687, -46070.186325333874, -60365.80328533689, -38165.71541615909, -20755.606383753584, -66194.64650090295, -64137.54840344768, -77712.85804663396, -58143.63755507917, -58578.60250217945, -55645.69600173188, -55558.27832916717, 0.07200000000000001, 0.9440000000000001, 0.162, 192.0, 0.0, 0.0, 0.0, 0.0, 0.0, 0.0, 0.0, 0.0, 0.0, 1.6581652300688083E9, 0.0, 2022-07-18 13:27:10.068
22.0, -29218.155648488482, -35826.47124844447, -62673.442086391704, -59706.76210007216, -27318.726756420943, -46012.094141494534, -60284.30882505284, -38098.14609267069, -20737.38971202251, -66160.69420107534, -64116.73892935979, -77686.46063643225, -58111.093415152245, -58549.94756578774, -55619.20918455234, -55534.49607306672, 0.07200000000000001, 0.9440000000000001, 0.162, 192.0, 0.0, 0.0, 0.0, 0.0, 0.0, 0.0, 0.0, 0.0, 0.0, 1.6581652300688157E9, 0.0, 2022-07-18 13:27:10.068
24.0, -29250.230401781846, -35788.80855903728, -62735.60228772191, -59763.91551064438, -27373.823806503275, -46056.3729472605, -60347.58661360582, -38157.9593608331, -20753.035933141226, -66197.14989628195, -64141.66112442745, -77718.15541006987, -58131.65702005113, -58575.0262230666, -55635.123626604516, -55555.03732622115, 0.07200000000000001, 0.9440000000000001, 0.162, 192.0, 0.0, 0.0, 0.0, 0.0, 0.0, 0.0, 0.0, 0.0, 0.0, 1.658165230068823E9, 0.0, 2022-07-18 13:27:10.068
26.0, -29200.00603199077, -35809.394515680615, -62652.52085358153, -59677.86129449145, -27301.493561445903, -45984.73560628124, -60260.07953406329, -38060.39399628568, -20727.48788922881, -66156.46972137329, -64108.02174902222, -77680.9844590407, -58100.00694990241, -58533.67549582428, -55607.76509139122, -55512.12197686696, 0.07200000000000001, 0.9420000000000001, 0.16, 192.0, 1.0, 32.0, 14.5, 56.0, 2.5, 0.0, 0.0, 0.0, 0.0, 1.6581652300688305E9, 0.0, 2022-07-18 13:27:10.068
28.0, -29236.104099286094, -35770.100148928184, -62727.44390099572, -59745.6541354244, -27371.499225079922, -46030.064944036596, -60329.95108723058, -38132.88070355424, -20730.550078219185, -66163.9128522769, -64114.0343682807, -77689.70163937827, -58115.02732217638, -58539.17402496029, -55614.850594383555, -55510.55735475509, 0.07200000000000001, 0.9420000000000001, 0.16, 192.0, 0.0, 0.0, 0.0, 0.0, 0.0, 0.0, 0.0, 0.0, 0.0, 1.658165230068838E9, 0.0, 2022-07-18 13:27:10.068
30.0, -29196.96619474485, -35804.87946330064, -62660.299260651984, -59678.084811936, -27315.150477308092, -45984.28857139213, -60280.509028495435, -38085.31619135335, -20730.10304333008, -66146.2102706683, -64106.725347843814, -77676.9834967832, -58109.774662229385, -58528.735760299656, -55618.80685315214, -55509.37271229896, 0.07200000000000001, 0.9420000000000001, 0.16, 192.0, 0.0, 0.0, 0.0, 0.0, 0.0, 0.0, 0.0, 0.0, 0.0, 1.6581652300688453E9, 0.0, 2022-07-18 13:27:10.068
32.0, -29233.623055651555, -35764.60161979218, -62726.39336900633, -59742.077856311545, -27370.001658201418, -46037.59748191804, -60343.295078670395, -38135.67467161115, -20724.604514194074, -66147.97605848027, -64105.11602224303, -77675.15065373787, -58107.02539766138, -58526.05355096502, -55615.051760083654, -55510.64676173291, 0.07200000000000001, 0.9420000000000001, 0.16, 192.0, 0.0, 0.0, 0.0, 0.0, 0.0, 0.0, 0.0, 0.0, 0.0, 1.6581652300688524E9, 0.0, 2022-07-18 13:27:10.068
34.0, -29196.765029044753, -35806.42173366806, -62650.53154832501, -59675.46965783473, -27309.920169105553, -45991.03879821763, -60270.249577790455, -38087.461958821055, -20744.095235359102, -66166.30448893363, -64120.73989161729, -77691.24390974568, -58120.659961779114, -58543.80083606253, -55625.132396832996, -55524.21427061728, 0.07200000000000001, 0.9420000000000001, 0.16, 192.0, 0.0, 0.0, 0.0, 0.0, 0.0, 0.0, 0.0, 0.0, 0.0, 1.65816523006886E9, 0.0, 2022-07-18 13:27:10.068
36.0, -29223.341253202114, -35762.96994244694, -62710.97066533216, -59733.763007374175, -27361.440940075034, -46024.477007922775, -60322.329142371316, -38122.285976682426, -20710.1876390204, -66136.57666880806, -64085.133562699986, -77657.9845139962, -58087.26645556289, -58519.12451018388, -55585.81567833611, -55489.300845778096, 0.068, 0.9440000000000001, 0.166, 192.0, 1.0, 16.0, 14.5, 64.0, 2.5, 24.0, 0.0, 0.0, 0.0, 1.6581652300688672E9, 0.0, 2022-07-18 13:27:10.068
38.0, -29183.4880928383, -35788.495634614905, -62637.20990862965, -59662.080962906, -27300.912416090065, -45976.39840559941, -60254.26808050491, -38064.05968237635, -20735.512165488264, -66163.19759645434, -64110.078109512106, -77682.59378464149, -58120.950534457035, -58551.46748441071, -55611.6766466709, -55513.46308153428, 0.068, 0.9440000000000001, 0.166, 192.0, 0.0, 0.0, 0.0, 0.0, 0.0, 0.0, 0.0, 0.0, 0.0, 1.6581652300688782E9, 0.0, 2022-07-18 13:27:10.068
40.0, -29213.998224019793, -35756.13030864362, -62694.78800234652, -59711.67948385233, -27346.621733501164, -46009.233118204254, -60304.73831948499, -38108.38319163123, -20700.62109239353, -66120.57281977807, -64067.16276015792, -77641.3771678659, -58079.152772325615, -58500.23728611914, -55565.29677692614, -55463.37282220994, 0.068, 0.9440000000000001, 0.166, 192.0, 0.0, 0.0, 0.0, 0.0, 0.0, 0.0, 0.0, 0.0, 0.0, 1.658165230068885E9, 0.0, 2022-07-18 13:27:10.068
42.0, -29188.29371789619, -35786.61808808066, -62643.13312091031, -59666.216035630234, -27304.086363802715, -45978.72298702276, -60257.33026949529, -38087.68547626561, -20736.763863177763, -66163.15289296543, -64112.40269093546, -77683.62196488644, -58110.44521456304, -58540.42572264979, -55608.122719302504, -55510.28913382163, 0.068, 0.9440000000000001, 0.166, 192.0, 0.0, 0.0, 0.0, 0.0, 0.0, 0.0, 0.0, 0.0, 0.0, 1.6581652300688922E9, 0.0, 2022-07-18 13:27:10.068
44.0, -29227.36456720407, -35769.60841055017, -62706.34385422991, -59724.732902614225, -27351.829689959253, -46011.78121707216, -60310.6838835101, -38106.125665441235, -20699.794077848685, -66112.63795049643, -64072.92951022739, -77642.71827253321, -58069.96620535448, -58492.95061742671, -55563.50863736971, -55463.88691233241, 0.068, 0.9440000000000001, 0.166, 192.0, 0.0, 0.0, 0.0, 0.0, 0.0, 0.0, 0.0, 0.0, 0.0, 1.658165230068899E9, 0.0, 2022-07-18 13:27:10.068
46.0, -29193.188749931905, -35779.621992066146, -62658.66758330674, -59679.917654981335, -27317.139782564616, -45983.640370802925, -60279.749069183956, -38083.282182607916, -20764.882357702536, -66177.5697681391, -64144.11981631754, -77708.1865320428, -58144.084589968275, -58564.56560666151, -55637.89524291697, -55536.77595100117, 0.068, 0.9480000000000001, 0.168, 192.0, 1.0, 16.0, 14.5, 80.0, 2.5, 32.0, 0.0, 0.0, 0.0, 1.6581652300689368E9, 0.0, 2022-07-18 13:27:10.068
48.0, -29195.938014499905, -35747.12255562813, -62677.66656609376, -59694.088660966, -27328.539172236822, -45985.607324314995, -60292.08723212329, -38091.46292107856, -20689.17699923241, -66092.47667699774, -64058.266765864704, -77618.39957456585, -58057.35982148169, -58480.18777134273, -55555.32789889907, -55451.839322071, 0.068, 0.9480000000000001, 0.168, 192.0, 0.0, 0.0, 0.0, 0.0, 0.0, 0.0, 0.0, 0.0, 0.0, 1.6581652300689468E9, 0.0, 2022-07-18 13:27:10.068
50.0, -29186.907909739963, -35766.3897593486, -62661.21568217465, -59680.49880033718, -27324.35939602368, -45994.45861511929, -60288.26508382143, -38097.453188592575, -20743.268220814254, -66165.8127505556, -64122.393920706985, -77683.97959279771, -58130.092397939254, -58548.517054142605, -55628.7310276903, -55525.488320051234, 0.068, 0.9480000000000001, 0.168, 192.0, 0.0, 0.0, 0.0, 0.0, 0.0, 0.0, 0.0, 0.0, 0.0, 1.6581652300689704E9, 0.0, 2022-07-18 13:27:10.068
52.0, -29181.364677115045, -35746.92138992803, -62656.946498983685, -59677.414259602345, -27313.11646856266, -45979.50529807869, -60279.190275572575, -38075.41436855964, -20686.159513730945, -66085.48058098323, -64042.4640825348, -77606.88842617135, -58053.04593480181, -58470.55416948249, -55554.858512265506, -55452.6886883603, 0.068, 0.9480000000000001, 0.168, 192.0, 0.0, 0.0, 0.0, 0.0, 0.0, 0.0, 0.0, 0.0, 0.0, 1.658165230068978E9, 0.0, 2022-07-18 13:27:10.068
54.0, -29188.941918485394, -35758.49959355588, -62658.60052807338, -59678.889474736396, -27322.571256467254, -45999.040722732636, -60293.6295024907, -38110.61836607676, -20733.992246865302, -66161.27534643118, -64102.14324023047, -77676.5364618941, -58124.45975833652, -58540.895109283345, -55625.80294916665, -55521.84498570502, 0.068, 0.9480000000000001, 0.168, 192.0, 0.0, 0.0, 0.0, 0.0, 0.0, 0.0, 0.0, 0.0, 0.0, 1.6581652300689857E9, 0.0, 2022-07-18 13:27:10.068
56.0, -29194.932185999416, -35764.06517792525, -62660.92510949673, -59677.52601832462, -27316.290416275315, -45986.74726328222, -60271.74714466896, -38070.474633035024, -20678.626975849507, -66084.47475248274, -64040.05009413363, -77608.9671384057, -58060.66787966107, -58470.75533518259, -55554.34442214304, -55447.70424934677, 0.07200000000000001, 0.9500000000000001, 0.168, 192.0, 1.0, 32.0, 14.5, 88.0, 2.5, 32.0, 0.0, 0.0, 0.0, 1.658165230068993E9, 0.0, 2022-07-18 13:27:10.068
58.0, -29193.054639465172, -35750.36355857415, -62673.30797592497, -59687.60665507396, -27326.46046000248, -45993.855118019004, -60283.392403530175, -38070.31817082383, -20738.127319589534, -66163.89050053245, -64122.08099628461, -77682.30321196356, -58128.55012757184, -58545.1195889854, -55619.09742583006, -55512.479604778244, 0.07200000000000001, 0.9500000000000001, 0.168, 192.0, 0.0, 0.0, 0.0, 0.0, 0.0, 0.0, 0.0, 0.0, 0.0, 1.6581652300690005E9, 0.0, 2022-07-18 13:27:10.069
60.0, -29177.900156724474, -35764.06517792525, -62651.64913554778, -59664.65141351836, -27296.531474176823, -45971.905704963894, -60259.967775341014, -38061.26571431944, -20679.677507838907, -66092.61078746448, -64053.86347220701, -77610.24118783965, -58053.49296969092, -58466.642614202814, -55542.56505281509, -55435.90252827437, 0.07200000000000001, 0.9500000000000001, 0.168, 192.0, 0.0, 0.0, 0.0, 0.0, 0.0, 0.0, 0.0, 0.0, 0.0, 1.658165230069008E9, 0.0, 2022-07-18 13:27:10.069
62.0, -29211.763049574263, -35764.40045409208, -62697.559618658976, -59711.41126291887, -27345.526498022857, -46017.68207760836, -60314.75190100097, -38113.76996204495, -20738.35083703409, -66185.01289904272, -64134.35210399057, -77694.4402092028, -58128.728941527486, -58552.58507163347, -55616.86225138453, -55521.06267464908, 0.07200000000000001, 0.9500000000000001, 0.168, 192.0, 0.0, 0.0, 0.0, 0.0, 0.0, 0.0, 0.0, 0.0, 0.0, 1.6581652300690155E9, 0.0, 2022-07-18 13:27:10.069
64.0, -29167.797168230674, -35763.03699768031, -62638.17103364123, -59656.49302679217, -27282.583985636713, -45962.16034438138, -60238.286583219364, -38050.268656047425, -20684.438429407888, -66095.22594156575, -64062.4241903334, -77619.29364434406, -58063.5065512069, -58477.12558235235, -55549.04705870713, -55449.11240924745, 0.07200000000000001, 0.9500000000000001, 0.168, 192.0, 0.0, 0.0, 0.0, 0.0, 0.0, 0.0, 0.0, 0.0, 0.0, 1.658165230069023E9, 0.0, 2022-07-18 13:27:10.069
66.0, -29208.5443983727, -35749.67065449603, -62697.626673892344, -59723.43650143582, -27345.32533232276, -46016.6091938745, -60308.71692999804, -38115.37928764574, -20724.76097640526, -66166.23743370025, -64114.79432759218, -77682.05734277455, -58119.09533966725, -58544.739609329656, -55602.758300633235, -55516.3017530801, 0.07200000000000001, 0.9540000000000001, 0.168, 192.0, 1.0, 32.0, 14.5, 104.0, 2.5, 32.0, 0.0, 0.0, 0.0, 1.65816523006903E9, 0.0, 2022-07-18 13:27:10.069
68.0, -29173.318049111134, -35764.020474436344, -62637.791053985486, -59670.082887421006, -27288.909529317563, -45966.161306638875, -60258.20198752904, -38044.256036788945, -20689.020537021224, -66119.32112208857, -64069.8226177481, -77636.54919106355, -58068.647452431615, -58499.58908552994, -55563.32982341407, -55475.576874682534, 0.07200000000000001, 0.9540000000000001, 0.168, 192.0, 0.0, 0.0, 0.0, 0.0, 0.0, 0.0, 0.0, 0.0, 0.0, 1.6581652300690384E9, 0.0, 2022-07-18 13:27:10.069
70.0, -29197.949671500883, -35724.70375593946, -62702.85698209488, -59728.376236960445, -27343.246620088416, -46004.896879779924, -60324.206688905564, -38098.52607232644, -20704.979682562316, -66153.74280854974, -64094.61070234903, -77664.48887163268, -58099.626970246674, -58526.500585854126, -55596.18688776337, -55506.84696517551, 0.07200000000000001, 0.9540000000000001, 0.168, 192.0, 0.0, 0.0, 0.0, 0.0, 0.0, 0.0, 0.0, 0.0, 0.0, 1.658165230069048E9, 0.0, 2022-07-18 13:27:10.069
72.0, -29163.63974376199, -35754.96801793194, -62640.383856342305, -59667.557140297555, -27278.91829954604, -45960.10398389149, -60242.131083265675, -38033.706013406045, -20687.76883933173, -66113.21909585227, -64069.755562514736, -77631.94473170576, -58069.94385361003, -58491.877733692854, -55576.69616659835, -55483.08706081952, 0.07200000000000001, 0.9540000000000001, 0.168, 192.0, 0.0, 0.0, 0.0, 0.0, 0.0, 0.0, 0.0, 0.0, 0.0, 1.6581652300690553E9, 0.0, 2022-07-18 13:27:10.069
74.0, -29197.212063933857, -35707.895244109066, -62712.870563610864, -59731.349018973, -27343.26897183287, -46012.27295545018, -60308.5828195313, -38100.40361886068, -20691.05454576666, -66133.26861062869, -64086.519370856215, -77650.04964471456, -58086.350034040224, -58507.94863795622, -55588.408480692924, -55500.208497072286, 0.07200000000000001, 0.9540000000000001, 0.168, 192.0, 0.0, 0.0, 0.0, 0.0, 0.0, 0.0, 0.0, 0.0, 0.0, 1.6581652300690625E9, 0.0, 2022-07-18 13:27:10.069
76.0, -29168.870051964528, -35752.911657442055, -62661.550958341475, -59681.41522185985, -27293.715154375455, -45964.842553716015, -60245.215624000506, -38027.80515286984, -20694.630824879507, -66124.55143029112, -64083.47953361029, -77646.36160687944, -58086.975882884966, -58512.061358936, -55592.36473946151, -55501.169622083864, 0.07, 0.9480000000000001, 0.17200000000000001, 192.0, 1.0, 24.0, 14.5, 80.0, 2.5, 48.0, 0.0, 0.0, 0.0, 1.6581652300690699E9, 0.0, 2022-07-18 13:27:10.069
78.0, -29194.68631681041, -35708.096409809164, -62729.6567236968, -59740.759103388686, -27347.582858512746, -46007.422626903375, -60307.778156730914, -38053.844935160276, -20700.017595293237, -66140.7117415323, -64092.71080407033, -77661.96312450923, -58094.88840042215, -58520.15269042882, -55596.00807380773, -55500.78964242812, 0.07, 0.9480000000000001, 0.17200000000000001, 192.0, 0.0, 0.0, 0.0, 0.0, 0.0, 0.0, 0.0, 0.0, 0.0, 1.6581652300690773E9, 0.0, 2022-07-18 13:27:10.069
80.0, -29162.67861875041, -35743.322759070725, -62650.73271402511, -59667.17716064181, -27291.21175899646, -45954.203123355284, -60259.16311254062, -38030.66617616012, -20702.56569416114, -66126.29486635863, -64089.53685635768, -77650.96606623722, -58089.12165035268, -58505.62405653287, -55591.04598653865, -55497.07925284854, 0.07, 0.9480000000000001, 0.17200000000000001, 192.0, 0.0, 0.0, 0.0, 0.0, 0.0, 0.0, 0.0, 0.0, 0.0, 1.6581652300690844E9, 0.0, 2022-07-18 13:27:10.069
82.0, -29197.569691845143, -35698.55221492675, -62704.22043850666, -59727.124539270946, -27347.135823623637, -45987.3060568936, -60307.778156730914, -38050.93920838108, -20685.824237564117, -66114.49314528622, -64072.9742137163, -77636.90681897484, -58073.29661527832, -58484.45695453369, -55580.56301838911, -55483.131764308426, 0.07, 0.9480000000000001, 0.17200000000000001, 192.0, 0.0, 0.0, 0.0, 0.0, 0.0, 0.0, 0.0, 0.0, 0.0, 1.6581652300690916E9, 0.0, 2022-07-18 13:27:10.069
84.0, -29143.746691196764, -35722.155657071555, -62619.30616132095, -59654.90605293585, -27282.7404478479, -45931.38199226642, -60223.64619060114, -38012.2706904734, -20693.91556905694, -66120.99750292272, -64078.38333587448, -77641.91360973283, -58078.01283335839, -58497.622132017874, -55585.99449229175, -55497.7498051822, 0.07, 0.9480000000000001, 0.17200000000000001, 192.0, 0.0, 0.0, 0.0, 0.0, 0.0, 0.0, 0.0, 0.0, 0.0, 1.658165230069099E9, 0.0, 2022-07-18 13:27:10.069
86.0, -29188.852511507575, -35693.567775913216, -62696.84436283641, -59722.11774851296, -27341.346721809714, -45976.644274788414, -60281.89483665167, -38046.491211234475, -20659.829158762594, -66090.3979647634, -64047.31441108161, -77612.85634194093, -58047.34623996571, -58470.95650088269, -55555.30554715462, -55462.94813906529, 0.068, 0.9470000000000001, 0.171, 192.0, 1.0, 8.0, 14.5, 72.0, 2.5, 40.0, 0.0, 0.0, 0.0, 1.6581652300691063E9, 0.0, 2022-07-18 13:27:10.069
88.0, -29170.859357221052, -35735.49964851137, -62653.727847782124, -59675.737878768196, -27310.523666205845, -45951.699727976295, -60251.67527814809, -38037.50580996345, -20710.925246587427, -66139.59415430954, -64102.92555128641, -77663.79596755457, -58111.719263996994, -58515.101196181924, -55614.984704850285, -55515.139462368425, 0.068, 0.9470000000000001, 0.171, 192.0, 0.0, 0.0, 0.0, 0.0, 0.0, 0.0, 0.0, 0.0, 0.0, 1.6581652300691137E9, 0.0, 2022-07-18 13:27:10.069
90.0, -29195.267462166248, -35708.029354575796, -62711.12712754335, -59726.58809740402, -27355.920059194574, -45988.825975516556, -60310.48271781, -38091.28410712291, -20682.76204857374, -66094.8012584211, -64063.89940546744, -77622.8699234569, -58073.78835365634, -58471.06825960497, -55572.09170724055, -55471.71002289177, 0.068, 0.9470000000000001, 0.171, 192.0, 0.0, 0.0, 0.0, 0.0, 0.0, 0.0, 0.0, 0.0, 0.0, 1.6581652300691211E9, 0.0, 2022-07-18 13:27:10.069
92.0, -29185.45504635037, -35749.894171940585, -62676.88425503782, -59694.334530155014, -27335.93759965153, -45984.22151615877, -60284.711156453035, -38053.9343421381, -20734.48398524332, -66159.97894525278, -64119.57760090561, -77679.26337471764, -58131.20998516202, -58532.379094645876, -55634.49777775977, -55530.31629685358, 0.068, 0.9470000000000001, 0.171, 192.0, 0.0, 0.0, 0.0, 0.0, 0.0, 0.0, 0.0, 0.0, 0.0, 1.6581652300691285E9, 0.0, 2022-07-18 13:27:10.069
94.0, -29193.658136565464, -35721.373346015615, -62708.199049019706, -59724.97877180324, -27355.093044649726, -45993.76571104118, -60329.41464536365, -38058.49409800698, -20686.830066064605, -66110.08985162852, -64062.17832114438, -77628.94959794874, -58075.19651355702, -58482.78057369954, -55579.24426546625, -55473.207589770274, 0.068, 0.9470000000000001, 0.171, 192.0, 0.0, 0.0, 0.0, 0.0, 0.0, 0.0, 0.0, 0.0, 0.0, 1.658165230069136E9, 0.0, 2022-07-18 13:27:10.069
96.0, -29181.007049203763, -35742.51809627034, -62685.42262141975, -59703.23052444822, -27333.724776950454, -45983.640370802925, -60284.93467389759, -38059.991664885485, -20736.272124799743, -66174.84285531555, -64125.8360893531, -77693.00969755766, -58140.798883533345, -58546.147769230345, -55647.75236222176, -55544.88963423844, 0.069, 0.9455, 0.1675, 192.0, 1.0, 24.0, 14.5, 64.0, 2.5, 16.0, 0.0, 0.0, 0.0, 1.6581652300691433E9, 0.0, 2022-07-18 13:27:10.069
98.0, -29187.936089984905, -35719.36168901464, -62697.000825047595, -59715.166355987356, -27320.581951210734, -45982.41102485789, -60275.74810692646, -38069.088824878796, -20679.163417716434, -66098.28813055613, -64060.725457754794, -77622.46759205671, -58072.20137980001, -58468.56486422597, -55574.349233430534, -55474.70515664878, 0.069, 0.9455, 0.1675, 192.0, 0.0, 0.0, 0.0, 0.0, 0.0, 0.0, 0.0, 0.0, 0.0, 1.6581652300691507E9, 0.0, 2022-07-18 13:27:10.069
100.0, -29186.371467873036, -35736.21490433394, -62683.567426629954, -59705.42099540484, -27326.303997791292, -45987.19429817132, -60295.17177285812, -38074.25207784797, -20733.075825342636, -66168.2714424457, -64128.048912054175, -77689.96986031173, -58128.438368849565, -58538.25760343762, -55635.77182719372, -55544.12967492696, 0.069, 0.9455, 0.1675, 192.0, 0.0, 0.0, 0.0, 0.0, 0.0, 0.0, 0.0, 0.0, 0.0, 1.658165230069158E9, 0.0, 2022-07-18 13:27:10.069
102.0, -29181.610546304055, -35721.44040124898, -62671.51983636855, -59685.77381202863, -27290.384744451614, -45961.57919902554, -60253.93280433808, -38063.45618527606, -20672.167321701923, -66080.51849371416, -64054.73519024077, -77611.98462390716, -58055.45992320299, -58456.09259081991, -55556.37843088847, -55461.91995882034, 0.069, 0.9455, 0.1675, 192.0, 0.0, 0.0, 0.0, 0.0, 0.0, 0.0, 0.0, 0.0, 0.0, 1.6581652300691676E9, 0.0, 2022-07-18 13:27:10.069
104.0, -29197.97202324534, -35736.974863645424, -62686.853133064884, -59695.3403586555, -27287.34490720569, -45977.13601316643, -60274.83168540379, -38059.499926507466, -20738.73081668983, -66168.98669826826, -64129.27825799922, -77683.24198523069, -58139.77070328841, -58531.08269346746, -55626.13822533348, -55529.489282308736, 0.069, 0.9455, 0.1675, 192.0, 0.0, 0.0, 0.0, 0.0, 0.0, 0.0, 0.0, 0.0, 0.0, 1.6581652305493743E9, 0.0, 2022-07-18 13:27:10.549
106.0, -29168.311258353147, -35722.46858149393, -62644.854205233365, -59666.75247749716, -27288.864825828652, -45930.66673644385, -60238.845376830744, -38011.28721371737, -20667.18288268839, -66081.01023209217, -64047.62733550398, -77602.28396681357, -58047.279184732346, -58451.71164890667, -55538.34057311303, -55434.91905151833, 0.0695, 0.94475, 0.16775, 192.0, 1.0, 24.0, 14.5, 64.0, 2.5, 32.0, 0.0, 0.0, 0.0, 1.6581652305494325E9, 0.0, 2022-07-18 13:27:10.549
108.0, -29206.488037882813, -35738.07009912373, -62697.11258376987, -59714.898135053896, -27348.07459689076, -45980.53347832364, -60293.4283367906, -38049.62045545822, -20725.140956061, -66163.68933483235, -64124.137356774496, -77686.95237481027, -58113.59681053124, -58533.65314407983, -55612.21308853783, -55516.480567035745, 0.0695, 0.94475, 0.16775, 192.0, 0.0, 0.0, 0.0, 0.0, 0.0, 0.0, 0.0, 0.0, 0.0, 1.6581652305494533E9, 0.0, 2022-07-18 13:27:10.549
110.0, -29184.985659716807, -35748.10603238417, -62659.09226645139, -59682.82338176053, -27308.444953971502, -45947.72111746325, -60249.50715893593, -38027.04519355836, -20685.89129279748, -66094.37657527644, -64064.34644035655, -77622.89227520136, -58055.41521971408, -58464.630957201836, -55555.0149744767, -55452.17459823783, 0.0695, 0.94475, 0.16775, 192.0, 0.0, 0.0, 0.0, 0.0, 0.0, 0.0, 0.0, 0.0, 0.0, 1.6581652305495172E9, 0.0, 2022-07-18 13:27:10.549
112.0, -29199.335479657115, -35724.86021815064, -62689.088307510414, -59716.708626354775, -27339.55858225329, -45977.38188235544, -60305.43122356311, -38069.1335283677, -20733.075825342636, -66161.99060225375, -64121.07516778412, -77685.25364223166, -58117.731883255474, -58526.1653096873, -55617.644562440466, -55515.07240713506, 0.0695, 0.94475, 0.16775, 192.0, 0.0, 0.0, 0.0, 0.0, 0.0, 0.0, 0.0, 0.0, 0.0, 1.6581652305495722E9, 0.0, 2022-07-18 13:27:10.549
114.0, -29177.900156724474, -35747.05550039477, -62644.31776336644, -59679.940006725796, -27284.394476937592, -45947.162323851866, -60226.95424878052, -38057.64473171768, -20685.980699775304, -66091.87317989745, -64059.76433274321, -77623.69693800175, -58062.74659189542, -58465.77089616906, -55558.30068091163, -55455.54971165058, 0.0695, 0.94475, 0.16775, 192.0, 0.0, 0.0, 0.0, 0.0, 0.0, 0.0, 0.0, 0.0, 0.0, 1.6581652305495796E9, 0.0, 2022-07-18 13:27:10.549
116.0, -29215.048756009193, -35731.4316310205, -62713.47406071116, -59746.34703950251, -27354.154271382606, -46001.36530415599, -60316.18241264611, -38126.77867731794, -20721.22940078132, -66166.23743370025, -64116.80598459316, -77685.76773235414, -58119.81059548981, -58533.429626635276, -55618.94096361887, -55523.87899445045, 0.07075000000000001, 0.948375, 0.167875, 192.0, 1.0, 32.0, 14.5, 96.0, 2.5, 32.0, 0.0, 0.0, 0.0, 1.6581652305495872E9, 0.0, 2022-07-18 13:27:10.549
118.0, -29189.232491163315, -35766.70268377098, -62661.483903108114, -59689.39479463039, -27301.40415446808, -45963.25557985969, -60254.60335667174, -38052.16855432613, -20701.04577553818, -66121.13161338944, -64089.76037380224, -77648.55207783605, -58086.618254973684, -58500.66196926379, -55592.56590516161, -55491.69248243481, 0.07075000000000001, 0.948375, 0.167875, 192.0, 0.0, 0.0, 0.0, 0.0, 0.0, 0.0, 0.0, 0.0, 0.0, 1.658165230549596E9, 0.0, 2022-07-18 13:27:10.549
120.0, -29198.53081685672, -35711.35976449964, -62700.018310549065, -59723.9952950472, -27340.6538177316, -45996.224402931264, -60309.119261398235, -38087.21608963205, -20713.00395882177, -66146.38908462395, -64106.166554232426, -77663.93007802131, -58100.96807491399, -58518.11868168339, -55609.01678908072, -55508.81391868758, 0.07075000000000001, 0.948375, 0.167875, 192.0, 0.0, 0.0, 0.0, 0.0, 0.0, 0.0, 0.0, 0.0, 0.0, 1.6581652305496037E9, 0.0, 2022-07-18 13:27:10.549
122.0, -29167.77481648622, -35749.96122717395, -62626.36931256882, -59659.82343671602, -27286.96492754995, -45955.700690233796, -60234.240917472955, -38057.86824916223, -20690.696917855374, -66108.7040434723, -64066.62631829099, -77625.93211244728, -58069.87679837666, -58487.42973654625, -55579.400727677435, -55480.67307241834, 0.07075000000000001, 0.948375, 0.167875, 192.0, 0.0, 0.0, 0.0, 0.0, 0.0, 0.0, 0.0, 0.0, 0.0, 1.658165230549611E9, 0.0, 2022-07-18 13:27:10.549
124.0, -29210.10902048457, -35718.53467446979, -62711.37299673236, -59739.350943487996, -27358.33404759575, -46027.51684516869, -60323.379674360716, -38142.51430541448, -20711.349929732078, -66139.12476767597, -64091.146181958466, -77655.50347036165, -58098.79995570183, -58517.604591560914, -55603.2723907557, -55507.02577913115, 0.07075000000000001, 0.948375, 0.167875, 192.0, 0.0, 0.0, 0.0, 0.0, 0.0, 0.0, 0.0, 0.0, 0.0, 1.6581652305496185E9, 0.0, 2022-07-18 13:27:10.549
