%OpenBCI Raw EEG Data
%Number of channels = 16
%Sample Rate = 125 Hz
%Board = OpenBCI_GUI$BoardCytonSerialDaisy
Sample Index, EXG Channel 0, EXG Channel 1, EXG Channel 2, EXG Channel 3, EXG Channel 4, EXG Channel 5, EXG Channel 6, EXG Channel 7, EXG Channel 8, EXG Channel 9, EXG Channel 10, EXG Channel 11, EXG Channel 12, EXG Channel 13, EXG Channel 14, EXG Channel 15, Accel Channel 0, Accel Channel 1, Accel Channel 2, Other, Other, Other, Other, Other, Other, Other, Analog Channel 0, Analog Channel 1, Analog Channel 2, Timestamp, Other, Timestamp (Formatted)
180.0, -27949.828261116538, -41808.312154807114, -64633.01952278847, -59145.3086310993, -27320.403137255093, -47399.26575413535, -62841.236632017695, -39239.87319944778, -22184.642813759187, -66834.21931674711, -65023.61625714496, -82589.56165189286, -57254.149884480226, -61169.39320199409, -55362.320585527494, -54902.880478248655, 0.057, 0.47200000000000003, 0.10300000000000001, 192.0, 1.5, 72.0, 14.5, 64.0, 3.0, 56.0, 0.0, 0.0, 0.0, 1.6581650738484E9, 0.0, 2022-07-18 13:24:33.848
182.0, -27907.583464096006, -41789.49198597574, -64564.24320509949, -59081.159124512575, -27251.313895143736, -47336.47970396039, -62771.78976199505, -39204.959774608586, -22108.6692343556, -66749.05917037239, -64940.55717474904, -82506.43551426358, -57170.21908405055, -61088.815163232706, -55281.20610489918, -54819.59787840818, 0.057, 0.47200000000000003, 0.10300000000000001, 192.0, 0.0, 0.0, 0.0, 0.0, 0.0, 0.0, 0.0, 0.0, 0.0, 1.658165073848405E9, 0.0, 2022-07-18 13:24:33.848
184.0, -27958.076054820547, -41816.17996885538, -64641.08850253684, -59154.94223295954, -27324.31469253477, -47409.033466462315, -62854.379457757415, -39265.82357476039, -22172.19289209758, -66826.35150269885, -65014.04971051809, -82582.58790762282, -57240.3588581513, -61160.69837340098, -55344.48389345216, -54890.83288798725, 0.057, 0.47200000000000003, 0.10300000000000001, 192.0, 0.0, 0.0, 0.0, 0.0, 0.0, 0.0, 0.0, 0.0, 0.0, 1.6581650738484092E9, 0.0, 2022-07-18 13:24:33.848
186.0, -27930.695167862796, -41816.984631655774, -64587.73488852202, -59105.343712013215, -27269.128235474618, -47363.14533509557, -62780.01520395461, -39219.42135327117, -22144.18615629508, -66783.70437427812, -64980.90207349087, -82542.98061644801, -57208.17234613566, -61123.86269853863, -55311.626829102854, -54850.6444514566, 0.057, 0.47200000000000003, 0.10300000000000001, 192.0, 0.0, 0.0, 0.0, 0.0, 0.0, 0.0, 0.0, 0.0, 0.0, 1.6581650738484132E9, 0.0, 2022-07-18 13:24:33.848
188.0, -27970.34716252651, -41819.51037877922, -64656.82413063337, -59176.48931461445, -27334.864715917676, -47422.26569917986, -62850.75847515565, -39260.14623166874, -22176.126799121714, -66829.36898820031, -65023.05746353358, -82586.56651813585, -57242.95166050812, -61167.71682115994, -55342.31577423999, -54891.19051589853, 0.057, 0.47200000000000003, 0.10300000000000001, 192.0, 0.0, 0.0, 0.0, 0.0, 0.0, 0.0, 0.0, 0.0, 0.0, 1.6581650738484173E9, 0.0, 2022-07-18 13:24:33.848
190.0, -27918.71463283475, -41812.51428276471, -64577.11780990575, -59101.07452882225, -27263.54029936079, -47365.7828409413, -62770.73923000565, -39200.31061176188, -22162.67104895962, -66796.24370291755, -65000.52690512263, -82563.43246262461, -57222.63392479825, -61144.13573075959, -55322.51212865259, -54874.18083836804, 0.0825, 0.7070000000000001, 0.15450000000000003, 192.0, 1.5, 48.0, 14.5, 56.0, 3.0, 56.0, 0.0, 0.0, 0.0, 1.658165073848422E9, 0.0, 2022-07-18 13:24:33.848
192.0, -27966.3014967801, -41811.17317809739, -64645.156520027704, -59165.98399472046, -27327.44393675851, -47421.03635323481, -62851.54078621159, -39277.737054555066, -22168.035467628895, -66823.8704590643, -65015.97196054125, -82584.91248904617, -57232.960430736595, -61158.32908848871, -55337.82307360448, -54888.7541757529, 0.0825, 0.7070000000000001, 0.15450000000000003, 192.0, 0.0, 0.0, 0.0, 0.0, 0.0, 0.0, 0.0, 0.0, 0.0, 1.6581650738484263E9, 0.0, 2022-07-18 13:24:33.848
194.0, -27896.56405407954, -41785.5133754627, -64548.21700432504, -59072.82192383074, -27250.844508510174, -47332.210520769426, -62768.28053811557, -39170.001646280485, -22134.507850945934, -66769.01927817098, -64970.24029138569, -82537.99617743447, -57196.66119774118, -61113.51384085582, -55304.49662262161, -54855.271262558854, 0.0825, 0.7070000000000001, 0.15450000000000003, 192.0, 0.0, 0.0, 0.0, 0.0, 0.0, 0.0, 0.0, 0.0, 0.0, 1.6581650738484304E9, 0.0, 2022-07-18 13:24:33.848
196.0, -27962.702865922794, -41806.65812571742, -64650.543290441434, -59178.679785571076, -27341.547887509812, -47422.55627185777, -62853.328925768015, -39262.31435088091, -22149.595278453267, -66797.0707174624, -64988.30050090558, -82560.34792188978, -57217.22480264006, -61134.56918413272, -55319.49464315113, -54871.006890655386, 0.0825, 0.7070000000000001, 0.15450000000000003, 192.0, 0.0, 0.0, 0.0, 0.0, 0.0, 0.0, 0.0, 0.0, 0.0, 1.6581650738484344E9, 0.0, 2022-07-18 13:24:33.848
198.0, -27893.09953368897, -41786.139224307444, -64552.06150437135, -59081.20382800148, -27252.610296322146, -47352.17062856801, -62757.23877635465, -39213.09580959032, -22166.023810627918, -66804.17857219918, -64999.52107662214, -82567.00874173746, -57228.46773010108, -61149.58955640669, -55332.59276540193, -54887.301312363306, 0.0825, 0.7070000000000001, 0.15450000000000003, 192.0, 0.0, 0.0, 0.0, 0.0, 0.0, 0.0, 0.0, 0.0, 0.0, 1.6581650738484387E9, 0.0, 2022-07-18 13:24:33.848
200.0, -27945.000284314192, -41781.55711669411, -64629.51029890899, -59150.67304976858, -27324.292340790314, -47399.91395472455, -62840.36491398393, -39268.34932188384, -22127.24353399796, -66772.260281117, -64962.216015126236, -82529.4354593081, -57194.89540992921, -61116.061939723724, -55294.50539285009, -54843.33543101972, 0.09225, 0.8235000000000001, 0.17825000000000002, 192.0, 1.5, 24.0, 14.5, 48.0, 3.0, 40.0, 0.0, 0.0, 0.0, 1.6581650738484428E9, 0.0, 2022-07-18 13:24:33.848
202.0, -27896.944033735283, -41776.930305591864, -64553.20144333857, -59070.944377296495, -27259.02524698082, -47341.12886680709, -62762.290270601545, -39154.95892226206, -22166.80612168385, -66803.37390939878, -64999.81164930006, -82564.30418065836, -57239.531843606455, -61150.684791884996, -55336.30315498151, -54877.645358758615, 0.09225, 0.8235000000000001, 0.17825000000000002, 192.0, 0.0, 0.0, 0.0, 0.0, 0.0, 0.0, 0.0, 0.0, 0.0, 1.6581650738484466E9, 0.0, 2022-07-18 13:24:33.848
204.0, -27941.893391834903, -41773.17521252337, -64624.45880466209, -59138.15607287361, -27314.189352296515, -47388.00047492987, -62838.28620174959, -39227.892664419735, -22117.94520830455, -66750.57908899535, -64948.5814510085, -82514.43743877858, -57177.7963254209, -61093.79960224624, -55280.62495954335, -54822.32479123173, 0.09225, 0.8235000000000001, 0.17825000000000002, 192.0, 0.0, 0.0, 0.0, 0.0, 0.0, 0.0, 0.0, 0.0, 0.0, 1.658165073848451E9, 0.0, 2022-07-18 13:24:33.848
206.0, -27912.65731008736, -41787.52503246368, -64565.40549581117, -59088.04346180481, -27260.031075481307, -47358.38441352659, -62755.20476760922, -39176.863631828266, -22176.43972354409, -66813.02986300348, -65013.78148958463, -82579.59277386579, -57242.34816340783, -61154.70810588695, -55338.09129453794, -54886.943684452024, 0.09225, 0.8235000000000001, 0.17825000000000002, 192.0, 0.0, 0.0, 0.0, 0.0, 0.0, 0.0, 0.0, 0.0, 0.0, 1.6581650738484547E9, 0.0, 2022-07-18 13:24:33.848
208.0, -27951.52699369514, -41789.62609644247, -64631.4549006766, -59155.36691610419, -27311.82006738425, -47405.256021649366, -62829.01022780064, -39229.211417342594, -22124.024882796395, -66757.2622605875, -64956.60572726795, -82525.99329066197, -57174.22004630805, -61097.64410229256, -55269.58319778243, -54827.175119778534, 0.09225, 0.8235000000000001, 0.17825000000000002, 192.0, 0.0, 0.0, 0.0, 0.0, 0.0, 0.0, 0.0, 0.0, 0.0, 1.6581650738484588E9, 0.0, 2022-07-18 13:24:33.848
210.0, -27911.67383333133, -41786.563907452095, -64573.83210347082, -59101.007473588885, -27268.234165696405, -47371.10255612166, -62769.19695963824, -39195.77320763746, -22190.34250859529, -66836.40978770373, -65032.10992003798, -82600.02226829795, -57257.502646148525, -61175.5399317193, -55348.216634776196, -54905.115652694185, 0.10112499999999999, 0.87975, 0.18912500000000002, 192.0, 1.5, 56.0, 14.5, 32.0, 3.0, 32.0, 0.0, 0.0, 0.0, 1.6581650738484628E9, 0.0, 2022-07-18 13:24:33.848
212.0, -27923.252036959177, -41765.955599064306, -64605.12454570825, -59125.28146806735, -27293.893968331096, -47366.49809676386, -62820.80713758554, -39213.27462354596, -22105.5176383874, -66737.52567023346, -64940.84774742696, -82505.63085146318, -57170.956691617575, -61081.819067218195, -55259.61431975536, -54811.19362249299, 0.10112499999999999, 0.87975, 0.18912500000000002, 192.0, 0.0, 0.0, 0.0, 0.0, 0.0, 0.0, 0.0, 0.0, 0.0, 1.658165073848478E9, 0.0, 2022-07-18 13:24:33.848
214.0, -27902.66608031584, -41770.53770667764, -64576.91664420565, -59089.58573217222, -27282.047543769782, -47350.76246866733, -62802.67987283229, -39207.59728045431, -22180.77596196842, -66826.23974397656, -65017.80480358659, -82580.66565759965, -57255.58039612537, -61158.642012911085, -55353.55870170101, -54894.25270488891, 0.10112499999999999, 0.87975, 0.18912500000000002, 192.0, 0.0, 0.0, 0.0, 0.0, 0.0, 0.0, 0.0, 0.0, 0.0, 1.658165073848482E9, 0.0, 2022-07-18 13:24:33.848
216.0, -27920.793345069094, -41762.31226471809, -64593.3451763803, -59099.8004793883, -27285.199139737982, -47352.41649775702, -62792.37571863839, -39187.32424823335, -22099.572074362288, -66730.1048910743, -64927.19083156477, -82485.82720587579, -57157.322127499836, -61064.87644492107, -55260.28487208902, -54795.994436263376, 0.10112499999999999, 0.87975, 0.18912500000000002, 192.0, 0.0, 0.0, 0.0, 0.0, 0.0, 0.0, 0.0, 0.0, 0.0, 1.658165073848487E9, 0.0, 2022-07-18 13:24:33.848
218.0, -27926.38128118292, -41783.72523590628, -64597.23437991553, -59107.4000725031, -27285.243843226894, -47378.74685272537, -62791.034613971075, -39216.94030963663, -22186.00627017096, -66836.40978770373, -65024.06329203407, -82587.86291931426, -57253.591090868846, -61163.96172809145, -55356.68794592476, -54894.208001399995, 0.10112499999999999, 0.87975, 0.18912500000000002, 192.0, 0.0, 0.0, 0.0, 0.0, 0.0, 0.0, 0.0, 0.0, 0.0, 1.6581650738484907E9, 0.0, 2022-07-18 13:24:33.848
220.0, -27935.456089431776, -41780.75245389372, -64602.3976328847, -59115.51375574038, -27282.62868912562, -47366.47574501941, -62799.12594546389, -39175.76839634996, -22113.5195629024, -66751.36140005129, -64946.88271842989, -82511.95639514404, -57173.12481082974, -61086.155305642525, -55272.779497239535, -54810.679532370516, 0.10112499999999999, 0.87975, 0.18912500000000002, 192.0, 0.0, 0.0, 0.0, 0.0, 0.0, 0.0, 0.0, 0.0, 0.0, 1.658165073848496E9, 0.0, 2022-07-18 13:24:33.848
222.0, -27945.067339547557, -41794.87875638947, -64615.98749351353, -59135.74208447243, -27312.51297146237, -47398.17051865703, -62821.81296608603, -39220.74010619403, -22197.5397703099, -66855.98991584659, -65045.78918764463, -82614.997937083, -57272.81359110041, -61191.70024296048, -55373.63056822188, -54919.599583101226, 0.112, 0.9420000000000001, 0.2, 192.0, 1.5, 64.0, 14.5, 56.0, 3.0, 32.0, 0.0, 0.0, 0.0, 1.6581650738485012E9, 0.0, 2022-07-18 13:24:33.848
224.0, -27899.08980120299, -41753.282159958144, -64567.86418770125, -59083.55076116929, -27263.517947616336, -47350.82952390069, -62782.004509211125, -39191.59343142431, -22105.070603498294, -66734.99992311001, -64935.43862526878, -82500.98168861648, -57161.45720022407, -61076.54405552674, -55267.54918903699, -54811.08186377071, 0.112, 0.9420000000000001, 0.2, 192.0, 0.0, 0.0, 0.0, 0.0, 0.0, 0.0, 0.0, 0.0, 0.0, 1.6581650738485065E9, 0.0, 2022-07-18 13:24:33.848
226.0, -27942.183964512824, -41786.45214872982, -64618.89322029272, -59128.209546590995, -27320.537247721822, -47398.32698086822, -62819.10840500694, -39200.93646060663, -22188.375555083225, -66832.0735492794, -65026.56668741306, -82588.37700943674, -57257.793218826446, -61160.51955944533, -55361.225350049186, -54901.71818753698, 0.112, 0.9420000000000001, 0.2, 192.0, 0.0, 0.0, 0.0, 0.0, 0.0, 0.0, 0.0, 0.0, 0.0, 1.658165073848512E9, 0.0, 2022-07-18 13:24:33.848
228.0, -27897.41342036884, -41760.99351179523, -64559.72815271952, -59076.17468549904, -27256.857127768653, -47338.625471428095, -62744.811206437495, -39162.02207350994, -22116.84997282624, -66744.81233892588, -64942.79234919457, -82504.93794738507, -57173.54949397439, -61071.5149130243, -55270.09728790489, -54808.75728234736, 0.112, 0.9420000000000001, 0.2, 192.0, 0.0, 0.0, 0.0, 0.0, 0.0, 0.0, 0.0, 0.0, 0.0, 1.658165073848517E9, 0.0, 2022-07-18 13:24:33.848
230.0, -27934.159688253367, -41779.858384115505, -64621.01663601597, -59135.049180394315, -27323.375919267648, -47401.277411136325, -62828.920820822816, -39244.56706578339, -22171.857615930752, -66830.28540972297, -65015.480222163234, -82584.6442681127, -57243.62221284178, -61149.67896338451, -55352.754038900624, -54887.97186469697, 0.112, 0.9420000000000001, 0.2, 192.0, 0.0, 0.0, 0.0, 0.0, 0.0, 0.0, 0.0, 0.0, 0.0, 1.6581650738485227E9, 0.0, 2022-07-18 13:24:33.848
232.0, -27912.61260659845, -41786.02746558517, -64578.70478376208, -59098.99581658791, -27281.466398413944, -47358.65263446005, -62804.602122855445, -39193.649791914206, -22130.573943921798, -66764.54892927992, -64966.4851983172, -82532.00590992045, -57190.246247082505, -61100.080442438186, -55307.40234940081, -54833.1430355481, 0.112, 0.9420000000000001, 0.2, 192.0, 1.5, 64.0, 14.5, 56.0, 3.0, 32.0, 0.0, 0.0, 0.0, 1.6581650738485267E9, 0.0, 2022-07-18 13:24:33.848
234.0, -27951.884621606427, -41791.16836680989, -64645.64825840572, -59167.772134276885, -27343.73835846643, -47425.596109103695, -62872.8419986775, -39268.95281898413, -22184.486351548, -66841.97537207311, -65032.57930667154, -82602.57036716586, -57255.58039612537, -61172.05305958427, -55377.29625431255, -54903.506327093404, 0.112, 0.9420000000000001, 0.2, 192.0, 0.0, 0.0, 0.0, 0.0, 0.0, 0.0, 0.0, 0.0, 0.0, 1.6581650738485308E9, 0.0, 2022-07-18 13:24:33.848
236.0, -27901.347327392978, -41775.54449743563, -64569.026478412925, -59093.36317698517, -27271.385761664602, -47367.41451828653, -62776.23775914166, -39195.32617274835, -22141.61570568272, -66784.8666649898, -64978.421029856334, -82543.91938971513, -57208.32880834685, -61116.352512401645, -55320.81339607399, -54852.14201833511, 0.112, 0.9420000000000001, 0.2, 192.0, 0.0, 0.0, 0.0, 0.0, 0.0, 0.0, 0.0, 0.0, 0.0, 1.6581650738485355E9, 0.0, 2022-07-18 13:24:33.848
238.0, -27950.543516939106, -41782.80881438361, -64638.85332809131, -59167.23569240996, -27332.22721007195, -47427.4960073824, -62827.89264057788, -39273.24435391955, -22168.66131647364, -66823.24461021955, -65011.05457676108, -82575.88238428622, -57236.581413338354, -61149.92483257352, -55338.91830908279, -54883.523867550364, 0.112, 0.9420000000000001, 0.2, 192.0, 0.0, 0.0, 0.0, 0.0, 0.0, 0.0, 0.0, 0.0, 0.0, 1.6581650738485396E9, 0.0, 2022-07-18 13:24:33.848
240.0, -27908.209312940755, -41784.50754696221, -64560.46576028655, -59096.22420027545, -27262.7356365604, -47361.93834089498, -62759.7645234781, -39196.644925671215, -22144.454377228543, -66791.8180575154, -64987.69700380528, -82549.97671246252, -57213.35795084929, -61129.361227674635, -55314.08552099294, -54861.46269577297, 0.112, 0.9420000000000001, 0.2, 192.0, 0.0, 0.0, 0.0, 0.0, 0.0, 0.0, 0.0, 0.0, 0.0, 1.6581650738485436E9, 0.0, 2022-07-18 13:24:33.848
242.0, -27960.601801943994, -41790.073131331585, -64644.262450249495, -59177.02575648139, -27344.207745099993, -47436.81668482026, -62855.206472302256, -39269.33279863987, -22165.01798212743, -66814.97446477109, -65010.942818038806, -82576.66469534216, -57233.586279581345, -61156.5856524212, -55337.86777709339, -54882.115707649675, 0.108, 0.936, 0.2, 192.0, 1.5, 48.0, 14.5, 32.0, 3.0, 32.0, 0.0, 0.0, 0.0, 1.6581650738485477E9, 0.0, 2022-07-18 13:24:33.848
244.0, -27902.777839038117, -41777.5114509477, -64561.560995764856, -59092.133831040126, -27278.78418907931, -47362.251265317354, -62782.40684061132, -39174.67316087164, -22161.10642684775, -66791.8627610043, -64998.850524288486, -82557.01751196594, -57225.539651577434, -61135.48560565539, -55333.97857355816, -54869.688137732526, 0.108, 0.936, 0.2, 192.0, 0.0, 0.0, 0.0, 0.0, 0.0, 0.0, 0.0, 0.0, 0.0, 1.6581650738485527E9, 0.0, 2022-07-18 13:24:33.848
246.0, -27951.750511139693, -41780.99832308273, -64644.73183688305, -59159.457285339515, -27346.085291634237, -47414.621402576144, -62839.71671339473, -39256.50289732253, -22153.30566803285, -66787.16889466869, -64995.85539053147, -82551.49663108548, -57221.6057445533, -61122.20866944893, -55330.312887467495, -54859.898073661105, 0.108, 0.936, 0.2, 192.0, 0.0, 0.0, 0.0, 0.0, 0.0, 0.0, 0.0, 0.0, 0.0, 1.6581650738485568E9, 0.0, 2022-07-18 13:24:33.848
248.0, -27904.543626850085, -41786.67566617438, -64574.21208312656, -59084.869514092155, -27289.06599152875, -47365.24639907436, -62787.07835520248, -39221.611824227795, -22176.663240988644, -66793.74030753855, -65012.66390236186, -82560.99612247899, -57245.58916635384, -61130.32235268621, -55349.98242258817, -54876.393661069116, 0.108, 0.936, 0.2, 192.0, 0.0, 0.0, 0.0, 0.0, 0.0, 0.0, 0.0, 0.0, 0.0, 1.6581650738485608E9, 0.0, 2022-07-18 13:24:33.848
250.0, -27951.325827995042, -41784.90987836241, -64648.442226462634, -59159.01025045041, -27348.40987305759, -47420.87989102363, -62847.182196042806, -39268.39402537275, -22165.129740849705, -66794.70143255012, -65002.51621037915, -82554.49176484249, -57233.116892947786, -61120.554640359245, -55336.459617192704, -54858.26639631586, 0.108, 0.936, 0.2, 192.0, 0.0, 0.0, 0.0, 0.0, 0.0, 0.0, 0.0, 0.0, 0.0, 1.658165073848565E9, 0.0, 2022-07-18 13:24:33.848
252.0, -27877.118036403423, -41758.44541292732, -64545.98182987951, -59065.82582781623, -27261.238069681895, -47349.98015761139, -62751.606136751914, -39167.43119566813, -22172.05878163085, -66802.14456345375, -65012.753309339685, -82564.46064286956, -57245.18683495365, -61135.9773440334, -55347.6131376759, -54869.755192965895, 0.108, 0.9400000000000001, 0.20400000000000001, 192.0, 1.5, 48.0, 14.5, 48.0, 3.0, 48.0, 0.0, 0.0, 0.0, 1.6581650738485692E9, 0.0, 2022-07-18 13:24:33.848
254.0, -27938.317112722056, -41776.39386372493, -64631.387845443234, -59153.84699748123, -27332.40602402759, -47420.16463520106, -62840.588431428485, -39261.308522380416, -22129.81398461032, -66760.39150481124, -64968.16157915135, -82521.09825862625, -57194.582485506835, -61098.113488926116, -55304.07193947696, -54828.918555846045, 0.108, 0.9400000000000001, 0.20400000000000001, 192.0, 0.0, 0.0, 0.0, 0.0, 0.0, 0.0, 0.0, 0.0, 0.0, 1.6581650738485732E9, 0.0, 2022-07-18 13:24:33.848
0.0, -27891.199635410267, -41771.09650028902, -64566.388972567205, -59095.978331086444, -27286.517892660846, -47367.079242119704, -62773.823770740484, -39216.71679219208, -22186.96739518254, -66820.54004914046, -65028.555992669586, -82578.60929710977, -57256.85444555932, -61157.36796347713, -55368.981405375176, -54898.45483284651, 0.108, 0.9400000000000001, 0.20400000000000001, 192.0, 0.0, 0.0, 0.0, 0.0, 0.0, 0.0, 0.0, 0.0, 0.0, 1.658165073848578E9, 0.0, 2022-07-18 13:24:33.848
2.0, -27921.642711358396, -41766.156764764404, -64625.91166805168, -59150.67304976858, -27322.191276811514, -47406.88769899461, -62820.91889630782, -39239.694385492134, -22120.739176361465, -66751.8084349404, -64962.01484942614, -82511.68817421058, -57187.4969825145, -61088.07755566568, -55302.619076087365, -54838.86508212866, 0.108, 0.9400000000000001, 0.20400000000000001, 192.0, 0.0, 0.0, 0.0, 0.0, 0.0, 0.0, 0.0, 0.0, 0.0, 1.658165073848582E9, 0.0, 2022-07-18 13:24:33.848
4.0, -27902.263748915644, -41774.02457881267, -64594.619225814255, -59115.37964527365, -27303.50521844688, -47389.34157959719, -62794.99087273966, -39215.53214973595, -22198.00915694346, -66826.64207537676, -65040.62593467545, -82586.03007626893, -57272.23244574457, -61166.95686184846, -55377.922103157296, -54910.52477485237, 0.108, 0.9400000000000001, 0.20400000000000001, 192.0, 0.0, 0.0, 0.0, 0.0, 0.0, 0.0, 0.0, 0.0, 0.0, 1.658165073848586E9, 0.0, 2022-07-18 13:24:33.848
6.0, -27919.407536912866, -41761.1052705175, -64615.518106879965, -59131.11527337018, -27313.652910429588, -47386.435852817995, -62822.01413178613, -39236.699251735125, -22132.675007900598, -66747.51690000498, -64970.57556755252, -82512.6269474777, -57200.32688383185, -61091.94440745645, -55305.05541623299, -54834.46178847096, 0.11, 0.9420000000000001, 0.2, 192.0, 1.5, 56.0, 14.5, 56.0, 3.0, 32.0, 0.0, 0.0, 0.0, 1.65816507384859E9, 0.0, 2022-07-18 13:24:33.848
8.0, -27907.404650140365, -41774.13633753495, -64596.362661881765, -59113.77031967286, -27303.751087635887, -47385.1841551285, -62808.938361279776, -39220.58364398285, -22192.756496996462, -66829.23487773357, -65042.7046469098, -82587.66175361416, -57264.61050088531, -61155.713934387444, -55381.47603052569, -54905.85326026121, 0.11, 0.9420000000000001, 0.2, 192.0, 0.0, 0.0, 0.0, 0.0, 0.0, 0.0, 0.0, 0.0, 0.0, 1.658165073848594E9, 0.0, 2022-07-18 13:24:33.848
10.0, -27902.33080414901, -41758.668930371874, -64603.93990325212, -59116.76545342988, -27295.63740439861, -47376.28816083529, -62798.030709985585, -39205.67503043116, -22124.96365606352, -66743.27006855847, -64960.67374475882, -82506.59197647477, -57184.524200501946, -61071.58196825767, -55305.52480286656, -54823.12945403212, 0.11, 0.9420000000000001, 0.2, 192.0, 0.0, 0.0, 0.0, 0.0, 0.0, 0.0, 0.0, 0.0, 0.0, 1.658165073848598E9, 0.0, 2022-07-18 13:24:33.848
12.0, -27904.990661739193, -41766.98377930925, -64612.81354580088, -59124.54386050032, -27319.30790177678, -47394.348370355176, -62812.53699213708, -39222.88587366175, -22196.936273209605, -66827.8714213218, -65041.38589398693, -82585.5383378909, -57270.24314048805, -61158.32908848871, -55388.58388526248, -54907.88726900665, 0.11, 0.9420000000000001, 0.2, 192.0, 0.0, 0.0, 0.0, 0.0, 0.0, 0.0, 0.0, 0.0, 0.0, 1.658165073848602E9, 0.0, 2022-07-18 13:24:33.848
14.0, -27892.33957437749, -41755.807907081595, -64604.275179418946, -59115.04436910682, -27308.377898738137, -47378.45628004745, -62815.75564333864, -39212.6040712123, -22122.817888595808, -66735.58106846584, -64960.40552382536, -82498.76886591541, -57192.481421528035, -61073.437163047456, -55316.52186113857, -54822.86123309866, 0.11, 0.9420000000000001, 0.2, 192.0, 0.0, 0.0, 0.0, 0.0, 0.0, 0.0, 0.0, 0.0, 0.0, 1.658165073848606E9, 0.0, 2022-07-18 13:24:33.848
16.0, -27898.866283758438, -41757.908971060395, -64614.132298723736, -59125.214412833986, -27322.30303553379, -47408.02763796182, -62799.32711116399, -39248.00923442951, -22188.62142427223, -66823.6245898753, -65038.122539296455, -82578.22931745402, -57268.09737302034, -61159.401972222564, -55393.63537950938, -54907.55199283981, 0.112, 0.9400000000000001, 0.2, 192.0, 1.5, 64.0, 14.5, 48.0, 3.0, 32.0, 0.0, 0.0, 0.0, 1.6581650738486102E9, 0.0, 2022-07-18 13:24:33.848
18.0, -27885.70110627426, -41753.39391868042, -64587.35490886628, -59095.66540666407, -27302.11941029065, -47371.79546019977, -62791.34753839345, -39202.81400714088, -22110.055042511827, -66725.0981003163, -64948.3802853084, -82484.06141806382, -57187.00524413648, -61068.20685484492, -55303.42373888776, -54814.300514972274, 0.112, 0.9400000000000001, 0.2, 192.0, 0.0, 0.0, 0.0, 0.0, 0.0, 0.0, 0.0, 0.0, 0.0, 1.6581650738486145E9, 0.0, 2022-07-18 13:24:33.848
20.0, -27906.734097806704, -41760.68058737285, -64620.05551100439, -59133.238689093436, -27340.676169476053, -47398.57285005723, -62828.093806277975, -39241.52722853747, -22184.598110270275, -66815.30974093793, -65032.08756829352, -82572.88725052921, -57263.783486340464, -61157.814998366244, -55387.354539317435, -54899.81828925828, 0.112, 0.9400000000000001, 0.2, 192.0, 0.0, 0.0, 0.0, 0.0, 0.0, 0.0, 0.0, 0.0, 0.0, 1.6581650738486197E9, 0.0, 2022-07-18 13:24:33.848
22.0, -27856.286210571077, -41731.24333992521, -64555.66013522865, -59070.13971449611, -27269.038828496796, -47339.9218726065, -62772.929700962275, -39195.57204193736, -22115.151240247636, -66725.56748694986, -64950.03431439809, -82491.6163076897, -57185.1947528356, -61069.52560776778, -55302.775538298556, -54812.26650622684, 0.112, 0.9400000000000001, 0.2, 192.0, 0.0, 0.0, 0.0, 0.0, 0.0, 0.0, 0.0, 0.0, 0.0, 1.6581650738486235E9, 0.0, 2022-07-18 13:24:33.848
24.0, -27897.41342036884, -41745.615511609976, -64620.211973215584, -59130.288258825334, -27329.232076314936, -47398.01405644585, -62822.03648353058, -39237.123934879775, -22162.53693849289, -66800.24466517505, -65010.56283838306, -82554.02237820893, -57246.68440183216, -61131.19407071997, -55357.67142268079, -54872.28094008934, 0.112, 0.9400000000000001, 0.2, 192.0, 0.0, 0.0, 0.0, 0.0, 0.0, 0.0, 0.0, 0.0, 0.0, 1.6581650738486276E9, 0.0, 2022-07-18 13:24:33.848
26.0, -27846.02675986609, -41712.40081934939, -64535.99060010799, -59048.6373363301, -27241.881458983597, -47323.22511949839, -62736.004619122104, -39118.480875311005, -22113.81013558032, -66731.93773411962, -64948.89437543087, -82489.78346464438, -57187.42992728113, -61068.542131011745, -55294.795965528014, -54807.01384627984, 0.114, 0.936, 0.20400000000000001, 192.0, 1.5, 72.0, 14.5, 32.0, 3.0, 48.0, 0.0, 0.0, 0.0, 1.6581650738486316E9, 0.0, 2022-07-18 13:24:33.848
28.0, -27885.56699580753, -41708.4445605808, -64608.87963877674, -59115.55845922929, -27303.572273680245, -47375.34938756817, -62815.53212589409, -39193.292164002916, -22122.214391495516, -66754.98238265305, -64969.30151811857, -82510.48118000999, -57206.87594495725, -61091.47502082289, -55306.86590753388, -54831.913689603054, 0.114, 0.936, 0.20400000000000001, 192.0, 0.0, 0.0, 0.0, 0.0, 0.0, 0.0, 0.0, 0.0, 0.0, 1.6581650738486357E9, 0.0, 2022-07-18 13:24:33.848
30.0, -27847.613733722417, -41711.596156549, -64552.888518916196, -59060.6402231026, -27255.35956089015, -47311.19988098143, -62739.84911916842, -39160.61391360926, -22117.69933911554, -66732.74239692002, -64953.65529699985, -82487.68240066558, -57187.60874123678, -61076.87933169358, -55290.97381722616, -54823.263564498855, 0.114, 0.936, 0.20400000000000001, 192.0, 0.0, 0.0, 0.0, 0.0, 0.0, 0.0, 0.0, 0.0, 0.0, 1.6581650738486395E9, 0.0, 2022-07-18 13:24:33.848
32.0, -27874.771103235616, -41697.91688894235, -64618.043854003416, -59119.42531102006, -27316.066898830763, -47353.69054719097, -62809.18423046878, -39204.02100134146, -22127.847031098252, -66758.51395827699, -64971.290823375086, -82512.64929922215, -57200.259828598486, -61097.30882612572, -55307.00001800061, -54846.93406187702, 0.114, 0.936, 0.20400000000000001, 192.0, 0.0, 0.0, 0.0, 0.0, 0.0, 0.0, 0.0, 0.0, 0.0, 1.6581650738486452E9, 0.0, 2022-07-18 13:24:33.848
34.0, -27835.141460316358, -41697.581612775524, -64541.131501332704, -59046.268051417836, -27242.35084561716, -47291.306828416215, -62713.02702582205, -39134.46237259655, -22112.893714057653, -66728.36145500677, -64947.57562250801, -82487.79415938785, -57184.1442208462, -61062.93184315346, -55285.96702646816, -54817.586221407204, 0.114, 0.936, 0.20400000000000001, 192.0, 0.0, 0.0, 0.0, 0.0, 0.0, 0.0, 0.0, 0.0, 0.0, 1.6581650738486505E9, 0.0, 2022-07-18 13:24:33.848
36.0, -27904.09659196098, -41716.11120892897, -64638.83097634685, -59146.53797704435, -27328.829744914743, -47377.45045154697, -62811.48646014768, -39246.690481506645, -22132.85382185624, -66763.99013566854, -64970.39675359688, -82517.43257253559, -57207.725311246555, -61086.93761669846, -55297.053491718, -54838.75332340638, 0.113, 0.936, 0.20400000000000001, 192.0, 1.5, 64.0, 14.5, 32.0, 3.0, 48.0, 0.0, 0.0, 0.0, 1.658165073848656E9, 0.0, 2022-07-18 13:24:33.848
38.0, -27830.626407936386, -41693.82651970703, -64539.4327687541, -59055.96870851144, -27245.457738096447, -47297.11828197459, -62733.27770629856, -39134.775297018925, -22129.881039843684, -66757.53048152095, -64967.89335821788, -82515.66678472362, -57202.98674142203, -61089.575122544185, -55300.69682606421, -54841.27907052983, 0.113, 0.936, 0.20400000000000001, 192.0, 0.0, 0.0, 0.0, 0.0, 0.0, 0.0, 0.0, 0.0, 0.0, 1.658165073848662E9, 0.0, 2022-07-18 13:24:33.848
40.0, -27893.36775462243, -41712.40081934939, -64628.951505297606, -59146.06859041078, -27321.476020988946, -47357.46799200392, -62815.12979449389, -39211.24061480053, -22115.732385603475, -66755.31765881988, -64953.56589002203, -82506.61432821922, -57185.10534585779, -61081.90847419602, -55281.6978432772, -54823.30826798776, 0.113, 0.936, 0.20400000000000001, 192.0, 0.0, 0.0, 0.0, 0.0, 0.0, 0.0, 0.0, 0.0, 0.0, 1.6581650738486664E9, 0.0, 2022-07-18 13:24:33.848
42.0, -27854.2745535701, -41715.73122927323, -64552.57559449382, -59076.86758957715, -27256.38774113509, -47316.45254092843, -62734.88703189934, -39177.914163817666, -22147.76243540793, -66773.44492357313, -64979.739782779194, -82530.91067444214, -57215.481366572545, -61114.76553854532, -55304.80954704399, -54853.460771257975, 0.113, 0.936, 0.20400000000000001, 192.0, 0.0, 0.0, 0.0, 0.0, 0.0, 0.0, 0.0, 0.0, 0.0, 1.6581650738486707E9, 0.0, 2022-07-18 13:24:33.848
44.0, -27894.775914523118, -41711.26088038217, -64619.38495867074, -59140.368895574684, -27302.432334713023, -47366.6322072306, -62790.87815175988, -39200.77999839545, -22113.631321624678, -66746.66753371568, -64943.93228816179, -82495.30434552484, -57173.21421780756, -61074.554750270225, -55261.313052333964, -54815.99924755088, 0.113, 0.936, 0.20400000000000001, 192.0, 0.0, 0.0, 0.0, 0.0, 0.0, 0.0, 0.0, 0.0, 0.0, 1.658165073848675E9, 0.0, 2022-07-18 13:24:33.848
0.0, -13800.235247640045, -20540.269677671156, -32185.819111564055, -29485.30369821831, -13576.78485832034, -23585.158417839815, -31301.025307300726, -19522.214772965286, -11061.677165231367, -33374.14960553045, -32476.078865060674, -41252.40191845917, -28594.0502398074, -30541.021292331374, -27636.41210036422, -27417.47676342449, 0.11, 0.936, 0.196, 192.0, 1.5, 56.0, 14.5, 32.0, 3.0, 16.0, 0.0, 0.0, 0.0, 1.6581650739450798E9, 0.0, 2022-07-18 13:24:33.945
2.0, -27557.957477326094, -41087.91543101257, -64294.94938790195, -58900.713491524875, -27085.463951285357, -47115.73387571977, -62522.81368050739, -38975.20619335249, -21964.16520645204, -66515.32697860325, -64767.44291394269, -82175.31677190265, -57052.00070762643, -60748.37574343393, -55064.81886682736, -54634.39132385151, 0.11, 0.936, 0.196, 192.0, 0.0, 0.0, 0.0, 0.0, 0.0, 0.0, 0.0, 0.0, 0.0, 1.658165074423967E9, 0.0, 2022-07-18 13:24:34.423
4.0, -27605.03025114897, -41086.23905017842, -64364.060981757764, -58967.85813186862, -27139.66693158948, -47166.13705946649, -62584.86212311532, -39018.81444678479, -21945.233278898395, -66498.16083886157, -64743.81712005343, -82153.30030361417, -57028.821948626275, -60726.40397863436, -55033.50407284547, -54608.508003772266, 0.11, 0.936, 0.196, 192.0, 0.0, 0.0, 0.0, 0.0, 0.0, 0.0, 0.0, 0.0, 0.0, 1.658165074424009E9, 0.0, 2022-07-18 13:24:34.424
6.0, -27564.193614029125, -41086.641381578615, -64299.50914377083, -58907.12844218355, -27093.063544400164, -47125.836864213576, -62534.525994601965, -38978.06721664277, -21983.29829970578, -66534.88475500164, -64785.83839962941, -82192.19233896642, -57071.267911346906, -60765.608938408965, -55079.3027972344, -54651.24453917081, 0.11, 0.936, 0.196, 192.0, 0.0, 0.0, 0.0, 0.0, 0.0, 0.0, 0.0, 0.0, 0.0, 1.6581650744240224E9, 0.0, 2022-07-18 13:24:34.424
8.0, -27591.283928308956, -41073.006817460875, -64348.01242923885, -58950.89315782704, -27132.55907685269, -47162.09139372008, -62598.76490816652, -39047.044700031845, -21925.04965365525, -66471.45050423748, -64725.89102100027, -82127.28287306821, -57015.81323335329, -60703.64990277886, -55024.31750587434, -54597.37683503352, 0.11, 0.9420000000000001, 0.188, 192.0, 1.5, 56.0, 14.5, 56.0, 2.5, 112.0, 0.0, 0.0, 0.0, 1.6581650744240263E9, 0.0, 2022-07-18 13:24:34.424
10.0, -27555.16350926918, -41070.43636684852, -64291.216646577916, -58893.091546665615, -27087.60971875307, -47126.529768291686, -62531.32969514486, -38981.01764691086, -21970.043715243784, -66517.29393211531, -64776.048335557985, -82174.57916433564, -57070.217379357506, -60754.12014175894, -55081.493268191014, -54653.18914093842, 0.11, 0.9420000000000001, 0.188, 192.0, 0.0, 0.0, 0.0, 0.0, 0.0, 0.0, 0.0, 0.0, 0.0, 1.6581650744240298E9, 0.0, 2022-07-18 13:24:34.424
12.0, -27607.958329672616, -41089.12242521315, -64367.70431610398, -58963.074858555185, -27139.778690311756, -47170.45094614637, -62591.18766679617, -39060.16517402711, -21927.44129031197, -66464.65557392307, -64724.639323310774, -82119.19154157539, -57015.120329275174, -60701.14650739986, -55017.65668602666, -54592.25828555325, 0.11, 0.9420000000000001, 0.188, 192.0, 0.0, 0.0, 0.0, 0.0, 0.0, 0.0, 0.0, 0.0, 0.0, 1.6581650744240334E9, 0.0, 2022-07-18 13:24:34.424
14.0, -27581.024477603973, -41085.34498040021, -64325.77244350582, -58916.67263706597, -27113.403631854493, -47127.66970725891, -62548.875814542276, -39001.447141343015, -22010.03098607433, -66555.60482211171, -64817.1978971002, -82208.77733335225, -57107.902420509155, -60792.743956177714, -55114.99853312952, -54680.637083129535, 0.11, 0.9420000000000001, 0.188, 192.0, 0.0, 0.0, 0.0, 0.0, 0.0, 0.0, 0.0, 0.0, 0.0, 1.6581650744240372E9, 0.0, 2022-07-18 13:24:34.424
16.0, -27586.210082317604, -41080.24878266439, -64345.397275137584, -58933.4587971519, -27126.524105849756, -47138.979689953296, -62568.232425240574, -39005.55986232279, -21926.636627511576, -66454.75375112936, -64719.118442430314, -82108.68622168139, -57006.581962893244, -60695.58092303049, -55014.92977320311, -54572.70050915486, 0.11, 0.9420000000000001, 0.188, 192.0, 0.0, 0.0, 0.0, 0.0, 0.0, 0.0, 0.0, 0.0, 0.0, 1.6581650744240408E9, 0.0, 2022-07-18 13:24:34.424
18.0, -27599.64348073524, -41103.002858519896, -64351.09696997368, -58938.823215821176, -27143.533783380248, -47165.24298968828, -62589.51128596203, -39026.07876373277, -22007.035852317316, -66556.6106506122, -64812.97341739815, -82205.49162691733, -57098.00059771545, -60787.51364797517, -55115.892602907734, -54674.691519104425, 0.106, 0.936, 0.18, 192.0, 1.5, 40.0, 14.5, 32.0, 2.5, 80.0, 0.0, 0.0, 0.0, 1.6581650744240444E9, 0.0, 2022-07-18 13:24:34.424
20.0, -27586.634765462255, -41074.92906748403, -64341.686885558, -58931.51419538429, -27135.442451887426, -47149.127381936, -62583.76688763701, -39024.670603832084, -21941.925220719007, -66470.0870478257, -64732.46243387013, -82122.8348759216, -57022.04937005632, -60706.73444351369, -55041.103665960276, -54595.81221292165, 0.106, 0.936, 0.18, 192.0, 0.0, 0.0, 0.0, 0.0, 0.0, 0.0, 0.0, 0.0, 0.0, 1.658165074424048E9, 0.0, 2022-07-18 13:24:34.424
22.0, -27594.524931254975, -41086.06023622277, -64362.36224917916, -58955.452913695925, -27158.95648705441, -47174.1836874704, -62595.61331219832, -39056.29832223634, -22006.32059649475, -66552.92261277707, -64810.51472550807, -82202.54119664922, -57111.59045834428, -60783.713851417764, -55123.49219602254, -54683.18518199745, 0.106, 0.936, 0.18, 192.0, 0.0, 0.0, 0.0, 0.0, 0.0, 0.0, 0.0, 0.0, 0.0, 1.658165074424058E9, 0.0, 2022-07-18 13:24:34.424
24.0, -27574.11778856728, -41065.22841039043, -64329.8851644856, -58924.65220983651, -27120.13150693554, -47129.92723344889, -62558.934099547165, -38992.05940867179, -21937.074892172204, -66459.17939653152, -64723.07470119891, -82113.08951533909, -57026.944402092035, -60698.509001554135, -55029.25724139896, -54596.08043385511, 0.106, 0.936, 0.18, 192.0, 0.0, 0.0, 0.0, 0.0, 0.0, 0.0, 0.0, 0.0, 0.0, 1.6581650744240618E9, 0.0, 2022-07-18 13:24:34.424
26.0, -27587.618242218286, -41065.742500512904, -64348.481815872416, -58939.00202977682, -27143.04204500223, -47152.457791859844, -62591.43353598518, -39018.76974329588, -22003.03489005982, -66546.86529002969, -64798.66830094675, -82190.06892324316, -57104.0802722073, -60777.38830773692, -55101.654541689706, -54668.567141123676, 0.106, 0.936, 0.18, 192.0, 0.0, 0.0, 0.0, 0.0, 0.0, 0.0, 0.0, 0.0, 0.0, 1.6581650744240656E9, 0.0, 2022-07-18 13:24:34.424
28.0, -27559.36563722678, -41056.80180273078, -64305.78998396278, -58895.88551472253, -27098.852646214087, -47103.88745115846, -62528.7592445325, -38982.38110332264, -21925.921371689008, -66444.6284108911, -64708.791936491965, -82094.53756744118, -57015.09797753072, -60678.7724112001, -55012.82870922431, -54578.310797013146, 0.106, 0.936, 0.176, 192.0, 1.5, 40.0, 14.5, 32.0, 2.5, 64.0, 0.0, 0.0, 0.0, 1.6581650744240692E9, 0.0, 2022-07-18 13:24:34.424
30.0, -27600.783419702464, -41079.75704428638, -64361.87051080114, -58958.82802710868, -27155.357856197104, -47162.49372512028, -62588.75132665054, -39046.39649944264, -21988.126276508126, -66529.40857761008, -64786.464248474156, -82179.45184462689, -57096.48067909249, -60760.78096160662, -55087.21531477157, -54658.50885611879, 0.106, 0.936, 0.176, 192.0, 0.0, 0.0, 0.0, 0.0, 0.0, 0.0, 0.0, 0.0, 0.0, 1.6581650744240727E9, 0.0, 2022-07-18 13:24:34.424
32.0, -27554.247087746513, -41063.37321560064, -64292.133068100586, -58891.906904209485, -27086.514483274757, -47107.59784073804, -62523.43952935214, -38982.157585878085, -21935.3761595936, -66462.26393726634, -64723.4770325991, -82116.01759386274, -57024.508061946406, -60695.983254430685, -55019.3330668608, -54588.34673027357, 0.106, 0.936, 0.176, 192.0, 0.0, 0.0, 0.0, 0.0, 0.0, 0.0, 0.0, 0.0, 0.0, 1.6581650744240763E9, 0.0, 2022-07-18 13:24:34.424
34.0, -27599.08468712386, -41081.34401814271, -64362.92104279054, -58960.19148352045, -27155.961353297396, -47176.70943459385, -62593.534599963976, -39058.80171761534, -21974.82698855722, -66530.07912994376, -64779.44580071519, -82177.12726320354, -57077.32523409429, -60756.198853993286, -55072.485515175526, -54642.10267568859, 0.106, 0.936, 0.176, 192.0, 0.0, 0.0, 0.0, 0.0, 0.0, 0.0, 0.0, 0.0, 0.0, 1.6581650744240823E9, 0.0, 2022-07-18 13:24:34.424
36.0, -27556.92929708115, -41076.359579129174, -64292.11071635613, -58881.356880826585, -27097.198617124395, -47114.906861174924, -62525.83116600885, -38975.720283474955, -21947.35669462165, -66477.73134442941, -64736.91043101674, -82128.42281203542, -57040.17663480958, -60712.81411800553, -55029.41370361015, -54592.32534078662, 0.106, 0.936, 0.176, 192.0, 0.0, 0.0, 0.0, 0.0, 0.0, 0.0, 0.0, 0.0, 0.0, 1.6581650744240863E9, 0.0, 2022-07-18 13:24:34.424
38.0, -27598.011803390003, -41082.46160536547, -64363.83746431321, -58949.462646181906, -27166.489024935847, -47181.04567301818, -62602.765870424024, -39034.61713011469, -21979.40909617056, -66526.3016851308, -64772.78498086751, -82167.04662645419, -57082.175562641096, -60752.71198185826, -55069.60214014079, -54629.63040228253, 0.11, 0.9420000000000001, 0.178, 192.0, 1.5, 56.0, 14.5, 56.0, 2.5, 72.0, 0.0, 0.0, 0.0, 1.658165074424111E9, 0.0, 2022-07-18 13:24:34.424
40.0, -27527.179125211136, -41053.60550327367, -64254.20215775993, -58845.59408969809, -27064.11803533054, -47078.07118631258, -62498.31616858437, -38950.775736662836, -21939.73474976239, -66470.4893792259, -64724.438157610675, -82117.85043690806, -57029.67131491558, -60699.64894052136, -55021.00944769495, -54584.50223022726, 0.11, 0.9420000000000001, 0.178, 192.0, 0.0, 0.0, 0.0, 0.0, 0.0, 0.0, 0.0, 0.0, 0.0, 1.6581650744241145E9, 0.0, 2022-07-18 13:24:34.424
42.0, -27594.435524277156, -41074.30321863928, -64353.73447581941, -58946.10988451361, -27148.406463671505, -47163.38779489849, -62588.90778886173, -39055.068976291295, -21943.48984283088, -66486.06854511125, -64740.464358385136, -82133.85428593807, -57032.9123178616, -60702.75583300064, -55028.40787510966, -54597.06391061115, 0.11, 0.9420000000000001, 0.178, 192.0, 0.0, 0.0, 0.0, 0.0, 0.0, 0.0, 0.0, 0.0, 0.0, 1.6581650744241188E9, 0.0, 2022-07-18 13:24:34.424
44.0, -27548.949724310605, -41078.97473323044, -64279.01259410532, -58876.528904024235, -27071.96349763435, -47101.54051799065, -62511.43664257964, -38962.04101586831, -21955.738598792388, -66492.70701321447, -64751.79669282398, -82144.80664072116, -57043.88702438916, -60715.138699428884, -55032.58765132281, -54607.85980318306, 0.11, 0.9420000000000001, 0.178, 192.0, 0.0, 0.0, 0.0, 0.0, 0.0, 0.0, 0.0, 0.0, 0.0, 1.6581650744241223E9, 0.0, 2022-07-18 13:24:34.424
46.0, -27615.356757087324, -41089.05536997979, -64370.11830450515, -58961.62199516559, -27147.333579937647, -47159.297425663164, -62596.59678895435, -39030.30324343482, -21949.904793489553, -66494.67396672654, -64751.10378874586, -82144.65017850998, -57038.03086734186, -60718.17853667481, -55034.15227343467, -54604.2388205813, 0.11, 0.9420000000000001, 0.178, 192.0, 0.0, 0.0, 0.0, 0.0, 0.0, 0.0, 0.0, 0.0, 0.0, 1.658165074424126E9, 0.0, 2022-07-18 13:24:34.424
48.0, -27563.679523906652, -41091.871689781154, -64290.18846633297, -58888.26356986327, -27087.542663519704, -47104.96033489232, -62515.99639844852, -38987.43259756954, -21983.05243051677, -66521.76428100637, -64781.971547838635, -82168.52184158824, -57067.80339095633, -60744.93357478781, -55063.187189482116, -54632.893756973004, 0.10400000000000001, 0.9460000000000001, 0.18, 192.0, 1.5, 32.0, 14.5, 72.0, 2.5, 80.0, 0.0, 0.0, 0.0, 1.6581650744241295E9, 0.0, 2022-07-18 13:24:34.424
50.0, -27606.23724534956, -41095.06798923826, -64372.01820278385, -58966.69584115694, -27160.74462661083, -47160.012681485736, -62608.24204781557, -39039.66862436159, -21957.169110437528, -66501.89358018561, -64751.39436142378, -82142.52676278673, -57045.473998245485, -60715.04929245106, -55039.04730547039, -54605.60227699307, 0.10400000000000001, 0.9460000000000001, 0.18, 192.0, 0.0, 0.0, 0.0, 0.0, 0.0, 0.0, 0.0, 0.0, 0.0, 1.6581650744241333E9, 0.0, 2022-07-18 13:24:34.424
52.0, -27547.250991732002, -41090.977620002945, -64293.36241404562, -58897.628950790044, -27104.574692794646, -47118.214919354315, -62539.95746850461, -39005.47045534497, -21987.791000341298, -66529.14035667662, -64784.20672228417, -82176.25554516978, -57083.2707981194, -60749.40392367887, -55080.50979143498, -54648.4505711139, 0.10400000000000001, 0.9460000000000001, 0.18, 192.0, 0.0, 0.0, 0.0, 0.0, 0.0, 0.0, 0.0, 0.0, 0.0, 1.6581650744241369E9, 0.0, 2022-07-18 13:24:34.424
54.0, -27573.156663555703, -41082.21573617646, -64352.68394383001, -58957.15164627453, -27145.254867703305, -47170.786222313196, -62578.44717245665, -39049.279874477375, -21940.494709073868, -66479.83240840821, -64734.47409087111, -82129.45099228037, -57029.71601840449, -60702.37585334491, -55030.71010478856, -54605.490518270795, 0.10400000000000001, 0.9460000000000001, 0.18, 192.0, 0.0, 0.0, 0.0, 0.0, 0.0, 0.0, 0.0, 0.0, 0.0, 1.6581650744241405E9, 0.0, 2022-07-18 13:24:34.424
56.0, -27546.289866720424, -41085.5461461003, -64299.3750333041, -58903.70862528189, -27099.16557063646, -47131.693021260864, -62536.67176206968, -39015.14876069412, -21980.169055482038, -66526.01111245288, -64786.71011766316, -82177.97662949284, -57074.95594918203, -60755.841226082, -55082.29793099141, -54652.22801592684, 0.10400000000000001, 0.9460000000000001, 0.18, 192.0, 0.0, 0.0, 0.0, 0.0, 0.0, 0.0, 0.0, 0.0, 0.0, 1.658165074424144E9, 0.0, 2022-07-18 13:24:34.424
58.0, -27577.02351534647, -41083.17686118804, -64351.83457754071, -58948.27800372577, -27132.290855919226, -47150.20026566986, -62575.11676253281, -39018.34506015123, -21920.892229186564, -66460.20757677646, -64723.96877097712, -82113.60360546155, -57011.72286411797, -60693.85983870743, -55021.97057270653, -54578.17668654641, 0.098, 0.9440000000000001, 0.184, 192.0, 1.5, 8.0, 14.5, 64.0, 2.5, 96.0, 0.0, 0.0, 0.0, 1.6581650744241478E9, 0.0, 2022-07-18 13:24:34.424
60.0, -27542.802994585396, -41087.334285656725, -64298.74918445935, -58901.138174669526, -27106.720460262357, -47128.340259592565, -62541.36562840529, -38983.990428923425, -21987.232206729914, -66536.85170851371, -64790.04052758701, -82179.72006556035, -57080.208609129026, -60767.62059540994, -55091.05981481789, -54640.00161170979, 0.098, 0.9440000000000001, 0.184, 192.0, 0.0, 0.0, 0.0, 0.0, 0.0, 0.0, 0.0, 0.0, 0.0, 1.6581650744241517E9, 0.0, 2022-07-18 13:24:34.424
62.0, -27558.516270937478, -41080.0476169643, -64321.346798103674, -58917.87963126655, -27112.978948709842, -47131.76007649423, -62543.37728540627, -38986.985562680435, -21911.86212442662, -66452.42916970601, -64703.51692480051, -82093.55409068515, -56997.574209877755, -60678.28067282208, -55001.40696780765, -54547.13011349799, 0.098, 0.9440000000000001, 0.184, 192.0, 0.0, 0.0, 0.0, 0.0, 0.0, 0.0, 0.0, 0.0, 0.0, 1.6581650744241552E9, 0.0, 2022-07-18 13:24:34.424
64.0, -27557.845718603818, -41099.13600672913, -64304.918265929016, -58895.90786646699, -27106.586349795623, -47134.24112012877, -62534.883622513255, -39007.593871068224, -21990.83083758722, -66541.32205740477, -64789.83936188691, -82179.4965481158, -57083.6731295196, -60761.5409209181, -55084.98014032604, -54634.86071048507, 0.098, 0.9440000000000001, 0.184, 192.0, 0.0, 0.0, 0.0, 0.0, 0.0, 0.0, 0.0, 0.0, 0.0, 1.6581650744241588E9, 0.0, 2022-07-18 13:24:34.424
66.0, -27552.615410401275, -41074.347922128196, -64299.84441993767, -58887.79418322971, -27097.4444863134, -47116.35972456452, -62535.35300914681, -38959.76113793387, -21919.595828008158, -66450.14929177157, -64706.17678239069, -82092.54826218466, -56998.33416918924, -60670.7704866851, -54996.04254913838, -54542.03391576218, 0.098, 0.9440000000000001, 0.184, 192.0, 0.0, 0.0, 0.0, 0.0, 0.0, 0.0, 0.0, 0.0, 0.0, 1.6581650744241624E9, 0.0, 2022-07-18 13:24:34.424
68.0, -27530.286017690425, -41065.72014876844, -64285.44989650845, -58880.239293603816, -27101.154875892982, -47112.403465795935, -62532.04495096743, -38994.473397072965, -21973.530587378813, -66522.23366763994, -64775.266024502045, -82161.30222812918, -57069.502123534934, -60743.99480152068, -55070.317395963364, -54619.28154459972, 0.097, 0.9450000000000001, 0.183, 192.0, 1.5, 0.0, 14.5, 72.0, 2.5, 88.0, 0.0, 0.0, 0.0, 1.658165074424166E9, 0.0, 2022-07-18 13:24:34.424
70.0, -27524.96630251006, -41064.08847142321, -64291.10488785564, -58882.541523282714, -27103.434753827427, -47099.70767494532, -62538.28108767046, -38981.66584750007, -21898.205208564428, -66425.76353857083, -64688.653014737734, -82070.04005551817, -56983.8502387822, -60660.06400109101, -54991.393386291675, -54540.31283143912, 0.097, 0.9450000000000001, 0.183, 192.0, 0.0, 0.0, 0.0, 0.0, 0.0, 0.0, 0.0, 0.0, 0.0, 1.6581650744241717E9, 0.0, 2022-07-18 13:24:34.424
72.0, -27516.852619272784, -41054.834849218714, -64289.94259714396, -58877.13240112453, -27097.31037584667, -47105.42972152588, -62529.45214861062, -38984.1021876457, -21959.359581394147, -66501.89358018561, -64764.04544878548, -82140.5821610191, -57059.42148678559, -60728.013304235144, -55064.08125926033, -54609.200907850376, 0.097, 0.9450000000000001, 0.183, 192.0, 0.0, 0.0, 0.0, 0.0, 0.0, 0.0, 0.0, 0.0, 0.0, 1.6581650744241753E9, 0.0, 2022-07-18 13:24:34.424
74.0, -27510.549427336387, -41055.8406777192, -64272.619995191104, -58853.12662757953, -27068.342515032593, -47080.038139824646, -62484.771011444456, -38937.72231790094, -21893.53369397327, -66411.90545700854, -64684.09325886885, -82052.94097100986, -56974.21663692196, -60640.17094852578, -54979.14463033016, -54523.23609867527, 0.097, 0.9450000000000001, 0.183, 192.0, 0.0, 0.0, 0.0, 0.0, 0.0, 0.0, 0.0, 0.0, 0.0, 1.658165074424179E9, 0.0, 2022-07-18 13:24:34.424
76.0, -27529.97309326805, -41058.388776587104, -64312.07082415472, -58886.6989477514, -27103.010070682776, -47114.012791396715, -62532.648448067725, -38978.6483619986, -21958.39845638257, -66490.33772830221, -64757.40698068226, -82122.81252417715, -57052.313632048805, -60713.5293738281, -55054.09002948881, -54596.415710021945, 0.097, 0.9450000000000001, 0.183, 192.0, 0.0, 0.0, 0.0, 0.0, 0.0, 0.0, 0.0, 0.0, 0.0, 1.6581650744241827E9, 0.0, 2022-07-18 13:24:34.424
78.0, -27505.29676738939, -41050.20803811646, -64264.12633229808, -58836.206357026866, -27049.87997411251, -47050.466781910276, -62470.152970570685, -38910.90022455457, -21905.491877256856, -66417.00165474435, -64695.917331685705, -82055.13144196647, -56991.40512840809, -60642.227309015674, -54992.868601425726, -54524.84542427605, 0.1005, 0.9425000000000001, 0.1795, 192.0, 1.5, 32.0, 14.5, 48.0, 2.5, 64.0, 0.0, 0.0, 0.0, 1.6581650744241862E9, 0.0, 2022-07-18 13:24:34.424
80.0, -27541.43953817362, -41056.84650621969, -64320.20685913645, -58887.302444851695, -27102.31716660466, -47105.407369781424, -62529.22863116606, -38989.55601329279, -21938.192479394973, -66470.19880654798, -64744.68883808719, -82107.61333794754, -57042.322402277285, -60690.52942878359, -55048.367982908254, -54579.24957028026, 0.1005, 0.9425000000000001, 0.1795, 192.0, 0.0, 0.0, 0.0, 0.0, 0.0, 0.0, 0.0, 0.0, 0.0, 1.65816507442419E9, 0.0, 2022-07-18 13:24:34.424
82.0, -27493.20447363907, -41051.973825928435, -64254.939765326955, -58822.30357197566, -27044.224982765318, -47053.394860433924, -62483.295796310405, -38915.191759489986, -21910.47631627039, -66416.15228845505, -64702.04170966646, -82061.12170948049, -57002.02220702436, -60650.94448935324, -55014.259220869455, -54536.200110459344, 0.1005, 0.9425000000000001, 0.1795, 192.0, 0.0, 0.0, 0.0, 0.0, 0.0, 0.0, 0.0, 0.0, 0.0, 1.6581650744241936E9, 0.0, 2022-07-18 13:24:34.424
84.0, -27546.625142887253, -41071.8445267492, -64323.581972549204, -58899.84177349112, -27112.241341142817, -47119.399561810445, -62554.62021286729, -38990.338324348726, -21931.06227291373, -66468.12009431364, -64734.04940772646, -82100.3266692551, -57033.5605184508, -60684.22623684719, -55045.909291018164, -54566.73259338529, 0.1005, 0.9425000000000001, 0.1795, 192.0, 0.0, 0.0, 0.0, 0.0, 0.0, 0.0, 0.0, 0.0, 0.0, 1.6581650744242008E9, 0.0, 2022-07-18 13:24:34.424
86.0, -27505.855561000775, -41071.77747151583, -64243.875651821574, -58833.30063024767, -27040.022854807718, -47070.42688970887, -62457.993621587, -38939.8904371131, -21921.85335419814, -66440.47098642243, -64712.9270092162, -82080.38891320096, -57008.10188151621, -60664.28848079306, -55016.82967148181, -54549.16412224342, 0.1005, 0.9425000000000001, 0.1795, 192.0, 0.0, 0.0, 0.0, 0.0, 0.0, 0.0, 0.0, 0.0, 0.0, 1.6581650744242043E9, 0.0, 2022-07-18 13:24:34.424
88.0, -27555.69995113611, -41081.29931465379, -64330.712179030445, -58914.72803529836, -27127.865210517077, -47138.46559983082, -62565.55021590593, -38998.27319363036, -21944.29450563127, -66467.80716989127, -64738.65386708426, -82106.27223328022, -57032.28646901685, -60692.89871369585, -55035.158101935165, -54578.42255573542, 0.10025, 0.9412500000000001, 0.17975, 192.0, 1.5, 16.0, 14.5, 48.0, 2.5, 80.0, 0.0, 0.0, 0.0, 1.6581650744242082E9, 0.0, 2022-07-18 13:24:34.424
90.0, -27494.947909706585, -41072.6938930385, -64243.09334076564, -58828.53970867869, -27051.086968313095, -47070.873924597974, -62468.14131356971, -38927.79814336278, -21924.71437748842, -66438.99577128838, -64717.48676508508, -82080.9700585568, -57014.986218808444, -60674.39146928686, -55021.47883432852, -54565.167971273426, 0.10025, 0.9412500000000001, 0.17975, 192.0, 0.0, 0.0, 0.0, 0.0, 0.0, 0.0, 0.0, 0.0, 0.0, 1.6581650744242117E9, 0.0, 2022-07-18 13:24:34.424
92.0, -27552.72716912355, -41087.826024034744, -64337.59651632268, -58913.923372497964, -27129.630998329045, -47134.62109978451, -62558.643526869244, -39016.62397582817, -21929.318836846214, -66461.21340527695, -64728.148547190256, -82097.30918375363, -57025.133910791155, -60686.32730082599, -55033.63818331221, -54573.37106148852, 0.10025, 0.9412500000000001, 0.17975, 192.0, 0.0, 0.0, 0.0, 0.0, 0.0, 0.0, 0.0, 0.0, 0.0, 1.6581650744242156E9, 0.0, 2022-07-18 13:24:34.424
94.0, -27492.95860445006, -41079.89115475311, -64239.829986075165, -58821.56596440863, -27046.035474066197, -47070.44924145332, -62470.152970570685, -38938.683442912516, -21926.94955193395, -66454.59728891817, -64723.96877097712, -82088.63670690497, -57023.63634391264, -60678.01245188862, -55033.41466586765, -54571.96290158784, 0.10025, 0.9412500000000001, 0.17975, 192.0, 0.0, 0.0, 0.0, 0.0, 0.0, 0.0, 0.0, 0.0, 0.0, 1.6581650744242191E9, 0.0, 2022-07-18 13:24:34.424
96.0, -27553.80005285741, -41087.93778275702, -64322.28557137079, -58898.88064847954, -27113.157762665483, -47117.38790480947, -62557.07890475737, -39000.821292498265, -21914.790202950266, -66444.7848731023, -64711.720015015606, -82077.01379978821, -57012.66163738509, -60665.96486162721, -55014.86271796974, -54547.264223964725, 0.10025, 0.9412500000000001, 0.17975, 192.0, 0.0, 0.0, 0.0, 0.0, 0.0, 0.0, 0.0, 0.0, 0.0, 1.6581650744242227E9, 0.0, 2022-07-18 13:24:34.424
98.0, -27492.042182927395, -41078.30418089678, -64238.31006745221, -58820.180156252405, -27039.888744340988, -47068.772860619174, -62468.14131356971, -38954.66494019806, -21943.109863175137, -66470.24351003689, -64740.88904152979, -82100.30431751064, -57045.00461161192, -60693.09987939595, -55038.42145662564, -54578.3331487576, 0.106125, 0.9456250000000002, 0.180875, 192.0, 1.5, 64.0, 14.5, 88.0, 2.5, 88.0, 0.0, 0.0, 0.0, 1.6581650744242268E9, 0.0, 2022-07-18 13:24:34.424
100.0, -27539.22671547255, -41076.87366925165, -64326.867678984134, -58904.08860493763, -27107.815695740665, -47122.43939905637, -62555.290765200945, -39006.47628384546, -21895.85827539662, -66426.83642230468, -64695.00091016304, -82055.39966289993, -56996.322512188264, -60650.542157953045, -54991.16986884712, -54536.51303488172, 0.106125, 0.9456250000000002, 0.180875, 192.0, 0.0, 0.0, 0.0, 0.0, 0.0, 0.0, 0.0, 0.0, 0.0, 1.658165074424234E9, 0.0, 2022-07-18 13:24:34.424
102.0, -27501.653433043175, -41079.75704428638, -64267.1214660551, -58847.56104321016, -27054.707950914857, -47082.58623869255, -62482.98287188803, -38966.62312348165, -21956.498558103867, -66486.71674570045, -64754.45655041416, -82114.8776548955, -57059.39913504114, -60715.60808606244, -55055.431134156126, -54602.540088002694, 0.106125, 0.9456250000000002, 0.180875, 192.0, 0.0, 0.0, 0.0, 0.0, 0.0, 0.0, 0.0, 0.0, 0.0, 1.6581650744242387E9, 0.0, 2022-07-18 13:24:34.424
104.0, -27532.096508991304, -41069.69875928149, -64322.01735043733, -58893.0021396878, -27094.22583511184, -47110.07888437258, -62535.308305657905, -38982.62697251165, -21905.067194112205, -66430.01037001733, -64696.409070063724, -82055.73493906677, -57001.70928260199, -60660.28751853556, -54987.347720545265, -54539.79874131665, 0.106125, 0.9456250000000002, 0.180875, 192.0, 0.0, 0.0, 0.0, 0.0, 0.0, 0.0, 0.0, 0.0, 0.0, 1.6581650744242425E9, 0.0, 2022-07-18 13:24:34.424
106.0, -27483.637927012198, -41055.28188410782, -64252.548128670234, -58823.622324898526, -27039.240543751785, -47061.48619192674, -62467.8954443807, -38963.15860309108, -21951.804691768255, -66473.52921647183, -64741.44783514117, -82094.69402965237, -57051.4642657595, -60696.698510253256, -55038.84613977029, -54588.2349715513, 0.106125, 0.9456250000000002, 0.180875, 192.0, 0.0, 0.0, 0.0, 0.0, 0.0, 0.0, 0.0, 0.0, 0.0, 1.658165074424246E9, 0.0, 2022-07-18 13:24:34.424
108.0, -27519.11014546277, -41060.86982022165, -64315.82591722321, -58886.6989477514, -27098.36090783607, -47089.85055564053, -62524.04302645243, -38982.87284170066, -21894.539522473755, -66405.95989298343, -64679.37704078878, -82030.43276434336, -56978.016433479366, -60626.3128669635, -54965.957101101536, -54520.17390968489, 0.1050625, 0.9428125, 0.1794375, 192.0, 1.5, 32.0, 14.5, 48.0, 2.5, 72.0, 0.0, 0.0, 0.0, 1.6581650744242496E9, 0.0, 2022-07-18 13:24:34.424
110.0, -27501.139342920706, -41075.77843377333, -64281.58304471768, -58865.68830796341, -27085.37454430754, -47083.12268055948, -62486.089764367316, -38959.00117862239, -21959.761912794344, -66492.12586785863, -64761.27383247302, -82118.69980319736, -57055.95696639502, -60713.7305395282, -55058.582730124326, -54609.893811928494, 0.1050625, 0.9428125, 0.1794375, 192.0, 0.0, 0.0, 0.0, 0.0, 0.0, 0.0, 0.0, 0.0, 0.0, 1.6581650744242532E9, 0.0, 2022-07-18 13:24:34.424
112.0, -27512.06934595935, -41072.42567210504, -64298.23509433688, -58893.27036062126, -27088.45908504237, -47081.22278228078, -62497.3997470617, -38957.972998377445, -21884.23536827986, -66416.08523322169, -64670.74926742903, -82041.72039529329, -56970.41684036456, -60640.77444562608, -54961.039717321364, -54526.141825454455, 0.1050625, 0.9428125, 0.1794375, 192.0, 0.0, 0.0, 0.0, 0.0, 0.0, 0.0, 0.0, 0.0, 0.0, 1.6581650744242568E9, 0.0, 2022-07-18 13:24:34.424
114.0, -27486.96833693604, -41077.32070414075, -64285.60635871963, -58888.46473556337, -27078.55726224867, -47075.634846166955, -62498.78555521793, -38949.70285292898, -21941.00879919634, -66511.84010646821, -64744.510024131545, -82124.51125675575, -57045.13872207865, -60731.299010670074, -55030.531290832914, -54611.167861362446, 0.1050625, 0.9428125, 0.1794375, 192.0, 0.0, 0.0, 0.0, 0.0, 0.0, 0.0, 0.0, 0.0, 0.0, 1.6581650744242604E9, 0.0, 2022-07-18 13:24:34.424
116.0, -27496.981918452017, -41082.05927396528, -64306.63935025208, -58907.508421839295, -27082.468817528348, -47089.202355051326, -62491.051851636395, -38971.92048691756, -21869.662030895, -66437.11822475413, -64667.105933082814, -82049.90113376392, -56967.868741496655, -60657.96293711221, -54948.813313104314, -54537.340049426566, 0.1050625, 0.9428125, 0.1794375, 192.0, 0.0, 0.0, 0.0, 0.0, 0.0, 0.0, 0.0, 0.0, 0.0, 1.6581650744242642E9, 0.0, 2022-07-18 13:24:34.424
118.0, -27519.959511752073, -41103.963983531474, -64329.192260407486, -58928.89904128302, -27101.333689848627, -47126.93209969188, -62516.622247293264, -39025.788191054846, -21962.019438984327, -66549.6592580866, -64774.841341357394, -82156.76482400476, -57072.11727763621, -60762.50204592968, -55042.60123283878, -54646.9977077243, 0.10453125, 0.9404062500000001, 0.18071874999999998, 192.0, 1.5, 32.0, 14.5, 40.0, 2.5, 88.0, 0.0, 0.0, 0.0, 1.6581650744242885E9, 0.0, 2022-07-18 13:24:34.424
120.0, -27508.984805224518, -41099.40422766259, -64308.44984155296, -58907.26255265028, -27067.7390179323, -47101.80873892412, -62491.23066559204, -38987.72317024746, -21888.392792748546, -66451.84802435017, -64692.22929385058, -82067.38019792798, -56987.448869639506, -60670.99400412965, -54954.133028284676, -54556.16021825794, 0.10453125, 0.9404062500000001, 0.18071874999999998, 192.0, 0.0, 0.0, 0.0, 0.0, 0.0, 0.0, 0.0, 0.0, 0.0, 1.658165074424292E9, 0.0, 2022-07-18 13:24:34.424
122.0, -27546.066349275872, -41120.95130931751, -64341.21749892444, -58938.890271054544, -27109.000338196798, -47141.974823710305, -62530.77090153348, -39018.61328108469, -21973.843511801188, -66550.01688599789, -64786.19602754069, -82161.36928336255, -57076.18529512707, -60761.853845340476, -55036.476854858025, -54643.242614655814, 0.10453125, 0.9404062500000001, 0.18071874999999998, 192.0, 0.0, 0.0, 0.0, 0.0, 0.0, 0.0, 0.0, 0.0, 0.0, 1.6581650749042048E9, 0.0, 2022-07-18 13:24:34.904
124.0, -27503.083944688315, -41096.61025960568, -64285.51695174181, -58883.525000038746, -27054.4844334703, -47082.5638869481, -62484.189866088615, -38972.34517006221, -21906.832981924177, -66461.59338493268, -64706.80263123544, -82080.50067192325, -56994.31085518729, -60678.9735769002, -54962.55963594433, -54562.30694798315, 0.10453125, 0.9404062500000001, 0.18071874999999998, 192.0, 0.0, 0.0, 0.0, 0.0, 0.0, 0.0, 0.0, 0.0, 0.0, 1.65816507490423E9, 0.0, 2022-07-18 13:24:34.904
126.0, -27533.951703781095, -41111.78709409083, -64339.183490179006, -58934.554032630214, -27106.228721884338, -47131.26833811621, -62541.946773761134, -39029.09624923423, -21955.045694714274, -66540.36093239319, -64768.04641104298, -82148.5393820452, -57058.92974840758, -60754.34365920349, -55029.99484896599, -54631.68676277241, 0.10453125, 0.9404062500000001, 0.18071874999999998, 192.0, 0.0, 0.0, 0.0, 0.0, 0.0, 0.0, 0.0, 0.0, 0.0, 1.658165074904234E9, 0.0, 2022-07-18 13:24:34.904
128.0, -27501.675784787632, -41107.31674519977, -64281.33717552867, -58875.85835169058, -27058.753616661266, -47070.44924145332, -62492.750584215, -38943.84669588169, -21902.407336522025, -66471.91989087104, -64703.42751782269, -82080.99241030126, -56995.674311599054, -60689.970635172205, -54965.957101101536, -54559.15535201495, 0.10453125, 0.9404062500000001, 0.18071874999999998, 192.0, 0.0, 0.0, 0.0, 0.0, 0.0, 0.0, 0.0, 0.0, 0.0, 1.6581650749042385E9, 0.0, 2022-07-18 13:24:34.904
130.0, -27527.26853218896, -41112.61410863568, -64334.422568610025, -58934.9116605415, -27103.63591952752, -47125.09925664655, -62531.57556433387, -39027.48692363345, -21944.428616098, -66535.48825210193, -64758.837492327395, -82139.79984996318, -57046.83745465725, -60746.811121322055, -55013.901592958166, -54613.179518363424, 0.10400000000000001, 0.9420000000000001, 0.184, 192.0, 1.5, 32.0, 14.5, 56.0, 2.5, 96.0, 0.0, 0.0, 0.0, 1.6581650749042425E9, 0.0, 2022-07-18 13:24:34.904
132.0, -27489.963470693052, -41109.082533011744, -64273.62582369159, -58877.579436013635, -27046.191936277384, -47070.20337226432, -62472.56695897186, -38971.249934583895, -21897.55700797522, -66470.936414115, -64708.434308580676, -82087.58617491557, -56993.26032319789, -60693.7257282407, -54971.612092448726, -54571.56057018764, 0.10400000000000001, 0.9420000000000001, 0.184, 192.0, 0.0, 0.0, 0.0, 0.0, 0.0, 0.0, 0.0, 0.0, 0.0, 1.6581650749042463E9, 0.0, 2022-07-18 13:24:34.904
134.0, -27562.718398895075, -41147.035795096854, -64377.11440051966, -58976.55296046173, -27137.476460632857, -47154.00006222726, -62570.08762003036, -39047.08940352075, -21946.90965973254, -66532.22489741146, -64764.648945885776, -82146.61713202205, -57044.15524532262, -60744.73240908771, -55031.80534026687, -54625.00359118028, 0.10400000000000001, 0.9420000000000001, 0.184, 192.0, 0.0, 0.0, 0.0, 0.0, 0.0, 0.0, 0.0, 0.0, 0.0, 1.6581650749042575E9, 0.0, 2022-07-18 13:24:34.904
136.0, -27511.711718048064, -41154.166001578094, -64304.58298976219, -58906.860221250085, -27074.153968590974, -47094.74558767624, -62503.85940120929, -38992.215870882974, -21940.941743962972, -66513.76235649138, -64752.04256201298, -82135.57537026113, -57032.19706203903, -60732.01426649264, -55023.84811924078, -54606.13871886, 0.10400000000000001, 0.9420000000000001, 0.184, 192.0, 0.0, 0.0, 0.0, 0.0, 0.0, 0.0, 0.0, 0.0, 0.0, 1.6581650749042616E9, 0.0, 2022-07-18 13:24:34.904
138.0, -27571.07795132136, -41183.044455414354, -64393.922912350055, -58997.742414205364, -27162.59982140062, -47169.35571066805, -62615.126385107804, -39067.87652586419, -21955.82800577021, -66548.34050516374, -64777.45649545867, -82163.13507117452, -57056.940443151056, -60762.52439767413, -55054.246491699996, -54636.98412620832, 0.10400000000000001, 0.9420000000000001, 0.184, 192.0, 0.0, 0.0, 0.0, 0.0, 0.0, 0.0, 0.0, 0.0, 0.0, 1.6581650749042656E9, 0.0, 2022-07-18 13:24:34.904
140.0, -27499.641776042197, -41159.95510339202, -64282.09713484015, -58895.93021821144, -27052.383369491505, -47084.84376488254, -62468.83421764782, -38982.96224867848, -21946.127348676604, -66528.24628689841, -64762.01144004005, -82139.41987030744, -57040.24369004294, -60743.68187709831, -55034.532253090416, -54623.729541746325, 0.10400000000000001, 0.9380000000000001, 0.188, 192.0, 1.5, 32.0, 14.5, 40.0, 2.5, 112.0, 0.0, 0.0, 0.0, 1.6581650749042697E9, 0.0, 2022-07-18 13:24:34.904
142.0, -27574.74363741203, -41180.98809492446, -64377.51673191986, -58990.45574551293, -27142.88558279104, -47169.40041415697, -62568.232425240574, -39060.455746705025, -21936.225525882903, -66526.03346419733, -64754.81417832544, -82132.5355330152, -57034.78986439585, -60740.172653218826, -55018.64016278269, -54620.95792543387, 0.10400000000000001, 0.9380000000000001, 0.188, 192.0, 0.0, 0.0, 0.0, 0.0, 0.0, 0.0, 0.0, 0.0, 0.0, 1.6581650749042735E9, 0.0, 2022-07-18 13:24:34.904
144.0, -27482.587395022798, -41148.42160325308, -64269.06606782271, -58880.75338372629, -27045.20845952135, -47092.6668754419, -62463.62626118973, -38986.627934769145, -21947.311991132738, -66526.92753397555, -64762.0337917845, -82136.55884701715, -57046.63628895716, -60753.49429291419, -55032.74411353399, -54633.63136454003, 0.10400000000000001, 0.9380000000000001, 0.188, 192.0, 0.0, 0.0, 0.0, 0.0, 0.0, 0.0, 0.0, 0.0, 0.0, 1.6581650749042776E9, 0.0, 2022-07-18 13:24:34.904
146.0, -27522.909942020175, -41143.0124810949, -64346.716028060444, -58948.43446593696, -27110.296739375204, -47146.95926272384, -62540.73977956054, -39056.67830189208, -21907.01179587982, -66486.71674570045, -64718.00085520755, -82094.02347731871, -57009.51004141689, -60712.52354532761, -54994.36616830423, -54592.12417508652, 0.10400000000000001, 0.9380000000000001, 0.188, 192.0, 0.0, 0.0, 0.0, 0.0, 0.0, 0.0, 0.0, 0.0, 0.0, 1.6581650749042816E9, 0.0, 2022-07-18 13:24:34.904
148.0, -27479.01111590995, -41141.42550723857, -64267.05441082173, -58867.05176437519, -27049.276477012216, -47083.16738404839, -62471.60583396028, -38974.8485654412, -21932.202211880947, -66513.80705998029, -64746.76755032153, -82120.82321892062, -57046.233957556964, -60743.950098031775, -55031.91709898914, -54620.309724844665, 0.10400000000000001, 0.9380000000000001, 0.188, 192.0, 0.0, 0.0, 0.0, 0.0, 0.0, 0.0, 0.0, 0.0, 0.0, 1.6581650749042857E9, 0.0, 2022-07-18 13:24:34.904
150.0, -27540.21019222858, -41151.05910909881, -64348.4371123835, -58939.49376815483, -27122.903123247997, -47132.542387550166, -62539.10810221531, -39006.990373967936, -21894.38306026257, -66478.22308280744, -64704.61216027882, -82079.69600912285, -57011.56640190678, -60696.564399786526, -54982.13976408717, -54568.20780851934, 0.108, 0.9400000000000001, 0.184, 192.0, 1.5, 48.0, 14.5, 48.0, 2.5, 96.0, 0.0, 0.0, 0.0, 1.6581650749042895E9, 0.0, 2022-07-18 13:24:34.904
152.0, -27504.380345866724, -41156.15530683462, -64288.78030643229, -58887.302444851695, -27078.378448293028, -47092.80098590863, -62482.446430021104, -38975.36265556367, -21953.458720857947, -66536.2035079245, -64772.58381516741, -82140.67156799693, -57079.42629807309, -60756.71294411575, -55050.670212587145, -54634.95011746289, 0.108, 0.9400000000000001, 0.184, 192.0, 0.0, 0.0, 0.0, 0.0, 0.0, 0.0, 0.0, 0.0, 0.0, 1.6581650749042935E9, 0.0, 2022-07-18 13:24:34.904
154.0, -27519.6465873297, -41137.22337928097, -64326.42064409502, -58928.13908197154, -27095.65634675698, -47102.23342206877, -62513.64946528071, -38997.893213974625, -21885.91174911401, -66465.75080940138, -64705.19330563466, -82071.0235322742, -56998.065948255775, -60680.6723094788, -54971.85796163773, -54559.60238690405, 0.108, 0.9400000000000001, 0.184, 192.0, 0.0, 0.0, 0.0, 0.0, 0.0, 0.0, 0.0, 0.0, 0.0, 1.6581650749042976E9, 0.0, 2022-07-18 13:24:34.904
156.0, -27497.96539520805, -41149.31567303129, -64291.44016402247, -58898.23244789034, -27063.626296952523, -47090.878735885475, -62478.49017125252, -38976.59200150872, -21944.898002731563, -66530.23559215493, -64769.00753605456, -82136.51414352824, -57060.11439086371, -60746.54290038859, -55039.80726478187, -54626.07647491413, 0.108, 0.9400000000000001, 0.184, 192.0, 0.0, 0.0, 0.0, 0.0, 0.0, 0.0, 0.0, 0.0, 0.0, 1.6581650749043016E9, 0.0, 2022-07-18 13:24:34.904
158.0, -27530.040148501415, -41162.547905748834, -64345.57608909322, -58954.62589915108, -27095.119904890053, -47125.63569851348, -62521.49492758452, -39015.34992639422, -21895.455943996425, -66469.26003328087, -64709.70835801463, -82080.3218579676, -56995.339035432226, -60694.664501507825, -54975.32248202831, -54566.41966896292, 0.108, 0.9400000000000001, 0.184, 192.0, 0.0, 0.0, 0.0, 0.0, 0.0, 0.0, 0.0, 0.0, 0.0, 1.6581650749043057E9, 0.0, 2022-07-18 13:24:34.904
160.0, -27511.667014559152, -41165.498336016935, -64314.44010906698, -58930.28484943925, -27073.81869242414, -47117.34320132055, -62499.88079069624, -39007.41505711259, -21969.6860873325, -66562.84678731523, -64791.694556676695, -82164.31971363064, -57077.88402770567, -60787.580703208536, -55061.48845690351, -54661.52634162025, 0.108, 0.9440000000000001, 0.18, 192.0, 1.5, 48.0, 14.5, 64.0, 2.5, 80.0, 0.0, 0.0, 0.0, 1.6581650749043105E9, 0.0, 2022-07-18 13:24:34.904
162.0, -27508.850694757784, -41144.442992740034, -64317.63640852409, -58930.24014595034, -27066.934355131907, -47111.55409950663, -62495.388090060726, -38995.52392906236, -21894.651281196035, -66469.39414374759, -64702.15346838874, -82074.39864568695, -56992.56741911977, -60693.256341607135, -54967.38761274667, -54572.29817775467, 0.108, 0.9440000000000001, 0.18, 192.0, 0.0, 0.0, 0.0, 0.0, 0.0, 0.0, 0.0, 0.0, 0.0, 1.6581650749043164E9, 0.0, 2022-07-18 13:24:34.904
164.0, -27528.833154300828, -41167.018254639894, -64332.92500173152, -58940.47724491087, -27097.69035550241, -47119.98070716628, -62517.78453800494, -39010.6560600586, -21967.428561142515, -66554.53193837786, -64792.610978199365, -82157.90476297197, -57082.019100429905, -60774.34847049099, -55059.43209641363, -54661.19106545342, 0.108, 0.9440000000000001, 0.18, 192.0, 0.0, 0.0, 0.0, 0.0, 0.0, 0.0, 0.0, 0.0, 0.0, 1.6581650749043202E9, 0.0, 2022-07-18 13:24:34.904
166.0, -27508.224845913035, -41142.76661190589, -64320.16215564754, -58922.81936679118, -27071.650573211977, -47091.66104694141, -62489.91191266917, -38980.77177772186, -21905.82715342369, -66464.99085008989, -64715.58686680638, -82074.51040440923, -57005.57613439276, -60690.954111928244, -54976.93180762909, -54572.65580566595, 0.108, 0.9440000000000001, 0.18, 192.0, 0.0, 0.0, 0.0, 0.0, 0.0, 0.0, 0.0, 0.0, 0.0, 1.65816507490433E9, 0.0, 2022-07-18 13:24:34.904
168.0, -27520.25008442999, -41146.074670085276, -64340.74811229088, -58940.32078269968, -27101.199579381893, -47118.214919354315, -62517.270447882474, -39028.98449051195, -21969.93195652151, -66545.79240629583, -64791.851018887886, -82149.94754194589, -57085.81889698731, -60765.206607008775, -55062.986023782025, -54655.334908406134, 0.108, 0.9440000000000001, 0.18, 192.0, 0.0, 0.0, 0.0, 0.0, 0.0, 0.0, 0.0, 0.0, 0.0, 1.658165074904334E9, 0.0, 2022-07-18 13:24:34.904
170.0, -27494.21030213956, -41135.368184491184, -64313.233114866394, -58907.97780847285, -27068.655439454968, -47081.3121892586, -62472.99164211651, -38988.50548130339, -21898.495781242345, -66458.06180930875, -64704.098070156346, -82062.23929670326, -56998.04359651132, -60682.48280077968, -54980.128107086195, -54566.30791024064, 0.106, 0.9420000000000001, 0.178, 192.0, 1.5, 40.0, 14.5, 56.0, 2.5, 72.0, 0.0, 0.0, 0.0, 1.658165074904338E9, 0.0, 2022-07-18 13:24:34.904
172.0, -27513.05282271538, -41142.45368748352, -64351.67811532952, -58939.69493385493, -27109.626187041544, -47116.873814686995, -62525.56294507539, -39015.9087200056, -21953.838700513686, -66540.49504285993, -64775.333079735414, -82137.72113772883, -57076.81114397182, -60760.98212730672, -55059.61091036927, -54641.14155067701, 0.106, 0.9420000000000001, 0.178, 192.0, 0.0, 0.0, 0.0, 0.0, 0.0, 0.0, 0.0, 0.0, 0.0, 1.658165074904342E9, 0.0, 2022-07-18 13:24:34.904
174.0, -27487.527130547423, -41139.59266419324, -64306.326425829706, -58892.93508445443, -27067.291983043193, -47071.25390425371, -62483.18403758813, -38958.42003326655, -21898.115801586606, -66461.66044016606, -64705.014491679016, -82063.80391881513, -57012.03578854034, -60683.332167068984, -54992.75684270345, -54566.26320675173, 0.106, 0.9420000000000001, 0.178, 192.0, 0.0, 0.0, 0.0, 0.0, 0.0, 0.0, 0.0, 0.0, 0.0, 1.658165074904346E9, 0.0, 2022-07-18 13:24:34.904
176.0, -27523.02170074245, -41152.82489691078, -64357.02018225434, -58953.28479448376, -27118.41042261248, -47131.02246892721, -62536.13532020275, -39043.44606917454, -21955.023342969816, -66544.38424639514, -64776.29420474699, -82139.55398077417, -57080.074498662296, -60755.908281315365, -55054.872340544745, -54636.671201785946, 0.106, 0.9420000000000001, 0.178, 192.0, 0.0, 0.0, 0.0, 0.0, 0.0, 0.0, 0.0, 0.0, 0.0, 1.65816507490435E9, 0.0, 2022-07-18 13:24:34.904
178.0, -27471.500929772967, -41125.019326808375, -64275.25750103683, -58880.731031981835, -27041.96745657533, -47059.4074796924, -62463.17922630063, -38979.162452121076, -21899.456906253923, -66467.00250709087, -64705.640340523765, -82067.17903222788, -57012.706340874, -60686.23789384817, -54986.09602285577, -54572.007605076746, 0.106, 0.9420000000000001, 0.178, 192.0, 0.0, 0.0, 0.0, 0.0, 0.0, 0.0, 0.0, 0.0, 0.0, 1.658165074904354E9, 0.0, 2022-07-18 13:24:34.904
180.0, -27511.912883748162, -41124.326422730264, -64334.35551337666, -58934.9116605415, -27095.36577407906, -47102.70280870233, -62506.27338961046, -38990.47243481546, -21939.310066617738, -66514.81288848077, -64755.99882078157, -82116.01759386274, -57052.89477740465, -60736.08228398351, -55019.66834302764, -54608.12802411652, 0.114, 0.9500000000000001, 0.182, 192.0, 1.5, 72.0, 14.5, 88.0, 2.5, 88.0, 0.0, 0.0, 0.0, 1.658165074904358E9, 0.0, 2022-07-18 13:24:34.904
182.0, -27466.44943552607, -41117.86676858268, -64264.68512590947, -58867.163523097464, -27037.92179082892, -47049.7068225988, -62452.13746453971, -38937.11882080064, -21899.47925799838, -66452.85385285066, -64699.11363114281, -82056.78547105617, -57004.03386402534, -60681.87930367939, -54971.70149942655, -54552.2263112338, 0.114, 0.9500000000000001, 0.182, 192.0, 0.0, 0.0, 0.0, 0.0, 0.0, 0.0, 0.0, 0.0, 0.0, 1.6581650749043617E9, 0.0, 2022-07-18 13:24:34.904
184.0, -27526.374462410746, -41133.80356237931, -64348.884147272605, -58951.42959969397, -27113.828314999144, -47130.59778578256, -62537.27525916997, -39038.72985109447, -21931.419900825014, -66511.84010646821, -64738.94443976217, -82105.9816606023, -57048.42442851358, -60729.265001924636, -55020.36124710575, -54603.94824790338, 0.114, 0.9500000000000001, 0.182, 192.0, 0.0, 0.0, 0.0, 0.0, 0.0, 0.0, 0.0, 0.0, 0.0, 1.6581650749043658E9, 0.0, 2022-07-18 13:24:34.904
186.0, -27475.121912374725, -41132.44010596754, -64264.014573575805, -58868.72814520933, -27041.11809028603, -47059.80981109259, -62435.10543526476, -38956.9448181325, -21908.91169415852, -66485.21917882195, -64713.105823171834, -82082.60173590205, -57028.73254164846, -60705.23687663519, -54999.66353174014, -54584.658692438454, 0.114, 0.9500000000000001, 0.182, 192.0, 0.0, 0.0, 0.0, 0.0, 0.0, 0.0, 0.0, 0.0, 0.0, 1.6581650749043696E9, 0.0, 2022-07-18 13:24:34.904
188.0, -27538.198535227602, -41150.03092885386, -64363.74805733539, -58959.587986420156, -27136.291818176727, -47139.98551845378, -62544.606631351315, -39022.90481602011, -21917.025377395796, -66507.92855118854, -64728.39441637927, -82098.94086109888, -57042.63532669966, -60717.55268783006, -55019.82480523882, -54594.49345999878, 0.114, 0.9500000000000001, 0.182, 192.0, 0.0, 0.0, 0.0, 0.0, 0.0, 0.0, 0.0, 0.0, 0.0, 1.6581650749043736E9, 0.0, 2022-07-18 13:24:34.904
190.0, -27485.49312180199, -41137.268082769886, -64275.30220452574, -58872.550293511194, -27071.561166234158, -47075.56779093359, -62480.144200342205, -38986.27030685786, -21938.393645095068, -66510.78957447883, -64744.219451453624, -82104.3276315126, -57058.63917572966, -60732.39424614838, -55047.809189296866, -54616.30876258716, 0.116, 0.9420000000000001, 0.182, 192.0, 1.5, 80.0, 14.5, 56.0, 2.5, 88.0, 0.0, 0.0, 0.0, 1.6581650749043777E9, 0.0, 2022-07-18 13:24:34.904
192.0, -27533.951703781095, -41137.871579870174, -64348.57122285024, -58943.51708215679, -27134.861306531588, -47125.36747758001, -62552.362686677305, -39043.44606917454, -21914.67844422799, -66487.07437361174, -64718.17966916319, -82075.9185643099, -57041.51773947689, -60708.72374877021, -55016.986133693, -54588.927875629415, 0.116, 0.9420000000000001, 0.182, 192.0, 0.0, 0.0, 0.0, 0.0, 0.0, 0.0, 0.0, 0.0, 0.0, 1.6581650749043815E9, 0.0, 2022-07-18 13:24:34.904
194.0, -27473.82551119632, -41120.32546047276, -64254.33626822666, -58856.16646482545, -27054.149157303473, -47065.285988484145, -62463.80507514538, -38979.162452121076, -21938.125424161604, -66505.31339708727, -64738.40799789524, -82096.01278257523, -57063.355393809725, -60729.71203681375, -55038.84613977029, -54610.69847472888, 0.116, 0.9420000000000001, 0.182, 192.0, 0.0, 0.0, 0.0, 0.0, 0.0, 0.0, 0.0, 0.0, 0.0, 1.6581650749043856E9, 0.0, 2022-07-18 13:24:34.904
196.0, -27526.106241477282, -41127.209797765, -64335.607211066155, -58936.94566928693, -27120.93616973593, -47130.307213104636, -62559.224672225086, -39039.981548783966, -21892.393755006047, -66465.39318149009, -64691.156410116724, -82048.53767735216, -57011.767567606876, -60683.10864962443, -54992.510973514436, -54565.70441314035, 0.116, 0.9420000000000001, 0.182, 192.0, 0.0, 0.0, 0.0, 0.0, 0.0, 0.0, 0.0, 0.0, 0.0, 1.6581650749043896E9, 0.0, 2022-07-18 13:24:34.904
198.0, -27483.48146480101, -41127.209797765, -64262.762875886314, -58868.146999853496, -27053.143328802984, -47076.93124734536, -62473.505732238984, -38994.92043196207, -21934.10211015965, -66514.2987983583, -64738.89973627326, -82097.28683200918, -57060.360260052716, -60730.516699614134, -55042.51182586096, -54613.78301546371, 0.116, 0.9420000000000001, 0.182, 192.0, 0.0, 0.0, 0.0, 0.0, 0.0, 0.0, 0.0, 0.0, 0.0, 1.6581650749043944E9, 0.0, 2022-07-18 13:24:34.904
200.0, -27521.47943037503, -41118.738486616436, -64325.99596095037, -58921.23239293485, -27094.091724645106, -47108.558965749624, -62523.59599156332, -39024.71530732099, -21881.70962115641, -66459.5370244428, -64689.61413974931, -82048.64943607444, -56999.78703257883, -60673.22917857518, -54987.39242403417, -54554.036802534676, 0.115, 0.9410000000000001, 0.182, 192.0, 1.5, 72.0, 14.5, 48.0, 2.5, 88.0, 0.0, 0.0, 0.0, 1.6581650749043984E9, 0.0, 2022-07-18 13:24:34.904
202.0, -27479.614613010242, -41124.9075680861, -64284.89110289706, -58879.47933429234, -27064.45331149737, -47079.00995957971, -62493.018805148466, -38987.76787373637, -21932.604543281144, -66508.97908317794, -64750.790864323484, -82108.48505598129, -57065.00942289942, -60732.84128103749, -55057.33103243483, -54614.140643375, 0.115, 0.9410000000000001, 0.182, 192.0, 0.0, 0.0, 0.0, 0.0, 0.0, 0.0, 0.0, 0.0, 0.0, 1.6581650749044025E9, 0.0, 2022-07-18 13:24:34.904
204.0, -27506.034374956416, -41111.27300396836, -64325.16894640553, -58915.77856728776, -27086.447428041392, -47100.2664685567, -62491.185962103125, -38996.417998840574, -21872.590109418645, -66441.85679457865, -64681.9698431456, -82041.00513947071, -56998.91531454508, -60667.73064943918, -54982.13976408717, -54538.63645060497, 0.115, 0.9410000000000001, 0.182, 192.0, 0.0, 0.0, 0.0, 0.0, 0.0, 0.0, 0.0, 0.0, 0.0, 1.6581650749044063E9, 0.0, 2022-07-18 13:24:34.904
206.0, -27493.71856376154, -41121.62186165117, -64292.893027412065, -58888.71060475238, -27074.958631391364, -47093.113910331005, -62476.50086599599, -38981.19646086651, -21937.141947405573, -66517.51744955986, -64753.24955621357, -82109.55793971515, -57073.838361959264, -60736.10463572796, -55056.839294056816, -54621.69553300089, 0.115, 0.9410000000000001, 0.182, 192.0, 0.0, 0.0, 0.0, 0.0, 0.0, 0.0, 0.0, 0.0, 0.0, 1.658165074904411E9, 0.0, 2022-07-18 13:24:34.904
208.0, -27503.352165621778, -41110.02130627886, -64315.55769628975, -58912.246991663815, -27091.096590888097, -47091.571639963586, -62517.404558349204, -38989.89128945962, -21873.32771698567, -66437.65466662105, -64676.60542447632, -82026.27533987467, -57000.926971546054, -60659.86283539091, -54979.61401696373, -54542.726819840296, 0.115, 0.9410000000000001, 0.182, 192.0, 0.0, 0.0, 0.0, 0.0, 0.0, 0.0, 0.0, 0.0, 0.0, 1.658165074904415E9, 0.0, 2022-07-18 13:24:34.904
210.0, -27498.54654056389, -41122.67239364057, -64294.27883556829, -58896.868991478565, -27080.323050060637, -47092.89039288645, -62495.07516563835, -38997.78145525235, -21947.848432999665, -66532.60487706719, -64762.123198762325, -82111.0331548492, -57083.13668765267, -60749.87331031243, -55065.221198227555, -54632.93846046191, 0.1135, 0.9435, 0.184, 192.0, 1.5, 64.0, 14.5, 72.0, 2.5, 104.0, 0.0, 0.0, 0.0, 1.6581650749044192E9, 0.0, 2022-07-18 13:24:34.904
212.0, -27496.423124840632, -41107.78613183333, -64293.13889660107, -58893.382119343536, -27073.997506379787, -47084.97787534927, -62499.67962499615, -38995.74744650692, -21863.18002500296, -66431.48558515139, -64673.61029071931, -82016.68644150335, -56983.29144517082, -60659.75107666863, -54972.39440350466, -54538.36822967151, 0.1135, 0.9435, 0.184, 192.0, 0.0, 0.0, 0.0, 0.0, 0.0, 0.0, 0.0, 0.0, 0.0, 1.658165074904423E9, 0.0, 2022-07-18 13:24:34.904
214.0, -27503.955662722074, -41122.96296631849, -64302.750146716855, -58901.09347118062, -27095.58929152361, -47099.93119238987, -62510.0061309345, -38999.81546399778, -21932.179860136494, -66522.9042199736, -64758.12223650482, -82105.80284664665, -57070.53030377988, -60742.81015906455, -55057.46514290156, -54618.78980622171, 0.1135, 0.9435, 0.184, 192.0, 0.0, 0.0, 0.0, 0.0, 0.0, 0.0, 0.0, 0.0, 0.0, 1.658165074904427E9, 0.0, 2022-07-18 13:24:34.904
216.0, -27481.38040082221, -41106.82500682175, -64280.867788895106, -58875.92540692394, -27065.816767909142, -47074.20433452181, -62492.05768013689, -38981.64349575561, -21867.98565006085, -66438.19110848798, -64675.778409931474, -82027.77290675318, -56993.237971453425, -60660.80160865803, -54983.54792398786, -54540.58105237258, 0.1135, 0.9435, 0.184, 192.0, 0.0, 0.0, 0.0, 0.0, 0.0, 0.0, 0.0, 0.0, 0.0, 1.658165074904431E9, 0.0, 2022-07-18 13:24:34.904
218.0, -27506.079078445327, -41125.309899486296, -64308.31573108623, -58905.16148867148, -27097.89152120251, -47111.062361128614, -62529.76507303299, -39021.98839449744, -21917.852391940643, -66515.84106872571, -64739.50323337356, -82097.97973608729, -57063.91418742111, -60729.68968506929, -55057.398087668196, -54615.481748042315, 0.1135, 0.9435, 0.184, 192.0, 0.0, 0.0, 0.0, 0.0, 0.0, 0.0, 0.0, 0.0, 0.0, 1.658165074904435E9, 0.0, 2022-07-18 13:24:34.904
220.0, -27493.942081206096, -41127.90270184311, -64277.20210280444, -58875.65718599048, -27064.296849286184, -47075.45603221131, -62496.23745635003, -38999.010801197386, -21865.638716893045, -66442.16971900103, -64676.89599715424, -82030.36570910999, -56990.06402374078, -60661.874492391886, -54998.32242707282, -54552.80745658964, 0.11075, 0.94075, 0.185, 192.0, 1.5, 48.0, 14.5, 40.0, 2.5, 104.0, 0.0, 0.0, 0.0, 1.6581650749044387E9, 0.0, 2022-07-18 13:24:34.904
222.0, -27517.500819861987, -41132.30599550081, -64317.09996665716, -58916.382064388046, -27097.288024102214, -47118.974878665795, -62513.96238970308, -39023.24009218694, -21920.6240082531, -66521.51841181736, -64750.947326534675, -82098.73969539878, -57059.734411207966, -60735.97052526123, -55062.18136098163, -54617.448701554385, 0.11075, 0.94075, 0.185, 192.0, 0.0, 0.0, 0.0, 0.0, 0.0, 0.0, 0.0, 0.0, 0.0, 1.6581650749044428E9, 0.0, 2022-07-18 13:24:34.904
224.0, -27507.755459279473, -41146.02996659636, -64296.737527458376, -58888.71060475238, -27073.55047149068, -47092.89039288645, -62490.135430113725, -38994.540452306326, -21882.916615356997, -66464.09678031168, -64708.25549462504, -82048.69413956335, -57016.595544409225, -60682.214579846215, -55007.956028933055, -54568.90071259746, 0.11075, 0.94075, 0.185, 192.0, 0.0, 0.0, 0.0, 0.0, 0.0, 0.0, 0.0, 0.0, 0.0, 1.6581650749044468E9, 0.0, 2022-07-18 13:24:34.904
226.0, -27529.213133956568, -41140.77730664937, -64340.16696693504, -58925.47922438136, -27114.252998143795, -47121.27710834469, -62533.25194516801, -39016.3110514058, -21939.086549173182, -66528.44745259851, -64771.51093143356, -82112.39661126096, -57085.9753591985, -60734.294144427084, -55066.539951150415, -54616.55463177618, 0.11075, 0.94075, 0.185, 192.0, 0.0, 0.0, 0.0, 0.0, 0.0, 0.0, 0.0, 0.0, 0.0, 1.658165074904454E9, 0.0, 2022-07-18 13:24:34.904
228.0, -27489.181159637115, -41128.77441987686, -64270.83185563468, -58853.48425549082, -27052.69629391388, -47052.6572528669, -62457.32306925334, -38953.45794599747, -21886.783467147765, -66451.37863771661, -64704.522753301, -82045.58724708405, -57015.14268101963, -60663.23794880366, -54999.37295906222, -54543.08444775158, 0.11075, 0.94075, 0.185, 192.0, 0.0, 0.0, 0.0, 0.0, 0.0, 0.0, 0.0, 0.0, 0.0, 1.658165074904458E9, 0.0, 2022-07-18 13:24:34.904
230.0, -27527.26853218896, -41136.19519903603, -64342.89387975859, -58926.75327381531, -27124.93713199343, -47123.4228758124, -62547.04297149694, -39040.85326681772, -21921.562781520224, -66495.45627778248, -64747.281640444, -82092.50355869575, -57055.71109720601, -60710.534240071094, -55048.68090733063, -54590.671311696926, 0.105375, 0.9433750000000001, 0.1835, 192.0, 1.5, 16.0, 14.5, 72.0, 2.5, 88.0, 0.0, 0.0, 0.0, 1.6581650749044628E9, 0.0, 2022-07-18 13:24:34.904
232.0, -27479.368743821236, -41128.305033243305, -64258.96307932891, -58849.326831022125, -27062.73222717431, -47071.74564263173, -62479.78657243092, -38993.33345810574, -21896.059441096717, -66453.14442552858, -64705.99796843505, -82050.28111341967, -57031.124178305174, -60678.68300422228, -55029.43605535461, -54570.890017853984, 0.105375, 0.9433750000000001, 0.1835, 192.0, 0.0, 0.0, 0.0, 0.0, 0.0, 0.0, 0.0, 0.0, 0.0, 1.6581650749044669E9, 0.0, 2022-07-18 13:24:34.904
234.0, -27546.289866720424, -41158.77046093589, -64342.35743789166, -58938.5102913988, -27145.545440381225, -47156.05642271715, -62570.82522759739, -39064.18848802907, -21921.026339653297, -66494.15987660407, -64736.686913572186, -82081.61825914601, -57066.35052756674, -60715.004588962154, -55055.5428928784, -54606.92102991594, 0.105375, 0.9433750000000001, 0.1835, 192.0, 0.0, 0.0, 0.0, 0.0, 0.0, 0.0, 0.0, 0.0, 0.0, 1.6581650749044707E9, 0.0, 2022-07-18 13:24:34.904
236.0, -27492.690383516598, -41162.8161266823, -64263.09815205314, -58858.64750845999, -27074.891576158, -47088.71061667331, -62503.54647678691, -38999.30137387531, -21930.190554879973, -66497.89261792811, -64740.3302479184, -82079.96423005631, -57065.031774643874, -60710.467184837726, -55043.60706133927, -54590.51484948574, 0.105375, 0.9433750000000001, 0.1835, 192.0, 0.0, 0.0, 0.0, 0.0, 0.0, 0.0, 0.0, 0.0, 0.0, 1.6581650749044745E9, 0.0, 2022-07-18 13:24:34.904
238.0, -27517.567875095356, -41146.275835785375, -64339.317600645736, -58929.32372442767, -27132.670835574965, -47150.490838347774, -62555.46957915659, -39064.657874662626, -21920.66871174201, -66500.79834470729, -64739.749102562564, -82079.6736573784, -57061.611957742214, -60709.975446459706, -55026.01623845295, -54581.46239298134, 0.105375, 0.9433750000000001, 0.1835, 192.0, 0.0, 0.0, 0.0, 0.0, 0.0, 0.0, 0.0, 0.0, 0.0, 1.6581650749044783E9, 0.0, 2022-07-18 13:24:34.904
240.0, -27437.41451947862, -41119.207873249994, -64256.750256627834, -58846.77873215422, -27056.272573026727, -47078.786442135155, -62480.79240093141, -39000.418961098076, -21922.25568559834, -66491.41061203607, -64739.70439907365, -82078.8242910891, -57070.64206250216, -60718.156184930354, -55045.12697996223, -54590.71601518584, 0.1026875, 0.9486875000000001, 0.18475, 192.0, 1.5, 16.0, 14.5, 104.0, 2.5, 104.0, 0.0, 0.0, 0.0, 1.6581650749044824E9, 0.0, 2022-07-18 13:24:34.904
242.0, -27479.882833943706, -41118.89494882762, -64348.90649901707, -58935.89513729753, -27132.357911152594, -47137.59388179707, -62564.387925194256, -39061.14865078314, -21881.016717078295, -66450.35045747166, -64697.884285197775, -82038.70290979183, -57034.58869869575, -60672.93860589727, -55013.11928190223, -54563.42453520591, 0.1026875, 0.9486875000000001, 0.18475, 192.0, 0.0, 0.0, 0.0, 0.0, 0.0, 0.0, 0.0, 0.0, 0.0, 1.6581650753839684E9, 0.0, 2022-07-18 13:24:35.383
244.0, -27430.66429265312, -41133.33417574575, -64282.29830054025, -58880.06047964817, -27074.489244757802, -47100.80291042363, -62499.99254941852, -39015.19346418303, -21921.60748500913, -66491.96940564745, -64746.0299427545, -82086.8262156041, -57079.60511202874, -60722.02303672112, -55066.71876510606, -54618.47688179933, 0.1026875, 0.9486875000000001, 0.18475, 192.0, 0.0, 0.0, 0.0, 0.0, 0.0, 0.0, 0.0, 0.0, 0.0, 1.6581650753840537E9, 0.0, 2022-07-18 13:24:35.384
246.0, -27464.594240736278, -41136.01638508039, -64348.39240889459, -58941.08074201116, -27116.756393522788, -47139.09144867557, -62547.44530289713, -39037.36639468269, -21879.966185088895, -66457.10068429717, -64704.47804981209, -82048.80589828562, -57028.419617226085, -60677.76658269961, -55019.71304651655, -54574.108669055546, 0.1026875, 0.9486875000000001, 0.18475, 192.0, 0.0, 0.0, 0.0, 0.0, 0.0, 0.0, 0.0, 0.0, 0.0, 1.6581650753840697E9, 0.0, 2022-07-18 13:24:35.384
248.0, -27413.833429078273, -41137.82687638127, -64283.929977885484, -58875.210151101375, -27059.804148650666, -47093.09155858655, -62471.44937174909, -39001.82712099876, -21927.597752523157, -66506.76626047687, -64750.790864323484, -82092.39179997347, -57063.6683182321, -60721.39718787637, -55058.56037837987, -54617.98514342131, 0.1026875, 0.9486875000000001, 0.18475, 192.0, 0.0, 0.0, 0.0, 0.0, 0.0, 0.0, 0.0, 0.0, 0.0, 1.6581650753840754E9, 0.0, 2022-07-18 13:24:35.384
250.0, -27462.53788024639, -41155.06007135631, -64363.278670701824, -58944.969945546385, -27125.674739560454, -47144.88055048949, -62554.77667507848, -39050.39746170014, -21898.115801586606, -66474.6915071835, -64719.65488429724, -82056.7184158228, -57030.073646315774, -60677.67717572179, -55019.86950872774, -54573.75104114426, 0.10334375000000001, 0.94634375, 0.187375, 192.0, 1.5, 32.0, 14.5, 64.0, 2.5, 120.0, 0.0, 0.0, 0.0, 1.65816507538408E9, 0.0, 2022-07-18 13:24:35.384
252.0, -27406.41264991911, -41139.61501593769, -64292.20012333395, -58877.80295345819, -27071.762331934257, -47094.47736674278, -62492.571770259354, -39004.68814428904, -21949.39070336708, -66543.13254870565, -64783.62557692833, -82124.19833233337, -57092.63617904618, -60737.13281597291, -55086.45535546009, -54627.61874528155, 0.10334375000000001, 0.94634375, 0.187375, 192.0, 0.0, 0.0, 0.0, 0.0, 0.0, 0.0, 0.0, 0.0, 0.0, 1.658165075384084E9, 0.0, 2022-07-18 13:24:35.384
254.0, -27426.19394376206, -41132.55186468981, -64340.010504723854, -58926.23918369284, -27104.485285816823, -47123.98166942378, -62527.35108463182, -39038.12635399418, -21877.19456877644, -66458.21827151993, -64698.73365148708, -82045.07315696159, -57011.14171876213, -60656.95710861172, -54995.77432820491, -54536.46833139281, 0.10334375000000001, 0.94634375, 0.187375, 192.0, 0.0, 0.0, 0.0, 0.0, 0.0, 0.0, 0.0, 0.0, 0.0, 1.6581650753840876E9, 0.0, 2022-07-18 13:24:35.384
0.0, -27414.41457443411, -41142.31957701678, -64320.47508006991, -58915.35388414311, -27098.65148051399, -47130.35191659354, -62517.04693043792, -39057.99705481494, -21950.262421400836, -66550.35216216471, -64782.128010049826, -82130.16624810293, -57100.146365183165, -60748.95688878976, -55078.60989315628, -54639.755742520785, 0.10334375000000001, 0.94634375, 0.187375, 192.0, 0.0, 0.0, 0.0, 0.0, 0.0, 0.0, 0.0, 0.0, 0.0, 1.6581650753840914E9, 0.0, 2022-07-18 13:24:35.384
2.0, -27441.437833480577, -41147.8628096417, -64345.620792582136, -58952.25661423882, -27120.153858679994, -47136.11866666302, -62541.27622142747, -39044.89893256413, -21896.77469691929, -66482.91694914305, -64715.989198206575, -82066.19555547184, -57037.13679756365, -60691.95994042873, -55007.37488357722, -54580.0318813362, 0.10334375000000001, 0.94634375, 0.187375, 192.0, 0.0, 0.0, 0.0, 0.0, 0.0, 0.0, 0.0, 0.0, 0.0, 1.6581650753840952E9, 0.0, 2022-07-18 13:24:35.384
4.0, -27426.305702484337, -41143.57127470628, -64316.47411781242, -58941.550128644725, -27104.060602672173, -47137.25860563023, -62530.27916315546, -39060.612208916216, -21960.566575594734, -66556.99063026794, -64781.05512631597, -82136.38003306152, -57102.89562975117, -60765.69834538679, -55070.0491750299, -54660.498161375304, 0.104671875, 0.945171875, 0.1906875, 192.0, 1.5, 40.0, 14.5, 64.0, 3.0, 8.0, 0.0, 0.0, 0.0, 1.658165075384099E9, 0.0, 2022-07-18 13:24:35.384
6.0, -27437.950961345552, -41142.54309446133, -64307.779289219296, -58941.617183878094, -27086.536835019215, -47128.31790784811, -62517.87394498276, -39051.40329020063, -21895.679461440977, -66483.76631543235, -64709.99893069255, -82065.99438977175, -57020.775320622364, -60691.445850306256, -54990.0299298799, -54590.80542216366, 0.104671875, 0.945171875, 0.1906875, 192.0, 0.0, 0.0, 0.0, 0.0, 0.0, 0.0, 0.0, 0.0, 0.0, 1.6581650753841124E9, 0.0, 2022-07-18 13:24:35.384
8.0, -27426.864496095717, -41138.922111859574, -64316.34000734568, -58940.09726525513, -27107.5474748072, -47135.626928285, -62537.52112835898, -39088.52953774089, -21959.06900871623, -66562.28799370385, -64781.94919609418, -82140.38099531902, -57094.58078081379, -60762.63615639641, -55065.69058486111, -54663.24742594331, 0.104671875, 0.945171875, 0.1906875, 192.0, 0.0, 0.0, 0.0, 0.0, 0.0, 0.0, 0.0, 0.0, 0.0, 1.6581650753841162E9, 0.0, 2022-07-18 13:24:35.384
10.0, -27419.041385536362, -41138.85505662621, -64311.10969914314, -58918.818404533675, -27090.157817620973, -47115.2197855973, -62511.41429083518, -39022.368374153186, -21879.22857752187, -66474.64680369459, -64688.87653218229, -82045.98957848425, -57011.81227109579, -60669.87641690689, -54976.842400651265, -54558.7753723592, 0.104671875, 0.945171875, 0.1906875, 192.0, 0.0, 0.0, 0.0, 0.0, 0.0, 0.0, 0.0, 0.0, 0.0, 1.65816507538412E9, 0.0, 2022-07-18 13:24:35.384
12.0, -27446.422272494114, -41150.43326025406, -64355.813188053755, -58951.51900667179, -27146.573620626168, -47161.86787627553, -62576.94960557814, -39083.70156093855, -21964.00874424085, -66569.12762750717, -64785.63723392931, -82138.52580052923, -57109.556449598844, -60768.44760995479, -55074.8995035767, -54651.04337347071, 0.104671875, 0.945171875, 0.1906875, 192.0, 0.0, 0.0, 0.0, 0.0, 0.0, 0.0, 0.0, 0.0, 0.0, 1.6581650753841236E9, 0.0, 2022-07-18 13:24:35.384
14.0, -27410.458315665524, -41136.64223392514, -64314.082481155696, -58901.339340369625, -27099.389088081014, -47113.78927395216, -62515.459956581595, -39021.42960088606, -21899.546313231745, -66473.77508566083, -64712.077642926895, -82056.96428501181, -57033.091131817244, -60684.82973394749, -55002.94923817507, -54569.54891318666, 0.104671875, 0.945171875, 0.1906875, 192.0, 0.0, 0.0, 0.0, 0.0, 0.0, 0.0, 0.0, 0.0, 0.0, 1.6581650753841274E9, 0.0, 2022-07-18 13:24:35.384
16.0, -27457.77695867741, -41166.839440684256, -64388.49143844741, -58976.150629061536, -27157.99536204283, -47177.93878053889, -62573.686250887666, -39109.182549617595, -21959.158415694048, -66557.08003724576, -64788.98999559761, -82138.01171040675, -57107.63419957569, -60756.06474352655, -55075.905332077185, -54649.67991705894, 0.11, 0.9480000000000001, 0.188, 192.0, 1.5, 56.0, 14.5, 80.0, 2.5, 112.0, 0.0, 0.0, 0.0, 1.6581650753841312E9, 0.0, 2022-07-18 13:24:35.384
18.0, -27401.316452183302, -41136.12814380266, -64303.308940328236, -58900.55702931369, -27077.014991881253, -47104.17802383638, -62497.66796799517, -39045.860057575715, -21904.016662122805, -66487.38729803411, -64726.963904734126, -82075.62799163199, -57040.064876087294, -60689.38948981637, -55014.90742145866, -54592.973541375824, 0.11, 0.9480000000000001, 0.188, 192.0, 0.0, 0.0, 0.0, 0.0, 0.0, 0.0, 0.0, 0.0, 0.0, 1.6581650753841348E9, 0.0, 2022-07-18 13:24:35.384
20.0, -27465.845938425773, -41162.19027783755, -64381.472990688446, -58983.705518687435, -27162.152786511517, -47173.848411303574, -62580.54823643545, -39089.24479356346, -21948.094302188674, -66552.07324648777, -64781.50216120508, -82132.08849812609, -57085.28245512038, -60745.40296142137, -55070.96559655257, -54643.600242567096, 0.11, 0.9480000000000001, 0.188, 192.0, 0.0, 0.0, 0.0, 0.0, 0.0, 0.0, 0.0, 0.0, 0.0, 1.6581650753841393E9, 0.0, 2022-07-18 13:24:35.384
22.0, -27406.85968480822, -41145.940559618546, -64298.0786321257, -58900.55702931369, -27097.668003757957, -47099.2159365673, -62510.52022105697, -39027.308109677804, -21926.256647855836, -66506.58744652123, -64747.99689626657, -82094.33640174108, -57061.79077169786, -60714.26698139513, -55039.069657214844, -54608.37389330553, 0.11, 0.9480000000000001, 0.188, 192.0, 0.0, 0.0, 0.0, 0.0, 0.0, 0.0, 0.0, 0.0, 0.0, 1.658165075384143E9, 0.0, 2022-07-18 13:24:35.384
24.0, -27433.99470257696, -41139.771478148876, -64352.795702552285, -58949.61910839309, -27145.14310898103, -47145.59580631206, -62566.57839615088, -39095.771502944415, -21926.837793211675, -66522.56894380676, -64755.66354461474, -82104.57350070162, -57079.04631841735, -60719.139661686386, -55050.8937300317, -54615.72761723133, 0.11, 0.9480000000000001, 0.188, 192.0, 0.0, 0.0, 0.0, 0.0, 0.0, 0.0, 0.0, 0.0, 0.0, 1.658165075384147E9, 0.0, 2022-07-18 13:24:35.384
26.0, -27370.60515530171, -41119.923129072566, -64258.04665780624, -58856.72525843683, -27062.866337641044, -47077.60179967902, -62468.186017058615, -39001.804769254304, -21897.82522890869, -66482.64872820959, -64715.698625528654, -82064.89915429344, -57043.81996915579, -60688.40601306034, -55012.001694679464, -54579.54014295818, 0.108, 0.9460000000000001, 0.188, 192.0, 1.5, 48.0, 14.5, 72.0, 2.5, 112.0, 0.0, 0.0, 0.0, 1.6581650753841507E9, 0.0, 2022-07-18 13:24:35.384
28.0, -27437.123946800704, -41135.70346065801, -64348.057132727765, -58945.41698043549, -27138.459937388892, -47150.021451714216, -62561.43749492616, -39081.44403474856, -21906.76592669081, -66503.07822264174, -64729.91433500223, -82082.71349462432, -57066.015251399906, -60708.8802109814, -55027.044418697886, -54596.79568967768, 0.108, 0.9460000000000001, 0.188, 192.0, 0.0, 0.0, 0.0, 0.0, 0.0, 0.0, 0.0, 0.0, 0.0, 1.6581650753841543E9, 0.0, 2022-07-18 13:24:35.384
30.0, -27399.014222504407, -41138.6091874372, -64267.68025966648, -58874.18197085643, -27076.635012225513, -47088.68826492885, -62490.80598244739, -39025.654080588116, -21916.645397740056, -66504.75460347589, -64735.546974604964, -82083.09347428006, -57067.73633572297, -60704.74513825717, -55029.10077918778, -54596.192192577386, 0.108, 0.9460000000000001, 0.188, 192.0, 0.0, 0.0, 0.0, 0.0, 0.0, 0.0, 0.0, 0.0, 0.0, 1.6581650753841584E9, 0.0, 2022-07-18 13:24:35.384
32.0, -27460.72738894551, -41155.19418182304, -64364.060981757764, -58973.80369589373, -27151.982742784352, -47169.06513799014, -62578.58128292338, -39089.22244181901, -21917.852391940643, -66512.89063845761, -64745.00176250956, -82092.12357904001, -57068.83157120128, -60710.06485343753, -55036.54391009139, -54604.0376548812, 0.108, 0.9460000000000001, 0.188, 192.0, 0.0, 0.0, 0.0, 0.0, 0.0, 0.0, 0.0, 0.0, 0.0, 1.658165075384162E9, 0.0, 2022-07-18 13:24:35.384
34.0, -27397.673117837086, -41143.34775726173, -64279.99607086135, -58895.72905251134, -27070.667096455945, -47099.14888133394, -62487.98966264602, -39010.29843214732, -21938.192479394973, -66529.78855726583, -64771.063896544445, -82113.80477116165, -57088.7246237665, -60730.650810080864, -55060.23675921402, -54627.88696621502, 0.108, 0.9460000000000001, 0.188, 192.0, 0.0, 0.0, 0.0, 0.0, 0.0, 0.0, 0.0, 0.0, 0.0, 1.6581650753841655E9, 0.0, 2022-07-18 13:24:35.384
36.0, -27454.692417942577, -41154.50127774492, -64373.47106617345, -58979.03400409628, -27146.03717875924, -47161.979634997806, -62570.6687653862, -39092.70931395404, -21902.96613013341, -66497.13265861663, -64742.274849686015, -82085.7756836147, -57046.502178490424, -60699.11249865443, -55029.838386754804, -54594.20288732087, 0.11, 0.9460000000000001, 0.19, 192.0, 1.5, 56.0, 14.5, 72.0, 2.5, 120.0, 0.0, 0.0, 0.0, 1.6581650753841696E9, 0.0, 2022-07-18 13:24:35.384
38.0, -27396.354364914223, -41147.41577475259, -64296.33519605818, -58902.814555503675, -27078.445503526393, -47110.19064309486, -62487.31911031236, -39014.50056010492, -21942.43931084148, -66539.22099342597, -64783.022079828035, -82128.37810854652, -57098.26881864892, -60743.50306314267, -55077.604064655796, -54639.21930065386, 0.11, 0.9460000000000001, 0.19, 192.0, 0.0, 0.0, 0.0, 0.0, 0.0, 0.0, 0.0, 0.0, 0.0, 1.6581650753841808E9, 0.0, 2022-07-18 13:24:35.384
40.0, -27458.983952877996, -41166.34770230624, -64375.16979875205, -58978.7210796739, -27143.69024559143, -47169.28865543469, -62565.95254730613, -39102.20880534754, -21895.366537018603, -66485.26388231086, -64734.40703563774, -82081.39474170146, -57049.743181436446, -60692.04934740655, -55023.199918651575, -54584.21165754934, 0.11, 0.9460000000000001, 0.19, 192.0, 0.0, 0.0, 0.0, 0.0, 0.0, 0.0, 0.0, 0.0, 0.0, 1.6581650753841853E9, 0.0, 2022-07-18 13:24:35.384
42.0, -27438.174478790104, -41183.98322868148, -64319.75982424735, -58933.771721574274, -27106.07225967315, -47148.76975402472, -62528.80394802141, -39071.89983986614, -21968.68025883201, -66570.62519438568, -64815.14153661032, -82159.06705368366, -57123.86156605024, -60770.95100533379, -55102.63801844574, -54665.549655622206, 0.11, 0.9460000000000001, 0.19, 192.0, 0.0, 0.0, 0.0, 0.0, 0.0, 0.0, 0.0, 0.0, 0.0, 1.658165075384189E9, 0.0, 2022-07-18 13:24:35.384
44.0, -27464.281316313904, -41182.21744086951, -64371.07942951673, -58985.85128615514, -27151.08867300614, -47179.034016017205, -62582.09050680286, -39107.95320367256, -21916.600694251145, -66513.53883904681, -64754.635364369795, -82099.99139308828, -57060.986108897465, -60709.37194935942, -55039.24847117048, -54600.95311414637, 0.11, 0.9460000000000001, 0.19, 192.0, 0.0, 0.0, 0.0, 0.0, 0.0, 0.0, 0.0, 0.0, 0.0, 1.6581650753841927E9, 0.0, 2022-07-18 13:24:35.384
46.0, -27433.882943854685, -41180.943391435554, -64329.75105401887, -58949.663811882, -27125.764146538277, -47158.60452158505, -62545.4112941517, -39105.87449143821, -21978.15739848106, -66583.23157825846, -64822.89759193631, -82165.5937630646, -57131.662324865145, -60779.35526124898, -55109.03061735995, -54677.32902495015, 0.108, 0.9420000000000001, 0.182, 192.0, 1.5, 48.0, 14.5, 56.0, 2.5, 88.0, 0.0, 0.0, 0.0, 1.6581650753841963E9, 0.0, 2022-07-18 13:24:35.384
48.0, -27432.541839187368, -41149.40508000911, -64351.07461822923, -58959.20800676442, -27146.685379348444, -47145.46169584533, -62560.7669425925, -39051.13506926716, -21906.654167968532, -66494.09282137071, -64739.4808816291, -82079.4277881894, -57053.74414369395, -60692.004643917644, -55033.74994203448, -54594.314646043145, 0.108, 0.9420000000000001, 0.182, 192.0, 0.0, 0.0, 0.0, 0.0, 0.0, 0.0, 0.0, 0.0, 0.0, 1.6581650753842E9, 0.0, 2022-07-18 13:24:35.384
50.0, -27423.534086171876, -41160.82682142578, -64339.384655879105, -58946.69102986944, -27143.9584665249, -47156.928140750904, -62539.979820249064, -39054.174906513086, -21971.83185480021, -66561.34922043672, -64813.867487176365, -82149.67932101242, -57139.574842402326, -60762.30088022958, -55117.010190130495, -54669.64002485753, 0.108, 0.9420000000000001, 0.182, 192.0, 0.0, 0.0, 0.0, 0.0, 0.0, 0.0, 0.0, 0.0, 0.0, 1.6581650753842037E9, 0.0, 2022-07-18 13:24:35.384
52.0, -27409.89952205414, -41133.71415540149, -64328.477004584915, -58934.9116605415, -27124.735966293334, -47120.89712868895, -62536.51529985849, -39059.44991820454, -21884.8165136357, -66470.51173097035, -64718.67140754121, -82059.0206455017, -57044.93755637855, -60671.08341110747, -55030.46423559955, -54577.260265023746, 0.108, 0.9420000000000001, 0.182, 192.0, 0.0, 0.0, 0.0, 0.0, 0.0, 0.0, 0.0, 0.0, 0.0, 1.6581650753842075E9, 0.0, 2022-07-18 13:24:35.384
54.0, -27417.879094824686, -41151.930827132564, -64336.791853522285, -58945.57344264668, -27140.940981023432, -47141.28191963219, -62542.72908481707, -39076.70546492404, -21956.20798542595, -66548.38520865265, -64799.33885328041, -82137.29645458418, -57127.616659118736, -60749.9403655458, -55108.829451659854, -54661.12401022005, 0.108, 0.9420000000000001, 0.182, 192.0, 0.0, 0.0, 0.0, 0.0, 0.0, 0.0, 0.0, 0.0, 0.0, 1.6581650753842113E9, 0.0, 2022-07-18 13:24:35.384
56.0, -27411.173571488092, -41142.14076306114, -64328.745225518374, -58932.877651796065, -27117.695166789912, -47123.40052406795, -62522.32194212937, -39047.82701108778, -21891.38792650556, -66465.50494021237, -64724.10288144385, -82052.80686054312, -57041.85301564372, -60668.55766398402, -55017.92490696012, -54572.924026599416, 0.108, 0.9380000000000001, 0.18, 192.0, 1.5, 48.0, 14.5, 40.0, 2.5, 80.0, 0.0, 0.0, 0.0, 1.658165075384215E9, 0.0, 2022-07-18 13:24:35.384
58.0, -27445.461147482532, -41172.695597731545, -64373.11343826216, -58973.982509849375, -27156.989533542343, -47167.2322949448, -62569.774695607986, -39101.78412220289, -21967.49561637588, -66572.43568568655, -64814.33687380992, -82147.2429808668, -57133.74103709949, -60768.44760995479, -55107.68951269264, -54662.331004420645, 0.108, 0.9380000000000001, 0.18, 192.0, 0.0, 0.0, 0.0, 0.0, 0.0, 0.0, 0.0, 0.0, 0.0, 1.6581650753842187E9, 0.0, 2022-07-18 13:24:35.384
60.0, -27411.464144166013, -41151.28262654336, -64331.36037961965, -58923.80284354721, -27107.07808817364, -47119.71248623282, -62514.43177633665, -39044.25073197493, -21905.603635979132, -66489.2424928239, -64739.52558511801, -82071.60467763004, -57061.254329830925, -60689.970635172205, -55032.23002341152, -54580.30010226966, 0.108, 0.9380000000000001, 0.18, 192.0, 0.0, 0.0, 0.0, 0.0, 0.0, 0.0, 0.0, 0.0, 0.0, 1.6581650753842225E9, 0.0, 2022-07-18 13:24:35.384
62.0, -27441.929571858596, -41162.90553366012, -64367.45844691497, -58962.62782366608, -27147.266524704282, -47167.32170192262, -62567.22659674008, -39093.6257354767, -21953.838700513686, -66559.00228726892, -64801.03758585901, -82137.94465517339, -57128.71189459704, -60750.43210392381, -55098.14531781022, -54655.267853172765, 0.108, 0.9380000000000001, 0.18, 192.0, 0.0, 0.0, 0.0, 0.0, 0.0, 0.0, 0.0, 0.0, 0.0, 1.658165075384226E9, 0.0, 2022-07-18 13:24:35.384
64.0, -27418.013205291416, -41164.98424589446, -64324.47604232741, -58922.75231155781, -27101.870131715554, -47130.53073054919, -62521.405520606706, -39062.53445893937, -21900.395679521047, -66488.72840270142, -64739.34677116237, -82073.48222416428, -57064.45062928804, -60680.85112343444, -55032.87822400072, -54596.259247810754, 0.108, 0.9380000000000001, 0.18, 192.0, 0.0, 0.0, 0.0, 0.0, 0.0, 0.0, 0.0, 0.0, 0.0, 1.65816507538423E9, 0.0, 2022-07-18 13:24:35.384
66.0, -27466.740008203986, -41154.97066437849, -64362.49635964589, -58963.52189344429, -27141.745643823822, -47166.56174261114, -62555.87191055679, -39080.86288939272, -21952.341133635182, -66547.4017318966, -64799.27179804705, -82132.96021615985, -57119.16769971463, -60738.40686540686, -55088.31055024989, -54651.89273976001, 0.10200000000000001, 0.9380000000000001, 0.184, 192.0, 1.5, 24.0, 14.5, 40.0, 2.5, 96.0, 0.0, 0.0, 0.0, 1.6581650753842337E9, 0.0, 2022-07-18 13:24:35.384
68.0, -27432.251266509447, -41162.03381562636, -64313.0766526552, -58916.53852659924, -27098.13739039152, -47112.13524486247, -62502.451241308605, -39037.99224352744, -21911.459793026424, -66490.74005970241, -64746.76755032153, -82077.55024165515, -57070.06091714632, -60690.99881541715, -55033.43701761211, -54594.515811743244, 0.10200000000000001, 0.9380000000000001, 0.184, 192.0, 0.0, 0.0, 0.0, 0.0, 0.0, 0.0, 0.0, 0.0, 0.0, 1.6581650753842373E9, 0.0, 2022-07-18 13:24:35.384
70.0, -27447.562211461332, -41168.44876628504, -64386.39037446862, -58984.756050676835, -27168.94771682593, -47166.651149588964, -62573.44038169866, -39091.39056103117, -21955.090398203185, -66551.06741798729, -64800.16586782526, -82133.40725104896, -57126.074388751316, -60740.172653218826, -55087.37177698276, -54641.208605910375, 0.10200000000000001, 0.9380000000000001, 0.184, 192.0, 0.0, 0.0, 0.0, 0.0, 0.0, 0.0, 0.0, 0.0, 0.0, 1.6581650753842432E9, 0.0, 2022-07-18 13:24:35.384
72.0, -27398.61189110421, -41159.061033613805, -64306.90757118554, -58907.575477072656, -27093.085896144617, -47108.357800049525, -62488.23553183503, -39036.65113886013, -21924.759080977332, -66507.52621978834, -64762.413771440246, -82094.31404999662, -57087.562333054826, -60697.7266904982, -55048.90442477518, -54596.46041351085, 0.10200000000000001, 0.9380000000000001, 0.184, 192.0, 0.0, 0.0, 0.0, 0.0, 0.0, 0.0, 0.0, 0.0, 0.0, 1.6581650753842473E9, 0.0, 2022-07-18 13:24:35.384
74.0, -27455.318266787323, -41173.14263262065, -64391.93360709353, -58992.176829836, -27178.961298341907, -47191.79686210118, -62587.38787023877, -39121.45365732356, -21941.925220719007, -66543.33371440574, -64785.97251009614, -82121.7396404433, -57113.982095000996, -60729.30970541355, -55081.67208214666, -54627.641097026004, 0.10200000000000001, 0.9380000000000001, 0.184, 192.0, 0.0, 0.0, 0.0, 0.0, 0.0, 0.0, 0.0, 0.0, 0.0, 1.6581650753842509E9, 0.0, 2022-07-18 13:24:35.384
76.0, -27394.812094546807, -41158.39048128015, -64283.84057090767, -58901.04876769171, -27099.769067736754, -47120.76301822222, -62509.73791000104, -39047.33527270976, -21927.709511245434, -66528.55921132078, -64765.72182961963, -82102.91947161192, -57091.09390867876, -60717.84326050798, -55066.338785450316, -54613.58184976362, 0.108, 0.9420000000000001, 0.182, 192.0, 1.5, 48.0, 14.5, 56.0, 2.5, 88.0, 0.0, 0.0, 0.0, 1.6581650753842547E9, 0.0, 2022-07-18 13:24:35.384
78.0, -27454.49125224248, -41170.8180511973, -64373.53812140681, -58991.327463546695, -27176.703772151923, -47186.1865742429, -62582.11285854732, -39114.97165143152, -21927.262476356325, -66535.37649337966, -64773.947271579185, -82112.79894266116, -57089.372824355705, -60729.84614728048, -55066.29408196141, -54621.986105678814, 0.108, 0.9420000000000001, 0.182, 192.0, 0.0, 0.0, 0.0, 0.0, 0.0, 0.0, 0.0, 0.0, 0.0, 1.6581650753842585E9, 0.0, 2022-07-18 13:24:35.384
80.0, -27397.248434692436, -41163.28551331586, -64299.50914377083, -58914.57157308717, -27109.22385564135, -47128.58612878158, -62509.46968906757, -39072.615095688714, -21937.544278805766, -66528.96154272098, -64782.77621063903, -82117.42575376341, -57100.50399309445, -60729.9355542583, -55076.5982361553, -54634.16780640696, 0.108, 0.9420000000000001, 0.182, 192.0, 0.0, 0.0, 0.0, 0.0, 0.0, 0.0, 0.0, 0.0, 0.0, 1.658165075384262E9, 0.0, 2022-07-18 13:24:35.384
82.0, -27465.15303434766, -41181.9715716805, -64400.02493858635, -59006.03491139829, -27184.169254799996, -47208.739484398306, -62605.53748673648, -39141.57022733334, -21913.76202270532, -66523.70888277398, -64771.86855934484, -82103.43356173439, -57086.154173154144, -60711.718882527224, -55063.27659645994, -54625.80825398067, 0.108, 0.9420000000000001, 0.182, 192.0, 0.0, 0.0, 0.0, 0.0, 0.0, 0.0, 0.0, 0.0, 0.0, 1.658165075384266E9, 0.0, 2022-07-18 13:24:35.384
84.0, -27414.41457443411, -41184.653781015135, -64324.92307721652, -58929.99427676133, -27115.102364433096, -47139.71729752032, -62518.05275893841, -39057.84059260376, -21961.72886630641, -66565.50664490541, -64822.69642623621, -82149.3887483345, -57132.712856854545, -60758.67989762782, -55110.84110866083, -54665.616710855575, 0.108, 0.9420000000000001, 0.182, 192.0, 0.0, 0.0, 0.0, 0.0, 0.0, 0.0, 0.0, 0.0, 0.0, 1.6581650753842697E9, 0.0, 2022-07-18 13:24:35.384
86.0, -27445.371740504714, -41166.839440684256, -64381.58474941072, -58982.230303553384, -27160.722274866377, -47172.21673395833, -62571.451076442136, -39090.27297380841, -21918.00885415183, -66520.28906587232, -64774.55076867947, -82099.79022738818, -57084.120164408705, -60707.20383014725, -55053.978270766536, -54607.52452701623, 0.10600000000000001, 0.9410000000000001, 0.188, 192.0, 1.5, 32.0, 14.5, 48.0, 3.0, 8.0, 0.0, 0.0, 0.0, 1.6581650753842733E9, 0.0, 2022-07-18 13:24:35.384
88.0, -27403.28340569537, -41165.14070810565, -64305.0300246513, -58915.77856728776, -27105.804038739687, -47125.680402002385, -62509.49204081202, -39059.405214715625, -21948.183709166493, -66550.66508658709, -64803.96566438266, -82130.25565508076, -57118.78772005889, -60740.6867433413, -55091.99858808501, -54639.755742520785, 0.10600000000000001, 0.9410000000000001, 0.188, 192.0, 0.0, 0.0, 0.0, 0.0, 0.0, 0.0, 0.0, 0.0, 0.0, 1.658165075384277E9, 0.0, 2022-07-18 13:24:35.384
90.0, -27426.015129806416, -41155.48475450096, -64347.83361528321, -58958.13512303056, -27136.828260043654, -47149.864989503025, -62544.13724471775, -39078.78417715838, -21890.873836383085, -66483.22987356542, -64736.21752693863, -82065.05561650463, -57051.4642657595, -60667.44007676126, -55021.858813984254, -54572.208770776844, 0.10600000000000001, 0.9410000000000001, 0.188, 192.0, 0.0, 0.0, 0.0, 0.0, 0.0, 0.0, 0.0, 0.0, 0.0, 1.6581650753842807E9, 0.0, 2022-07-18 13:24:35.384
92.0, -27404.42334466259, -41167.62175174019, -64302.30311182775, -58923.780491802754, -27104.552341050192, -47131.40244858294, -62503.211200620084, -39052.81145010131, -21938.77362475081, -66540.15976669309, -64791.24752178759, -82125.18180908941, -57113.557411856345, -60728.862670524446, -55081.67208214666, -54636.671201785946, 0.10600000000000001, 0.9410000000000001, 0.188, 192.0, 0.0, 0.0, 0.0, 0.0, 0.0, 0.0, 0.0, 0.0, 0.0, 1.6581650753842852E9, 0.0, 2022-07-18 13:24:35.384
94.0, -27420.471897181502, -41158.211667324504, -64337.26124015585, -58958.22453000838, -27136.291818176727, -47152.726012793304, -62536.80587253641, -39069.50820320943, -21882.76015314581, -66486.15795208907, -64730.808404780444, -82066.6202386165, -57051.128989592675, -60672.31275705252, -55017.56727904884, -54584.97161686082, 0.10600000000000001, 0.9410000000000001, 0.188, 192.0, 0.0, 0.0, 0.0, 0.0, 0.0, 0.0, 0.0, 0.0, 0.0, 1.65816507538429E9, 0.0, 2022-07-18 13:24:35.384
96.0, -27400.84706554974, -41161.43031852607, -64294.79292569077, -58913.34222714213, -27108.709765518877, -47131.38009683849, -62505.13345064324, -39067.317732252806, -21931.844583969665, -66540.42798762655, -64787.224207785635, -82124.66771896693, -57106.60601933075, -60734.092978726985, -55072.46316343107, -54646.28245190173, 0.10500000000000001, 0.9425000000000001, 0.188, 192.0, 1.5, 32.0, 14.5, 64.0, 2.5, 112.0, 0.0, 0.0, 0.0, 1.6581650753842964E9, 0.0, 2022-07-18 13:24:35.384
98.0, -27417.387356446667, -41152.53432423286, -64313.32252184422, -58925.90390752601, -27117.717518534366, -47135.80574224064, -62517.8068897494, -39049.39163319965, -21872.70186814092, -66462.86743436664, -64715.96684646211, -82048.33651165206, -57037.04739058583, -60654.252547532626, -54998.47888928401, -54568.99011957528, 0.10500000000000001, 0.9425000000000001, 0.188, 192.0, 0.0, 0.0, 0.0, 0.0, 0.0, 0.0, 0.0, 0.0, 0.0, 1.6581650753843036E9, 0.0, 2022-07-18 13:24:35.384
100.0, -27409.452487165036, -41162.68201621557, -64303.44305079497, -58913.096357953116, -27114.27534988825, -47130.62013752701, -62515.32584611486, -39055.270141991394, -21936.270229371814, -66539.04217947033, -64785.14549555129, -82114.1847508174, -57110.87520252171, -60720.63722856489, -55061.82373307035, -54631.66441102796, 0.10500000000000001, 0.9425000000000001, 0.188, 192.0, 0.0, 0.0, 0.0, 0.0, 0.0, 0.0, 0.0, 0.0, 0.0, 1.6581650753843093E9, 0.0, 2022-07-18 13:24:35.384
102.0, -27410.681833110077, -41158.05520511332, -64308.53924853078, -58908.78247127325, -27104.150009649995, -47103.663933713906, -62504.619360520766, -39046.30709246482, -21875.38407747556, -66452.40681796156, -64715.11748017281, -82036.78065976867, -57044.222300555986, -60639.74626538113, -54986.18542983359, -54546.012526275226, 0.10500000000000001, 0.9425000000000001, 0.188, 192.0, 0.0, 0.0, 0.0, 0.0, 0.0, 0.0, 0.0, 0.0, 0.0, 1.6581650753843145E9, 0.0, 2022-07-18 13:24:35.384
104.0, -27403.462219651014, -41161.20680108152, -64304.717100228925, -58903.105128181596, -27106.541646306712, -47107.48608201576, -62481.93233989863, -39006.45393210101, -21934.86206947113, -66525.76524326387, -64790.59932119839, -82108.70857342584, -57113.915039767635, -60709.68487378179, -55056.7945905679, -54609.80440495067, 0.10500000000000001, 0.9425000000000001, 0.188, 192.0, 0.0, 0.0, 0.0, 0.0, 0.0, 0.0, 0.0, 0.0, 0.0, 1.6581650753843184E9, 0.0, 2022-07-18 13:24:35.384
106.0, -27404.780972573873, -41166.057129628316, -64297.58689374768, -58887.88359020753, -27100.819599726154, -47096.51137548821, -62490.11307836927, -39017.33923165074, -21869.393809961537, -66449.54579467127, -64710.177744648194, -82027.63879628644, -57031.14653004963, -60636.12528277937, -54987.5265345009, -54530.612174345515, 0.10550000000000001, 0.9412500000000001, 0.187, 192.0, 1.5, 40.0, 14.5, 48.0, 2.5, 104.0, 0.0, 0.0, 0.0, 1.6581650758654675E9, 0.0, 2022-07-18 13:24:35.865
108.0, -27419.175496003092, -41176.02600765539, -64317.234077123896, -58907.97780847285, -27129.787460540232, -47124.83103571308, -62515.7058257706, -39071.89983986614, -21925.809612966732, -66532.85074625621, -64779.55755943747, -82102.0254018337, -57106.091929208276, -60704.61102779044, -55068.573959895846, -54604.06000662566, 0.10550000000000001, 0.9412500000000001, 0.187, 192.0, 0.0, 0.0, 0.0, 0.0, 0.0, 0.0, 0.0, 0.0, 0.0, 1.6581650758655293E9, 0.0, 2022-07-18 13:24:35.865
110.0, -27393.85096953523, -41170.90745817512, -64279.124352827595, -58883.97203492785, -27084.636936740513, -47084.97787534927, -62493.97993016004, -39029.49858063443, -21861.458940679902, -66453.85968135115, -64699.15833463173, -82030.38806085444, -57031.32534400527, -60625.75407335211, -54991.88512466969, -54529.02520048919, 0.10550000000000001, 0.9412500000000001, 0.187, 192.0, 0.0, 0.0, 0.0, 0.0, 0.0, 0.0, 0.0, 0.0, 0.0, 1.6581650758655336E9, 0.0, 2022-07-18 13:24:35.865
112.0, -27413.296987211346, -41174.77430996589, -64314.10483290015, -58937.19153847594, -27116.644634800512, -47129.815474726616, -62516.84576473782, -39058.6676071486, -21914.209057594428, -66527.57573456476, -64769.745143621585, -82105.24405303528, -57093.50789707994, -60703.58284754549, -55058.448619657596, -54607.882154927516, 0.10550000000000001, 0.9412500000000001, 0.187, 192.0, 0.0, 0.0, 0.0, 0.0, 0.0, 0.0, 0.0, 0.0, 0.0, 1.658165075865538E9, 0.0, 2022-07-18 13:24:35.865
114.0, -27377.377733871668, -41166.23594358396, -64250.82704434718, -58884.10614539459, -27050.461119468346, -47084.48613697125, -62447.66711564865, -39004.15170242211, -21862.911804069496, -66449.07640803771, -64705.908561457225, -82035.50661033472, -57022.876384601164, -60634.270087989586, -54974.964854117025, -54543.3750204295, 0.10550000000000001, 0.9412500000000001, 0.187, 192.0, 0.0, 0.0, 0.0, 0.0, 0.0, 0.0, 0.0, 0.0, 0.0, 1.658165075865542E9, 0.0, 2022-07-18 13:24:35.865
116.0, -27428.786746118876, -41182.1727373806, -64331.49449008638, -58957.64338465255, -27121.539666836223, -47157.71045180684, -62531.37439863377, -39096.86673842272, -21912.443269782456, -66509.82844946724, -64767.44291394269, -82092.48120695128, -57081.72852775199, -60694.955074185746, -55033.77229377894, -54611.68195148492, 0.10675000000000001, 0.944625, 0.1875, 192.0, 1.5, 48.0, 14.5, 80.0, 2.5, 112.0, 0.0, 0.0, 0.0, 1.6581650758655462E9, 0.0, 2022-07-18 13:24:35.865
118.0, -27387.614832832198, -41177.031836155875, -64273.82698939169, -58885.73782273982, -27070.577689478123, -47100.08765460106, -62478.98190963053, -39049.838668088756, -21894.09248758465, -66476.9937368624, -64740.48671012959, -82053.18684019886, -57057.72275420699, -60662.857969147924, -55014.102758658264, -54586.71505292834, 0.10675000000000001, 0.944625, 0.1875, 192.0, 0.0, 0.0, 0.0, 0.0, 0.0, 0.0, 0.0, 0.0, 0.0, 1.6581650758655512E9, 0.0, 2022-07-18 13:24:35.865
120.0, -27419.242551236457, -41168.04643488484, -64337.37299887813, -58929.457834894405, -27132.313207663683, -47149.61912031402, -62544.3607621623, -39091.45761626454, -21900.19451382095, -66502.25120809689, -64761.16207375075, -82071.93995379686, -57085.19304814256, -60675.19613208725, -55042.981212494524, -54601.914239157944, 0.10675000000000001, 0.944625, 0.1875, 192.0, 0.0, 0.0, 0.0, 0.0, 0.0, 0.0, 0.0, 0.0, 0.0, 1.6581650758655553E9, 0.0, 2022-07-18 13:24:35.865
122.0, -27370.02400994587, -41168.60522849622, -64255.81148336071, -58842.08486581861, -27067.06846559864, -47074.226686266265, -62465.526159468434, -39040.808563328814, -21870.578452417667, -66457.25714650836, -64722.71707328762, -82032.04208994414, -57051.061934359306, -60636.19233801274, -55011.19703187908, -54560.56351191563, 0.10675000000000001, 0.944625, 0.1875, 192.0, 0.0, 0.0, 0.0, 0.0, 0.0, 0.0, 0.0, 0.0, 0.0, 1.6581650758655593E9, 0.0, 2022-07-18 13:24:35.865
124.0, -27423.601141405245, -41180.49635654645, -64330.86864124163, -58918.259610922294, -27138.638751344533, -47135.71633526282, -62540.22568943807, -39100.085389624284, -21879.541501944244, -66485.80032417779, -64731.54601234746, -82051.868087276, -57067.51281827842, -60652.06207657601, -55023.624601796226, -54567.47020095232, 0.10675000000000001, 0.944625, 0.1875, 192.0, 0.0, 0.0, 0.0, 0.0, 0.0, 0.0, 0.0, 0.0, 0.0, 1.658165075865568E9, 0.0, 2022-07-18 13:24:35.865
126.0, -27349.147480624615, -41164.20193483853, -64237.70657035191, -58834.90995584845, -27057.703084671866, -47066.26946524018, -62454.66321166316, -39011.39366762563, -21876.47931295387, -66470.01999259234, -64719.274904641505, -82042.34624413804, -57053.87825416068, -60649.983364341664, -55014.12511040272, -54560.384697959984, 0.108375, 0.9483125000000001, 0.18775, 192.0, 1.5, 56.0, 14.5, 96.0, 2.5, 112.0, 0.0, 0.0, 0.0, 1.658165075865572E9, 0.0, 2022-07-18 13:24:35.865
