%OpenBCI Raw EEG Data
%Number of channels = 16
%Sample Rate = 125 Hz
%Board = OpenBCI_GUI$BoardCytonSerialDaisy
Sample Index, EXG Channel 0, EXG Channel 1, EXG Channel 2, EXG Channel 3, EXG Channel 4, EXG Channel 5, EXG Channel 6, EXG Channel 7, EXG Channel 8, EXG Channel 9, EXG Channel 10, EXG Channel 11, EXG Channel 12, EXG Channel 13, EXG Channel 14, EXG Channel 15, Accel Channel 0, Accel Channel 1, Accel Channel 2, Other, Other, Other, Other, Other, Other, Other, Analog Channel 0, Analog Channel 1, Analog Channel 2, Timestamp, Other, Timestamp (Formatted)
60.0, -35637.19667639693, -8303.471899446477, -54976.082441339786, -54841.68140193003, -42680.499575197646, -45296.74891194689, -42935.35416547706, -25188.337288896717, -44496.22118428006, -16484.031556133217, -47816.28225043801, -51445.08796275711, -44799.020266416104, -30341.464917834393, -43888.14197637344, -52911.1388815807, 0.0, 0.0, 0.0, 192.0, 0.0, 0.0, 0.0, 0.0, 0.0, 0.0, 0.0, 0.0, 0.0, 1.6689762381270244E9, 0.0, 2022-11-20 15:30:38.127
62.0, -35700.58622367218, -8245.379715607132, -55054.84998880029, -54935.044638519845, -42766.55379135058, -45376.87991581916, -43015.28400364924, -25268.781217191365, -44442.2417214205, -16418.116261734518, -47764.29209283496, -51386.168764372924, -44748.10299254692, -30284.42326598445, -43833.35785071347, -52851.683241329585, 0.0, 0.0, 0.0, 192.0, 0.0, 0.0, 0.0, 0.0, 0.0, 0.0, 0.0, 0.0, 0.0, 1.6689762381270308E9, 0.0, 2022-11-20 15:30:38.127
64.0, -35641.0635281877, -8302.533126179353, -54984.196124577065, -54852.65610845758, -42692.56951720351, -45299.29701081479, -42944.85365687057, -25193.388783143615, -44505.497158229016, -16488.41249804646, -47828.84393082189, -51454.72156461735, -44815.40409510185, -30349.511545838304, -43901.038932924144, -52918.11262585076, 0.0, 0.0, 0.0, 192.0, 0.0, 0.0, 0.0, 0.0, 0.0, 0.0, 0.0, 0.0, 0.0, 1.668976238127036E9, 0.0, 2022-11-20 15:30:38.127
66.0, -35689.27624097779, -8226.984229920416, -55029.59251756579, -54925.20987095951, -42746.32546261853, -45364.541752879835, -42998.94487845241, -25255.727798429467, -44415.35257284076, -16399.944293492354, -47737.82762739988, -51366.0745461076, -44719.269242199574, -30263.189108751907, -43804.993486999694, -52829.89029048566, 0.0, 0.0, 0.0, 192.0, 0.0, 0.0, 0.0, 0.0, 0.0, 0.0, 0.0, 0.0, 0.0, 1.6689762381270416E9, 0.0, 2022-11-20 15:30:38.127
68.0, -35675.08288324867, -8342.051010376335, -55002.0328166524, -54880.864009960176, -42712.21670057973, -45328.82366524025, -42966.60190422558, -25220.121469512163, -44517.0083066235, -16503.678739509432, -47840.019803049545, -51470.5018962028, -44816.231109646695, -30364.353104156628, -43898.3120201006, -52926.04749513239, 0.012, 0.48, -0.052000000000000005, 192.0, 0.0, 96.0, 15.0, 0.0, 126.0, 96.0, 0.0, 0.0, 0.0, 1.6689762381270468E9, 0.0, 2022-11-20 15:30:38.127
70.0, -35693.50072067985, -8234.047381168291, -55035.9404129911, -54930.59664137324, -42749.76763126464, -45370.263799460394, -43001.112997664575, -25258.410007764105, -44436.67613705112, -16428.174546739407, -47770.036491159975, -51397.45639532285, -44743.09620178893, -30294.70506843389, -43830.921510567845, -52854.87954078669, 0.012, 0.48, -0.052000000000000005, 192.0, 0.0, 0.0, 0.0, 0.0, 0.0, 0.0, 0.0, 0.0, 0.0, 1.6689762381270523E9, 0.0, 2022-11-20 15:30:38.127
72.0, -35682.59306938566, -8339.480559763975, -55016.82967148181, -54892.91160022159, -42720.5315495171, -45337.51849383336, -42974.469718273846, -25228.011635304887, -44527.1112951173, -16511.367739602058, -47856.940073602214, -51484.2035155539, -44832.39142088788, -30383.016810776808, -43917.98155522127, -52943.63831801872, 0.012, 0.48, -0.052000000000000005, 192.0, 0.0, 0.0, 0.0, 0.0, 0.0, 0.0, 0.0, 0.0, 0.0, 1.6689762381270573E9, 0.0, 2022-11-20 15:30:38.127
74.0, -35653.9157812495, -8196.854078394661, -55003.284514341896, -54888.39654784162, -42712.70843895774, -45327.97429895095, -42960.7904506672, -25216.36637644367, -44408.82586345981, -16389.14840092044, -47732.776133152984, -51359.391374515464, -44709.479178128146, -30256.550640648682, -43798.37737064092, -52819.18380489157, 0.012, 0.48, -0.052000000000000005, 192.0, 0.0, 0.0, 0.0, 0.0, 0.0, 0.0, 0.0, 0.0, 0.0, 1.6689762381270628E9, 0.0, 2022-11-20 15:30:38.127
76.0, -35686.90695606553, -8338.519434752398, -55023.55754656286, -54891.68225427655, -42726.857093197956, -45343.57581658076, -42975.63200898552, -25230.69384463952, -44525.18904509414, -16504.863381965566, -47850.32395724344, -51473.65349217099, -44828.34575514147, -30375.819549062202, -43910.113741173, -52930.13786436771, 0.012, 0.48, -0.052000000000000005, 192.0, 0.0, 0.0, 0.0, 0.0, 0.0, 0.0, 0.0, 0.0, 0.0, 1.668976238127068E9, 0.0, 2022-11-20 15:30:38.127
78.0, -35650.227743414376, -8201.436186007999, -54994.90261017116, -54877.17597212506, -42705.15354933185, -45331.05883968578, -42953.52613371923, -25213.88533280913, -44406.769502969924, -16395.58570332357, -47732.50791221952, -51356.530351225185, -44709.18860545023, -30260.193974994898, -43791.58244032651, -52816.568650790294, 0.017, 0.7190000000000001, -0.081, 192.0, 0.0, 88.0, 14.5, 120.0, 126.0, 72.0, 0.0, 0.0, 0.0, 1.6689762381270733E9, 0.0, 2022-11-20 15:30:38.127
80.0, -35703.04491556226, -8336.12779809568, -55035.023991468435, -54904.288638149344, -42738.30118635907, -45362.97713076796, -42990.51827079276, -25248.396426248128, -44524.8090654384, -16506.584466288623, -47852.38031773333, -51472.87118111506, -44829.64215631988, -30377.7194473409, -43900.30132535712, -52932.01541090196, 0.017, 0.7190000000000001, -0.081, 192.0, 0.0, 0.0, 0.0, 0.0, 0.0, 0.0, 0.0, 0.0, 0.0, 1.6689762381270785E9, 0.0, 2022-11-20 15:30:38.127
82.0, -35665.82926104418, -8225.374904319633, -55007.30782834385, -54891.61519904318, -42709.02040112262, -45341.22888341294, -42965.529020491726, -25227.296379482315, -44430.73057302601, -16423.54773563716, -47757.40775554273, -51383.26303759373, -44730.22159698267, -30284.28915551772, -43810.648478346884, -52845.76002904893, 0.017, 0.7190000000000001, -0.081, 192.0, 0.0, 0.0, 0.0, 0.0, 0.0, 0.0, 0.0, 0.0, 0.0, 1.668976238127084E9, 0.0, 2022-11-20 15:30:38.127
84.0, -35722.35682277165, -8341.738085953963, -55052.19013121011, -54928.964964028, -42745.856075984964, -45375.583514640755, -43003.66109653248, -25263.930888644565, -44533.90622543171, -16513.960541958873, -47862.7962306495, -51484.76230916528, -44833.151380199364, -30387.01777303431, -43905.799854493125, -52945.11353315277, 0.017, 0.7190000000000001, -0.081, 192.0, 0.0, 0.0, 0.0, 0.0, 0.0, 0.0, 0.0, 0.0, 0.0, 1.6689762381270893E9, 0.0, 2022-11-20 15:30:38.127
86.0, -35667.907973278525, -8238.785950992817, -55006.771386476925, -54895.50440257841, -42700.280869040595, -45333.137551920125, -42958.175296565925, -25220.099117767706, -44443.51577085445, -16440.847985845565, -47766.63902600277, -51403.089034925586, -44735.72012611868, -30294.7497719228, -43818.985679028716, -52855.974776265, 0.017, 0.7190000000000001, -0.081, 192.0, 0.0, 0.0, 0.0, 0.0, 0.0, 0.0, 0.0, 0.0, 0.0, 1.6689762381270945E9, 0.0, 2022-11-20 15:30:38.127
88.0, -35727.85535190765, -8333.579699227774, -55070.85383783029, -54947.427504948086, -42766.062052972564, -45389.55335492532, -43018.904986251, -25275.732609716968, -44534.17444636518, -16523.638847308022, -47865.79136440651, -51497.30163780471, -44834.604243588954, -30390.437589935973, -43911.41014235141, -52942.2972133514, 0.0205, 0.8365, -0.0905, 192.0, 0.0, 96.0, 14.5, 104.0, 126.0, 112.0, 0.0, 0.0, 0.0, 1.6689762381270998E9, 0.0, 2022-11-20 15:30:38.127
90.0, -35644.17042066699, -8230.426398566533, -54989.426432779605, -54874.158486623586, -42694.134139315385, -45317.80425522378, -42945.032470826205, -25202.441239648015, -44440.00654697497, -16438.992791055774, -47768.31540683692, -51405.01128494874, -44743.56558842249, -30291.955803865887, -43826.6970308658, -52849.76099130643, 0.0205, 0.8365, -0.0905, 192.0, 0.0, 0.0, 0.0, 0.0, 0.0, 0.0, 0.0, 0.0, 0.0, 1.6689762381271052E9, 0.0, 2022-11-20 15:30:38.127
92.0, -35740.21586659144, -8324.191966556546, -55081.31445423538, -54959.20687427603, -42790.045474773106, -45409.692276679554, -43034.305338180704, -25292.228197124983, -44512.09092284333, -16502.807021475677, -47848.13348628682, -51475.75455614979, -44825.61884231793, -30373.740836827856, -43900.435435823856, -52925.779274198925, 0.0205, 0.8365, -0.0905, 192.0, 0.0, 0.0, 0.0, 0.0, 0.0, 0.0, 0.0, 0.0, 0.0, 1.6689762381271152E9, 0.0, 2022-11-20 15:30:38.127
94.0, -35643.76808926679, -8239.545910304298, -54988.5770664903, -54868.61525399867, -42701.51021498564, -45319.5476912913, -42943.3337382476, -25202.016556503364, -44467.67800661064, -16460.74103841079, -47788.20845940214, -51419.40580837796, -44769.046577101544, -30319.962539668388, -43854.077917823546, -52880.56169516584, 0.0205, 0.8365, -0.0905, 192.0, 0.0, 0.0, 0.0, 0.0, 0.0, 0.0, 0.0, 0.0, 0.0, 1.6689762381271205E9, 0.0, 2022-11-20 15:30:38.127
96.0, -35739.210038090954, -8296.431099943055, -55085.963617082074, -54963.74427840046, -42796.43807368733, -45413.827349403786, -43037.79221031573, -25296.653842527136, -44501.004457593495, -16491.273521336738, -47833.22487273513, -51459.34837571959, -44814.264156134624, -30366.230650690875, -43892.07588339757, -52918.76082643996, 0.0205, 0.8365, -0.0905, 192.0, 0.0, 0.0, 0.0, 0.0, 0.0, 0.0, 0.0, 0.0, 0.0, 1.6689762381271257E9, 0.0, 2022-11-20 15:30:38.127
98.0, -35632.4134030835, -8235.030857924326, -54984.196124577065, -54854.37719278064, -42691.49663346966, -45308.26006034137, -42932.73901137579, -25189.968966241955, -44466.60512287678, -16461.72451516682, -47792.32118038192, -51423.51852935774, -44775.79680392704, -30328.90323745051, -43860.15759231539, -52882.32748297781, 0.021249999999999998, 0.89425, -0.09525, 192.0, 0.0, 88.0, 14.5, 96.0, 126.0, 112.0, 0.0, 0.0, 0.0, 1.6689762381271312E9, 0.0, 2022-11-20 15:30:38.127
100.0, -35730.62696822012, -8272.961768264982, -55086.23183801554, -54960.34681324325, -42798.919117321864, -45416.57661397179, -43038.03807950474, -25297.547912305345, -44483.100710284794, -16472.274538549726, -47815.768160315536, -51440.55055863268, -44800.74135073917, -30349.37743537157, -43875.043854122625, -52900.23123028651, 0.021249999999999998, 0.89425, -0.09525, 192.0, 0.0, 0.0, 0.0, 0.0, 0.0, 0.0, 0.0, 0.0, 0.0, 1.6689762381271365E9, 0.0, 2022-11-20 15:30:38.127
102.0, -35639.18598165345, -8252.509922088377, -54985.939560644576, -54853.68428870253, -42696.03403759409, -45313.75858947737, -42938.751630634266, -25197.143876212107, -44480.12792827224, -16483.137486355005, -47806.536889855495, -51436.393134164, -44790.61601050091, -30345.510583580803, -43868.49479299722, -52897.41491048514, 0.021249999999999998, 0.89425, -0.09525, 192.0, 0.0, 0.0, 0.0, 0.0, 0.0, 0.0, 0.0, 0.0, 0.0, 1.668976238127143E9, 0.0, 2022-11-20 15:30:38.127
104.0, -35726.64835770707, -8257.96374773547, -55069.57978839634, -54950.556749171825, -42784.122262492456, -45402.204442287024, -43025.34228865412, -25283.823941209786, -44468.907352555674, -16456.337744753095, -47795.87510775031, -51420.41163687845, -44773.67338820379, -30333.32888285266, -43843.639653162914, -52875.7784218524, 0.021249999999999998, 0.89425, -0.09525, 192.0, 0.0, 0.0, 0.0, 0.0, 0.0, 0.0, 0.0, 0.0, 0.0, 1.6689762381271496E9, 0.0, 2022-11-20 15:30:38.127
106.0, -35640.48238283186, -8265.004547238892, -54975.9259791286, -54846.01764035436, -42682.57828743199, -45302.53801376081, -42930.97322356382, -25190.103076708685, -44495.26005926848, -16488.613663746557, -47818.629183605815, -51448.239558725305, -44793.924068680295, -30353.847784262634, -43873.2557145662, -52902.37699775422, 0.021249999999999998, 0.89425, -0.09525, 192.0, 0.0, 0.0, 0.0, 0.0, 0.0, 0.0, 0.0, 0.0, 0.0, 1.6689762381271565E9, 0.0, 2022-11-20 15:30:38.127
108.0, -35722.02154660482, -8241.423456838544, -55065.71293660557, -54948.83566484877, -42773.974570509745, -45399.32106725229, -43021.60954733009, -25284.539197032358, -44446.39914588918, -16437.49522417727, -47776.58555228538, -51400.36212210204, -44748.93000709177, -30311.62533898656, -43826.317051210055, -52855.46068614253, 0.021625, 0.9261250000000001, -0.10062499999999999, 192.0, 0.0, 88.0, 14.5, 120.0, 126.0, 88.0, 0.0, 0.0, 0.0, 1.668976238127164E9, 0.0, 2022-11-20 15:30:38.127
110.0, -35645.33271137866, -8278.929684034549, -54981.8268396648, -54851.225596812445, -42681.25953450913, -45302.87328992764, -42931.44261019738, -25192.137085454116, -44511.59918446531, -16514.675797781445, -47836.82350359244, -51465.450401955895, -44807.290411864575, -30373.96435427241, -43891.762958975196, -52916.77152118344, 0.021625, 0.9261250000000001, -0.10062499999999999, 192.0, 0.0, 0.0, 0.0, 0.0, 0.0, 0.0, 0.0, 0.0, 0.0, 1.6689762381271708E9, 0.0, 2022-11-20 15:30:38.127
112.0, -35715.986575601884, -8229.018238665849, -55058.96270978007, -54948.053353792835, -42764.76565179416, -45389.016913058396, -43012.490035592324, -25276.80549345082, -44433.971575972035, -16429.11332000653, -47765.275569590995, -51393.05310166516, -44738.491742431135, -30302.349365037608, -43814.44827490429, -52842.98841273647, 0.021625, 0.9261250000000001, -0.10062499999999999, 192.0, 0.0, 0.0, 0.0, 0.0, 0.0, 0.0, 0.0, 0.0, 0.0, 1.6689762381271784E9, 0.0, 2022-11-20 15:30:38.127
114.0, -35654.94396149444, -8287.512753905386, -54985.47017401102, -54856.07592535924, -42685.01462757762, -45305.19787135099, -42934.97418582132, -25195.668661078056, -44517.790617679435, -16512.485326824826, -47837.427000692725, -51470.39013748052, -44815.2252811462, -30378.322944441195, -43885.34800831652, -52917.71029445056, 0.021625, 0.9261250000000001, -0.10062499999999999, 192.0, 0.0, 0.0, 0.0, 0.0, 0.0, 0.0, 0.0, 0.0, 0.0, 1.6689762381271856E9, 0.0, 2022-11-20 15:30:38.127
116.0, -35697.59108991517, -8206.085348854704, -55034.55460483487, -54922.77353081388, -42743.12916316142, -45368.855639559704, -42990.071235903655, -25255.884260640654, -44430.37294511473, -16425.313523449127, -47752.06568861791, -51382.14545037097, -44729.03695452654, -30291.821693399157, -43794.644629316885, -52831.72313353099, 0.021625, 0.9261250000000001, -0.10062499999999999, 192.0, 0.0, 0.0, 0.0, 0.0, 0.0, 0.0, 0.0, 0.0, 0.0, 1.668976238127193E9, 0.0, 2022-11-20 15:30:38.127
118.0, -35669.651409346036, -8297.235762743445, -54992.108642114246, -54869.71048947698, -42699.655020195845, -45327.43785708402, -42954.53196221971, -25217.461611921983, -44513.029696110454, -16513.200582647394, -47834.52127391354, -51466.500933945295, -44810.17378689931, -30381.9215752985, -43879.223630335764, -52920.30309680737, 0.020812499999999998, 0.9410625000000001, -0.1013125, 192.0, 0.0, 80.0, 14.5, 112.0, 126.0, 104.0, 0.0, 0.0, 0.0, 1.6689762381271985E9, 0.0, 2022-11-20 15:30:38.127
120.0, -35678.48034840588, -8180.604360175653, -55009.07361615582, -54905.42857711656, -42724.39840130787, -45358.39502315462, -42977.129575864026, -25246.742397158432, -44407.752979725956, -16417.15513672294, -47736.128894821275, -51369.62847347599, -44711.781407807044, -30290.726457920846, -43785.61452455694, -52829.06327594081, 0.020812499999999998, 0.9410625000000001, -0.1013125, 192.0, 0.0, 0.0, 0.0, 0.0, 0.0, 0.0, 0.0, 0.0, 0.0, 1.6689762381272037E9, 0.0, 2022-11-20 15:30:38.127
122.0, -35675.28404894877, -8292.899524319117, -55001.541078274386, -54877.95828318099, -42711.30027905706, -45338.83724675623, -42969.708796704865, -25235.387710975137, -44515.08605660034, -16522.297742640705, -47838.36577395985, -51473.0499950707, -44814.44297009027, -30393.030392292785, -43891.02535140817, -52932.283631835424, 0.020812499999999998, 0.9410625000000001, -0.1013125, 192.0, 0.0, 0.0, 0.0, 0.0, 0.0, 0.0, 0.0, 0.0, 0.0, 1.6689762381272092E9, 0.0, 2022-11-20 15:30:38.127
124.0, -35645.802098012224, -8149.960118527427, -54984.821973421815, -54873.68909999003, -42702.516043486125, -45329.8965489741, -42956.76713666524, -25226.75993761539, -44395.97361039801, -16401.821840026598, -47718.13574053475, -51352.52938896768, -44698.012733222575, -30276.823672869647, -43775.10920466295, -52816.14396764564, 0.020812499999999998, 0.9410625000000001, -0.1013125, 192.0, 0.0, 0.0, 0.0, 0.0, 0.0, 0.0, 0.0, 0.0, 0.0, 1.668976238127216E9, 0.0, 2022-11-20 15:30:38.127
126.0, -35687.599860143644, -8290.59729464022, -55009.855927211756, -54885.37906234015, -42723.79490420758, -45347.1520956936, -42976.011988641265, -25242.38380698965, -44502.59143144982, -16506.249190121795, -47825.759390087056, -51457.76140186327, -44805.01053393013, -30383.128569499087, -43874.59681923352, -52914.06696010435, 0.020812499999999998, 0.9410625000000001, -0.1013125, 192.0, 0.0, 0.0, 0.0, 0.0, 0.0, 0.0, 0.0, 0.0, 0.0, 1.6689762381272216E9, 0.0, 2022-11-20 15:30:38.127
128.0, -35656.19565918394, -8164.354641956645, -54986.31954030032, -54878.204152369995, -42705.958212132246, -45332.42229609755, -42952.60971219656, -25223.09425152472, -44404.15434886865, -16413.087119232074, -47722.40492372572, -51359.659595448924, -44700.27025941256, -30280.668172915957, -43776.47266107472, -52815.384008334164, 0.020812499999999998, 0.9410625000000001, -0.1013125, 192.0, 0.0, 0.0, 0.0, 0.0, 0.0, 0.0, 0.0, 0.0, 0.0, 1.6689762381272268E9, 0.0, 2022-11-20 15:30:38.127
130.0, -35696.138226525574, -8287.69156786103, -55021.232965139505, -54896.21965840097, -42729.06991589903, -45353.2541219299, -42975.229677585325, -25242.830841878756, -44512.98499262155, -16515.100480926096, -47839.05867803797, -51472.98293983733, -44817.25928989164, -30394.237386493372, -43885.9068019279, -52926.11455036575, 0.026000000000000002, 0.9560000000000001, -0.092, 192.0, 0.0, 104.0, 14.5, 112.0, 126.5, 16.0, 0.0, 0.0, 0.0, 1.668976238127232E9, 0.0, 2022-11-20 15:30:38.127
132.0, -35640.147106665034, -8157.157380242036, -54971.03094709289, -54858.422858527054, -42688.054464823545, -45305.6449062401, -42929.96739506333, -25199.490809379913, -44402.90265117915, -16408.370901152004, -47722.360220236806, -51357.04444134766, -44699.04091346752, -30276.108417047075, -43777.25497213066, -52813.864089711205, 0.026000000000000002, 0.9560000000000001, -0.092, 192.0, 0.0, 0.0, 0.0, 0.0, 0.0, 0.0, 0.0, 0.0, 0.0, 1.6689762381272373E9, 0.0, 2022-11-20 15:30:38.127
134.0, -35712.991441844875, -8285.858724815695, -55039.337878148304, -54903.506327093404, -42750.79581150959, -45355.712813819984, -42991.59115452661, -25254.38669376215, -44495.93061160215, -16496.25796035027, -47826.83227382091, -51451.324099460144, -44801.7248274952, -30370.72335132639, -43871.28876105413, -52899.31480876384, 0.026000000000000002, 0.9560000000000001, -0.092, 192.0, 0.0, 0.0, 0.0, 0.0, 0.0, 0.0, 0.0, 0.0, 0.0, 1.6689762381272428E9, 0.0, 2022-11-20 15:30:38.127
136.0, -35628.18892338144, -8156.598586630654, -54961.28558651038, -54826.79514012279, -42678.77849087459, -45279.739234416396, -42919.28326121369, -25180.760047526368, -44427.13194216871, -16420.887878046975, -47743.1696943247, -51367.3262437971, -44724.27603295756, -30281.495187460805, -43797.99739098518, -52813.506461799916, 0.026000000000000002, 0.9560000000000001, -0.092, 192.0, 0.0, 0.0, 0.0, 0.0, 0.0, 0.0, 0.0, 0.0, 0.0, 1.668976238127248E9, 0.0, 2022-11-20 15:30:38.127
138.0, -35720.747497170865, -8278.706166589996, -55053.08420098832, -54909.518946351884, -42766.12910820593, -45364.13942147964, -43010.344268124616, -25266.791911934844, -44487.81692836487, -16482.288120065703, -47813.108302725355, -51436.147264974985, -44796.36040882592, -30355.77003428579, -43864.985569117736, -52874.50437241845, 0.026000000000000002, 0.9560000000000001, -0.092, 192.0, 0.0, 0.0, 0.0, 0.0, 0.0, 0.0, 0.0, 0.0, 0.0, 1.6689762381272533E9, 0.0, 2022-11-20 15:30:38.127
140.0, -35618.08593488764, -8165.76280185733, -54954.691821896056, -54818.45793944096, -42667.13323201337, -45273.41369073554, -42915.751685589756, -25175.59679455719, -44423.64507003368, -16427.951029294854, -47741.9179966352, -51371.908351410435, -44727.27116671457, -30288.156007308487, -43808.36860041245, -52819.42967408057, 0.024, 0.9580000000000001, -0.094, 192.0, 0.0, 96.0, 14.5, 120.0, 126.5, 8.0, 0.0, 0.0, 0.0, 1.6689762381272588E9, 0.0, 2022-11-20 15:30:38.127
142.0, -35705.74947664136, -8245.87145398515, -55033.28055540092, -54899.84064100274, -42745.230227140215, -45354.08113647475, -42992.52992779374, -25253.38086526166, -44476.059910781376, -16464.898462879475, -47797.12680543981, -51418.62349732203, -44779.23897257316, -30345.130603925063, -43851.619225933464, -52871.64334912817, 0.024, 0.9580000000000001, -0.094, 192.0, 0.0, 0.0, 0.0, 0.0, 0.0, 0.0, 0.0, 0.0, 0.0, 1.668976238127264E9, 0.0, 2022-11-20 15:30:38.127
144.0, -35621.79632446722, -8178.19037177448, -54952.43429570607, -54818.70380862997, -42660.47241216569, -45271.96082734595, -42906.29689768516, -25169.047733431787, -44427.35545961326, -16424.30769494864, -47741.20274081263, -51367.68387170838, -44722.04085851203, -30291.08408583213, -43804.90408002187, -52823.430636338075, 0.024, 0.9580000000000001, -0.094, 192.0, 0.0, 0.0, 0.0, 0.0, 0.0, 0.0, 0.0, 0.0, 0.0, 1.6689762381272695E9, 0.0, 2022-11-20 15:30:38.127
146.0, -35748.284846339804, -8267.999680995903, -55080.39803271271, -54949.28269973787, -42786.40214042689, -45400.30454400832, -43030.08085847865, -25295.24568262645, -44483.27952424044, -16481.326995054125, -47813.06359923644, -51431.051067239176, -44788.85022268894, -30358.00520873132, -43859.86701963747, -52887.7813086249, 0.024, 0.9580000000000001, -0.094, 192.0, 0.0, 0.0, 0.0, 0.0, 0.0, 0.0, 0.0, 0.0, 0.0, 1.6689762381272748E9, 0.0, 2022-11-20 15:30:38.127
148.0, -35634.46976357338, -8207.806433177762, -54961.1738277881, -54830.594936680194, -42668.20611574723, -45283.56138271825, -42915.99755477876, -25180.402419615082, -44452.30000642539, -16462.752695411767, -47781.10060466536, -51408.386398361494, -44753.176838538275, -30330.132583395553, -43833.69312688031, -52864.51314264693, 0.024, 0.9580000000000001, -0.094, 192.0, 0.0, 0.0, 0.0, 0.0, 0.0, 0.0, 0.0, 0.0, 0.0, 1.66897623812728E9, 0.0, 2022-11-20 15:30:38.127
150.0, -35718.221750047414, -8228.3923898211, -55043.741171806, -54919.64428659014, -42754.77442202264, -45368.34154943723, -42999.99541044181, -25264.780254933867, -44464.302893197884, -16466.44073324689, -47795.58453507239, -51418.42233162193, -44767.012568356105, -30346.38230161456, -43838.2975862381, -52872.85034332876, 0.024, 0.9540000000000001, -0.094, 192.0, 0.0, 96.0, 14.5, 104.0, 126.5, 8.0, 0.0, 0.0, 0.0, 1.6689762381272855E9, 0.0, 2022-11-20 15:30:38.127
152.0, -35609.68167897245, -8192.80841264825, -54930.03784776186, -54794.094537984674, -42643.663900335305, -45253.095955025674, -42889.84601376605, -25152.038055901296, -44443.51577085445, -16448.067599304628, -47758.83826718787, -51385.27469459471, -44735.67542262977, -30307.378507540052, -43816.303469694074, -52840.485017357474, 0.024, 0.9540000000000001, -0.094, 192.0, 0.0, 0.0, 0.0, 0.0, 0.0, 0.0, 0.0, 0.0, 0.0, 1.6689762381272907E9, 0.0, 2022-11-20 15:30:38.127
154.0, -35711.29270926627, -8200.76563367434, -55033.57112807884, -54909.09426320723, -42753.902703988875, -45370.464965160485, -43001.738846509325, -25267.641278224146, -44433.14456142719, -16427.05695951664, -47755.19493284165, -51373.29415956666, -44733.395544695326, -30308.27257731826, -43808.43565564581, -52836.64051731116, 0.024, 0.9540000000000001, -0.094, 192.0, 0.0, 0.0, 0.0, 0.0, 0.0, 0.0, 0.0, 0.0, 0.0, 1.668976238127296E9, 0.0, 2022-11-20 15:30:38.127
156.0, -35636.34731010763, -8220.3904653061, -54946.242862491956, -54814.591087650195, -42663.668711622806, -45279.9851036054, -42913.6282698665, -25179.597756814692, -44460.391337918205, -16466.46308499135, -47778.083119163886, -51407.53703207219, -44757.311911262506, -30337.128679410063, -43836.86707459296, -52868.402346182156, 0.024, 0.9540000000000001, -0.094, 192.0, 0.0, 0.0, 0.0, 0.0, 0.0, 0.0, 0.0, 0.0, 0.0, 1.668976238127303E9, 0.0, 2022-11-20 15:30:38.127
158.0, -35722.73680242739, -8203.939581386994, -55044.36702065075, -54928.406170416616, -42764.76565179416, -45388.34636072473, -43010.92541348045, -25282.549891775834, -44430.28353813691, -16431.86258457453, -47756.334871808875, -51382.525430026704, -44733.23908248414, -30314.28519657674, -43804.03236198812, -52846.34117440476, 0.024, 0.9540000000000001, -0.094, 192.0, 0.0, 0.0, 0.0, 0.0, 0.0, 0.0, 0.0, 0.0, 0.0, 1.6689762381273081E9, 0.0, 2022-11-20 15:30:38.127
160.0, -35655.56981033919, -8249.96182322047, -54966.49354296846, -54832.986573336915, -42675.29161873956, -45297.08418811372, -42922.188987992886, -25192.584120343225, -44491.773187133454, -16504.908085454474, -47809.9343550127, -51446.65258486898, -44785.65392323183, -30372.086807738164, -43863.26448479468, -52907.3390850233, 0.024, 0.9580000000000001, -0.096, 192.0, 0.0, 96.0, 14.5, 120.0, 126.5, 0.0, 0.0, 0.0, 0.0, 1.6689762381273136E9, 0.0, 2022-11-20 15:30:38.127
162.0, -35693.61247940212, -8166.254540235346, -55018.95308720507, -54899.48301309145, -42729.11461938794, -45356.22690394246, -42976.97311365284, -25250.698655927023, -44405.78602621389, -16416.015197755718, -47734.251348287034, -51363.74996468425, -44710.48500662864, -30295.8003039122, -43782.66409428884, -52830.2702701414, 0.024, 0.9580000000000001, -0.096, 192.0, 0.0, 0.0, 0.0, 0.0, 0.0, 0.0, 0.0, 0.0, 0.0, 1.6689762381273189E9, 0.0, 2022-11-20 15:30:38.127
164.0, -35641.421156098986, -8236.81899748075, -54957.284624252876, -54819.217898752446, -42661.34413019945, -45281.885001884104, -42910.65548785395, -25179.26248064786, -44471.52250665695, -16479.918835153443, -47795.472776350114, -51422.40094213498, -44770.07475734648, -30353.311342395707, -43849.36169974348, -52894.2856662614, 0.024, 0.9580000000000001, -0.096, 192.0, 0.0, 0.0, 0.0, 0.0, 0.0, 0.0, 0.0, 0.0, 0.0, 1.668976238127324E9, 0.0, 2022-11-20 15:30:38.127
166.0, -35684.71648510891, -8152.016479017316, -55012.24756386848, -54889.02239668636, -42725.20306410826, -45342.68174680254, -42968.658264715465, -25239.723949399468, -44389.69277020607, -16394.937502734363, -47715.34177247784, -51338.000755071735, -44695.41993086576, -30271.861585600567, -43774.4833558182, -52815.71928450099, 0.024, 0.9580000000000001, -0.096, 192.0, 0.0, 0.0, 0.0, 0.0, 0.0, 0.0, 0.0, 0.0, 0.0, 1.6689762381273296E9, 0.0, 2022-11-20 15:30:38.127
168.0, -35660.8671737751, -8258.477837857943, -54975.233075050484, -54835.37820999363, -42681.751272887144, -45293.26203981186, -42925.25117698326, -25191.17596044254, -44488.88981209872, -16491.56409401466, -47811.05194223546, -51430.84990153908, -44794.52756578059, -30360.8662320216, -43873.81450817758, -52906.84734664528, 0.024, 0.9580000000000001, -0.096, 192.0, 0.0, 0.0, 0.0, 0.0, 0.0, 0.0, 0.0, 0.0, 0.0, 1.6689762381273348E9, 0.0, 2022-11-20 15:30:38.127
170.0, -35665.4716331329, -8150.85418830564, -54991.70631071405, -54872.616216256174, -42703.05248535305, -45319.27947035783, -42941.612653924545, -25213.259483964383, -44379.567429967814, -16389.595435809548, -47710.15616776421, -51332.63633640246, -44684.62403829385, -30251.56620163515, -43767.82253597052, -52796.809708691806, 0.026000000000000002, 0.964, -0.096, 192.0, 0.0, 104.0, 15.0, 16.0, 126.5, 0.0, 0.0, 0.0, 0.0, 1.66897623812734E9, 0.0, 2022-11-20 15:30:38.127
172.0, -35687.01871478781, -8290.239666728934, -55003.351569575265, -54871.11864937766, -42705.71234294323, -45320.24059536941, -42947.64762492748, -25213.438297920027, -44492.75666388949, -16502.382338331026, -47818.070389994435, -51443.478637156324, -44787.79969069955, -30361.425025632983, -43869.56767673107, -52897.884297118704, 0.026000000000000002, 0.964, -0.096, 192.0, 0.0, 0.0, 0.0, 0.0, 0.0, 0.0, 0.0, 0.0, 0.0, 1.6689762381273453E9, 0.0, 2022-11-20 15:30:38.127
174.0, -35664.71167382141, -8163.527627411799, -54983.570275732316, -54873.39852731211, -42691.11665381392, -45315.05499065578, -42933.78954336519, -25204.296434437805, -44398.40995054364, -16413.735319821277, -47723.45545571512, -51350.56243545561, -44687.32859937294, -30265.066655286155, -43774.729225007206, -52808.5667262753, 0.026000000000000002, 0.964, -0.096, 192.0, 0.0, 0.0, 0.0, 0.0, 0.0, 0.0, 0.0, 0.0, 0.0, 1.6689762381273508E9, 0.0, 2022-11-20 15:30:38.127
176.0, -35685.655258376035, -8290.97727429596, -54985.22430482201, -54862.759096951384, -42689.08264506848, -45309.69057198651, -42934.2365782543, -25200.630748347136, -44497.49523371401, -16501.063585408163, -47817.42218940523, -51445.311480201664, -44783.038769130566, -30358.228726175872, -43859.57644695955, -52901.885259376206, 0.026000000000000002, 0.964, -0.096, 192.0, 0.0, 0.0, 0.0, 0.0, 0.0, 0.0, 0.0, 0.0, 0.0, 1.668976238127356E9, 0.0, 2022-11-20 15:30:38.127
178.0, -35651.255923659315, -8178.95033108596, -54960.16799928761, -54853.57252998025, -42668.7202058697, -45295.00547587937, -42913.69532509987, -25182.682297549523, -44379.34391252326, -16387.069688686097, -47692.87826930026, -51327.115455522, -44655.32090131294, -30231.82961128111, -43734.65254719884, -52782.57164747377, 0.026000000000000002, 0.964, -0.096, 192.0, 0.0, 0.0, 0.0, 0.0, 0.0, 0.0, 0.0, 0.0, 0.0, 1.6689762381273613E9, 0.0, 2022-11-20 15:30:38.127
180.0, -35699.8262643607, -8320.50392872142, -55005.92202018762, -54884.82026872877, -42712.88725291339, -45333.20460715349, -42958.599979710576, -25225.12826027015, -44501.04916108241, -16516.687454782423, -47823.68067785272, -51459.05780304168, -44785.63157148738, -30355.63592381906, -43855.97781610225, -52904.03102684391, 0.022, 0.9580000000000001, -0.092, 192.0, 0.0, 88.0, 14.5, 120.0, 126.5, 16.0, 0.0, 0.0, 0.0, 1.6689762381273665E9, 0.0, 2022-11-20 15:30:38.127
0.0, -17710.739995329383, -3996.3801498866264, -27385.625527575678, -27335.401157784603, -21255.033761862967, -22572.155007380847, -21375.599071454893, -12509.757281512891, -22170.985897896993, -8175.2175897619245, -23829.261819036226, -25648.35854153139, -22313.075937399382, -15099.497449338132, -21853.635830120544, -26371.437474660575, 0.028, 0.9560000000000001, -0.096, 192.0, 0.0, 112.0, 14.5, 112.0, 126.5, 0.0, 0.0, 0.0, 0.0, 1.6689762382200992E9, 0.0, 2022-11-20 15:30:38.220
2.0, -35517.234863905294, -8071.237274555836, -54862.66968997356, -54766.73600277138, -42605.17419638326, -45242.545931642766, -42848.65174873493, -25119.24804678536, -44273.866030438665, -16308.27978948114, -47598.10687280975, -51218.97771584722, -44590.009104014534, -30169.0212093617, -43581.140766279794, -52707.447434359485, 0.028, 0.9560000000000001, -0.096, 192.0, 0.0, 0.0, 0.0, 0.0, 0.0, 0.0, 0.0, 0.0, 0.0, 1.6689762387005577E9, 0.0, 2022-11-20 15:30:38.700
4.0, -35421.97172903678, -8055.188722036925, -54762.06448818022, -54659.78290555274, -42499.6292590653, -45140.57727343765, -42750.16996266484, -25019.894542681523, -44277.24114385142, -16326.80938563459, -47589.45674770555, -51221.391704248395, -44586.16460396822, -30170.094093095555, -43579.754958123565, -52710.48727160541, 0.028, 0.9560000000000001, -0.096, 192.0, 0.0, 0.0, 0.0, 0.0, 0.0, 0.0, 0.0, 0.0, 0.0, 1.6689762387006447E9, 0.0, 2022-11-20 15:30:38.700
6.0, -35498.52645379621, -8037.642602639509, -54843.22367229744, -54745.18892111647, -42583.09067286142, -45226.117399468116, -42830.63624270395, -25101.59016866567, -44253.21301856197, -16297.729766098235, -47574.905762065144, -51198.101186525964, -44569.601961326836, -30150.24574401924, -43548.66368158623, -52681.00532066886, 0.028, 0.9560000000000001, -0.096, 192.0, 0.0, 0.0, 0.0, 0.0, 0.0, 0.0, 0.0, 0.0, 0.0, 1.6689762387006571E9, 0.0, 2022-11-20 15:30:38.700
8.0, -35412.807513810105, -8057.423896482456, -54748.36286882912, -54639.24165239831, -42486.37467460331, -45127.814427353675, -42735.596625279984, -25003.734231440336, -44271.0497106373, -16318.740405886223, -47588.65208490516, -51215.84847162348, -44583.638856844766, -30167.16601457191, -43565.561600394445, -52691.13066090711, 0.026000000000000002, 0.962, -0.094, 192.0, 0.0, 104.0, 15.0, 8.0, 126.5, 8.0, 0.0, 0.0, 0.0, 1.6689762387006624E9, 0.0, 2022-11-20 15:30:38.700
10.0, -35476.95702039683, -8012.228669193825, -54824.582317421715, -54731.06261862071, -42573.56882972346, -45215.053285962735, -42817.56047219759, -25086.34627894715, -44225.295689737286, -16268.717201795245, -47544.306223905834, -51172.93312226929, -44540.991728424044, -30127.06698501909, -43518.95821320513, -52645.77897140729, 0.026000000000000002, 0.962, -0.094, 192.0, 0.0, 0.0, 0.0, 0.0, 0.0, 0.0, 0.0, 0.0, 0.0, 1.668976238700668E9, 0.0, 2022-11-20 15:30:38.700
12.0, -35422.48581915925, -8069.426783254956, -54764.2773108813, -54653.70323106089, -42513.5320441165, -45148.91447411948, -42756.920189490345, -25024.968388672878, -44274.38012056114, -16332.218507792773, -47596.05051231987, -51228.94659387429, -44590.76906332601, -30183.326325813097, -43582.34776048038, -52712.767149539846, 0.026000000000000002, 0.962, -0.094, 192.0, 0.0, 0.0, 0.0, 0.0, 0.0, 0.0, 0.0, 0.0, 0.0, 1.668976238700673E9, 0.0, 2022-11-20 15:30:38.700
14.0, -35475.19123258486, -7997.454166108867, -54823.64354415459, -54725.98877262936, -42583.62711472835, -45222.16114069953, -42824.9588996123, -25095.935177318475, -44214.61155588765, -16264.157445926363, -47535.99137496846, -51164.17123844281, -44536.78960046644, -30124.58594138455, -43526.49075108657, -52660.061736114236, 0.026000000000000002, 0.962, -0.094, 192.0, 0.0, 0.0, 0.0, 0.0, 0.0, 0.0, 0.0, 0.0, 0.0, 1.6689762387006783E9, 0.0, 2022-11-20 15:30:38.700
16.0, -35442.98236882476, -8083.128402606059, -54772.77097377431, -54659.38057415254, -42520.41638140874, -45165.70063420542, -42772.7452245647, -25044.123833671074, -44304.86789999818, -16347.708266700301, -47618.71518119755, -51248.012631894664, -44616.87590084981, -30206.393326090973, -43608.99103987111, -52744.97601329995, 0.026000000000000002, 0.962, -0.094, 192.0, 0.0, 0.0, 0.0, 0.0, 0.0, 0.0, 0.0, 0.0, 0.0, 1.6689762387006836E9, 0.0, 2022-11-20 15:30:38.700
18.0, -35479.907450664934, -7995.800137019174, -54815.149881261576, -54722.70306619443, -42563.30937901847, -45218.65191682004, -42819.52742570966, -25097.075116285698, -44219.86421583465, -16264.269204648639, -47540.037040714866, -51168.395718144864, -44527.223053839574, -30117.14281048093, -43511.716248001605, -52657.267768057325, 0.026000000000000002, 0.964, -0.096, 192.0, 0.0, 104.0, 15.0, 16.0, 126.5, 0.0, 0.0, 0.0, 0.0, 1.668976238700689E9, 0.0, 2022-11-20 15:30:38.700
20.0, -35461.48961323376, -8098.662865002498, -54789.57948560471, -54682.26876047478, -42527.79245707899, -45179.02227390078, -42789.30786720609, -25062.251098424327, -44304.33145813125, -16355.28550807065, -47628.52759701343, -51260.127277389445, -44612.651421147755, -30201.967680688824, -43593.63539143031, -52740.50566440888, 0.026000000000000002, 0.964, -0.096, 192.0, 0.0, 0.0, 0.0, 0.0, 0.0, 0.0, 0.0, 0.0, 0.0, 1.668976238700694E9, 0.0, 2022-11-20 15:30:38.700
22.0, -35467.25636330323, -7983.506677568756, -54814.41227369455, -54722.12192083859, -42557.52027720455, -45205.17381491349, -42811.81607387258, -25088.402639437038, -44221.875872835626, -16272.829922775021, -47546.69786056255, -51177.202305460254, -44535.91788243269, -30124.787107084645, -43515.76191374802, -52657.535988990785, 0.026000000000000002, 0.964, -0.096, 192.0, 0.0, 0.0, 0.0, 0.0, 0.0, 0.0, 0.0, 0.0, 0.0, 1.6689762387006996E9, 0.0, 2022-11-20 15:30:38.700
24.0, -35473.134872094975, -8098.707568491408, -54811.12656725962, -54698.8090513717, -42549.361890478365, -45185.347817581634, -42797.108626020985, -25067.05672348222, -44311.61812682368, -16355.620784237479, -47637.982384918025, -51265.26817861416, -44631.02455509002, -30217.41273610744, -43610.73447593862, -52745.46775167796, 0.026000000000000002, 0.964, -0.096, 192.0, 0.0, 0.0, 0.0, 0.0, 0.0, 0.0, 0.0, 0.0, 0.0, 1.6689762387007048E9, 0.0, 2022-11-20 15:30:38.700
26.0, -35440.99306356825, -7963.121886625516, -54789.75829956035, -54688.23667624434, -42539.25890198456, -45165.45476501641, -42774.399253654396, -25044.973199960375, -44215.97501229942, -16257.563681312047, -47533.219758656, -51161.89136050837, -44532.118085875285, -30114.035918001646, -43515.94072770366, -52639.632241682084, 0.026000000000000002, 0.964, -0.096, 192.0, 0.0, 0.0, 0.0, 0.0, 0.0, 0.0, 0.0, 0.0, 0.0, 1.66897623870071E9, 0.0, 2022-11-20 15:30:38.700
28.0, -35464.23887780176, -8079.55212349321, -54800.7330060879, -54683.69927211991, -42545.003300309574, -45167.48877376185, -42783.60817236998, -25052.259868652807, -44290.11574865768, -16331.436196736837, -47614.58010847332, -51239.85424516848, -44611.5785374139, -30185.20387234734, -43592.316638507444, -52707.42508261503, 0.026000000000000002, 0.966, -0.098, 192.0, 0.0, 104.0, 15.0, 24.0, 126.0, 120.0, 0.0, 0.0, 0.0, 1.6689762387007153E9, 0.0, 2022-11-20 15:30:38.700
30.0, -35415.24385395573, -7943.988793371773, -54762.89150272507, -54658.91118751898, -42513.10736097185, -45143.37124149457, -42755.42262261184, -25029.796365475224, -44199.345314424674, -16245.69490500628, -47519.83106372727, -51148.63677604637, -44510.63805945373, -30090.61128981248, -43501.41209380771, -52620.208575750425, 0.026000000000000002, 0.966, -0.098, 192.0, 0.0, 0.0, 0.0, 0.0, 0.0, 0.0, 0.0, 0.0, 0.0, 1.6689762387007203E9, 0.0, 2022-11-20 15:30:38.700
32.0, -35474.051293617646, -8078.702757203908, -54814.74754986138, -54699.88193510556, -42560.87303887284, -45192.03098917377, -42807.748056381715, -25080.512473644314, -44281.37621657565, -16327.301124012605, -47611.02618110492, -51235.98739337771, -44601.92258380921, -30182.007572890234, -43588.24862101658, -52709.839071016206, 0.026000000000000002, 0.966, -0.098, 192.0, 0.0, 0.0, 0.0, 0.0, 0.0, 0.0, 0.0, 0.0, 0.0, 1.6689762387007258E9, 0.0, 2022-11-20 15:30:38.700
34.0, -35412.382830665454, -7958.875055179007, -54758.35409860064, -54657.368917151565, -42507.92175625822, -45149.495619475325, -42757.30016914608, -25035.451356822417, -44192.97506725491, -16253.585070799003, -47521.46274107251, -51155.610520316426, -44516.248347312016, -30101.027202728656, -43508.20702412212, -52636.03361082478, 0.026000000000000002, 0.966, -0.098, 192.0, 0.0, 0.0, 0.0, 0.0, 0.0, 0.0, 0.0, 0.0, 0.0, 1.6689762387007313E9, 0.0, 2022-11-20 15:30:38.700
36.0, -35497.811197973635, -8083.0613473726935, -54830.41612272455, -54722.099569094134, -42576.29574254701, -45218.51780635331, -42827.730515924755, -25105.367613478615, -44286.98650443393, -16333.358446759994, -47614.624811962225, -51242.4470475253, -44609.365714712825, -30197.854959709046, -43589.07563556143, -52728.10044623619, 0.026000000000000002, 0.966, -0.098, 192.0, 0.0, 0.0, 0.0, 0.0, 0.0, 0.0, 0.0, 0.0, 0.0, 1.6689762387007363E9, 0.0, 2022-11-20 15:30:38.700
38.0, -35423.223426726276, -7978.72340425532, -54760.768087001816, -54656.83247528464, -42506.87122426883, -45148.40038399701, -42756.85313425698, -25033.52910679926, -44218.12077976713, -16273.925158253332, -47540.55113083734, -51170.429726890296, -44530.97814690806, -30120.00383377121, -43519.762876005516, -52660.77699193681, 0.02, 0.96, -0.09, 192.0, 0.0, 80.0, 15.0, 0.0, 126.5, 24.0, 0.0, 0.0, 0.0, 1.6689762387007437E9, 0.0, 2022-11-20 15:30:38.700
40.0, -35495.10663689454, -8071.103164089104, -54824.448206954985, -54711.16956605549, -42567.93619012072, -45203.43037884598, -42816.889919863934, -25091.800104594244, -44284.1031293992, -16328.083435068542, -47615.407123018165, -51235.33919278851, -44601.319086708914, -30186.768494459215, -43577.028045300016, -52713.86238501816, 0.02, 0.96, -0.09, 192.0, 0.0, 0.0, 0.0, 0.0, 0.0, 0.0, 0.0, 0.0, 0.0, 1.66897623870075E9, 0.0, 2022-11-20 15:30:38.700
42.0, -35400.1564264484, -7980.645654278476, -54734.79535994475, -54623.97541093534, -42481.21142163413, -45117.08559001513, -42730.85805545546, -25006.23762681933, -44207.682515106506, -16261.83286450301, -47531.297508632844, -51158.628005817896, -44522.9091671597, -30108.135057465443, -43503.62491650879, -52637.24060502537, 0.02, 0.96, -0.09, 192.0, 0.0, 0.0, 0.0, 0.0, 0.0, 0.0, 0.0, 0.0, 0.0, 1.6689762387007556E9, 0.0, 2022-11-20 15:30:38.700
44.0, -35496.492445050775, -8058.340318005124, -54826.549270933785, -54711.616600944595, -42576.698073947206, -45208.75009402634, -42824.869492634476, -25100.137305276075, -44254.35295752918, -16310.269094737661, -47587.445090704576, -51210.39464597638, -44586.41047315723, -30167.456587249828, -43557.11264099034, -52687.4873265609, 0.02, 0.96, -0.09, 192.0, 0.0, 0.0, 0.0, 0.0, 0.0, 0.0, 0.0, 0.0, 0.0, 1.6689762387007873E9, 0.0, 2022-11-20 15:30:38.700
46.0, -35426.95616805031, -8011.736930815809, -54743.356078071134, -54629.406884837976, -42488.29692462646, -45123.32172671816, -42739.53053230412, -25014.731289712345, -44244.18291380202, -16297.17097248685, -47560.42183165811, -51191.70858761175, -44557.19674315414, -30139.092223536045, -43535.02911746849, -52661.82752392621, 0.02, 0.96, -0.09, 192.0, 0.0, 0.0, 0.0, 0.0, 0.0, 0.0, 0.0, 0.0, 0.0, 1.6689762387007928E9, 0.0, 2022-11-20 15:30:38.700
48.0, -35522.46517210784, -8051.746553390808, -54839.200358295486, -54727.88867090806, -42582.062492616475, -45218.80837903123, -42830.50213223721, -25107.803953624243, -44272.21200134898, -16311.118461026963, -47597.59278268729, -51217.01076233516, -44581.24722018805, -30166.16018607142, -43546.71907981862, -52678.032538656305, 0.024, 0.96, -0.092, 192.0, 0.0, 96.0, 15.0, 0.0, 126.5, 16.0, 0.0, 0.0, 0.0, 1.668976238700798E9, 0.0, 2022-11-20 15:30:38.700
50.0, -35409.90178703091, -7999.979913232317, -54728.42511277499, -54613.78301546371, -42473.433014563685, -45108.144892233, -42719.4810175277, -24997.453391248393, -44246.93217837002, -16296.142792241908, -47566.14387823867, -51190.143965499876, -44549.753612250526, -30137.505249679718, -43525.55197781944, -52657.93832039098, 0.024, 0.96, -0.092, 192.0, 0.0, 0.0, 0.0, 0.0, 0.0, 0.0, 0.0, 0.0, 0.0, 1.6689762387008033E9, 0.0, 2022-11-20 15:30:38.700
52.0, -35501.54393929767, -8023.717465843853, -54830.75139889138, -54727.061656363214, -42586.42108278526, -45217.89195750856, -42828.89280663643, -25107.379270479592, -44247.55802721477, -16286.710356081769, -47571.642407374675, -51190.81451783354, -44559.72249027759, -30147.451775962327, -43531.005803466534, -52667.57192225122, 0.024, 0.96, -0.092, 192.0, 0.0, 0.0, 0.0, 0.0, 0.0, 0.0, 0.0, 0.0, 0.0, 1.6689762387008085E9, 0.0, 2022-11-20 15:30:38.700
54.0, -35405.4090863954, -8015.022637250739, -54731.0179151318, -54617.96279167686, -42490.17447116071, -45118.15847374898, -42733.71907874574, -25009.255112320796, -44242.774753901336, -16303.541219656614, -47560.91357003612, -51192.49089866768, -44558.98488271057, -30149.955171341324, -43542.58400709439, -52679.17247762352, 0.024, 0.96, -0.092, 192.0, 0.0, 0.0, 0.0, 0.0, 0.0, 0.0, 0.0, 0.0, 0.0, 1.668976238700814E9, 0.0, 2022-11-20 15:30:38.700
56.0, -35513.43506734789, -8026.310268200668, -54839.91561411806, -54733.09662736615, -42600.48033004765, -45229.69367858097, -42843.66730972139, -25122.064366586732, -44245.03228009132, -16297.036862020119, -47563.28285494839, -51192.84852657897, -44563.54463857945, -30156.057197577622, -43541.33230940489, -52678.18900086749, 0.024, 0.96, -0.092, 192.0, 0.0, 0.0, 0.0, 0.0, 0.0, 0.0, 0.0, 0.0, 0.0, 1.6689762387008193E9, 0.0, 2022-11-20 15:30:38.700
58.0, -35426.41972618338, -8042.06824804166, -54743.8701681936, -54621.42731206743, -42495.91886948572, -45118.96313654937, -42740.35754684896, -25015.737118212834, -44278.04580665181, -16331.257382781194, -47595.91640185314, -51225.61618395045, -44588.24331620256, -30180.26413682272, -43570.724853363616, -52702.73121627942, 0.025, 0.96, -0.09, 192.0, 0.0, 104.0, 15.0, 0.0, 126.5, 32.0, 0.0, 0.0, 0.0, 1.6689762387008245E9, 0.0, 2022-11-20 15:30:38.700
60.0, -35493.54201478267, -7993.2520381512695, -54819.66493364155, -54714.276458534776, -42575.62519021335, -45197.8200909877, -42816.91227160839, -25094.81759009571, -44217.49493092238, -16267.17493142783, -47541.98164248248, -51167.479296622194, -44534.643832998736, -30126.038804774144, -43511.69389625715, -52640.79453239376, 0.025, 0.96, -0.09, 192.0, 0.0, 0.0, 0.0, 0.0, 0.0, 0.0, 0.0, 0.0, 0.0, 1.66897623870083E9, 0.0, 2022-11-20 15:30:38.700
62.0, -35414.14861847742, -8031.719390358853, -54739.153950113534, -54618.499233543786, -42488.29692462646, -45107.00495326579, -42730.56748277754, -25007.399917531005, -44273.039015893824, -16331.838528137032, -47593.167137285134, -51225.3926665059, -44588.19861271365, -30182.208738590332, -43570.90366731926, -52695.55630630926, 0.025, 0.96, -0.09, 192.0, 0.0, 0.0, 0.0, 0.0, 0.0, 0.0, 0.0, 0.0, 0.0, 1.6689762387008352E9, 0.0, 2022-11-20 15:30:38.700
64.0, -35471.14556683845, -7972.3531570855575, -54809.74075910339, -54703.32410375168, -42564.449317985695, -45189.95227693943, -42802.45069294581, -25085.38515393557, -44195.590221356186, -16253.02627718762, -47518.82523522678, -51145.21695914471, -44517.634155468244, -30113.23125520125, -43495.98061990507, -52625.03655255277, 0.025, 0.96, -0.09, 192.0, 0.0, 0.0, 0.0, 0.0, 0.0, 0.0, 0.0, 0.0, 0.0, 1.6689762387008405E9, 0.0, 2022-11-20 15:30:38.700
66.0, -35414.10391498851, -8041.487102685822, -54740.271537336295, -54613.894774185996, -42488.60984904884, -45115.27509871425, -42731.79682872258, -25011.75850769979, -44280.39273981962, -16339.862804396487, -47594.79881463037, -51220.00589609217, -44597.45223491815, -30185.695610725357, -43572.110661519844, -52704.586411069205, 0.025, 0.96, -0.09, 192.0, 0.0, 0.0, 0.0, 0.0, 0.0, 0.0, 0.0, 0.0, 0.0, 1.6689762387008464E9, 0.0, 2022-11-20 15:30:38.700
68.0, -35436.835639099554, -7943.206482315837, -54766.93716847148, -54664.208550954885, -42520.17051221973, -45155.17296256697, -42762.79869828209, -25049.689418040445, -44167.94111346497, -16224.661913473836, -47488.516269745385, -51111.421121528285, -44489.49330919902, -30072.28285935913, -43465.00110209001, -52599.712026084904, 0.029500000000000002, 0.962, -0.093, 192.0, 0.5, 8.0, 15.0, 16.0, 126.5, 0.0, 0.0, 0.0, 0.0, 1.668976238700852E9, 0.0, 2022-11-20 15:30:38.700
70.0, -35425.458601171806, -8052.864140613573, -54736.18116810098, -54628.80338773768, -42480.51851755602, -45116.39268593701, -42729.092267643486, -25010.596216988113, -44271.38498680413, -16318.740405886223, -47587.288628493385, -51212.093378554986, -44573.580571839884, -30157.152433055933, -43550.09419323137, -52692.069434174235, 0.029500000000000002, 0.962, -0.093, 192.0, 0.0, 0.0, 0.0, 0.0, 0.0, 0.0, 0.0, 0.0, 0.0, 1.6689762387008588E9, 0.0, 2022-11-20 15:30:38.700
72.0, -35432.655862886415, -7949.420267274412, -54770.31228188423, -54673.77509758176, -42514.42611389472, -45145.40525024, -42758.8424395135, -25039.631133035557, -44180.10046244865, -16222.002055883653, -47498.932182661556, -51125.03333390157, -44477.80334684889, -30057.843632441003, -43463.07885206686, -52600.3155231852, 0.029500000000000002, 0.962, -0.093, 192.0, 0.0, 0.0, 0.0, 0.0, 0.0, 0.0, 0.0, 0.0, 0.0, 1.6689762387008648E9, 0.0, 2022-11-20 15:30:38.700
74.0, -35445.73163339277, -8085.74355670733, -54780.86230526714, -54659.78290555274, -42515.78957030649, -45139.146761792515, -42760.00473022518, -25034.713749255392, -44291.993295191925, -16335.191289805329, -47617.41878001914, -51240.27892831313, -44598.748636096556, -30169.334133784072, -43586.37107448233, -52709.99553322739, 0.029500000000000002, 0.962, -0.093, 192.0, 0.0, 0.0, 0.0, 0.0, 0.0, 0.0, 0.0, 0.0, 0.0, 1.6689762387008703E9, 0.0, 2022-11-20 15:30:38.700
76.0, -35424.92215930488, -7968.486305294789, -54772.63686330758, -54665.549655622206, -42514.336706916896, -45139.19146528142, -42754.61795981145, -25030.46691780888, -44181.799195027255, -16226.628866985902, -47500.966191406995, -51128.25198510313, -44481.580791661836, -30053.909725416866, -43474.50059348352, -52591.77715680327, 0.029500000000000002, 0.962, -0.093, 192.0, 0.0, 0.0, 0.0, 0.0, 0.0, 0.0, 0.0, 0.0, 0.0, 1.6689762387008755E9, 0.0, 2022-11-20 15:30:38.700
78.0, -35454.11353756351, -8099.623990014075, -54794.8321455517, -54674.132725493044, -42533.31333795945, -45160.13504983605, -42774.71217807677, -25050.29291514074, -44298.832928995245, -16340.354542774505, -47620.23509982051, -51246.492713271706, -44603.24133673207, -30181.73935195677, -43590.506147206564, -52707.55919308176, 0.02875, 0.962, -0.0935, 192.0, 0.0, 112.0, 15.0, 8.0, 126.5, 8.0, 0.0, 0.0, 0.0, 1.6689762387008808E9, 0.0, 2022-11-20 15:30:38.700
80.0, -35391.103969944, -7965.871151193518, -54738.70691522443, -54631.55265230568, -42482.396064090266, -45112.3470201906, -42722.92318617382, -25000.739097683323, -44180.86042176014, -16230.562774010037, -47497.30050531632, -51122.14995886683, -44481.647846895205, -30065.33146683353, -43468.62208469178, -52589.720796313384, 0.02875, 0.962, -0.0935, 192.0, 0.0, 0.0, 0.0, 0.0, 0.0, 0.0, 0.0, 0.0, 0.0, 1.668976238700886E9, 0.0, 2022-11-20 15:30:38.700
82.0, -35445.59752292604, -8095.734786478853, -54780.348215144666, -54660.07347823065, -42519.70112558617, -45145.8075816402, -42760.496468603196, -25034.28906611074, -44266.24408557941, -16311.118461026963, -47583.46648019153, -51208.450044208774, -44563.94696997965, -30146.53535443966, -43544.3274431619, -52670.18707635249, 0.02875, 0.962, -0.0935, 192.0, 0.0, 0.0, 0.0, 0.0, 0.0, 0.0, 0.0, 0.0, 0.0, 1.6689762387008915E9, 0.0, 2022-11-20 15:30:38.700
84.0, -35395.037876968134, -7995.10723294106, -54729.565051742204, -54624.936535946916, -42483.40189259075, -45105.77560732074, -42725.873616441924, -24998.459219748882, -44180.771014782316, -16236.821262457523, -47496.71935996048, -51130.17423512629, -44479.88205908323, -30059.52001327515, -43470.32081727038, -52593.297075426235, 0.02875, 0.962, -0.0935, 192.0, 0.0, 0.0, 0.0, 0.0, 0.0, 0.0, 0.0, 0.0, 0.0, 1.6689762387008967E9, 0.0, 2022-11-20 15:30:38.700
86.0, -35483.550785011146, -8127.362504883112, -54806.678570113014, -54697.914981593494, -42557.60968418237, -45178.88816343405, -42804.12707377995, -25071.929403773476, -44280.88447819764, -16334.587792705035, -47605.59470720228, -51233.64046020991, -44587.148080724255, -30158.87351737899, -43575.66458888824, -52692.80704174126, 0.02875, 0.962, -0.0935, 192.0, 0.0, 0.0, 0.0, 0.0, 0.0, 0.0, 0.0, 0.0, 0.0, 1.668976238700902E9, 0.0, 2022-11-20 15:30:38.700
88.0, -35375.815376736566, -7995.397805618979, -54709.42612998797, -54611.14550961799, -42457.09388936686, -45083.78149077672, -42703.700685942254, -24973.201748514384, -44190.15874745354, -16241.69394274878, -47507.515252532394, -51136.5668340405, -44485.53705043042, -30056.211955095765, -43488.64924772373, -52601.25429645232, 0.027375000000000003, 0.9590000000000001, -0.09175, 192.0, 0.0, 104.0, 14.5, 112.0, 126.5, 24.0, 0.0, 0.0, 0.0, 1.6689762387009072E9, 0.0, 2022-11-20 15:30:38.700
90.0, -35483.86370943352, -8120.478167590877, -54816.98272430691, -54718.389179514554, -42562.03532958452, -45192.94741069644, -42807.725704637254, -25078.880796299076, -44260.41028027657, -16312.683083138834, -47590.52963143941, -51219.00006759168, -44565.82451651389, -30136.789993857146, -43562.834687570896, -52682.99462592538, 0.027375000000000003, 0.9590000000000001, -0.09175, 192.0, 0.0, 0.0, 0.0, 0.0, 0.0, 0.0, 0.0, 0.0, 0.0, 1.6689762387009127E9, 0.0, 2022-11-20 15:30:38.700
92.0, -35384.37609486295, -8024.544480388699, -54728.179243585975, -54628.87044297105, -42475.55643028694, -45107.36258117707, -42718.09520937147, -24992.42424874595, -44212.37638144212, -16263.464541848249, -47533.13035167818, -51169.53565711209, -44512.85088215481, -30086.43151359934, -43515.001954436535, -52642.090933572166, 0.027375000000000003, 0.9590000000000001, -0.09175, 192.0, 0.0, 0.0, 0.0, 0.0, 0.0, 0.0, 0.0, 0.0, 0.0, 1.668976238700918E9, 0.0, 2022-11-20 15:30:38.700
94.0, -35475.54886049615, -8093.36550156659, -54822.056570298264, -54719.4173597595, -42566.3939197533, -45198.80356774373, -42806.2504895032, -25082.211206222917, -44245.68048068052, -16280.541274612104, -47567.46263116153, -51197.207116747755, -44551.42999308467, -30123.24483671723, -43541.19819893816, -52673.71865197643, 0.027375000000000003, 0.9590000000000001, -0.09175, 192.0, 0.0, 0.0, 0.0, 0.0, 0.0, 0.0, 0.0, 0.0, 0.0, 1.6689762387009232E9, 0.0, 2022-11-20 15:30:38.700
96.0, -35364.30422834209, -8019.850614053084, -54711.95187711142, -54605.24464908179, -42448.51081949602, -45082.999179720784, -42688.41209273483, -24963.45638793187, -44217.00319254437, -16268.158408183863, -47534.94084297906, -51169.96034025674, -44522.417428781686, -30096.221577670764, -43516.544224803954, -52650.0258028538, 0.027375000000000003, 0.9590000000000001, -0.09175, 192.0, 0.0, 0.0, 0.0, 0.0, 0.0, 0.0, 0.0, 0.0, 0.0, 1.6689762387009284E9, 0.0, 2022-11-20 15:30:38.700
98.0, -35452.41480498491, -8062.564797707177, -54798.095500242176, -54691.70119663492, -42536.86726532785, -45170.48390751886, -42773.92986702083, -25048.214202906394, -44207.0343145173, -16255.775541755624, -47535.700802290536, -51162.539561097576, -44518.88585315774, -30096.1545224374, -43499.93687867366, -52634.0219538238, 0.027687500000000004, 0.9575, -0.093875, 192.0, 0.0, 112.0, 14.5, 112.0, 126.5, 0.0, 0.0, 0.0, 0.0, 1.6689762387009337E9, 0.0, 2022-11-20 15:30:38.700
100.0, -35396.96012699129, -8071.594902467121, -54729.40858953102, -54621.31555334516, -42466.41456680472, -45101.70758982988, -42709.15451158935, -24981.51659745176, -44221.76411411335, -16280.138943211907, -47544.95442449504, -51178.27518919411, -44521.09867585882, -30100.401353883906, -43516.36541084831, -52639.18520679298, 0.027687500000000004, 0.9575, -0.093875, 192.0, 0.0, 0.0, 0.0, 0.0, 0.0, 0.0, 0.0, 0.0, 0.0, 1.668976238700939E9, 0.0, 2022-11-20 15:30:38.700
102.0, -35489.876328692, -8087.531696263754, -54820.80487260877, -54727.84396741915, -42566.32686451994, -45204.39150385756, -42804.97644006925, -25080.91480504451, -44249.1450010711, -16297.46154516477, -47573.721119609014, -51203.912640084345, -44543.87510345878, -30125.882342562956, -43531.13991393327, -52657.111305846134, 0.027687500000000004, 0.9575, -0.093875, 192.0, 0.0, 0.0, 0.0, 0.0, 0.0, 0.0, 0.0, 0.0, 0.0, 1.6689762387009456E9, 0.0, 2022-11-20 15:30:38.700
104.0, -35377.491757570715, -8063.525922718754, -54706.14042355304, -54603.61297173655, -42445.69449969465, -45081.92629598693, -42686.02045607811, -24961.13180650852, -44241.500704467384, -16294.958149785776, -47559.66187234663, -51195.35192195796, -44528.85473118481, -30111.219598200274, -43523.272099885, -52657.60304422415, 0.027687500000000004, 0.9575, -0.093875, 192.0, 0.0, 0.0, 0.0, 0.0, 0.0, 0.0, 0.0, 0.0, 0.0, 1.6689762387009509E9, 0.0, 2022-11-20 15:30:38.700
106.0, -35463.99300861276, -8054.562873192177, -54812.31120971575, -54719.64087720405, -42555.37450973684, -45194.33321885267, -42794.98521029773, -25074.388095663562, -44203.43568366, -16251.819282987033, -47536.952499980034, -51166.83109603299, -44503.7537221615, -30085.89507173241, -43494.63951523775, -52637.28530851428, 0.027687500000000004, 0.9575, -0.093875, 192.0, 0.0, 0.0, 0.0, 0.0, 0.0, 0.0, 0.0, 0.0, 0.0, 1.668976238700956E9, 0.0, 2022-11-20 15:30:38.700
108.0, -35367.925210943846, -8069.918521632972, -54709.62729568807, -54606.76456770475, -42455.61867423281, -45088.676522812435, -42698.91741262882, -24973.76054212577, -44233.834056119216, -16293.684100351824, -47563.55107588185, -51201.07396853852, -44533.05685914241, -30119.57915062656, -43535.4761523576, -52676.71378573344, 0.026843750000000003, 0.95675, -0.09493750000000001, 192.0, 0.0, 104.0, 14.5, 112.0, 126.5, 0.0, 0.0, 0.0, 0.0, 1.668976238700961E9, 0.0, 2022-11-20 15:30:38.700
110.0, -35440.18840076785, -8028.187814734914, -54790.65236933856, -54704.53109795226, -42543.50573343107, -45182.10681463561, -42785.932753793335, -25062.541671102248, -44164.945979707954, -16225.824204185512, -47497.76989194988, -51131.60474677143, -44467.27567521044, -30058.648295241393, -43468.28680852494, -52611.17847099048, 0.026843750000000003, 0.95675, -0.09493750000000001, 192.0, 0.0, 0.0, 0.0, 0.0, 0.0, 0.0, 0.0, 0.0, 0.0, 1.6689762387009666E9, 0.0, 2022-11-20 15:30:38.700
112.0, -35404.62677533946, -8108.967019196394, -54743.31137458222, -54638.92872797594, -42484.54183155797, -45124.72988661884, -42732.82500896752, -25006.818772175167, -44263.76304194487, -16328.262249024183, -47592.049550062366, -51228.723076429735, -44562.896437990246, -30153.419691731895, -43563.97462653812, -52708.11798669315, 0.026843750000000003, 0.95675, -0.09493750000000001, 192.0, 0.0, 0.0, 0.0, 0.0, 0.0, 0.0, 0.0, 0.0, 0.0, 1.668976238700972E9, 0.0, 2022-11-20 15:30:38.700
114.0, -35433.81815359809, -8011.312247671158, -54785.55617160275, -54697.15502228201, -42533.40274493727, -45171.80266044172, -42780.27776244614, -25056.841976266143, -44182.13447119409, -16238.609402013946, -47507.314086832295, -51139.383153841874, -44482.51956492896, -30070.204147124787, -43476.758119673505, -52622.53315717378, 0.026843750000000003, 0.95675, -0.09493750000000001, 192.0, 0.0, 0.0, 0.0, 0.0, 0.0, 0.0, 0.0, 0.0, 0.0, 1.668976238700977E9, 0.0, 2022-11-20 15:30:38.700
116.0, -35399.597632837016, -8102.172088881981, -54743.80311296024, -54635.59831805209, -42487.58166880389, -45114.470435913856, -42731.327442089016, -25001.56611222817, -44258.152754086586, -16306.93868481382, -47579.73373886749, -51212.451006466275, -44555.20743789762, -30141.036825303654, -43553.06697524393, -52692.11413766315, 0.026843750000000003, 0.95675, -0.09493750000000001, 192.0, 0.0, 0.0, 0.0, 0.0, 0.0, 0.0, 0.0, 0.0, 0.0, 1.6689762387009823E9, 0.0, 2022-11-20 15:30:38.700
118.0, -35425.793877338634, -8006.953657502372, -54781.95754074545, -54684.81685934268, -42530.69818385818, -45155.910570133994, -42768.78896579611, -25041.329865614163, -44177.23943915837, -16226.673570474813, -47500.51915651788, -51132.185892127265, -44479.36796896076, -30059.76588246416, -43478.12157608528, -52607.84806106664, 0.022421875, 0.960375, -0.09746875, 192.0, 0.0, 72.0, 15.0, 16.0, 126.0, 112.0, 0.0, 0.0, 0.0, 1.6689762387009883E9, 0.0, 2022-11-20 15:30:38.700
120.0, -35418.52956039066, -8115.739597766352, -54751.71563049741, -54637.43116109743, -42492.34259037287, -45112.83875856862, -42731.43920081129, -24998.436868004428, -44277.509364784884, -16320.08151055354, -47600.52086121093, -51225.88440488392, -44573.40175788424, -30154.58198244357, -43565.29337946098, -52694.77399525333, 0.022421875, 0.960375, -0.09746875, 192.0, 0.0, 0.0, 0.0, 0.0, 0.0, 0.0, 0.0, 0.0, 0.0, 1.6689762387009938E9, 0.0, 2022-11-20 15:30:38.700
122.0, -35409.18653120834, -7992.357968373057, -54756.40949683303, -54655.93840550642, -42503.138482944785, -45124.528720918745, -42741.07280267153, -25010.104478610097, -44169.013997198825, -16219.92334364931, -47491.377293035664, -51115.35502855242, -44461.35246292978, -30045.974856135235, -43448.19259025963, -52580.221304919876, 0.022421875, 0.960375, -0.09746875, 192.0, 0.0, 0.0, 0.0, 0.0, 0.0, 0.0, 0.0, 0.0, 0.0, 1.6689762391793756E9, 0.0, 2022-11-20 15:30:39.179
124.0, -35412.47223764327, -8105.74836799483, -54758.08587766718, -54641.25330939929, -42492.96843921762, -45118.85137782709, -42737.49652355868, -25004.784763429736, -44264.76887044536, -16306.692815624812, -47585.85811684825, -51210.57345993203, -44559.63308329977, -30142.266171248695, -43544.036870483986, -52675.86441944414, 0.022421875, 0.960375, -0.09746875, 192.0, 0.0, 0.0, 0.0, 0.0, 0.0, 0.0, 0.0, 0.0, 0.0, 1.6689762391794474E9, 0.0, 2022-11-20 15:30:39.179
126.0, -35387.32652513105, -7983.819601991129, -54743.2219676044, -54653.34560314961, -42490.755616516544, -45127.45679944239, -42735.46251481325, -25012.98785364483, -44162.107308162136, -16219.006922126642, -47479.59792370772, -51113.18690934026, -44457.21739020555, -30043.784385178613, -43446.33739546983, -52587.82089803468, 0.022421875, 0.960375, -0.09746875, 192.0, 0.0, 0.0, 0.0, 0.0, 0.0, 0.0, 0.0, 0.0, 0.0, 1.668976239179453E9, 0.0, 2022-11-20 15:30:39.179
128.0, -35428.744307606736, -8115.5831355551645, -54768.50179058335, -54673.48452490384, -42515.99073600659, -45158.302206790715, -42765.167983194355, -25045.308476127208, -44268.65807398058, -16325.42357747836, -47591.22253551752, -51226.80082640658, -44570.00429272703, -30164.77437791519, -43554.96687352263, -52708.1403384376, 0.022421875, 0.960375, -0.09746875, 192.0, 0.0, 0.0, 0.0, 0.0, 0.0, 0.0, 0.0, 0.0, 0.0, 1.6689762391794584E9, 0.0, 2022-11-20 15:30:39.179
130.0, -35371.7473592457, -7978.701052510864, -54716.13165332457, -54638.548748320194, -42472.62835176329, -45116.99618303731, -42719.70453497226, -25001.364946528072, -44160.0732994167, -16229.489890276182, -47484.180031321055, -51121.72527572218, -44458.96082627307, -30060.257620842174, -43453.69111939563, -52610.66438086801, 0.022, 0.96, -0.098, 192.0, 0.0, 88.0, 15.0, 0.0, 126.0, 120.0, 0.0, 0.0, 0.0, 1.668976239179464E9, 0.0, 2022-11-20 15:30:39.179
132.0, -35427.35849945051, -8098.037016157748, -54762.1762469025, -54667.784830067736, -42512.32504991592, -45145.31584326218, -42756.58491332352, -25033.037368421243, -44237.5444456988, -16305.396414446404, -47570.56952364082, -51201.833927850006, -44546.28909185995, -30140.96977007029, -43529.195312165655, -52686.481498060406, 0.022, 0.96, -0.098, 192.0, 0.0, 0.0, 0.0, 0.0, 0.0, 0.0, 0.0, 0.0, 0.0, 1.6689762391794698E9, 0.0, 2022-11-20 15:30:39.179
134.0, -35364.7959667201, -7976.9352646988955, -54703.100586307126, -54608.26213458325, -42454.38932828776, -45080.696950041885, -42690.64726718036, -24965.31158272166, -44157.99458718236, -16221.555020994547, -47484.22473480997, -51110.88467966136, -44458.156163472675, -30047.405367780375, -43445.376270458255, -52595.77811906077, 0.022, 0.96, -0.098, 192.0, 0.0, 0.0, 0.0, 0.0, 0.0, 0.0, 0.0, 0.0, 0.0, 1.6689762391794868E9, 0.0, 2022-11-20 15:30:39.179
136.0, -35431.71708961929, -8083.687196217442, -54771.18399991799, -54663.515646876775, -42516.214253451144, -45137.85036061411, -42750.639349298406, -25020.47568803736, -44227.08382929371, -16278.015527488653, -47553.872770532704, -51173.648378091864, -44532.38630680875, -30114.68411859085, -43511.4703788126, -52654.45144825595, 0.022, 0.96, -0.098, 192.0, 0.0, 0.0, 0.0, 0.0, 0.0, 0.0, 0.0, 0.0, 0.0, 1.6689762391794925E9, 0.0, 2022-11-20 15:30:39.179
138.0, -35359.00686490618, -7997.208296919859, -54706.654513675516, -54609.335018317106, -42456.31157831092, -45080.40637736397, -42689.06029332403, -24960.349495452585, -44171.47268908891, -16234.139053122886, -47494.193612837036, -51126.799121713535, -44474.27177122495, -30058.916516174857, -43465.06815732338, -52596.426319649974, 0.022, 0.96, -0.098, 192.0, 0.0, 0.0, 0.0, 0.0, 0.0, 0.0, 0.0, 0.0, 0.0, 1.6689762391794977E9, 0.0, 2022-11-20 15:30:39.179
140.0, -35446.40218572643, -8093.477260288866, -54780.974063989415, -54689.15309776701, -42531.6369571253, -45164.04660511573, -42766.53143960613, -25039.675836524468, -44227.8884920941, -16292.588864873513, -47560.46653514702, -51193.295561468076, -44537.25898710001, -30127.67048211938, -43515.8736724703, -52647.99179410837, 0.02, 0.9540000000000001, -0.096, 192.0, 0.0, 80.0, 14.5, 104.0, 126.5, 0.0, 0.0, 0.0, 0.0, 1.6689762391795037E9, 0.0, 2022-11-20 15:30:39.179
142.0, -35367.32171384355, -8017.503680885277, -54701.44655721743, -54613.9394776749, -42453.428203276184, -45094.01858973725, -42694.64822943786, -24972.441789202905, -44182.13447119409, -16249.472349819227, -47505.48124378696, -51144.92638646679, -44477.177498004145, -30077.155539650386, -43469.69496842563, -52611.670209368494, 0.02, 0.9540000000000001, -0.096, 192.0, 0.0, 0.0, 0.0, 0.0, 0.0, 0.0, 0.0, 0.0, 0.0, 1.668976239179509E9, 0.0, 2022-11-20 15:30:39.179
144.0, -35459.90263937743, -8090.616236998587, -54799.92834328751, -54708.37559799857, -42554.27927425853, -45189.03585541676, -42794.33700970853, -25072.331735173673, -44230.593053173194, -16295.472239908248, -47565.74154683847, -51195.530735913606, -44538.689498745145, -30133.660749633404, -43527.876559242795, -52680.37947182411, 0.02, 0.9540000000000001, -0.096, 192.0, 0.0, 0.0, 0.0, 0.0, 0.0, 0.0, 0.0, 0.0, 0.0, 1.6689762391795144E9, 0.0, 2022-11-20 15:30:39.179
146.0, -35336.319844284044, -8005.724311557331, -54683.162830252986, -54580.07658482511, -42439.190142058156, -45068.35878710256, -42679.85137460844, -24955.45446341687, -44192.10334922116, -16256.043762689087, -47508.364618821695, -51144.009964944125, -44491.39320747772, -30076.686153016824, -43490.34798030234, -52638.2240817814, 0.02, 0.9540000000000001, -0.096, 192.0, 0.0, 0.0, 0.0, 0.0, 0.0, 0.0, 0.0, 0.0, 0.0, 1.66897623917952E9, 0.0, 2022-11-20 15:30:39.179
148.0, -35456.8180986426, -8075.774678680263, -54801.76118633285, -54703.0111793293, -42560.247190028094, -45188.52176529429, -42798.0026957992, -25073.62813635208, -44206.00613427236, -16255.954355711265, -47530.9175289771, -51156.54929358355, -44516.114236845286, -30100.24489167272, -43500.62978275178, -52646.74009641887, 0.02, 0.9540000000000001, -0.096, 192.0, 0.0, 0.0, 0.0, 0.0, 0.0, 0.0, 0.0, 0.0, 0.0, 1.6689762391795251E9, 0.0, 2022-11-20 15:30:39.179
150.0, -35349.23915257921, -8034.692172371409, -54687.63317914405, -54584.68104418291, -42444.2192845606, -45065.85539172356, -42680.96896183121, -24951.006466270264, -44203.30157319326, -16268.896015750888, -47525.12842716318, -51157.93510173978, -44507.06178034089, -30093.271147402666, -43491.33145705837, -52630.04334331076, 0.022, 0.9580000000000001, -0.1, 192.0, 0.0, 88.0, 14.5, 120.0, 126.0, 112.0, 0.0, 0.0, 0.0, 1.668976239179531E9, 0.0, 2022-11-20 15:30:39.179
152.0, -35439.651958900926, -8040.25775674078, -54782.31516865673, -54690.293036734234, -42538.47659092863, -45154.70357593341, -42770.10771871897, -25037.127737656563, -44197.7806923128, -16253.272146376628, -47525.37429635219, -51154.24706390465, -44504.714847173076, -30089.918385734367, -43481.13906158675, -52612.69838961344, 0.022, 0.9580000000000001, -0.1, 192.0, 0.0, 0.0, 0.0, 0.0, 0.0, 0.0, 0.0, 0.0, 0.0, 1.668976239179537E9, 0.0, 2022-11-20 15:30:39.179
154.0, -35344.81350717706, -8039.207224751381, -54679.8547720736, -54581.864724381536, -42429.64594717574, -45049.180990359906, -42666.820307591, -24934.488527117795, -44202.429855159506, -16268.717201795245, -47525.68722077456, -51163.25481692014, -44504.156053561695, -30093.069981702567, -43489.85624192432, -52615.872337326095, 0.022, 0.9580000000000001, -0.1, 192.0, 0.0, 0.0, 0.0, 0.0, 0.0, 0.0, 0.0, 0.0, 0.0, 1.6689762391795428E9, 0.0, 2022-11-20 15:30:39.179
156.0, -35433.68404313136, -8025.751474589286, -54771.89925574056, -54690.8071268567, -42534.96736704915, -45162.481983003854, -42770.35358790799, -25046.224897649874, -44164.945979707954, -16227.992323397677, -47489.857374412706, -51126.88852869136, -44469.86847756726, -30063.789196466114, -43447.58909315933, -52585.116336955594, 0.022, 0.9580000000000001, -0.1, 192.0, 0.0, 0.0, 0.0, 0.0, 0.0, 0.0, 0.0, 0.0, 0.0, 1.668976239179548E9, 0.0, 2022-11-20 15:30:39.179
158.0, -35366.80762372108, -8064.531751219243, -54694.71868213638, -54597.801518178174, -42457.51857251151, -45085.70374079988, -42698.51508122862, -24971.592422913604, -44235.59984393118, -16298.646187620901, -47552.21874144301, -51190.009855033146, -44535.560254521406, -30127.91635130839, -43519.4723033276, -52663.0792216157, 0.022, 0.9580000000000001, -0.1, 192.0, 0.0, 0.0, 0.0, 0.0, 0.0, 0.0, 0.0, 0.0, 0.0, 1.6689762391795535E9, 0.0, 2022-11-20 15:30:39.179
160.0, -35441.14952577943, -8020.342352431101, -54783.65627332405, -54696.797394370726, -42546.29970148799, -45180.162212868, -42784.79281482611, -25060.15003444553, -44182.000360727354, -16237.380056068905, -47501.390874551646, -51128.25198510313, -44487.101672542296, -30074.13805414892, -43464.28584626745, -52609.27857271178, 0.02, 0.9580000000000001, -0.094, 192.0, 0.0, 80.0, 14.5, 120.0, 126.5, 8.0, 0.0, 0.0, 0.0, 1.6689762391795602E9, 0.0, 2022-11-20 15:30:39.179
162.0, -35380.710408772284, -8080.960283393894, -54709.89551662154, -54607.658637482964, -42465.11816562631, -45095.024418237736, -42704.17007257582, -24977.381524727527, -44247.46862023695, -16309.822059848555, -47567.21676197252, -51195.79895684707, -44550.73708900656, -30138.57813341357, -43530.04467845496, -52679.641864257086, 0.02, 0.9580000000000001, -0.094, 192.0, 0.0, 0.0, 0.0, 0.0, 0.0, 0.0, 0.0, 0.0, 0.0, 1.6689762391795678E9, 0.0, 2022-11-20 15:30:39.179
164.0, -35435.181610009866, -8012.720407571842, -54774.31324414173, -54687.45436518841, -42535.861436827356, -45166.952331894914, -42774.77923331013, -25045.73315927186, -44160.475630816894, -16220.21391632723, -47489.18682207904, -51116.42791228627, -44470.181401989634, -30062.09046388751, -43449.91367458268, -52599.108528984616, 0.02, 0.9580000000000001, -0.094, 192.0, 0.0, 0.0, 0.0, 0.0, 0.0, 0.0, 0.0, 0.0, 0.0, 1.6689762391795733E9, 0.0, 2022-11-20 15:30:39.179
166.0, -35396.75896129119, -8105.010760427805, -54733.990697144356, -54629.02690518223, -42493.30371538445, -45118.11377026007, -42735.57427353552, -25002.214312817374, -44268.43455653603, -16335.817138650078, -47588.137994782686, -51221.50346297067, -44571.21128692762, -30168.59652621705, -43557.33615843489, -52699.33375112221, 0.02, 0.9580000000000001, -0.094, 192.0, 0.0, 0.0, 0.0, 0.0, 0.0, 0.0, 0.0, 0.0, 0.0, 1.66897623917958E9, 0.0, 2022-11-20 15:30:39.179
168.0, -35391.975687977756, -7974.543628042177, -54740.74092396986, -54647.802370524696, -42508.48054986961, -45129.490808187824, -42749.924093475835, -25019.00047290331, -44154.194790624955, -16215.8776779029, -47472.512420715386, -51103.44154875774, -44460.816021062856, -30057.798928952092, -43447.052651292404, -52587.150345701026, 0.02, 0.9580000000000001, -0.094, 192.0, 0.0, 0.0, 0.0, 0.0, 0.0, 0.0, 0.0, 0.0, 0.0, 1.6689762391795857E9, 0.0, 2022-11-20 15:30:39.179
170.0, -35409.11947597498, -8102.596772026632, -54740.696220480946, -54625.00359118028, -42497.751712531055, -45106.33440093212, -42740.759878249155, -25005.41061227448, -44257.169277330555, -16316.862859351977, -47574.45872717604, -51200.44811969377, -44562.69527229015, -30151.07275856409, -43544.170980950716, -52680.15595437956, 0.016, 0.962, -0.10200000000000001, 192.0, 0.0, 64.0, 15.0, 8.0, 126.0, 104.0, 0.0, 0.0, 0.0, 1.6689762391795912E9, 0.0, 2022-11-20 15:30:39.179
172.0, -35403.576243350064, -7987.082956681605, -54742.84198794866, -54647.24357691331, -42502.89261375578, -45120.617165639065, -42746.571331807536, -25018.66519673648, -44165.90710471953, -16223.857250673444, -47482.995388864925, -51106.72725519267, -44469.01911127796, -30053.66385622786, -43443.87870357975, -52580.66833980899, 0.016, 0.962, -0.10200000000000001, 192.0, 0.0, 0.0, 0.0, 0.0, 0.0, 0.0, 0.0, 0.0, 0.0, 1.6689762391795967E9, 0.0, 2022-11-20 15:30:39.179
174.0, -35395.08258045704, -8086.816440441185, -54727.70985695242, -54616.71109398736, -42475.55643028694, -45105.28386894272, -42727.4382385538, -25000.962615127875, -44248.58620745972, -16311.140812771418, -47572.71529110853, -51198.41411094834, -44558.7166617771, -30144.88132534997, -43524.12146617431, -52666.99077689538, 0.016, 0.962, -0.10200000000000001, 192.0, 0.0, 0.0, 0.0, 0.0, 0.0, 0.0, 0.0, 0.0, 0.0, 1.668976239179602E9, 0.0, 2022-11-20 15:30:39.179
176.0, -35363.097234141496, -7959.545607512666, -54705.112243308104, -54619.63917251101, -42457.65268297824, -45104.814482309164, -42711.344982545976, -24991.150199311996, -44133.05004037023, -16198.644482927857, -47452.59701640571, -51083.168516536774, -44436.832599262314, -30032.675568184328, -43408.45118861809, -52553.510970295785, 0.016, 0.962, -0.10200000000000001, 192.0, 0.0, 0.0, 0.0, 0.0, 0.0, 0.0, 0.0, 0.0, 0.0, 1.6689762391796076E9, 0.0, 2022-11-20 15:30:39.179
178.0, -35401.29636541562, -8084.6483212290195, -54731.621412232096, -54639.30870763167, -42474.28238085299, -45125.087514530125, -42733.562616534546, -25012.18319084444, -44233.45407646347, -16308.838583092522, -47556.44322114506, -51192.82617483452, -44542.7128127471, -30145.373063727984, -43512.05152416844, -52664.50973326084, 0.016, 0.962, -0.10200000000000001, 192.0, 0.0, 0.0, 0.0, 0.0, 0.0, 0.0, 0.0, 0.0, 0.0, 1.6689762391796129E9, 0.0, 2022-11-20 15:30:39.179
180.0, -35372.37320809045, -7974.5883315310875, -54714.477624234874, -54633.4972540733, -42459.28436032347, -45110.268307956256, -42718.318726816025, -24997.095763337107, -44147.064584143714, -16221.26444831663, -47466.49980145691, -51103.01686561309, -44454.15520121517, -30057.95539116328, -43429.77475282845, -52582.36707238759, 0.018000000000000002, 0.964, -0.1, 192.0, 0.0, 72.0, 15.0, 16.0, 126.0, 112.0, 0.0, 0.0, 0.0, 1.6689762391796184E9, 0.0, 2022-11-20 15:30:39.179
182.0, -35427.85023782853, -8087.2858270747465, -54762.10919166914, -54667.74012657883, -42501.14917768827, -45146.50048571831, -42762.97751223773, -25039.117042913087, -44235.13045729762, -16298.825001576544, -47560.93592178058, -51188.44523292127, -44547.33962384935, -30144.05431080512, -43513.86201546932, -52667.41546004003, 0.018000000000000002, 0.964, -0.1, 192.0, 0.0, 0.0, 0.0, 0.0, 0.0, 0.0, 0.0, 0.0, 0.0, 1.668976239179624E9, 0.0, 2022-11-20 15:30:39.179
184.0, -35363.52191728615, -7971.928473940907, -54705.98396134186, -54613.403035807976, -42445.336871783365, -45092.096339714095, -42705.198252820766, -24982.745943396803, -44163.85074422965, -16230.78629145459, -47485.16350807709, -51111.2646593171, -44469.75671884498, -30064.90678368888, -43442.872875079265, -52594.548773115734, 0.018000000000000002, 0.964, -0.1, 192.0, 0.0, 0.0, 0.0, 0.0, 0.0, 0.0, 0.0, 0.0, 0.0, 1.6689762391796296E9, 0.0, 2022-11-20 15:30:39.179
186.0, -35418.171932479374, -8057.982690093839, -54749.994546174355, -54642.08032394414, -42485.70412226965, -45126.428619197446, -42745.096116673485, -25019.872190937065, -44222.23350074691, -16289.750193327689, -47553.55984611033, -51174.54244787007, -44539.740030734545, -30131.179705998864, -43504.384875820266, -52654.674965700506, 0.018000000000000002, 0.964, -0.1, 192.0, 0.0, 0.0, 0.0, 0.0, 0.0, 0.0, 0.0, 0.0, 0.0, 1.6689762391796348E9, 0.0, 2022-11-20 15:30:39.179
188.0, -35372.350856346, -7988.848744493574, -54705.179298541465, -54604.55174500367, -42441.335909525864, -45086.06136871116, -42704.79592142057, -24980.51076895127, -44159.80507848324, -16219.230439571196, -47474.38996724963, -51096.73602542115, -44462.201829219084, -30054.021484139146, -43432.63577611873, -52579.08136595266, 0.018000000000000002, 0.964, -0.1, 192.0, 0.0, 0.0, 0.0, 0.0, 0.0, 0.0, 0.0, 0.0, 0.0, 1.6689762391796403E9, 0.0, 2022-11-20 15:30:39.179
190.0, -35465.60233421354, -8091.890286432539, -54796.24030545239, -54693.28817049124, -42533.11217225935, -45176.74239596634, -42793.3535329525, -25069.113083972108, -44256.34226278571, -16310.51496392667, -47583.93586682509, -51199.35288421546, -44566.33860663636, -30159.588773201558, -43528.39064936527, -52675.4844397884, 0.022, 0.9580000000000001, -0.1, 192.0, 0.0, 88.0, 14.5, 120.0, 126.0, 112.0, 0.0, 0.0, 0.0, 1.6689762391796455E9, 0.0, 2022-11-20 15:30:39.179
192.0, -35343.78532693211, -7981.785593245697, -54680.34651045162, -54580.90359936996, -42417.9112813367, -45066.97297894633, -42680.365464730916, -24958.98603904081, -44169.68454953248, -16241.470425304226, -47498.462796028, -51121.03237164407, -44477.110442770776, -30076.552042550094, -43454.71929964057, -52597.78977606175, 0.022, 0.9580000000000001, -0.1, 192.0, 0.0, 0.0, 0.0, 0.0, 0.0, 0.0, 0.0, 0.0, 0.0, 1.6689762391796513E9, 0.0, 2022-11-20 15:30:39.179
194.0, -35436.67917688837, -8045.532768432233, -54769.5299708283, -54676.74787959432, -42508.43584638069, -45163.04077661524, -42771.78409955312, -25052.975124475375, -44198.96533476893, -16269.968899484742, -47536.79603776885, -51155.252892405144, -44512.94028913263, -30115.86876104698, -43484.00008487703, -52638.246433525856, 0.022, 0.9580000000000001, -0.1, 192.0, 0.0, 0.0, 0.0, 0.0, 0.0, 0.0, 0.0, 0.0, 0.0, 1.6689762391796567E9, 0.0, 2022-11-20 15:30:39.179
196.0, -35347.89804791189, -7997.498869597777, -54678.625426128565, -54578.26609352423, -42420.77230462698, -45070.571609803636, -42682.15360428734, -24960.528309408226, -44177.59706706966, -16249.02531493012, -47497.09933961622, -51123.31224957851, -44478.6974166271, -30083.48108333124, -43456.37332873027, -52612.13959600206, 0.022, 0.9580000000000001, -0.1, 192.0, 0.0, 0.0, 0.0, 0.0, 0.0, 0.0, 0.0, 0.0, 0.0, 1.6689762391796625E9, 0.0, 2022-11-20 15:30:39.179
198.0, -35462.562496967614, -8052.193588279914, -54796.15089847457, -54697.9596850824, -42541.69524213019, -45185.012541414806, -42799.65672488889, -25077.38322942057, -44207.391942428585, -16270.281823907117, -47535.94667147955, -51153.732973782186, -44525.07728637187, -30120.8084965716, -43489.29744831294, -52641.35332600514, 0.022, 0.9580000000000001, -0.1, 192.0, 0.0, 0.0, 0.0, 0.0, 0.0, 0.0, 0.0, 0.0, 0.0, 1.6689762391796696E9, 0.0, 2022-11-20 15:30:39.179
200.0, -35359.9456381733, -8016.58725936261, -54690.20362975641, -54587.05032909517, -42434.02688908898, -45071.06334818165, -42691.273116025106, -24965.199823999385, -44210.85646281916, -16284.050498491586, -47534.02442145639, -51160.438497118776, -44520.22695782506, -30118.930950037357, -43492.87372742579, -52641.263919027326, 0.02, 0.96, -0.10200000000000001, 192.0, 0.0, 80.0, 15.0, 0.0, 126.0, 104.0, 0.0, 0.0, 0.0, 1.6689762391796756E9, 0.0, 2022-11-20 15:30:39.179
202.0, -35439.093165289545, -8012.832166294118, -54777.666005810024, -54686.940275065936, -42523.500922143576, -45163.93484639345, -42777.21557345576, -25053.9138977425, -44188.95175325296, -16257.74249526769, -47520.680430016575, -51140.50074106464, -44506.23476579604, -30107.017470242678, -43477.45102375162, -52628.34461073216, 0.02, 0.96, -0.10200000000000001, 192.0, 0.0, 0.0, 0.0, 0.0, 0.0, 0.0, 0.0, 0.0, 0.0, 1.668976239179681E9, 0.0, 2022-11-20 15:30:39.179
204.0, -35351.340216558005, -8022.979858276828, -54689.68953963394, -54588.54789597367, -42427.52253145249, -45075.44429009489, -42687.92035435681, -24965.42334144394, -44203.70390459346, -16282.664690335358, -47529.621127798695, -51156.169313927814, -44513.54378623293, -30122.0601942611, -43490.75031170253, -52646.762448163325, 0.02, 0.96, -0.10200000000000001, 192.0, 0.0, 0.0, 0.0, 0.0, 0.0, 0.0, 0.0, 0.0, 0.0, 1.6689762391796875E9, 0.0, 2022-11-20 15:30:39.179
206.0, -35437.84146760005, -8000.046968465683, -54782.94101750148, -54692.39410071303, -42529.20061697967, -45180.251619845825, -42786.26802996016, -25066.9673165044, -44177.395901369564, -16246.812492229044, -47505.011857153404, -51128.22963335868, -44492.10846330028, -30101.787162040135, -43464.57641894536, -52621.527328673285, 0.02, 0.96, -0.10200000000000001, 192.0, 0.0, 0.0, 0.0, 0.0, 0.0, 0.0, 0.0, 0.0, 0.0, 1.6689762391796956E9, 0.0, 2022-11-20 15:30:39.179
208.0, -35358.02338815015, -8026.980820534328, -54687.92375182197, -54585.68687268339, -42432.395211743744, -45084.20617392137, -42692.77068290361, -24973.35821072557, -44223.61930890314, -16296.768641086655, -47542.94276749406, -51171.2790931796, -44535.828475454866, -30142.86966834899, -43508.87757645579, -52667.21429433994, 0.02, 0.96, -0.10200000000000001, 192.0, 0.0, 0.0, 0.0, 0.0, 0.0, 0.0, 0.0, 0.0, 0.0, 1.6689762391797016E9, 0.0, 2022-11-20 15:30:39.179
210.0, -35412.13696147644, -7967.167552371926, -54742.797284459746, -54658.64296658552, -42501.86443351083, -45151.82020089868, -42758.440108113304, -25041.24045863634, -44160.54268605026, -16231.099215876964, -47482.92833363156, -51106.034351114555, -44480.1502800167, -30083.078751931043, -43441.73293611204, -52604.56235463171, 0.022, 0.962, -0.101, 192.0, 0.0, 96.0, 15.0, 16.0, 126.0, 112.0, 0.0, 0.0, 0.0, 1.6689762391797085E9, 0.0, 2022-11-20 15:30:39.179
212.0, -35344.05354786558, -8022.39871292099, -54661.01225149778, -54563.15631427245, -42418.85005460383, -45058.613426520045, -42677.75031062964, -24954.135710494007, -44203.43568366, -16277.993175744197, -47518.40055208213, -51145.060496933525, -44512.62736471026, -30116.71812733628, -43478.92623888567, -52637.821750381205, 0.022, 0.962, -0.101, 192.0, 0.0, 0.0, 0.0, 0.0, 0.0, 0.0, 0.0, 0.0, 0.0, 1.6689762391797152E9, 0.0, 2022-11-20 15:30:39.179
214.0, -35383.7502460182, -7941.686563692876, -54712.22009804489, -54629.38453309352, -42472.53894478547, -45118.76197084928, -42730.52277928863, -25012.294949566716, -44125.45044725543, -16195.44818347075, -47446.87496982515, -51072.39497570932, -44439.22423591903, -30047.71829220275, -43401.544499581396, -52562.83164773365, 0.022, 0.962, -0.101, 192.0, 0.0, 0.0, 0.0, 0.0, 0.0, 0.0, 0.0, 0.0, 0.0, 1.6689762391797216E9, 0.0, 2022-11-20 15:30:39.179
216.0, -35359.52095502865, -8038.9837073068275, -54680.61473138508, -54578.646073179974, -42429.22126403109, -45071.08569992611, -42688.36738924592, -24964.08223677662, -44220.9370995685, -16291.672443350846, -47538.561825580815, -51166.428764632794, -44526.21722533908, -30138.220505502286, -43488.89511691274, -52651.14339007657, 0.022, 0.962, -0.101, 192.0, 0.0, 0.0, 0.0, 0.0, 0.0, 0.0, 0.0, 0.0, 0.0, 1.6689762391797273E9, 0.0, 2022-11-20 15:30:39.179
218.0, -35375.97183894776, -7933.014086844217, -54713.62825794557, -54628.17753889293, -42466.369863315806, -45112.5481858907, -42721.09034312849, -25002.102554095098, -44116.085066328655, -16190.575503179492, -47440.39296393311, -51067.49994367361, -44425.94729971258, -30040.789251421604, -43394.68251403362, -52554.405040074, 0.022, 0.962, -0.101, 192.0, 0.0, 0.0, 0.0, 0.0, 0.0, 0.0, 0.0, 0.0, 0.0, 1.6689762391797335E9, 0.0, 2022-11-20 15:30:39.179
220.0, -35372.08263541253, -8046.695059143908, -54693.60109491362, -54588.145564573475, -42442.27468279299, -45084.049711710184, -42700.862014396436, -24977.158007282975, -44212.13051225311, -16286.978577015232, -47538.38301162518, -51163.83596227598, -44529.2123590961, -30139.986293314254, -43493.65603848172, -52652.19392206597, 0.022, 0.96, -0.1015, 192.0, 0.0, 88.0, 14.5, 120.0, 126.0, 104.0, 0.0, 0.0, 0.0, 1.6689762391797397E9, 0.0, 2022-11-20 15:30:39.179
222.0, -35374.58603079153, -7932.56705195511, -54700.708949650405, -54607.54687876069, -42458.814973689914, -45101.70758982988, -42716.55293900406, -24994.99469935831, -44117.09089482915, -16191.179000279786, -47438.69423135451, -51065.10830701689, -44431.13290442621, -30040.342216532496, -43396.82828150133, -52551.8569412061, 0.022, 0.96, -0.1015, 192.0, 0.0, 0.0, 0.0, 0.0, 0.0, 0.0, 0.0, 0.0, 0.0, 1.6689762391797464E9, 0.0, 2022-11-20 15:30:39.179
224.0, -35400.02231598167, -8061.849541884607, -54710.02962708827, -54601.914239157944, -42458.79262194546, -45093.437444381416, -42714.78715119209, -24989.85379813359, -44230.727163639924, -16298.489725409714, -47554.00688099943, -51177.582285116, -44541.841094713345, -30143.58492417156, -43498.998105406536, -52652.28332904379, 0.022, 0.96, -0.1015, 192.0, 0.0, 0.0, 0.0, 0.0, 0.0, 0.0, 0.0, 0.0, 0.0, 1.668976239179752E9, 0.0, 2022-11-20 15:30:39.179
226.0, -35355.65410323788, -7922.1734907833925, -54679.318330206675, -54590.313683785644, -42427.097848307836, -45071.331569115115, -42683.31589499902, -24964.171643754442, -44124.57872922167, -16198.890352116867, -47441.21997847796, -51070.673891386265, -44424.65089853417, -30027.109983814957, -43383.39488308369, -52540.41284804498, 0.022, 0.96, -0.1015, 192.0, 0.0, 0.0, 0.0, 0.0, 0.0, 0.0, 0.0, 0.0, 0.0, 1.668976239179758E9, 0.0, 2022-11-20 15:30:39.179
228.0, -35407.420743396375, -8058.07209707166, -54726.54756624074, -54625.204756880375, -42469.29794183945, -45109.97773527834, -42727.79586646508, -25005.254150063294, -44223.73106762541, -16289.191399716306, -47550.16238095312, -51173.31310192503, -44534.37561206527, -30141.081528792565, -43484.603581977324, -52647.969442363916, 0.022, 0.96, -0.1015, 192.0, 0.0, 0.0, 0.0, 0.0, 0.0, 0.0, 0.0, 0.0, 0.0, 1.6689762391797636E9, 0.0, 2022-11-20 15:30:39.179
230.0, -35351.831954936024, -7928.633144930976, -54686.314426221186, -54594.69462569888, -42433.244578033045, -45077.768871518245, -42692.68127592579, -24974.475797948337, -44121.270671042286, -16192.497753202648, -47443.76807734586, -51069.71276637468, -44431.06584919284, -30040.90101014388, -43389.027522686425, -52550.89581619452, 0.024, 0.962, -0.10175000000000001, 192.0, 0.0, 104.0, 15.0, 16.0, 126.0, 104.0, 0.0, 0.0, 0.0, 1.6689762391797724E9, 0.0, 2022-11-20 15:30:39.179
232.0, -35426.0620982721, -8061.268396528769, -54752.2744241088, -54645.58954782362, -42496.8799944973, -45143.03596532774, -42761.27877965913, -25043.90031622652, -44228.0896577942, -16303.183591745328, -47558.901913035144, -51181.29267469558, -44546.24438837104, -30161.689837180358, -43502.10499788583, -52669.918855419026, 0.024, 0.962, -0.10175000000000001, 192.0, 0.0, 0.0, 0.0, 0.0, 0.0, 0.0, 0.0, 0.0, 0.0, 1.6689762391797783E9, 0.0, 2022-11-20 15:30:39.179
234.0, -35344.85821066597, -7936.120979323505, -54664.78969631073, -54567.58195967459, -42419.319441237385, -45067.35295860207, -42682.89121185437, -24968.88786183451, -44134.324089804184, -16218.962218637733, -47451.591187905215, -51079.92751359076, -44438.06194520735, -30060.637600497914, -43407.95945024007, -52576.89089499604, 0.024, 0.962, -0.10175000000000001, 192.0, 0.0, 0.0, 0.0, 0.0, 0.0, 0.0, 0.0, 0.0, 0.0, 1.6689762391797848E9, 0.0, 2022-11-20 15:30:39.179
236.0, -35450.51490670621, -8070.566722222176, -54753.88374970958, -54648.830550769635, -42507.899404513766, -45148.46743923038, -42767.78313729562, -25050.85170875212, -44226.86031184916, -16296.27690270864, -47549.00009024145, -51168.753346056146, -44531.1122573748, -30145.842450361546, -43487.06227386741, -52652.46214299943, 0.024, 0.962, -0.10175000000000001, 192.0, 0.0, 0.0, 0.0, 0.0, 0.0, 0.0, 0.0, 0.0, 0.0, 1.6689762391797912E9, 0.0, 2022-11-20 15:30:39.179
238.0, -35345.059376366065, -7947.877996906996, -54654.57494909465, -54558.70831712584, -42405.282545719456, -45048.5327897707, -42664.04869127854, -24947.65370460197, -44159.55920929423, -16239.615230514435, -47473.07121432677, -51098.23359229966, -44454.490477382, -30067.36547557896, -43415.603746843786, -52572.107621682604, 0.024, 0.962, -0.10175000000000001, 192.0, 0.0, 0.0, 0.0, 0.0, 0.0, 0.0, 0.0, 0.0, 0.0, 1.6689762391797972E9, 0.0, 2022-11-20 15:30:39.179
240.0, -35435.025147798675, -8038.201396250892, -54752.74381074236, -54662.129838720546, -42496.74588403057, -45138.34209899212, -42750.46053534276, -25031.182173631452, -44205.715561594436, -16277.613196088458, -47530.89517723265, -51156.14696218335, -44518.30470780191, -30125.72588035177, -43468.01858759148, -52629.3727909771, 0.025, 0.963, -0.098875, 192.0, 0.0, 104.0, 15.0, 16.0, 126.5, 0.0, 0.0, 0.0, 0.0, 1.6689762391798031E9, 0.0, 2022-11-20 15:30:39.179
242.0, -35325.27808252312, -7943.921738138407, -54651.44570487091, -54567.42549746341, -42392.542051379925, -45042.609577490046, -42653.49866789564, -24935.18143119591, -44146.66225274352, -16232.775596711112, -47468.7573276469, -51106.16846158129, -44455.362195415764, -30067.544289534606, -43416.430761388634, -52582.79175553224, 0.025, 0.963, -0.098875, 192.0, 0.0, 0.0, 0.0, 0.0, 0.0, 0.0, 0.0, 0.0, 0.0, 1.6689762396595523E9, 0.0, 2022-11-20 15:30:39.659
244.0, -35420.67532785837, -8008.115948214048, -54756.20833113293, -54666.86840854507, -42499.3833898763, -45150.27793053126, -42759.848268013986, -25041.978066203366, -44186.96244799643, -16260.558815069058, -47511.47151130099, -51146.91569172331, -44499.79746339291, -30112.493647634226, -43455.658072907696, -52629.61866016611, 0.025, 0.963, -0.098875, 192.0, 0.0, 0.0, 0.0, 0.0, 0.0, 0.0, 0.0, 0.0, 0.0, 1.6689762396596165E9, 0.0, 2022-11-20 15:30:39.659
246.0, -35324.004033089164, -7955.611700488532, -54655.133742706035, -54556.85312233605, -42395.67129560367, -45043.794219946176, -42656.76202258611, -24938.22126844183, -44157.905180204536, -16245.002000928165, -47481.028435352855, -51117.03140938657, -44469.24262872251, -30087.012658955176, -43438.26841572147, -52603.6682848535, 0.025, 0.963, -0.098875, 192.0, 0.0, 0.0, 0.0, 0.0, 0.0, 0.0, 0.0, 0.0, 0.0, 1.668976239659662E9, 0.0, 2022-11-20 15:30:39.659
248.0, -35420.25064471372, -7991.15097417247, -54748.876958951594, -54657.637138085025, -42497.39408461977, -45139.146761792515, -42754.97558772273, -25035.987798689344, -44171.62915130009, -16250.724047508724, -47497.70283671652, -51126.530900780075, -44483.43598645163, -30101.429534128853, -43442.42584019015, -52608.33979944466, 0.025, 0.963, -0.098875, 192.0, 0.0, 0.0, 0.0, 0.0, 0.0, 0.0, 0.0, 0.0, 0.0, 1.6689762396596844E9, 0.0, 2022-11-20 15:30:39.659
250.0, -35313.543416684086, -7956.036383633183, -54636.40298085249, -54528.71227606681, -42379.71215006258, -45015.34044925457, -42638.38888864385, -24918.775250765713, -44159.156877894035, -16247.8853759629, -47482.72716793146, -51118.39486579834, -44472.058948523874, -30083.950469964802, -43434.87095056426, -52598.72854932887, 0.025500000000000002, 0.9635, -0.10043750000000001, 192.0, 0.0, 104.0, 15.0, 16.0, 126.0, 104.0, 0.0, 0.0, 0.0, 1.6689762396597016E9, 0.0, 2022-11-20 15:30:39.659
252.0, -35426.15150524992, -7986.01007294775, -54761.5727498022, -54654.75376305029, -42495.31537238543, -45130.630747155046, -42753.075689444035, -25035.339598100138, -44141.946034663444, -16224.103119862453, -47478.167412062576, -51106.63784821485, -44466.42630892114, -30070.494719802708, -43415.603746843786, -52582.456479365406, 0.025500000000000002, 0.9635, -0.10043750000000001, 192.0, 0.0, 0.0, 0.0, 0.0, 0.0, 0.0, 0.0, 0.0, 0.0, 1.6689762396597464E9, 0.0, 2022-11-20 15:30:39.659
254.0, -35371.59089703452, -8017.794253563196, -54696.28330424825, -54574.175724288914, -42424.66150816221, -45057.406432319454, -42684.277020010595, -24964.573975154635, -44214.857425076654, -16296.567475386559, -47540.90875874863, -51167.79222104457, -44524.362030549295, -30126.754060596715, -43480.17793657517, -52641.80036089425, 0.025500000000000002, 0.9635, -0.10043750000000001, 192.0, 0.0, 0.0, 0.0, 0.0, 0.0, 0.0, 0.0, 0.0, 0.0, 1.668976239659752E9, 0.0, 2022-11-20 15:30:39.659
0.0, -35422.239949970244, -7958.495075523267, -54746.23945310587, -54648.987012980826, -42483.73716875758, -45127.747372120306, -42742.41390733885, -25028.790536974735, -44165.50477331934, -16237.871794446923, -47491.60081048022, -51110.45999651671, -44473.1988874911, -30078.831920484536, -43421.25873819098, -52584.490488110845, 0.025500000000000002, 0.9635, -0.10043750000000001, 192.0, 0.0, 0.0, 0.0, 0.0, 0.0, 0.0, 0.0, 0.0, 0.0, 1.6689762396597576E9, 0.0, 2022-11-20 15:30:39.659
2.0, -35348.85917292347, -8003.15386094497, -54662.755687565295, -54564.76563987323, -42404.61199338579, -45052.08671713909, -42666.48503142417, -24952.280515704217, -44208.017791273334, -16292.499457895692, -47528.68235453157, -51160.304386652046, -44512.76147517699, -30132.453755432816, -43464.956398601105, -52639.96751784891, 0.025500000000000002, 0.9635, -0.10043750000000001, 192.0, 0.0, 0.0, 0.0, 0.0, 0.0, 0.0, 0.0, 0.0, 0.0, 1.6689762396597629E9, 0.0, 2022-11-20 15:30:39.659
4.0, -35383.370266362464, -7923.201671028337, -54701.58066768416, -54629.876271471534, -42461.83245919138, -45111.877633557044, -42719.32455531652, -25009.52333325426, -44121.605947209115, -16210.826183656, -47445.8467895802, -51083.28027525906, -44439.71597429705, -30065.443225555806, -43386.45707207407, -52570.63240654855, 0.02475, 0.9597500000000001, -0.10421875, 192.0, 0.0, 96.0, 14.5, 112.0, 126.0, 80.0, 0.0, 0.0, 0.0, 1.6689762396597683E9, 0.0, 2022-11-20 15:30:39.659
6.0, -35358.4480712948, -8019.381227419523, -54658.44180088542, -54575.650939422965, -42423.365106983794, -45064.06725216714, -42682.26536300962, -24967.949088567388, -44197.64658184607, -16280.921254267843, -47507.15762462111, -51153.59886331545, -44503.463149483585, -30131.827906588067, -43455.05457580741, -52642.783837650284, 0.02475, 0.9597500000000001, -0.10421875, 192.0, 0.0, 0.0, 0.0, 0.0, 0.0, 0.0, 0.0, 0.0, 0.0, 1.668976239659783E9, 0.0, 2022-11-20 15:30:39.659
8.0, -35406.660784084896, -7943.631165460488, -54723.440673761455, -54644.069629200654, -42494.44365435167, -45125.1992732524, -42747.957139963764, -25033.305589354706, -44135.06169737121, -16225.7795006966, -47450.49595242691, -51094.45614748671, -44448.70137556808, -30077.28965011712, -43402.662086804165, -52581.897685754026, 0.02475, 0.9597500000000001, -0.10421875, 192.0, 0.0, 0.0, 0.0, 0.0, 0.0, 0.0, 0.0, 0.0, 0.0, 1.6689762396597881E9, 0.0, 2022-11-20 15:30:39.659
10.0, -35373.66960926886, -8030.266526969258, -54680.32415870717, -54573.527523699704, -42432.596377443835, -45060.289807354195, -42690.915488113824, -24970.98892581331, -44221.3394309687, -16315.678216895845, -47538.45006685854, -51178.76692757213, -44533.28037658696, -30153.77731964318, -43486.615238978295, -52658.83239016919, 0.02475, 0.9597500000000001, -0.10421875, 192.0, 0.0, 0.0, 0.0, 0.0, 0.0, 0.0, 0.0, 0.0, 0.0, 1.6689762396597948E9, 0.0, 2022-11-20 15:30:39.659
12.0, -35371.92617320135, -7904.605019641522, -54699.47960370536, -54598.069739111634, -42450.142496841254, -45076.76304301775, -42705.62293596542, -24985.897539365, -44118.43199949646, -16200.276160273095, -47437.66605110956, -51069.91393207478, -44425.6343752902, -30045.17019333484, -43380.086824904305, -52544.12323762456, 0.02475, 0.9597500000000001, -0.10421875, 192.0, 0.0, 0.0, 0.0, 0.0, 0.0, 0.0, 0.0, 0.0, 0.0, 1.6689762396598136E9, 0.0, 2022-11-20 15:30:39.659
14.0, -35367.992266177214, -8020.1411867310035, -54693.62344665807, -54567.42549746341, -42435.92678736768, -45052.667862494935, -42687.763892145624, -24965.55745191067, -44210.70000060797, -16294.60052187449, -47531.63278479967, -51164.59592158746, -44525.47961777206, -30137.952284568823, -43480.87084065328, -52634.51369220182, 0.023375, 0.959875, -0.104109375, 192.0, 0.0, 88.0, 15.0, 0.0, 126.0, 96.0, 0.0, 0.0, 0.0, 1.6689762396598208E9, 0.0, 2022-11-20 15:30:39.659
16.0, -35329.971948858736, -7871.546789592122, -54667.404850412, -54566.08439279609, -42421.44285696064, -45050.32092932713, -42672.76587161611, -24958.650762873982, -44083.96560954638, -16172.895273315344, -47401.72444602543, -51041.43780963872, -44400.95804941154, -30017.07405055452, -43361.80309793986, -52519.312801279164, 0.023375, 0.959875, -0.104109375, 192.0, 0.0, 0.0, 0.0, 0.0, 0.0, 0.0, 0.0, 0.0, 0.0, 1.668976239659828E9, 0.0, 2022-11-20 15:30:39.659
18.0, -35360.32561782904, -7999.778747532219, -54678.93835055093, -54564.07273579511, -42430.16003729821, -45058.76988873123, -42683.49470895466, -24970.07250429064, -44201.55813712575, -16281.502399623681, -47512.20911886801, -51152.190703414766, -44513.63319321075, -30132.073775777077, -43467.973884102576, -52637.93350910348, 0.023375, 0.959875, -0.104109375, 192.0, 0.0, 0.0, 0.0, 0.0, 0.0, 0.0, 0.0, 0.0, 0.0, 1.668976239659835E9, 0.0, 2022-11-20 15:30:39.659
20.0, -35315.57742542952, -7863.924844732863, -54642.84028325562, -54545.63254661948, -42396.27479270397, -45035.4793710088, -42649.676519593784, -24941.194050454385, -44074.64493210852, -16162.032325510065, -47384.58065802821, -51025.1433879308, -44383.18841256957, -30002.992451547678, -43342.08885933028, -52514.06014133217, 0.023375, 0.959875, -0.104109375, 192.0, 0.0, 0.0, 0.0, 0.0, 0.0, 0.0, 0.0, 0.0, 0.0, 1.6689762396598425E9, 0.0, 2022-11-20 15:30:39.659
22.0, -35363.097234141496, -7996.001302719272, -54678.31250170619, -54573.37106148852, -42420.437028460154, -45059.97688293182, -42676.2750954956, -24965.289230977207, -44182.13447119409, -16275.109800709464, -47503.84956644173, -51142.959432954725, -44488.353370231795, -30113.030089501157, -43445.1527530137, -52619.82859609468, 0.023375, 0.959875, -0.104109375, 192.0, 0.0, 0.0, 0.0, 0.0, 0.0, 0.0, 0.0, 0.0, 0.0, 1.66897623965985E9, 0.0, 2022-11-20 15:30:39.659
24.0, -35311.9340910833, -7877.2688361726805, -54637.297050630696, -54543.330316940584, -42386.08239723234, -45018.67085917841, -42637.27130142108, -24924.45259385736, -44080.657551366996, -16180.15959026332, -47403.2890681373, -51040.40962939378, -44381.35556952424, -30005.1829225043, -43345.03928959838, -52520.363333268564, 0.023375, 0.959875, -0.104109375, 192.0, 0.0, 0.0, 0.0, 0.0, 0.0, 0.0, 0.0, 0.0, 0.0, 1.6689762396598573E9, 0.0, 2022-11-20 15:30:39.659
26.0, -35396.33427814654, -8017.593087863099, -54715.170528312985, -54608.17272760543, -42459.55258125694, -45082.082758198114, -42708.193386577776, -24990.747867911803, -44191.79042479878, -16274.439248375804, -47512.38793282365, -51142.73591551017, -44490.61089642178, -30109.990252255233, -43448.88549433774, -52618.6216018941, 0.022, 0.962, -0.098, 192.0, 0.0, 88.0, 15.0, 8.0, 126.0, 120.0, 0.0, 0.0, 0.0, 1.6689762396598644E9, 0.0, 2022-11-20 15:30:39.659
28.0, -35308.69308813728, -7895.2843422036585, -54630.70328601638, -54540.469293650305, -42382.34965590831, -45008.05378056214, -42630.163446684295, -24915.087212930586, -44111.16768254849, -16202.35487250744, -47425.171425959044, -51067.99168205162, -44409.25054660446, -30023.310187257553, -43374.02950215692, -52538.557653255186, 0.022, 0.962, -0.098, 192.0, 0.0, 0.0, 0.0, 0.0, 0.0, 0.0, 0.0, 0.0, 0.0, 1.6689762396598716E9, 0.0, 2022-11-20 15:30:39.659
30.0, -35398.122417702965, -8015.581430862121, -54702.47473746238, -54619.817986466645, -42458.99378764556, -45089.81646177965, -42711.747313946165, -24995.08410633613, -44173.64080830107, -16265.811475016055, -47494.28301981485, -51143.652337032836, -44477.870402082255, -30093.025278213656, -43434.334508697335, -52604.13767148706, 0.022, 0.962, -0.098, 192.0, 0.0, 0.0, 0.0, 0.0, 0.0, 0.0, 0.0, 0.0, 0.0, 1.6689762396598988E9, 0.0, 2022-11-20 15:30:39.659
32.0, -35300.51234966664, -7912.785758112163, -54604.305875814665, -54524.37603764249, -42364.82588825535, -44996.63203914548, -42617.177083155766, -24901.273834857206, -44109.73717090335, -16212.323750534506, -47422.95860325797, -51080.598065924416, -44402.18739535659, -30018.146934288376, -43368.754490465464, -52536.74716195431, 0.022, 0.962, -0.098, 192.0, 0.0, 0.0, 0.0, 0.0, 0.0, 0.0, 0.0, 0.0, 0.0, 1.6689762396599042E9, 0.0, 2022-11-20 15:30:39.659
34.0, -35430.59950239653, -8043.588166664621, -54737.09758962364, -54644.27079490075, -42493.75075027356, -45121.93591856193, -42742.70448001677, -25023.96256017239, -44177.7758810253, -16262.525768581125, -47497.322857060775, -51143.78644749957, -44472.57303864635, -30083.99517345371, -43429.52888363945, -52593.20766844841, 0.022, 0.962, -0.098, 192.0, 0.0, 0.0, 0.0, 0.0, 0.0, 0.0, 0.0, 0.0, 0.0, 1.6689762396599095E9, 0.0, 2022-11-20 15:30:39.659
36.0, -35310.34711722698, -7956.19284584437, -54624.73537024682, -54526.79002604366, -42373.96775173757, -45001.61647815901, -42621.781542513556, -24905.207741881342, -44161.324997106196, -16241.582184026503, -47470.545467203316, -51111.577583739476, -44444.00750923246, -30042.599742722483, -43411.51337760847, -52569.91715072598, 0.02, 0.96, -0.1, 192.0, 0.0, 80.0, 15.0, 0.0, 126.0, 112.0, 0.0, 0.0, 0.0, 1.668976239659915E9, 0.0, 2022-11-20 15:30:39.659
38.0, -35414.416839410886, -8029.663029868964, -54740.65151699204, -54649.188178680924, -42481.323180356405, -45116.012706281275, -42734.970776435235, -25019.067528136675, -44162.017901184314, -16234.764901967634, -47486.4599092555, -51119.64656348784, -44457.50796288347, -30061.37520806494, -43417.30247942239, -52586.16686894499, 0.02, 0.96, -0.1, 192.0, 0.0, 0.0, 0.0, 0.0, 0.0, 0.0, 0.0, 0.0, 0.0, 1.6689762396599228E9, 0.0, 2022-11-20 15:30:39.659
40.0, -35310.592986415984, -7985.451279336367, -54639.91220473197, -54541.74334308426, -42377.00758898349, -45004.119873538, -42630.945757740235, -24910.326291361605, -44150.86438070111, -16244.733779994702, -47471.12661255916, -51114.080979118466, -44444.49924761048, -30052.725082960736, -43418.464770134065, -52584.17756368847, 0.02, 0.96, -0.1, 192.0, 0.0, 0.0, 0.0, 0.0, 0.0, 0.0, 0.0, 0.0, 0.0, 1.6689762396599283E9, 0.0, 2022-11-20 15:30:39.659
42.0, -35389.941679232325, -8008.406520891967, -54721.07138884919, -54626.3446958476, -42461.56423825792, -45082.663903553956, -42710.36150578994, -24987.484513221327, -44140.96255790741, -16229.624000742913, -47469.226714280456, -51104.9614673807, -44444.56630284385, -30048.56765849205, -43407.4453601176, -52572.15232517151, 0.02, 0.96, -0.1, 192.0, 0.0, 0.0, 0.0, 0.0, 0.0, 0.0, 0.0, 0.0, 0.0, 1.6689762396599338E9, 0.0, 2022-11-20 15:30:39.659
44.0, -35307.01670730313, -7996.5377445862, -54630.52447206074, -54529.53929061166, -42366.9493039786, -44987.04314077415, -42617.22178664467, -24893.2272068533, -44136.291043316254, -16228.037026886586, -47460.82245836526, -51096.51250797659, -44432.25049164897, -30036.1400885749, -43400.136339680714, -52569.60422630361, 0.02, 0.96, -0.1, 192.0, 0.0, 0.0, 0.0, 0.0, 0.0, 0.0, 0.0, 0.0, 0.0, 1.6689762396599393E9, 0.0, 2022-11-20 15:30:39.659
46.0, -35407.9571852633, -8010.954619759873, -54728.62627847508, -54646.41656236846, -42471.13078488479, -45102.378142163536, -42720.9338809173, -25000.8508564056, -44147.891598688555, -16223.54432625107, -47471.327778259256, -51099.48528998915, -44435.37973587272, -30039.64931245438, -43397.3423716238, -52569.47011583688, 0.022, 0.9580000000000001, -0.096, 192.0, 0.0, 88.0, 14.5, 120.0, 126.5, 0.0, 0.0, 0.0, 0.0, 1.6689762396599445E9, 0.0, 2022-11-20 15:30:39.659
48.0, -35316.56090218555, -8023.046913510194, -54626.188233636414, -54539.93285178338, -42368.648036557206, -45006.109178794526, -42620.596900057426, -24899.038660411676, -44170.93624722198, -16263.55394882607, -47492.003141880414, -51131.492988049155, -44455.5410093714, -30064.817376711057, -43419.00121200099, -52595.08521498266, 0.022, 0.9580000000000001, -0.096, 192.0, 0.0, 0.0, 0.0, 0.0, 0.0, 0.0, 0.0, 0.0, 0.0, 1.66897623965995E9, 0.0, 2022-11-20 15:30:39.659
50.0, -35411.98049926526, -8014.799119806185, -54726.79343542975, -54653.85969327208, -42472.27072385201, -45119.767799349764, -42725.76185771965, -25011.110307110586, -44134.92758690448, -16224.080768117998, -47462.96822583297, -51104.13445283585, -44428.718916025035, -30041.415100266353, -43380.39974932668, -52564.19510414542, 0.022, 0.9580000000000001, -0.096, 192.0, 0.0, 0.0, 0.0, 0.0, 0.0, 0.0, 0.0, 0.0, 0.0, 1.6689762396599565E9, 0.0, 2022-11-20 15:30:39.659
52.0, -35327.37914650192, -8044.973974820849, -54633.13962616201, -54541.944508784356, -42377.56638259487, -45018.00030684475, -42632.01864147409, -24913.232018140796, -44187.00715148535, -16284.966920014254, -47508.47637754397, -51156.795162772556, -44482.02782655094, -30089.67251654536, -43435.54150289792, -52614.352418703136, 0.022, 0.9580000000000001, -0.096, 192.0, 0.0, 0.0, 0.0, 0.0, 0.0, 0.0, 0.0, 0.0, 0.0, 1.668976239659962E9, 0.0, 2022-11-20 15:30:39.659
54.0, -35385.94071697482, -7981.137392656493, -54695.23277225885, -54629.116312160055, -42454.79165968796, -45097.17018570545, -42707.79105517758, -24990.501998722793, -44104.77508363427, -16196.096384059952, -47424.836149792216, -51069.22102799667, -44401.65095348966, -30006.18875100479, -43356.25986531495, -52533.39440028601, 0.022, 0.9580000000000001, -0.096, 192.0, 0.0, 0.0, 0.0, 0.0, 0.0, 0.0, 0.0, 0.0, 0.0, 1.6689762396599677E9, 0.0, 2022-11-20 15:30:39.659
56.0, -35327.513256968654, -8054.093486558615, -54630.21154763837, -54550.72874435529, -42387.82583329986, -45026.71748718232, -42642.56866485699, -24921.680977544904, -44196.43958764549, -16292.521809640148, -47510.86801420069, -51159.075040707, -44490.56619293287, -30095.34985963701, -43447.09735478131, -52628.00933456532, 0.028, 0.962, -0.1, 192.0, 0.0, 112.0, 15.0, 8.0, 126.0, 112.0, 0.0, 0.0, 0.0, 1.6689762396599731E9, 0.0, 2022-11-20 15:30:39.659
58.0, -35346.445184522294, -7949.330860296591, -54666.75664982279, -54599.1873263344, -42427.097848307836, -45067.30825511316, -42678.71143564123, -24960.707123363867, -44085.08319676915, -16175.264558227607, -47399.55632681326, -51044.87997828484, -44377.66753168911, -29990.14019848588, -43333.77401039291, -52515.133025066025, 0.028, 0.962, -0.1, 192.0, 0.0, 0.0, 0.0, 0.0, 0.0, 0.0, 0.0, 0.0, 0.0, 1.6689762396599784E9, 0.0, 2022-11-20 15:30:39.659
60.0, -35350.513202013164, -8074.2547600573025, -54662.398059654006, -54569.43715446439, -42417.03956330295, -45047.92929267041, -42667.423804691294, -24944.949143522877, -44193.064474232735, -16285.436306647814, -47509.12457813318, -51152.63773830387, -44489.09097779882, -30098.63556607194, -43442.2023227456, -52624.09777928565, 0.028, 0.962, -0.1, 192.0, 0.0, 0.0, 0.0, 0.0, 0.0, 0.0, 0.0, 0.0, 0.0, 1.6689762396599839E9, 0.0, 2022-11-20 15:30:39.659
62.0, -35349.37326304594, -7952.795380687164, -54671.80814406969, -54591.09599484158, -42432.90930186621, -45063.4861068113, -42679.06906355251, -24959.343666952096, -44105.84796736813, -16199.404442239338, -47419.181158445026, -51062.694318615715, -44405.04841864687, -30014.771820875627, -43358.271522315925, -52534.4002287865, 0.028, 0.962, -0.1, 192.0, 0.0, 0.0, 0.0, 0.0, 0.0, 0.0, 0.0, 0.0, 0.0, 1.668976239659989E9, 0.0, 2022-11-20 15:30:39.659
64.0, -35351.67549272484, -8068.286844287735, -54662.62157709856, -54562.41870670542, -42417.6654121477, -45043.83892343508, -42667.848487835945, -24944.569163867138, -44188.661180575036, -16281.927082768332, -47506.68823798755, -51144.904034722334, -44486.98991382002, -30099.462580616782, -43438.62604363276, -52611.24552622384, 0.028, 0.962, -0.1, 192.0, 0.0, 0.0, 0.0, 0.0, 0.0, 0.0, 0.0, 0.0, 0.0, 1.6689762396599946E9, 0.0, 2022-11-20 15:30:39.659
66.0, -35318.505503953165, -7933.729342666787, -54641.40977161047, -54564.877398595505, -42405.17078699718, -45046.38702230299, -42658.99719703164, -24942.244582443785, -44087.51953691478, -16178.125581517887, -47397.81289074575, -51037.43684738122, -44379.16509856762, -29992.263614209132, -43332.410553981135, -52506.77347263974, 0.022, 0.9580000000000001, -0.1, 192.0, 0.0, 88.0, 14.5, 120.0, 126.0, 112.0, 0.0, 0.0, 0.0, 1.6689762396600008E9, 0.0, 2022-11-20 15:30:39.660
68.0, -35355.676454982335, -8068.979748365849, -54672.43399291444, -54587.81028840665, -42425.44381921814, -45073.20911564936, -42684.478185710694, -24969.22313800134, -44186.8283375297, -16279.93777751181, -47502.419054796585, -51141.64068003186, -44484.88884984122, -30101.76481029568, -43432.501665652, -52617.772235604796, 0.022, 0.9580000000000001, -0.1, 192.0, 0.0, 0.0, 0.0, 0.0, 0.0, 0.0, 0.0, 0.0, 0.0, 1.6689762396600063E9, 0.0, 2022-11-20 15:30:39.660
70.0, -35322.819390633034, -7944.838159661074, -54649.03171646973, -54578.087279568594, -42400.499272406014, -45051.79614446117, -42657.1196504974, -24945.865565045544, -44087.854813081605, -16189.72613689019, -47405.188966416, -51051.40668766579, -44383.25546780294, -30004.959405059744, -43340.77010640742, -52531.427446773945, 0.022, 0.9580000000000001, -0.1, 192.0, 0.0, 0.0, 0.0, 0.0, 0.0, 0.0, 0.0, 0.0, 0.0, 1.6689762396600132E9, 0.0, 2022-11-20 15:30:39.660
72.0, -35367.70169349929, -8062.184818051436, -54684.4592314314, -54597.71211120035, -42426.047316318436, -45073.365577860546, -42682.55593568754, -24967.390294956007, -44190.24815443136, -16282.709393824267, -47515.092493902746, -51153.26358714862, -44485.44764345261, -30103.82117078557, -43435.675613364656, -52626.020029308806, 0.022, 0.9580000000000001, -0.1, 192.0, 0.0, 0.0, 0.0, 0.0, 0.0, 0.0, 0.0, 0.0, 0.0, 1.6689762396600187E9, 0.0, 2022-11-20 15:30:39.660
74.0, -35292.21985247372, -7921.637048916466, -54613.42538755243, -54542.3244884401, -42360.176725408644, -45013.373495742504, -42618.04880118952, -24905.386555836983, -44078.757653088294, -16177.25386348413, -47402.90908848156, -51045.30466142949, -44371.476098474996, -29989.89432929687, -43327.60492892325, -52517.59171695611, 0.022, 0.9580000000000001, -0.1, 192.0, 0.0, 0.0, 0.0, 0.0, 0.0, 0.0, 0.0, 0.0, 0.0, 1.668976239660024E9, 0.0, 2022-11-20 15:30:39.660
76.0, -35363.87954519744, -8050.718373145864, -54672.47869640335, -54595.11930884353, -42428.17073204169, -45072.29269412669, -42683.62881942139, -24966.496225177794, -44160.09565116116, -16246.20899512875, -47478.2568190404, -51122.57464201148, -44448.88018952372, -30073.445150070806, -43401.186871670114, -52594.906401027016, 0.026000000000000002, 0.964, -0.10200000000000001, 192.0, 0.0, 104.0, 15.0, 16.0, 126.0, 104.0, 0.0, 0.0, 0.0, 1.6689762396600294E9, 0.0, 2022-11-20 15:30:39.660
78.0, -35294.41032343034, -7942.155950326437, -54605.46816652634, -54533.38379065798, -42365.85406850029, -45008.545518940155, -42620.7086587797, -24904.626596525504, -44098.20367076441, -16191.424869468794, -47408.29585889529, -51053.7983243225, -44381.467328246516, -30004.31120447054, -43340.300719773855, -52528.9464031394, 0.026000000000000002, 0.964, -0.10200000000000001, 192.0, 0.0, 0.0, 0.0, 0.0, 0.0, 0.0, 0.0, 0.0, 0.0, 1.668976239660035E9, 0.0, 2022-11-20 15:30:39.660
80.0, -35389.09231294302, -8058.005041838293, -54704.44169097444, -54612.8889456855, -42452.44472652015, -45091.51519435825, -42707.768703433125, -24987.95389985489, -44178.04410195877, -16259.97766971322, -47501.92731641857, -51131.80591247153, -44467.07450951034, -30084.688077531824, -43415.15671195468, -52602.46129065291, 0.026000000000000002, 0.964, -0.10200000000000001, 192.0, 0.0, 0.0, 0.0, 0.0, 0.0, 0.0, 0.0, 0.0, 0.0, 1.6689762396600404E9, 0.0, 2022-11-20 15:30:39.660
82.0, -35278.67469533381, -7939.04905784715, -54607.23395433831, -54510.3167903801, -42346.38569907972, -44986.6184576295, -42602.693152748725, -24884.73354396028, -44100.148272532024, -16199.851477128444, -47428.70300158298, -51061.28615871503, -44389.06692136132, -30004.914701570837, -43345.888655887684, -52530.019286873256, 0.026000000000000002, 0.964, -0.10200000000000001, 192.0, 0.0, 0.0, 0.0, 0.0, 0.0, 0.0, 0.0, 0.0, 0.0, 1.6689762396600456E9, 0.0, 2022-11-20 15:30:39.660
84.0, -35386.38775186393, -8031.674686869942, -54710.96840035539, -54617.40399806548, -42445.64979620574, -45090.66582806895, -42701.264345796626, -24984.22115853085, -44145.36585156511, -16237.827090958011, -47485.54348773283, -51110.4152930278, -44439.067773707844, -30058.51418477466, -43390.502737820476, -52578.343758385636, 0.026000000000000002, 0.964, -0.10200000000000001, 192.0, 0.0, 0.0, 0.0, 0.0, 0.0, 0.0, 0.0, 0.0, 0.0, 1.6689762396600509E9, 0.0, 2022-11-20 15:30:39.660
86.0, -35281.98275351319, -7953.421229531912, -54613.35833231906, -54524.10781670902, -42353.471202072054, -44997.48140543478, -42607.49877780661, -24889.94150041837, -44118.38729600755, -16209.462727244227, -47438.09073425421, -51071.61266465338, -44390.09510160627, -30017.47638195472, -43359.746737449976, -52546.939557425925, 0.028, 0.9580000000000001, -0.098, 192.0, 0.0, 112.0, 14.5, 120.0, 126.0, 120.0, 0.0, 0.0, 0.0, 1.6689762396600564E9, 0.0, 2022-11-20 15:30:39.660
88.0, -35370.786234234125, -8002.3491981445795, -54710.58842069965, -54622.9919341793, -42452.534133497975, -45096.65609558298, -42703.07483709751, -24987.104533565587, -44146.52814227679, -16237.760035724645, -47472.713586415484, -51102.323961534974, -44433.32337538283, -30058.827109197035, -43398.21408965756, -52583.97639798837, 0.028, 0.9580000000000001, -0.098, 192.0, 0.0, 0.0, 0.0, 0.0, 0.0, 0.0, 0.0, 0.0, 0.0, 1.668976239660062E9, 0.0, 2022-11-20 15:30:39.660
90.0, -35276.908907521836, -7963.323052325613, -54615.92878293143, -54524.957182998325, -42356.66750152916, -44998.15195776844, -42607.61053652889, -24890.29912832965, -44126.32216528919, -16213.329579034995, -47443.9468913015, -51074.4066327103, -44408.736456481995, -30031.200353050277, -43378.23163011451, -52561.57995004415, 0.028, 0.9580000000000001, -0.098, 192.0, 0.0, 0.0, 0.0, 0.0, 0.0, 0.0, 0.0, 0.0, 0.0, 1.668976239660067E9, 0.0, 2022-11-20 15:30:39.660
92.0, -35385.91836523037, -8004.316151656646, -54727.79926393024, -54647.33298389113, -42469.54381102846, -45116.39268593701, -42721.35856406195, -25006.125868097053, -44130.68075545797, -16218.023445370609, -47461.738879887926, -51088.26471427259, -44423.756828755955, -30047.114795102454, -43388.53578430841, -52573.33696762764, 0.028, 0.9580000000000001, -0.098, 192.0, 0.0, 0.0, 0.0, 0.0, 0.0, 0.0, 0.0, 0.0, 0.0, 1.6689762396600728E9, 0.0, 2022-11-20 15:30:39.660
94.0, -35275.38898889888, -7978.633997277499, -54604.775262448224, -54520.620944573995, -42348.57617003634, -44995.71561762281, -42606.06826616148, -24888.779209706692, -44138.74973520634, -16243.839710216489, -47464.21992352247, -51103.30743829101, -44423.39920084467, -30057.843632441003, -43399.19756641359, -52583.708177054905, 0.028, 0.9580000000000001, -0.098, 192.0, 0.0, 0.0, 0.0, 0.0, 0.0, 0.0, 0.0, 0.0, 0.0, 1.668976239660078E9, 0.0, 2022-11-20 15:30:39.660
96.0, -35363.790138219614, -7973.4707443083225, -54685.44270818743, -54621.13673938951, -42440.374784514286, -45095.11382521556, -42696.861052138935, -24985.875187620546, -44099.097740542624, -16197.258674771629, -47426.512530626365, -51066.471763428664, -44387.63640971618, -30024.65129192487, -43353.82352516932, -52541.552787012195, 0.025, 0.96, -0.099, 192.0, 0.0, 88.0, 15.0, 8.0, 126.0, 112.0, 0.0, 0.0, 0.0, 1.6689762396600833E9, 0.0, 2022-11-20 15:30:39.660
98.0, -35277.19948019976, -7995.263695152247, -54588.771413418224, -54517.31288639461, -42344.08346940082, -44992.94400131035, -42602.93902193773, -24887.862788184022, -44142.795400952746, -16245.225518372717, -47458.319062986266, -51106.10140634792, -44418.21359613104, -30053.574449250038, -43389.519261064444, -52579.84132526414, 0.025, 0.96, -0.099, 192.0, 0.0, 0.0, 0.0, 0.0, 0.0, 0.0, 0.0, 0.0, 0.0, 1.6689762396600888E9, 0.0, 2022-11-20 15:30:39.660
100.0, -35352.547210758596, -7963.725383725809, -54675.406774926996, -54620.62264926704, -42434.9656623561, -45083.289752398705, -42693.06125558153, -24980.42136197345, -44084.61381013558, -16185.009918810121, -47408.29585889529, -51054.98296677863, -44370.78319439688, -30001.539588158084, -43336.322109260815, -52527.89587115, 0.025, 0.96, -0.099, 192.0, 0.0, 0.0, 0.0, 0.0, 0.0, 0.0, 0.0, 0.0, 0.0, 1.6689762396600943E9, 0.0, 2022-11-20 15:30:39.660
102.0, -35289.98467802819, -8022.577526876632, -54608.083320627615, -54528.444055133354, -42352.46537357156, -44994.1733472554, -42612.10323716441, -24894.389497564975, -44156.51937204831, -16264.559777326558, -47476.915714373084, -51129.07899964798, -44439.17953243012, -30064.75032147769, -43410.909880508174, -52599.19793596243, 0.025, 0.96, -0.099, 192.0, 0.0, 0.0, 0.0, 0.0, 0.0, 0.0, 0.0, 0.0, 0.0, 1.6689762396601017E9, 0.0, 2022-11-20 15:30:39.660
104.0, -35366.07001615405, -7974.655386764453, -54707.32506600917, -54629.51864356025, -42448.51081949602, -45088.96709549035, -42703.20894756424, -24990.390240000517, -44069.392272161516, -16177.186808250763, -47404.29489663779, -51048.9479957757, -44361.77544138139, -29984.015820505123, -43334.355155748744, -52513.590754698605, 0.025, 0.96, -0.099, 192.0, 0.0, 0.0, 0.0, 0.0, 0.0, 0.0, 0.0, 0.0, 0.0, 1.668976239660113E9, 0.0, 2022-11-20 15:30:39.660
106.0, -35319.57838768702, -8050.047820812205, -54654.9996322393, -54553.74622985676, -42388.33992342233, -45021.53188246869, -42644.82619104698, -24925.369015380027, -44190.963410253935, -16287.962053771265, -47520.389857338654, -51160.50555235214, -44476.03755903692, -30097.026240471154, -43447.902017581706, -52625.863567097615, 0.0235, 0.961, -0.1005, 192.0, 0.0, 88.0, 15.0, 8.0, 126.0, 104.0, 0.0, 0.0, 0.0, 1.668976240140412E9, 0.0, 2022-11-20 15:30:40.140
108.0, -35313.23049226171, -7921.860566361019, -54664.074440488155, -54576.09797431207, -42404.12025500778, -45040.66497572243, -42657.14200224185, -24940.27762893172, -44075.2037257199, -16175.085744271964, -47407.24532690589, -51044.43294339573, -44363.854153615735, -29985.35692517244, -43333.81871388182, -52511.780263397726, 0.0235, 0.961, -0.1005, 192.0, 0.0, 0.0, 0.0, 0.0, 0.0, 0.0, 0.0, 0.0, 0.0, 1.6689762401405149E9, 0.0, 2022-11-20 15:30:40.140
110.0, -35306.41321020284, -8032.166425247959, -54645.969527479356, -54545.34197394156, -42376.538202349926, -45012.81470213112, -42631.6610135628, -24914.953102463856, -44146.639900999064, -16255.8873004779, -47476.982769606446, -51117.21022334221, -44436.92200624014, -30060.36937956445, -43406.90891825067, -52588.5138021128, 0.0235, 0.961, -0.1005, 192.0, 0.0, 0.0, 0.0, 0.0, 0.0, 0.0, 0.0, 0.0, 0.0, 1.6689762401405237E9, 0.0, 2022-11-20 15:30:40.140
112.0, -35329.189637802796, -7931.494168221256, -54675.69734760492, -54593.04059660919, -42411.38457195575, -45052.98078691731, -42662.595827888945, -24950.80530057017, -44075.29313269772, -16169.25193896913, -47400.02571344683, -51032.96649849016, -44358.0203483129, -29984.41815190532, -43326.55439693385, -52515.267135532755, 0.0235, 0.961, -0.1005, 192.0, 0.0, 0.0, 0.0, 0.0, 0.0, 0.0, 0.0, 0.0, 0.0, 1.6689762401405325E9, 0.0, 2022-11-20 15:30:40.140
114.0, -35340.38786177491, -8059.971995350361, -54672.72456559236, -54574.108669055546, -42402.3097637069, -45038.474504765814, -42658.483106909174, -24943.9880185113, -44191.455148631954, -16279.155466455873, -47515.20425262502, -51143.56293005502, -44466.98510253252, -30094.075810203056, -43428.83597956133, -52619.448616438945, 0.0235, 0.961, -0.1005, 192.0, 0.0, 0.0, 0.0, 0.0, 0.0, 0.0, 0.0, 0.0, 0.0, 1.6689762401405408E9, 0.0, 2022-11-20 15:30:40.140
116.0, -35320.49480920968, -7931.672982176899, -54666.44372540042, -54584.301064527164, -42400.4098654282, -45036.641661720474, -42654.996234774146, -24940.232925442808, -44087.363074703586, -16187.245093255651, -47414.93432699851, -51047.78570506402, -44364.345891993755, -29990.475474652707, -43327.69433590106, -52516.98821985581, 0.02475, 0.9615, -0.09925, 192.0, 0.0, 104.0, 15.0, 8.0, 126.0, 120.0, 0.0, 0.0, 0.0, 1.6689762401405492E9, 0.0, 2022-11-20 15:30:40.140
118.0, -35342.42187052034, -8048.505550444788, -54680.61473138508, -54582.37881450401, -42409.35056321032, -45039.4803332663, -42662.171144744294, -24942.7363208218, -44190.11404396463, -16280.31775716755, -47517.43942707055, -51149.955528969236, -44471.18723049012, -30096.310984648586, -43427.91955803866, -52615.33589545917, 0.02475, 0.9615, -0.09925, 192.0, 0.0, 0.0, 0.0, 0.0, 0.0, 0.0, 0.0, 0.0, 0.0, 1.6689762401405585E9, 0.0, 2022-11-20 15:30:40.140
120.0, -35287.41422741583, -7913.746883123742, -54632.22320463935, -54554.48383742379, -42375.264152915974, -45009.55134744065, -42626.02837396006, -24912.382651851494, -44075.24842920881, -16169.34134594695, -47397.90229772357, -51034.15114094629, -44354.6675866446, -29982.160625715333, -43316.09378052876, -52500.96201908136, 0.02475, 0.9615, -0.09925, 192.0, 0.0, 0.0, 0.0, 0.0, 0.0, 0.0, 0.0, 0.0, 0.0, 1.6689762401405764E9, 0.0, 2022-11-20 15:30:40.140
122.0, -35364.01365566417, -8062.274225029258, -54677.150210994514, -54603.52356475873, -42428.483656464065, -45067.53177255771, -42680.45487170874, -24965.490396677305, -44174.42311935701, -16273.522826853137, -47497.456967527505, -51137.75147649664, -44461.28540769642, -30096.176874181852, -43411.893357264205, -52604.5176511428, 0.02475, 0.9615, -0.09925, 192.0, 0.0, 0.0, 0.0, 0.0, 0.0, 0.0, 0.0, 0.0, 0.0, 1.6689762401405847E9, 0.0, 2022-11-20 15:30:40.140
124.0, -35303.686297379296, -7938.736133424775, -54619.59446902209, -54554.50618916824, -42376.94053375012, -45015.45220797684, -42629.69406005074, -24915.22132339732, -44092.14634801702, -16200.902009117844, -47405.63600130511, -51054.89355980082, -44371.051415330345, -30012.290777241087, -43322.93341433208, -52516.2953157777, 0.02475, 0.9615, -0.09925, 192.0, 0.0, 0.0, 0.0, 0.0, 0.0, 0.0, 0.0, 0.0, 0.0, 1.6689762401405928E9, 0.0, 2022-11-20 15:30:40.140
126.0, -35366.382940576426, -8051.478332457345, -54688.124917522066, -54595.387529777, -42426.516702951994, -45059.999234676274, -42682.08654905397, -24962.47291117584, -44186.69422706297, -16280.22835018973, -47509.281040344365, -51143.89820622185, -44469.46614616706, -30101.451885873306, -43410.17227294115, -52596.78394756126, 0.022375, 0.96075, -0.099625, 192.0, 0.0, 80.0, 15.0, 0.0, 126.0, 112.0, 0.0, 0.0, 0.0, 1.6689762401406012E9, 0.0, 2022-11-20 15:30:40.140
128.0, -35269.97986674069, -7918.597211670543, -54604.46233802585, -54511.389674113954, -42340.66365249916, -44975.24141970175, -42595.071207889465, -24878.720924701804, -44090.67113288297, -16186.48513394417, -47405.72540828293, -51038.33091715943, -44364.72587164949, -29994.83406482149, -43313.07629502729, -52494.859992845064, 0.022375, 0.96075, -0.099625, 192.0, 0.0, 0.0, 0.0, 0.0, 0.0, 0.0, 0.0, 0.0, 0.0, 1.6689762401406097E9, 0.0, 2022-11-20 15:30:40.140
