%OpenBCI Raw EEG Data
%Number of channels = 16
%Sample Rate = 125 Hz
%Board = OpenBCI_GUI$BoardCytonSerialDaisy
Sample Index, EXG Channel 0, EXG Channel 1, EXG Channel 2, EXG Channel 3, EXG Channel 4, EXG Channel 5, EXG Channel 6, EXG Channel 7, EXG Channel 8, EXG Channel 9, EXG Channel 10, EXG Channel 11, EXG Channel 12, EXG Channel 13, EXG Channel 14, EXG Channel 15, Accel Channel 0, Accel Channel 1, Accel Channel 2, Other, Other, Other, Other, Other, Other, Other, Analog Channel 0, Analog Channel 1, Analog Channel 2, Timestamp, Other, Timestamp (Formatted)
0.0, -21417.44153707523, -21417.016853930578, -29729.921189537192, -17351.748627632693, -12662.93378626511, -16247.17012014033, 26889.774428579145, -15534.238878993856, 0.0, 0.0, 0.0, 0.0, 0.0, 0.0, 0.0, 0.0, 0.0, 0.0, 0.0, 192.0, 0.0, 0.0, 0.0, 0.0, 0.0, 0.0, 0.0, 0.0, 0.0, 1.662064910789801E9, 0.0, 2022-09-01 16:41:50.789
30.0, -21341.624419882824, -21347.525280419028, -29646.549182718896, -17279.060754664035, -12577.795991634846, -16193.861209614422, 26555.906421650223, -15461.148674625001, -25514.672757944198, -2609.700275623831, -29945.906096208826, -27418.415536691613, -8958.936805598356, 6728.7691508256385, -9337.642411904622, -22016.624750688643, 0.0, 0.0, 0.0, 192.0, 0.0, 0.0, 0.0, 0.0, 0.0, 0.0, 0.0, 0.0, 0.0, 1.6620649107898066E9, 0.0, 2022-09-01 16:41:50.789
32.0, -21414.736975996137, -21416.882743463844, -29727.864829047303, -17354.85552011198, -12660.45274263057, -16252.936870209798, 26911.545027678614, -15534.328285971676, -25540.44431930117, -2691.999398708272, -29994.40938167684, -27492.019831182937, -8978.516933741204, 6581.269989165067, -9347.253662020405, -22079.07552469677, 0.0, 0.0, 0.0, 192.0, 0.0, 0.0, 0.0, 0.0, 0.0, 0.0, 0.0, 0.0, 0.0, 1.6620649107898114E9, 0.0, 2022-09-01 16:41:50.789
34.0, -21337.198774480676, -21341.84793732738, -29652.58415372183, -17279.820713975514, -12575.292596255851, -16184.451125198739, 26530.559543437907, -15455.627793744541, -25518.941941135163, -2622.0831420520717, -29953.773910257092, -27431.021920564406, -8969.084497581065, 6726.779845569115, -9347.052496320308, -22022.79383215831, 0.168, 0.852, -0.442, 192.0, 2.5, 32.0, 13.0, 80.0, 121.0, 24.0, 0.0, 0.0, 0.0, 1.662064910789816E9, 0.0, 2022-09-01 16:41:50.789
36.0, -21432.372502371374, -21434.182993672253, -29749.188393257667, -17378.771886679162, -12670.309861935362, -16274.103972208975, 26928.778222653655, -15551.047390824246, -25529.58137149589, -2712.1830239514143, -29988.150893229355, -27488.62236602573, -8976.39351801795, 6565.690823279718, -9345.7560951419, -22078.404972363114, 0.168, 0.852, -0.442, 192.0, 0.0, 0.0, 0.0, 0.0, 0.0, 0.0, 0.0, 0.0, 0.0, 1.662064910789821E9, 0.0, 2022-09-01 16:41:50.789
38.0, -21320.8820010283, -21324.860611541346, -29645.610409451772, -17262.94514691176, -12569.8164188643, -16169.207235480219, 26522.28939798944, -15438.1934330694, -25542.90301119125, -2635.002450347239, -29976.863262279425, -27449.39505450667, -8992.777346703691, 6705.61274356994, -9369.963034386998, -22048.051303392807, 0.168, 0.852, -0.442, 192.0, 0.0, 0.0, 0.0, 0.0, 0.0, 0.0, 0.0, 0.0, 0.0, 1.6620649107898252E9, 0.0, 2022-09-01 16:41:50.789
40.0, -21398.800182199502, -21400.36480431137, -29718.901779520726, -17342.137377516912, -12643.286602888895, -16245.337277094994, 26936.824850657566, -15519.889059053548, -25501.976967093586, -2665.646691995465, -29949.750596255137, -27445.19292654907, -8935.892157064935, 6611.69071336874, -9318.442263417515, -22038.194184088014, 0.168, 0.852, -0.442, 192.0, 0.0, 0.0, 0.0, 0.0, 0.0, 0.0, 0.0, 0.0, 0.0, 1.6620649107898297E9, 0.0, 2022-09-01 16:41:50.789
42.0, -21309.79553577847, -21308.208561922143, -29639.374272748744, -17242.917983879805, -12568.58707291926, -16153.806883550513, 26537.242715030043, -15432.024351599735, -25532.800022697455, -2610.639048890954, -29961.284096394076, -27427.222124007003, -8974.739488928257, 6714.687551818794, -9358.18366505905, -22037.635390476633, 0.168, 0.852, -0.442, 192.0, 0.0, 0.0, 0.0, 0.0, 0.0, 0.0, 0.0, 0.0, 0.0, 1.6620649107898345E9, 0.0, 2022-09-01 16:41:50.789
44.0, -21417.642702775323, -21422.76125225559, -29730.92701803768, -17353.469711955753, -12659.670431574636, -16270.527693096126, 26931.482783732747, -15543.55955643172, -25495.450257712637, -2647.0276888641943, -29938.48531704966, -27430.48547869748, -8930.773607584668, 6625.146463530835, -9313.256658703884, -22033.477966007944, 0.162, 0.852, -0.442, 192.0, 2.5, 8.0, 13.0, 80.0, 121.0, 24.0, 0.0, 0.0, 0.0, 1.6620649107898388E9, 0.0, 2022-09-01 16:41:50.789
46.0, -21329.01803601003, -21328.682759843203, -29647.376197263744, -17248.55062348254, -12579.025337579887, -16160.266537698095, 26557.761616440013, -15442.14969183799, -25574.038991217494, -2662.0257093937053, -30000.93609105779, -27469.511624516443, -9010.681094012392, 6680.444679313265, -9386.436270050559, -22068.97253620297, 0.162, 0.852, -0.442, 192.0, 0.0, 0.0, 0.0, 0.0, 0.0, 0.0, 0.0, 0.0, 0.0, 1.6620649107898433E9, 0.0, 2022-09-01 16:41:50.789
48.0, -21396.833228687436, -21403.941083424223, -29698.047601943923, -17329.642752366395, -12626.96982943652, -16242.990343927187, 26908.393431710414, -15521.140756743045, -25484.296737229437, -2633.5719387020995, -29925.878933176868, -27419.868400081206, -8916.893174277922, 6662.60798723793, -9291.731928793422, -22004.06307030476, 0.162, 0.852, -0.442, 192.0, 0.0, 0.0, 0.0, 0.0, 0.0, 0.0, 0.0, 0.0, 0.0, 1.662064910789848E9, 0.0, 2022-09-01 16:41:50.789
50.0, -21314.779974792003, -21315.40582363675, -29631.68527265612, -17237.397102999344, -12566.888340340656, -16145.894366013334, 26592.8762069793, -15429.364494009555, -25557.185775898193, -2641.350345772546, -29984.194634460764, -27456.56996447682, -8991.436242036372, 6683.37275783691, -9359.748287170922, -22045.391445802623, 0.162, 0.852, -0.442, 192.0, 0.0, 0.0, 0.0, 0.0, 0.0, 0.0, 0.0, 0.0, 0.0, 1.6620649107898526E9, 0.0, 2022-09-01 16:41:50.789
52.0, -21400.029528144543, -21406.869161947867, -29697.77938101046, -17331.900278556383, -12628.69091375958, -16244.622021272424, 26871.55775684807, -15512.468279894387, -25484.676716885177, -2624.2736130086914, -29914.948930138224, -27408.692527853553, -8914.769758554668, 6659.36698429191, -9280.846629243688, -21988.416849186047, 0.162, 0.852, -0.442, 192.0, 0.0, 0.0, 0.0, 0.0, 0.0, 0.0, 0.0, 0.0, 0.0, 1.6620649107898571E9, 0.0, 2022-09-01 16:41:50.789
54.0, -21326.22406795312, -21326.894620286777, -29642.503516972487, -17247.45538800423, -12578.891227113156, -16148.19659569223, 26629.130736485808, -15432.985476611315, -25579.626927331323, -2655.297834312658, -30000.667870124325, -27476.10538913076, -9006.59072477707, 6655.187208078767, -9369.650109964623, -22059.78596923184, 0.16, 0.848, -0.442, 192.0, 2.5, 0.0, 13.0, 64.0, 121.0, 24.0, 0.0, 0.0, 0.0, 1.662064910789862E9, 0.0, 2022-09-01 16:41:50.789
56.0, -21385.18796982622, -21398.934292666232, -29683.608375025797, -17329.396883177385, -12618.252649098951, -16236.575393268515, 26823.367395802426, -15505.092204224135, -25472.740885346044, -2602.815938331597, -29902.074325331967, -27392.353402656725, -8902.364540381974, 6686.770222994116, -9280.064318187753, -21976.50336939137, 0.16, 0.848, -0.442, 192.0, 0.0, 0.0, 0.0, 0.0, 0.0, 0.0, 0.0, 0.0, 0.0, 1.6620649107898664E9, 0.0, 2022-09-01 16:41:50.789
58.0, -21346.452396685174, -21348.195832752685, -29669.05738938539, -17280.826542476003, -12605.981541392988, -16176.404497194828, 26670.772036406048, -15467.027183416747, -25575.40244762927, -2686.456166083356, -30009.02742255061, -27490.85754047126, -9009.764672489724, 6628.45452171022, -9383.687005482556, -22084.439943366044, 0.16, 0.848, -0.442, 192.0, 0.0, 0.0, 0.0, 0.0, 0.0, 0.0, 0.0, 0.0, 0.0, 1.6620649107898712E9, 0.0, 2022-09-01 16:41:50.789
60.0, -21385.52324599305, -21398.28609207703, -29687.54228204993, -17328.681627354817, -12617.850317698756, -16242.677419504813, 26761.609525872413, -15512.758852572306, -25477.859434826307, -2612.5389471696553, -29914.54659873803, -27403.261053950915, -8920.24593594622, 6695.442699842775, -9311.982609269931, -22001.179695270028, 0.16, 0.848, -0.442, 192.0, 0.0, 0.0, 0.0, 0.0, 0.0, 0.0, 0.0, 0.0, 0.0, 1.6620649107898784E9, 0.0, 2022-09-01 16:41:50.789
62.0, -21368.670030673748, -21372.46982723115, -29687.139950649733, -17295.75750777215, -12622.991218923476, -16198.44331722776, 26716.906036961802, -15484.081564436146, -25576.3859243853, -2694.2122214093474, -30016.336442987496, -27497.831284741318, -9013.653876024948, 6613.612963391896, -9394.684063754567, -22100.488495884954, 0.16, 0.848, -0.442, 192.0, 0.0, 0.0, 0.0, 0.0, 0.0, 0.0, 0.0, 0.0, 0.0, 1.6620649107898843E9, 0.0, 2022-09-01 16:41:50.789
64.0, -21363.484425960116, -21383.064554102966, -29659.513194502975, -17301.345443885977, -12591.475259241493, -16221.152689594352, 26713.66503401578, -15486.719070281873, -25488.498865187034, -2597.4291679178677, -29913.853694659912, -27399.75183007143, -8921.09530223552, 6696.850859743459, -9312.094367992207, -21999.391555713602, 0.158, 0.852, -0.454, 192.0, 2.0, 120.0, 13.0, 80.0, 120.5, 104.0, 0.0, 0.0, 0.0, 1.6620649107898903E9, 0.0, 2022-09-01 16:41:50.789
66.0, -21386.283205304528, -21389.747725695102, -29694.940709464638, -17306.396938132875, -12636.64813478567, -16210.177983066797, 26773.813578345013, -15503.505230367808, -25570.4850638491, -2683.841011982085, -30003.50654167015, -27492.15394164967, -8998.521745028704, 6606.080425510458, -9368.37606053067, -22080.28251889736, 0.158, 0.852, -0.454, 192.0, 0.0, 0.0, 0.0, 0.0, 0.0, 0.0, 0.0, 0.0, 0.0, 1.662064910789895E9, 0.0, 2022-09-01 16:41:50.789
68.0, -21360.869271858846, -21372.514530720062, -29657.032150868436, -17296.89744673937, -12592.145811575152, -16211.094404589465, 26660.981972334623, -15485.735593525838, -25500.971138593097, -2598.2114789738034, -29915.463020260697, -27399.6177196047, -8930.415979673384, 6713.2346884292, -9304.628885344135, -21982.851264816676, 0.158, 0.852, -0.454, 192.0, 0.0, 0.0, 0.0, 0.0, 0.0, 0.0, 0.0, 0.0, 0.0, 1.662064910789902E9, 0.0, 2022-09-01 16:41:50.789
70.0, -21397.14615310981, -21398.46490603267, -29711.25748291701, -17325.86530755345, -12642.92897497761, -16215.721215691712, 26822.518029513125, -15516.536297385252, -25573.97193598413, -2699.554288334166, -30011.374355718417, -27497.160732407658, -9003.59559102006, 6602.057111508502, -9363.168104072583, -22080.304870641812, 0.158, 0.852, -0.454, 192.0, 0.0, 0.0, 0.0, 0.0, 0.0, 0.0, 0.0, 0.0, 0.0, 1.6620649107899144E9, 0.0, 2022-09-01 16:41:50.789
72.0, -21333.466033156637, -21348.307591474964, -29642.39175825021, -17286.19096114528, -12565.502532184426, -16188.429735711783, 26614.155067700754, -15466.311927594177, -25498.847722869843, -2582.297036921625, -29925.92363666578, -27395.348536413734, -8938.663773377391, 6740.2132439867555, -9313.27901044834, -21990.24969223138, 0.158, 0.852, -0.454, 192.0, 0.0, 0.0, 0.0, 0.0, 0.0, 0.0, 0.0, 0.0, 0.0, 1.6620649107899206E9, 0.0, 2022-09-01 16:41:50.789
74.0, -21402.04118514552, -21403.315234579473, -29721.136953966256, -17348.082941542023, -12640.917317976633, -16232.328561822005, 26867.08740795701, -15527.712169612905, -25547.753339738054, -2693.6310760535093, -29997.002184033656, -27484.06261015685, -8979.947445386344, 6595.418643405276, -9354.070944079274, -22076.99681246243, 0.161, 0.85, -0.455, 192.0, 2.5, 16.0, 13.0, 64.0, 120.5, 96.0, 0.0, 0.0, 0.0, 1.6620649107899268E9, 0.0, 2022-09-01 16:41:50.789
76.0, -21337.26582971404, -21345.491271673593, -29653.2994095444, -17292.427097848307, -12568.832942108267, -16193.72709914769, 26571.127959624286, -15473.240968375323, -25511.319996275903, -2594.1211097384826, -29940.675788006283, -27408.469010409, -8953.371221228985, 6727.584508369507, -9336.591879915224, -22006.521762194847, 0.161, 0.85, -0.455, 192.0, 0.0, 0.0, 0.0, 0.0, 0.0, 0.0, 0.0, 0.0, 0.0, 1.6620649107899332E9, 0.0, 2022-09-01 16:41:50.789
78.0, -21410.601903271905, -21415.832211474444, -29736.917285551703, -17361.67280217085, -12658.910472263155, -16245.091407905986, 26895.317661204062, -15543.000762820337, -25543.618267013822, -2678.2977793571686, -29990.56488163053, -27480.508682788455, -8972.727831927281, 6589.808355546994, -9350.56172019979, -22071.967669959984, 0.161, 0.85, -0.455, 192.0, 0.0, 0.0, 0.0, 0.0, 0.0, 0.0, 0.0, 0.0, 0.0, 1.6620649107899396E9, 0.0, 2022-09-01 16:41:50.789
80.0, -21324.480631885606, -21338.31636170344, -29652.315932788366, -17283.307586110543, -12575.560817189315, -16183.937035076266, 26535.991017340544, -15467.228349116845, -25524.507525504534, -2605.095816266038, -29950.39879684434, -27422.595312904756, -8962.624843433481, 6720.677819332817, -9350.360554499694, -22018.45759373398, 0.161, 0.85, -0.455, 192.0, 0.0, 0.0, 0.0, 0.0, 0.0, 0.0, 0.0, 0.0, 0.0, 1.6620649107899456E9, 0.0, 2022-09-01 16:41:50.789
82.0, -21386.216150071163, -21394.821571686458, -29711.481000361564, -17344.32784847353, -12638.838605742289, -16232.127396121909, 26920.9551120943, -15528.628591135574, -25518.38314752378, -2683.9527707043617, -29967.74375054166, -27466.762359948443, -8952.320689239585, 6596.1115474833905, -9338.312964238283, -22060.389466332133, 0.161, 0.85, -0.455, 192.0, 0.0, 0.0, 0.0, 0.0, 0.0, 0.0, 0.0, 0.0, 0.0, 1.6620649107899528E9, 0.0, 2022-09-01 16:41:50.789
84.0, -21308.49913460006, -21321.306684172952, -29633.71928140155, -17267.862530691928, -12561.747439115936, -16164.043982511042, 26523.83166835686, -15452.051514631692, -25509.397746252747, -2590.5671823700886, -29935.49018329265, -27409.832466820775, -8949.482017693761, 6745.0859242780125, -9339.966993327975, -22011.01446283036, 0.1605, 0.846, -0.4555, 192.0, 2.5, 0.0, 13.0, 40.0, 120.5, 96.0, 0.0, 0.0, 0.0, 1.6620649107899587E9, 0.0, 2022-09-01 16:41:50.789
86.0, -21412.255932361597, -21426.315179623984, -29731.10583199332, -17368.24421504071, -12656.608242584258, -16258.904785979366, 26931.706301177303, -15546.97937333338, -25509.151877063738, -2665.780802462197, -29958.043093448057, -27459.408636022647, -8944.899910080423, 6613.523556414075, -9324.857214076188, -22048.02895164835, 0.1605, 0.846, -0.4555, 192.0, 0.0, 0.0, 0.0, 0.0, 0.0, 0.0, 0.0, 0.0, 0.0, 1.662064910789965E9, 0.0, 2022-09-01 16:41:50.789
88.0, -21322.401919651264, -21330.89558254428, -29648.15850831968, -17272.13171388289, -12575.270244511396, -16165.049811011531, 26523.563447423396, -15454.264337332766, -25539.036159400483, -2621.479644951778, -29966.916735996812, -27442.5777724478, -8977.756974429723, 6711.938287250792, -9356.060249335796, -22031.22043981796, 0.1605, 0.846, -0.4555, 192.0, 0.0, 0.0, 0.0, 0.0, 0.0, 0.0, 0.0, 0.0, 0.0, 1.6620649107899697E9, 0.0, 2022-09-01 16:41:50.789
90.0, -21420.414319087784, -21433.601848316415, -29738.213686730112, -17378.72718319025, -12653.948384994077, -16264.827998260022, 26924.978426096255, -15551.226204779889, -25520.171287080204, -2676.6884537563865, -29966.536756341073, -27462.71669420203, -8948.185616515353, 6600.559544629997, -9324.544289653813, -22048.766559215375, 0.1605, 0.846, -0.4555, 192.0, 0.0, 0.0, 0.0, 0.0, 0.0, 0.0, 0.0, 0.0, 0.0, 1.662064910789974E9, 0.0, 2022-09-01 16:41:50.789
92.0, -21309.147335189264, -21317.909219015746, -29643.285828028424, -17267.21433010272, -12558.595843147737, -16151.750523060624, 26537.063901074398, -15441.09915984859, -25545.29464784797, -2630.554453200633, -29975.902137267847, -27449.95384811805, -8981.087384353565, 6698.616647555429, -9360.172970315572, -22042.820995190265, 0.1605, 0.846, -0.4555, 192.0, 0.0, 0.0, 0.0, 0.0, 0.0, 0.0, 0.0, 0.0, 0.0, 1.66206491078998E9, 0.0, 2022-09-01 16:41:50.789
94.0, -21409.305502093495, -21426.71751102418, -29734.950332039636, -17379.73301169074, -12648.382800624706, -16257.02723944512, 26906.94056832082, -15550.376838490587, -25490.53287393247, -2651.699203455353, -29935.043148403543, -27437.19100203407, -8922.257592947197, 6633.237795023656, -9310.350931924693, -22025.990131615417, 0.15625, 0.844, -0.45475, 192.0, 2.0, 96.0, 13.0, 40.0, 120.5, 104.0, 0.0, 0.0, 0.0, 1.6620649107899847E9, 0.0, 2022-09-01 16:41:50.789
96.0, -21322.245457440076, -21332.773129078523, -29658.19444158011, -17276.244434862667, -12574.599692177737, -16154.924470773278, 26560.041494374454, -15454.77842745524, -25550.59201128388, -2653.979081389795, -29989.849625807958, -27469.310458816348, -8995.794832205156, 6691.03940618508, -9386.19040086155, -22060.12124539867, 0.15625, 0.844, -0.45475, 192.0, 0.0, 0.0, 0.0, 0.0, 0.0, 0.0, 0.0, 0.0, 0.0, 1.6620649107899904E9, 0.0, 2022-09-01 16:41:50.789
98.0, -21398.353147310394, -21412.211228872686, -29716.331328908367, -17363.43858998282, -12630.859032971744, -16247.326582351518, 26882.554815120082, -15535.579983661173, -25480.85456858332, -2636.1200375700046, -29931.086889634957, -27429.65846415263, -8917.76489231168, 6639.675097426784, -9312.56375462577, -22010.07568956324, 0.15625, 0.844, -0.45475, 192.0, 0.0, 0.0, 0.0, 0.0, 0.0, 0.0, 0.0, 0.0, 0.0, 1.6620649107899964E9, 0.0, 2022-09-01 16:41:50.789
100.0, -21334.538916890495, -21339.88098381531, -29666.73280796204, -17287.442658834774, -12591.341148774762, -16165.161569733807, 26597.435962848183, -15465.529616538242, -25557.610459042844, -2654.1355436009817, -29994.588195632485, -27471.299764072868, -8991.235076336274, 6663.233836082678, -9380.535409514358, -22055.583841274245, 0.15625, 0.844, -0.45475, 192.0, 0.0, 0.0, 0.0, 0.0, 0.0, 0.0, 0.0, 0.0, 0.0, 1.6620649107900023E9, 0.0, 2022-09-01 16:41:50.790
102.0, -21394.061612374975, -21412.837077717435, -29700.30512813391, -17357.157749790877, -12622.343018334273, -16243.16915788283, 26842.679303011813, -15531.623724892585, -25485.682545385665, -2629.5039212112333, -29923.219075586687, -27421.745946615454, -8919.061293490087, 6643.944280617748, -9306.662894089568, -21997.536360923812, 0.15625, 0.844, -0.45475, 192.0, 0.0, 0.0, 0.0, 0.0, 0.0, 0.0, 0.0, 0.0, 0.0, 1.662064910790008E9, 0.0, 2022-09-01 16:41:50.790
104.0, -21367.552443450983, -21371.888681875313, -29687.676392516663, -17316.030539993113, -12612.731768218491, -16189.167343278808, 26641.021864536033, -15493.938683740937, -25575.983592985107, -2695.620381310032, -30010.770858618125, -27495.77492425143, -9014.436187080883, 6632.947222345737, -9382.90469442662, -22071.45357983751, 0.155125, 0.844, -0.455375, 192.0, 2.0, 104.0, 13.0, 48.0, 120.5, 96.0, 0.0, 0.0, 0.0, 1.6620649107900271E9, 0.0, 2022-09-01 16:41:50.790
106.0, -21386.082039604433, -21399.917769422267, -29687.16230239419, -17349.96048807627, -12598.136079089176, -16233.580259511504, 26796.657061178335, -15519.129099742067, -25494.511484445513, -2630.7332671562754, -29925.58836049895, -27422.215333249016, -8925.319781937575, 6660.573978492496, -9299.778556797333, -21994.49652367789, 0.155125, 0.844, -0.455375, 192.0, 0.0, 0.0, 0.0, 0.0, 0.0, 0.0, 0.0, 0.0, 0.0, 1.662064910790034E9, 0.0, 2022-09-01 16:41:50.790
108.0, -21366.32309750594, -21366.121931805843, -29685.798845982416, -17309.302664912066, -12594.269227298408, -16177.410325695317, 26694.509589017583, -15485.981462714848, -25569.456883604158, -2685.539744560688, -30007.015765549633, -27494.16559865065, -9002.142727630464, 6623.69360014124, -9365.962072129498, -22066.469140823978, 0.155125, 0.844, -0.455375, 192.0, 0.0, 0.0, 0.0, 0.0, 0.0, 0.0, 0.0, 0.0, 0.0, 1.66206491079004E9, 0.0, 2022-09-01 16:41:50.790
110.0, -21365.071399816443, -21376.023754599544, -29672.030171397946, -17323.94305753029, -12578.041860823854, -16209.619189455414, 26746.544450109537, -15498.498439609819, -25472.115036501295, -2600.3125429526026, -29907.371688767875, -27399.952995771528, -8912.556935853594, 6694.503926575652, -9286.166344424051, -21967.808540798254, 0.155125, 0.844, -0.455375, 192.0, 0.0, 0.0, 0.0, 0.0, 0.0, 0.0, 0.0, 0.0, 0.0, 1.662064910790046E9, 0.0, 2022-09-01 16:41:50.790
112.0, -21385.120914592855, -21385.500894248595, -29707.12241019278, -17325.753548831173, -12619.660808999635, -16195.984625337676, 26746.365636153896, -15508.824945548171, -25568.294592892482, -2677.2025438788587, -30007.306338227554, -27497.25013938548, -9000.891029940967, 6611.4895476686415, -9369.136019842152, -22065.820940234775, 0.155125, 0.844, -0.455375, 192.0, 0.0, 0.0, 0.0, 0.0, 0.0, 0.0, 0.0, 0.0, 0.0, 1.6620649107900522E9, 0.0, 2022-09-01 16:41:50.790
114.0, -21372.00044059759, -21386.886702404823, -29672.54426152042, -17322.0878627405, -12585.77556440539, -16207.763994665624, 26692.34146980542, -15501.091241966635, -25485.011993052005, -2602.7935865871414, -29909.629214957862, -27400.467085894, -8919.687142334837, 6708.0490837155685, -9305.321789422249, -21970.088418732696, 0.1545625, 0.847, -0.4586875, 192.0, 2.0, 104.0, 13.0, 72.0, 120.5, 72.0, 0.0, 0.0, 0.0, 1.6620649107900584E9, 0.0, 2022-09-01 16:41:50.790
116.0, -21415.09460390742, -21415.675749263257, -29726.188448213157, -17343.076150784036, -12651.60145182627, -16217.777576181601, 26800.21098854673, -15533.657733638018, -25581.035087232005, -2728.7233148483415, -30018.66102441085, -27512.985767482016, -9016.716065015324, 6581.0241199760585, -9390.973674174986, -22078.5614345743, 0.1545625, 0.847, -0.4586875, 192.0, 0.0, 0.0, 0.0, 0.0, 0.0, 0.0, 0.0, 0.0, 0.0, 1.6620649107900643E9, 0.0, 2022-09-01 16:41:50.790
118.0, -21368.13358880682, -21383.109257591877, -29658.261496813477, -17307.96156024475, -12581.193456792053, -16198.465668972216, 26642.117100014344, -15493.223427918367, -25500.81467638191, -2604.157042998915, -29920.738031952147, -27407.37377493069, -8939.893119322434, 6720.163729210345, -9323.180833242039, -21971.988317011397, 0.1545625, 0.847, -0.4586875, 192.0, 0.0, 0.0, 0.0, 0.0, 0.0, 0.0, 0.0, 0.0, 0.0, 1.662064910790069E9, 0.0, 2022-09-01 16:41:50.790
120.0, -21404.85750494689, -21414.58051378495, -29705.893064247735, -17343.031447295125, -12635.59760279627, -16215.765919180623, 26851.41883509384, -15528.986219046858, -25564.561851568444, -2716.96629726485, -30000.42200093532, -27504.849732500286, -8995.504259527237, 6579.705367053195, -9357.334298769749, -22060.948259943518, 0.1545625, 0.847, -0.4586875, 192.0, 0.0, 0.0, 0.0, 0.0, 0.0, 0.0, 0.0, 0.0, 0.0, 1.6620649107900736E9, 0.0, 2022-09-01 16:41:50.790
122.0, -21326.93932377569, -21344.50779491756, -29616.262568981954, -17279.463086064232, -12551.018601777389, -16175.19750299424, 26607.382489130796, -15465.104933393592, -25478.395876693237, -2584.8004323006194, -29899.839150886437, -27392.263995678903, -8920.827081302057, 6722.555365867062, -9285.629902557124, -21954.643363314077, 0.1545625, 0.847, -0.4586875, 192.0, 0.0, 0.0, 0.0, 0.0, 0.0, 0.0, 0.0, 0.0, 0.0, 1.662064910790079E9, 0.0, 2022-09-01 16:41:50.790
124.0, -21407.159734625788, -21411.965359683676, -29702.74146827954, -17353.916746844858, -12638.749198764468, -16236.620096757424, 26893.529521647637, -15545.057123310224, -25532.598856997356, -2689.0042649512607, -29972.527023855095, -27479.97224092153, -8967.810448147113, 6576.553771084997, -9314.977743026942, -22037.92596315455, 0.15728124999999998, 0.8465, -0.45534375000000005, 192.0, 2.5, 0.0, 13.0, 56.0, 120.5, 112.0, 0.0, 0.0, 0.0, 1.6620649107900848E9, 0.0, 2022-09-01 16:41:50.790
126.0, -21344.328980961916, -21351.772111865535, -29636.356787247278, -17293.857609493447, -12563.24500599444, -16187.960349078221, 26563.30484906493, -15487.367270871076, -25502.6698711717, -2603.3747319429795, -29920.715680207693, -27409.631301120677, -8942.307107723607, 6709.747816294172, -9299.644446330602, -21973.44118040099, 0.15728124999999998, 0.8465, -0.45534375000000005, 192.0, 0.0, 0.0, 0.0, 0.0, 0.0, 0.0, 0.0, 0.0, 0.0, 1.66206491079009E9, 0.0, 2022-09-01 16:41:50.790
128.0, -21418.87204872037, -21422.33656911094, -29723.416831900697, -17370.032354597137, -12652.27200415993, -16244.532614294603, 26911.65678640089, -15561.93269037398, -25533.157650608737, -2709.4561111278667, -29977.55616635754, -27485.649584013176, -8971.587892960059, 6567.233093647134, -9327.338257710726, -22042.30690506779, 0.15728124999999998, 0.8465, -0.45534375000000005, 192.0, 0.0, 0.0, 0.0, 0.0, 0.0, 0.0, 0.0, 0.0, 0.0, 1.6620649107900946E9, 0.0, 2022-09-01 16:41:50.790
130.0, -21325.12883247481, -21329.398015665774, -29629.271284254944, -17273.919853439314, -12553.589052389749, -16161.384124920862, 26541.02015984299, -15469.284709606733, -25513.242246299058, -2605.788720344153, -29934.730223981172, -27414.638091878667, -8961.261387021708, 6723.628249600917, -9328.388789700126, -21978.40326767007, 0.15728124999999998, 0.8465, -0.45534375000000005, 192.0, 0.0, 0.0, 0.0, 0.0, 0.0, 0.0, 0.0, 0.0, 0.0, 1.6620649107900991E9, 0.0, 2022-09-01 16:41:50.790
132.0, -21428.550354069514, -21429.91381048129, -29741.58880014286, -17389.836000184536, -12673.372050925738, -16267.197283172285, 26934.43321400085, -15582.920978417515, -25522.18294408118, -2688.0878434285933, -29963.02753246159, -27467.567022748834, -8967.452820235827, 6575.123259439857, -9330.892185079121, -22028.69469269451, 0.15728124999999998, 0.8465, -0.45534375000000005, 192.0, 0.0, 0.0, 0.0, 0.0, 0.0, 0.0, 0.0, 0.0, 0.0, 1.6620649107901046E9, 0.0, 2022-09-01 16:41:50.790
134.0, -21288.941358201668, -21289.947186702157, -29615.48025792602, -17254.675001463296, -12547.419970920084, -16148.57657534797, 26539.34377900884, -15455.717200722362, -25529.6260749848, -2610.907269824418, -29943.11212815191, -27423.89171408316, -8985.289512311163, 6703.064644702035, -9351.791066144833, -21999.413907458056, 0.16064062499999998, 0.8472500000000001, -0.45167187500000006, 192.0, 2.5, 16.0, 13.0, 64.0, 121.0, 0.0, 0.0, 0.0, 0.0, 1.6620649107901092E9, 0.0, 2022-09-01 16:41:50.790
136.0, -21387.8478274164, -21388.876007661343, -29705.244863658532, -17355.928403845835, -12633.965925451032, -16240.285782848096, 26951.37583629797, -15553.997821092347, -25476.607737136812, -2635.717706169809, -29910.813857413992, -27414.883961067673, -8925.498595893216, 6615.646972137329, -9285.451088601481, -21989.377974197625, 0.16064062499999998, 0.8472500000000001, -0.45167187500000006, 192.0, 0.0, 0.0, 0.0, 0.0, 0.0, 0.0, 0.0, 0.0, 0.0, 1.6620649107901137E9, 0.0, 2022-09-01 16:41:50.790
138.0, -21310.287274156486, -21309.0802799559, -29636.557952947376, -17273.249301105654, -12562.44034319405, -16159.014840008598, 26546.317523278896, -15475.520846309764, -25523.211124326128, -2595.775138828175, -29943.24623861864, -27421.455373937533, -8979.209837819319, 6704.673970302817, -9335.161368270084, -22001.06793654775, 0.16064062499999998, 0.8472500000000001, -0.45167187500000006, 192.0, 0.0, 0.0, 0.0, 0.0, 0.0, 0.0, 0.0, 0.0, 0.0, 1.6620649107901192E9, 0.0, 2022-09-01 16:41:50.790
140.0, -21403.47169679066, -21404.27635959105, -29711.078668961367, -17364.31030801658, -12639.017419697931, -16249.606460285959, 26943.686836205346, -15565.911300887026, -25499.33946124786, -2650.8498371660517, -29932.45034604673, -27434.642903166165, -8945.235186247253, 6596.983265517148, -9296.202277684484, -22003.3925179711, 0.16064062499999998, 0.8472500000000001, -0.45167187500000006, 192.0, 0.0, 0.0, 0.0, 0.0, 0.0, 0.0, 0.0, 0.0, 0.0, 1.6620649107901251E9, 0.0, 2022-09-01 16:41:50.790
142.0, -21317.328073659908, -21310.1308119453, -29625.0915080418, -17265.292080079565, -12561.680383882569, -16153.270441683584, 26566.389389799762, -15474.000927686802, -25536.845688443864, -2620.876147851485, -29956.9702097142, -27437.079243311793, -8994.16315485992, 6694.481574831197, -9329.238155989427, -22002.900779593085, 0.16064062499999998, 0.8472500000000001, -0.45167187500000006, 192.0, 0.0, 0.0, 0.0, 0.0, 0.0, 0.0, 0.0, 0.0, 0.0, 1.662064910790131E9, 0.0, 2022-09-01 16:41:50.790
144.0, -21395.22390308665, -21398.978996155143, -29690.44800882912, -17356.017810823658, -12627.68508525909, -16248.466521318738, 26916.820039370068, -15563.31849853021, -25474.551376646923, -2633.4378282353673, -29907.63990970134, -27415.889789568162, -8926.86205230499, 6618.9997338056255, -9266.07212615873, -21970.133122221607, 0.16064062499999998, 0.8472500000000001, -0.45167187500000006, 192.0, 0.0, 0.0, 0.0, 0.0, 0.0, 0.0, 0.0, 0.0, 0.0, 1.6620649107901385E9, 0.0, 2022-09-01 16:41:50.790
146.0, -21326.201716208663, -21319.40678589425, -29635.10508955778, -17273.249301105654, -12566.933043829566, -16154.946822517733, 26594.73140176909, -15482.896921980015, -25539.639656500778, -2643.2725957957027, -29962.11111093892, -27448.590391706275, -8995.370149060505, 6669.201751852245, -9334.84844384771, -22007.147611039592, 0.16, 0.848, -0.444, 192.0, 2.5, 0.0, 13.0, 64.0, 121.0, 16.0, 0.0, 0.0, 0.0, 1.6620649107901487E9, 0.0, 2022-09-01 16:41:50.790
148.0, -21397.03439438753, -21397.816705443467, -29683.87659595926, -17351.703924143785, -12608.68610247208, -16241.448073559772, 26881.996021508698, -15553.617841436606, -25471.399780678723, -2613.23185124777, -29905.382383511354, -27406.81498131931, -8917.228450444753, 6637.439922981253, -9263.50167554637, -21965.081627974705, 0.16, 0.848, -0.444, 192.0, 0.0, 0.0, 0.0, 0.0, 0.0, 0.0, 0.0, 0.0, 0.0, 1.6620649107901564E9, 0.0, 2022-09-01 16:41:50.790
0.0, -10720.74600705457, -10714.040483717978, -14863.306565678904, -8692.280494246543, -6320.671000560642, -8129.597679328643, 13502.219438817436, -7794.723843899232, -12740.248470336017, -1283.615980579374, -14946.589165519377, -13685.727260795506, -4463.419850280267, 3367.357357425375, -4639.6857070548185, -10969.297405397583, 0.16, 0.846, -0.445, 192.0, 2.5, 0.0, 13.0, 48.0, 121.0, 8.0, 0.0, 0.0, 0.0, 1.6620649113907244E9, 0.0, 2022-09-01 16:41:51.390
2.0, -21372.358068508875, -21350.296896731485, -29676.567575522375, -17308.676816067316, -12591.63172145268, -16183.691165887258, 26676.650545197794, -15518.123271241579, -25585.4383808897, -2676.509639800744, -29978.629050091393, -27473.44553154058, -9020.582916806092, 6641.1279608163795, -9351.500493466914, -22033.433262519036, 0.16, 0.846, -0.445, 192.0, 0.0, 0.0, 0.0, 0.0, 0.0, 0.0, 0.0, 0.0, 0.0, 1.6620649113907845E9, 0.0, 2022-09-01 16:41:51.390
4.0, -21389.188932083718, -21380.717620935156, -29678.892156945727, -17349.267583998157, -12587.519000472905, -16233.289686833585, 26811.185695074284, -15550.26507976831, -25481.413362194704, -2576.396176385424, -29874.0005342961, -27378.137693183147, -8918.390741156429, 6684.423289826309, -9258.628995255112, -21945.836775998687, 0.16, 0.846, -0.445, 192.0, 0.0, 0.0, 0.0, 0.0, 0.0, 0.0, 0.0, 0.0, 0.0, 1.6620649113907893E9, 0.0, 2022-09-01 16:41:51.390
6.0, -21403.18112411274, -21377.70013543369, -29706.02717471447, -17344.14903451789, -12621.40424506715, -16211.653198200847, 26725.91378997729, -15547.046428566746, -25583.136151210805, -2679.8847532134955, -29982.898233282358, -27480.77690372192, -9020.78408250619, 6604.225230720667, -9349.578243443757, -22051.51582378338, 0.16, 0.846, -0.445, 192.0, 0.0, 0.0, 0.0, 0.0, 0.0, 0.0, 0.0, 0.0, 0.0, 1.6620649113907993E9, 0.0, 2022-09-01 16:41:51.390
8.0, -21394.486295519626, -21376.6943069332, -29675.338229577334, -17338.739912359706, -12589.06127084032, -16223.678436717802, 26762.078912505975, -15537.256364495322, -25506.71553691811, -2595.126938238971, -29899.0568398305, -27395.95203351403, -8947.62682290397, 6679.885885701881, -9285.339329879205, -21965.305145419257, 0.154, 0.85, -0.45, 192.0, 2.0, 104.0, 13.0, 72.0, 120.5, 120.0, 0.0, 0.0, 0.0, 1.662064911390804E9, 0.0, 2022-09-01 16:41:51.390
10.0, -21403.38228981284, -21371.732219664125, -29692.34790710782, -17320.47853713972, -12622.007742167443, -16200.723195162202, 26798.44520073476, -15537.569288917697, -25579.001078486574, -2668.2394943522804, -29975.678619823295, -27469.91395591664, -9018.392445849473, 6603.219402220178, -9338.268260749372, -22035.824899175754, 0.154, 0.85, -0.45, 192.0, 0.0, 0.0, 0.0, 0.0, 0.0, 0.0, 0.0, 0.0, 0.0, 1.6620649113908083E9, 0.0, 2022-09-01 16:41:51.390
12.0, -21383.176312825242, -21360.154016036275, -29651.891249643715, -17303.066528209034, -12578.06421256831, -16200.902009117844, 26723.34333936493, -15521.811309076706, -25499.317109503405, -2556.0560889310946, -29875.363990707876, -27362.245602875424, -8939.066104777588, 6718.442644887286, -9261.601777267668, -21927.083662400684, 0.154, 0.85, -0.45, 192.0, 0.0, 0.0, 0.0, 0.0, 0.0, 0.0, 0.0, 0.0, 0.0, 1.6620649113908129E9, 0.0, 2022-09-01 16:41:51.390
14.0, -21412.010063172587, -21379.264757545563, -29701.132142678758, -17322.020807507135, -12622.812404967834, -16200.477325973194, 26854.32456187303, -15545.146530288046, -25587.96412801315, -2670.519372286722, -29972.683486066282, -27465.95769714805, -9015.576126048103, 6586.880277023349, -9322.17500474155, -22022.41385250257, 0.154, 0.85, -0.45, 192.0, 0.0, 0.0, 0.0, 0.0, 0.0, 0.0, 0.0, 0.0, 0.0, 1.6620649113908174E9, 0.0, 2022-09-01 16:41:51.390
16.0, -21362.255080015075, -21340.618591382336, -29642.90584837268, -17284.648690777864, -12553.47729366747, -16174.839875082956, 26681.255004555584, -15497.179686686957, -25507.654310185233, -2557.93363546534, -29883.231804756142, -27367.878242478164, -8949.034982804655, 6734.312383450554, -9260.171265622528, -21924.826136210697, 0.154, 0.85, -0.45, 192.0, 0.0, 0.0, 0.0, 0.0, 0.0, 0.0, 0.0, 0.0, 0.0, 1.662064911390822E9, 0.0, 2022-09-01 16:41:51.390
18.0, -21421.91188596629, -21390.10535360639, -29711.749221295027, -17340.61745889395, -12622.11950088972, -16211.16145982283, 26906.001795053697, -15551.919108858003, -25564.204223657158, -2662.0480611381604, -29962.424035361295, -27457.978124377507, -9000.39929156295, 6596.06684399448, -9299.59974284169, -22012.333215753224, 0.154, 0.854, -0.444, 192.0, 2.0, 104.0, 13.0, 88.0, 121.0, 16.0, 0.0, 0.0, 0.0, 1.6620649113908265E9, 0.0, 2022-09-01 16:41:51.390
20.0, -21369.720562663148, -21347.12294901883, -29648.33732227532, -17303.692377053783, -12558.685250125558, -16181.500694930637, 26625.286236439497, -15510.277808937766, -25521.490040003067, -2558.5371325656333, -29900.040316586535, -27386.09491420924, -8960.367317243496, 6718.3755896539205, -9280.444297843493, -21945.523851576312, 0.154, 0.854, -0.444, 192.0, 0.0, 0.0, 0.0, 0.0, 0.0, 0.0, 0.0, 0.0, 0.0, 1.6620649113908308E9, 0.0, 2022-09-01 16:41:51.390
22.0, -21443.213098432196, -21417.262723119584, -29729.94354128165, -17378.72718319025, -12644.918280234133, -16240.308134592551, 26925.447812729813, -15588.732431975894, -25559.532709066, -2685.29387537168, -29960.211212660222, -27470.495101272478, -8995.124279871497, 6589.048396235514, -9314.776577326844, -22026.750090926897, 0.154, 0.854, -0.444, 192.0, 0.0, 0.0, 0.0, 0.0, 0.0, 0.0, 0.0, 0.0, 0.0, 1.6620649113908353E9, 0.0, 2022-09-01 16:41:51.390
24.0, -21356.488329945605, -21337.623457625326, -29641.430633238633, -17305.90519975486, -12550.795084332834, -16172.448238426237, 26592.429172090197, -15505.315721668689, -25525.893333660762, -2594.746958583231, -29907.885778890348, -27401.025879505385, -8972.727831927281, 6724.924650779325, -9297.610437585168, -21965.14868320807, 0.154, 0.854, -0.444, 192.0, 0.0, 0.0, 0.0, 0.0, 0.0, 0.0, 0.0, 0.0, 0.0, 1.66206491139084E9, 0.0, 2022-09-01 16:41:51.390
26.0, -21458.47933989517, -21440.150909441818, -29747.087329278867, -17410.73488125025, -12649.79096052539, -16265.431495360315, 26960.160071868908, -15602.545810049274, -25558.124549165317, -2695.910953987951, -29964.748616784647, -27483.839092712296, -8998.857021195534, 6564.908512223782, -9308.495737134903, -22037.36716954317, 0.154, 0.854, -0.444, 192.0, 0.0, 0.0, 0.0, 0.0, 0.0, 0.0, 0.0, 0.0, 0.0, 1.6620649113908443E9, 0.0, 2022-09-01 16:41:51.390
28.0, -21352.241498499097, -21335.27652445752, -29643.643455939706, -17301.81483051954, -12551.398581433128, -16165.00510752262, 26576.06769514891, -15498.92312275447, -25540.600781512356, -2602.32419995358, -29923.040261631046, -27421.43302219308, -8990.832744936079, 6712.631191328906, -9297.722196307444, -21975.989279268895, 0.166, 0.846, -0.45, 192.0, 2.5, 24.0, 13.0, 56.0, 120.5, 120.0, 0.0, 0.0, 0.0, 1.6620649113908489E9, 0.0, 2022-09-01 16:41:51.390
30.0, -21445.82825253347, -21429.802051759012, -29729.27298894799, -17393.032299641647, -12643.018381955431, -16248.958259696754, 26978.95788895582, -15590.051184898757, -25539.90787743424, -2676.3308258451016, -29937.568895526994, -27460.973258134516, -8988.083480368075, 6584.153364199801, -9284.020576956342, -22009.561599440767, 0.166, 0.846, -0.45, 192.0, 0.0, 0.0, 0.0, 0.0, 0.0, 0.0, 0.0, 0.0, 0.0, 1.6620649113908536E9, 0.0, 2022-09-01 16:41:51.390
32.0, -21344.64190538429, -21322.580733606905, -29627.14786853169, -17272.064658649524, -12544.648354607625, -16133.66796179628, 26572.0220294025, -15476.303157365699, -25553.967124696628, -2603.508842409711, -29928.02470064458, -27417.387356446667, -9004.579067776092, 6707.199717426267, -9297.31986490725, -21967.719133820432, 0.166, 0.846, -0.45, 192.0, 0.0, 0.0, 0.0, 0.0, 0.0, 0.0, 0.0, 0.0, 0.0, 1.662064911390858E9, 0.0, 2022-09-01 16:41:51.390
34.0, -21440.374426886374, -21416.56981904147, -29719.2147039431, -17370.524092975153, -12634.97175395152, -16229.35577980945, 26981.52833956818, -15575.991937636369, -25532.084766874883, -2625.9276420983842, -29923.643758731338, -27428.362062974225, -8971.833762149068, 6618.865623338893, -9265.736849991901, -21969.44021814349, 0.166, 0.846, -0.45, 192.0, 0.0, 0.0, 0.0, 0.0, 0.0, 0.0, 0.0, 0.0, 0.0, 1.6620649113908625E9, 0.0, 2022-09-01 16:41:51.390
36.0, -21349.60399265337, -21319.809117294448, -29637.42967098113, -17265.2250248462, -12549.074000009776, -16124.19082214723, 26573.452541047638, -15479.410049844988, -25560.136206166295, -2619.2444705062476, -29940.184049628268, -27423.71290012752, -9009.183527133886, 6711.535955850596, -9315.827109316244, -21959.337229649693, 0.166, 0.846, -0.45, 192.0, 0.0, 0.0, 0.0, 0.0, 0.0, 0.0, 0.0, 0.0, 0.0, 1.6620649113908668E9, 0.0, 2022-09-01 16:41:51.390
38.0, -21430.271438392574, -21410.24427536062, -29717.337157408856, -17356.129569545934, -12626.746311991968, -16224.63956172938, 26969.05606616212, -15573.46619051292, -25508.3695660078, -2638.5340259711775, -29909.852732402414, -27415.755679101432, -8961.507256210716, 6653.242606311155, -9262.719364490435, -21941.858165485643, 0.166, 0.844, -0.446, 192.0, 2.5, 24.0, 13.0, 48.0, 121.0, 8.0, 0.0, 0.0, 0.0, 1.6620649113908727E9, 0.0, 2022-09-01 16:41:51.390
40.0, -21348.486405430605, -21318.31155041594, -29653.522926988953, -17265.157969612836, -12566.687174640558, -16138.987676976643, 26600.609910560837, -15499.459564621398, -25555.889374719787, -2620.5408716846555, -29940.40756707282, -27427.400937962644, -9026.707294786847, 6704.204583669256, -9321.79502508581, -21967.11563672014, 0.166, 0.844, -0.446, 192.0, 0.0, 0.0, 0.0, 0.0, 0.0, 0.0, 0.0, 0.0, 0.0, 1.662064911390877E9, 0.0, 2022-09-01 16:41:51.390
42.0, -21438.20630767421, -21417.530944053047, -29716.59954984183, -17355.347258489997, -12622.700646245557, -16240.308134592551, 26948.939496152343, -15588.151286620056, -25509.755374164033, -2626.4417322208565, -29895.81583688448, -27403.28340569537, -8969.48682898126, 6644.614832951407, -9264.440448813493, -21945.210927153938, 0.166, 0.844, -0.446, 192.0, 0.0, 0.0, 0.0, 0.0, 0.0, 0.0, 0.0, 0.0, 0.0, 1.6620649113908815E9, 0.0, 2022-09-01 16:41:51.390
44.0, -21383.75745818108, -21353.381437466316, -29673.281869087445, -17282.681737265793, -12578.846523624245, -16158.187825463752, 26629.957751030655, -15519.173803230979, -25597.620081617843, -2663.1432966164707, -29977.489111124174, -27460.548574989865, -9054.959899778354, 6652.057963855024, -9339.721124138967, -22004.621863916145, 0.166, 0.844, -0.446, 192.0, 0.0, 0.0, 0.0, 0.0, 0.0, 0.0, 0.0, 0.0, 0.0, 1.662064911390886E9, 0.0, 2022-09-01 16:41:51.390
46.0, -21427.633932546847, -21404.343414824416, -29700.416886856186, -17349.379342720433, -12597.823154666801, -16215.095366846965, 26916.641225414423, -15563.519664230307, -25508.79424915245, -2603.262973220703, -29899.660336930792, -27397.80722830382, -8959.9649858433, 6672.0627751425245, -9242.133407847095, -21925.608447266633, 0.166, 0.844, -0.446, 192.0, 0.0, 0.0, 0.0, 0.0, 0.0, 0.0, 0.0, 0.0, 0.0, 1.6620649113908906E9, 0.0, 2022-09-01 16:41:51.390
48.0, -21376.157865066274, -21340.17155649323, -29669.839700441327, -17302.2842171531, -12571.828075865278, -16147.347229402929, 26687.289975558517, -15507.863820536593, -25581.415066887745, -2642.602043462043, -29966.782625530082, -27451.80904290784, -9029.300097143663, 6670.8334291974825, -9302.7960422988, -21981.756029338365, 0.17400000000000002, 0.84, -0.446, 192.0, 2.5, 56.0, 13.0, 32.0, 121.0, 8.0, 0.0, 0.0, 0.0, 1.6620649113908951E9, 0.0, 2022-09-01 16:41:51.390
50.0, -21429.846755247923, -21407.226789859153, -29706.362450881297, -17383.331642548044, -12599.857163412235, -16232.7308932222, 26868.69673355779, -15570.716925944917, -25516.036214355972, -2619.445636206345, -29901.180255553754, -27405.742097585455, -8962.446029477838, 6680.511734546631, -9245.933204404499, -21942.841642241674, 0.17400000000000002, 0.84, -0.446, 192.0, 0.0, 0.0, 0.0, 0.0, 0.0, 0.0, 0.0, 0.0, 0.0, 1.6620649113908997E9, 0.0, 2022-09-01 16:41:51.390
52.0, -21399.0013478996, -21366.770132395046, -29696.125351920768, -17341.355066460976, -12594.425689509593, -16187.692128144758, 26730.56295282399, -15539.55859417422, -25599.519979896544, -2680.734119502797, -29982.674715837806, -27484.979031679515, -9045.438056640394, 6633.573071190485, -9323.449054175504, -22030.728701439944, 0.17400000000000002, 0.84, -0.446, 192.0, 0.0, 0.0, 0.0, 0.0, 0.0, 0.0, 0.0, 0.0, 0.0, 1.662064911390904E9, 0.0, 2022-09-01 16:41:51.390
54.0, -21405.192781113718, -21385.053859359487, -29678.422770312165, -17359.303517258588, -12585.194419049552, -16223.54432625107, 26815.968968387722, -15560.122199073101, -25496.836065868865, -2587.2144207017923, -29873.888775573825, -27382.965669985497, -8946.665697892393, 6695.666217287328, -9244.30152705926, -21937.454871827947, 0.17400000000000002, 0.84, -0.446, 192.0, 0.0, 0.0, 0.0, 0.0, 0.0, 0.0, 0.0, 0.0, 0.0, 1.6620649113909085E9, 0.0, 2022-09-01 16:41:51.390
56.0, -21411.29480735002, -21379.354164523385, -29692.392610596733, -17340.729217616226, -12623.505309045948, -16197.437488727272, 26777.367505713406, -15557.194120549455, -25595.36255542786, -2684.3103986156466, -29977.042076235066, -27482.3862293227, -9046.868568285534, 6606.549812144019, -9333.149711269107, -22035.243753819916, 0.17400000000000002, 0.84, -0.446, 192.0, 0.0, 0.0, 0.0, 0.0, 0.0, 0.0, 0.0, 0.0, 0.0, 1.662064911390913E9, 0.0, 2022-09-01 16:41:51.390
58.0, -21395.447420531204, -21370.860501630366, -29657.72505494655, -17327.251115709678, -12577.550122445837, -16197.39278523836, 26760.648400860835, -15536.69757088394, -25498.490094958557, -2564.773269268664, -29874.2016999962, -27372.147425669125, -8953.974718329277, 6709.881926760903, -9252.012878896341, -21924.222639110405, 0.17200000000000001, 0.844, -0.444, 192.0, 2.5, 40.0, 13.0, 64.0, 121.0, 24.0, 0.0, 0.0, 0.0, 1.6620649113909175E9, 0.0, 2022-09-01 16:41:51.390
60.0, -21401.86237118988, -21362.27743175953, -29686.804674482904, -17323.80894706356, -12606.853259426745, -16182.081840286475, 26835.370282574928, -15535.132948772069, -25587.450037890678, -2672.9557124323505, -29964.54745108455, -27462.448473268567, -9025.07561744161, 6627.269879254089, -9313.994266270909, -22020.893933879608, 0.17200000000000001, 0.844, -0.444, 192.0, 0.0, 0.0, 0.0, 0.0, 0.0, 0.0, 0.0, 0.0, 0.0, 1.662064911390922E9, 0.0, 2022-09-01 16:41:51.390
62.0, -21365.496082961094, -21340.260963471053, -29644.82809839584, -17303.066528209034, -12553.857273323212, -16177.723250117691, 26707.33949033493, -15504.846335035127, -25491.449295455135, -2555.653757530899, -29859.56130737797, -27345.481794533946, -8937.72500011027, 6741.509645165163, -9247.654288727557, -21921.272208842303, 0.17200000000000001, 0.844, -0.444, 192.0, 0.0, 0.0, 0.0, 0.0, 0.0, 0.0, 0.0, 0.0, 0.0, 1.6620649113909266E9, 0.0, 2022-09-01 16:41:51.390
64.0, -21407.38325207034, -21376.26962378855, -29706.40715437021, -17342.070322283547, -12622.8794602012, -16206.691110931768, 26875.491663872202, -15545.548861688241, -25565.411217857745, -2678.5660002906325, -29952.388102100864, -27453.328961530802, -9009.094120156065, 6608.40500693381, -9309.903897035587, -22033.5003177524, 0.17200000000000001, 0.844, -0.444, 192.0, 0.0, 0.0, 0.0, 0.0, 0.0, 0.0, 0.0, 0.0, 0.0, 1.6620649113909311E9, 0.0, 2022-09-01 16:41:51.390
66.0, -21356.890661345802, -21333.108405245355, -29643.33053151733, -17302.2842171531, -12558.953471059021, -16177.499732673137, 26644.0393500375, -15495.011567474792, -25500.52410370399, -2570.3388536380357, -29868.05497027099, -27360.16689064108, -8950.219625260786, 6745.95764231177, -9271.034213427809, -21952.96698247993, 0.17200000000000001, 0.844, -0.444, 192.0, 0.0, 0.0, 0.0, 0.0, 0.0, 0.0, 0.0, 0.0, 0.0, 1.6620649113909357E9, 0.0, 2022-09-01 16:41:51.390
68.0, -21432.953647727212, -21397.57083625446, -29729.07182324789, -17369.540616219118, -12650.528568092415, -16226.919439663821, 26900.57032115106, -15550.443893723954, -25564.5842033129, -2674.7215002443195, -29953.237468390165, -27459.498043000465, -9002.478003797294, 6601.006579519103, -9321.593859385714, -22049.146538871115, 0.17200000000000001, 0.846, -0.439, 192.0, 2.5, 48.0, 13.0, 64.0, 121.0, 56.0, 0.0, 0.0, 0.0, 1.662064911390967E9, 0.0, 2022-09-01 16:41:51.390
70.0, -21346.36298970735, -21317.864515526835, -29635.77564189144, -17277.80905697454, -12553.097314011731, -16153.158682961308, 26597.54772157046, -15457.281822834233, -25524.19460108216, -2566.092022191527, -29889.669107159272, -27375.477835592967, -8961.730773655268, 6756.418258716853, -9293.274199160838, -21967.182691953505, 0.17200000000000001, 0.846, -0.439, 192.0, 0.0, 0.0, 0.0, 0.0, 0.0, 0.0, 0.0, 0.0, 0.0, 1.662064911390973E9, 0.0, 2022-09-01 16:41:51.390
72.0, -21429.846755247923, -21396.386193798327, -29721.159305710713, -17342.807929850573, -12636.961059208043, -16217.263486059128, 26935.75196692371, -15528.963867302404, -25552.067226417927, -2652.9509011448504, -29939.446442061242, -27445.66231318263, -8986.407099533928, 6618.530347172064, -9309.635676102123, -22028.13589908313, 0.17200000000000001, 0.846, -0.439, 192.0, 0.0, 0.0, 0.0, 0.0, 0.0, 0.0, 0.0, 0.0, 0.0, 1.6620649113909776E9, 0.0, 2022-09-01 16:41:51.390
74.0, -21341.244440227085, -21310.242570667575, -29633.853391868284, -17255.971402641702, -12541.407351661606, -16141.424017122272, 26567.842253189356, -15442.373209282543, -25531.61538024132, -2574.7197955512756, -29890.898453104313, -27378.204748416516, -8963.943596356345, 6753.601938915484, -9302.728987065433, -21970.3342879217, 0.17200000000000001, 0.846, -0.439, 192.0, 0.0, 0.0, 0.0, 0.0, 0.0, 0.0, 0.0, 0.0, 0.0, 1.6620649113909822E9, 0.0, 2022-09-01 16:41:51.390
76.0, -21430.00321745911, -21393.972205397156, -29722.589817355853, -17351.033371810125, -12625.338152091284, -16224.9301344073, 26950.6605804754, -15530.327323714177, -25534.878734931797, -2663.1880001053814, -29922.8614476754, -27437.705092156542, -8964.860017879011, 6616.563393659997, -9302.192545198506, -22028.582933972233, 0.17200000000000001, 0.846, -0.439, 192.0, 0.0, 0.0, 0.0, 0.0, 0.0, 0.0, 0.0, 0.0, 0.0, 1.6620649113909867E9, 0.0, 2022-09-01 16:41:51.390
78.0, -21339.165727992742, -21306.509829343537, -29627.930179587627, -17259.301812565544, -12532.24313643493, -16132.371560617872, 26549.424415758185, -15435.131244079024, -25538.276200089003, -2582.945237510829, -29911.462058003195, -27403.14929522864, -8973.219570305297, 6734.692363106295, -9315.625943616145, -21998.341023724202, 0.168, 0.845, -0.4385, 192.0, 2.5, 16.0, 13.0, 48.0, 121.0, 40.0, 0.0, 0.0, 0.0, 1.6620649113909912E9, 0.0, 2022-09-01 16:41:51.390
80.0, -21441.1120344534, -21409.707833493692, -29725.65200634623, -17352.732104388728, -12625.673428258113, -16221.376207038906, 26961.657638747412, -15526.751044601328, -25530.00605464054, -2645.798342919152, -29925.1636773543, -27439.47087996851, -8952.96888982879, 6639.853911382426, -9290.88256250412, -22021.765651913363, 0.168, 0.845, -0.4385, 192.0, 0.0, 0.0, 0.0, 0.0, 0.0, 0.0, 0.0, 0.0, 0.0, 1.6620649113909988E9, 0.0, 2022-09-01 16:41:51.390
82.0, -21348.12877751932, -21315.003492236556, -29648.91846763116, -17243.99086761366, -12546.145921486132, -16120.927467456755, 26548.88797389126, -15428.939810864904, -25564.897127735276, -2595.3057521946134, -29939.625256016883, -27420.471897181502, -8993.045567637155, 6731.205490971267, -9336.524824681857, -22006.87939010613, 0.168, 0.845, -0.4385, 192.0, 0.0, 0.0, 0.0, 0.0, 0.0, 0.0, 0.0, 0.0, 0.0, 1.6620649113910036E9, 0.0, 2022-09-01 16:41:51.391
84.0, -21420.123746409863, -21392.474638518648, -29722.634520844764, -17328.94984828828, -12619.392588066172, -16215.92238139181, 26950.437063030848, -15514.636399106552, -25518.539609734966, -2617.6574966499206, -29913.45136325972, -27413.744022100454, -8944.944613569334, 6651.677984199284, -9293.698882305489, -22000.620901658644, 0.168, 0.845, -0.4385, 192.0, 0.0, 0.0, 0.0, 0.0, 0.0, 0.0, 0.0, 0.0, 0.0, 1.662064911391008E9, 0.0, 2022-09-01 16:41:51.391
86.0, -21328.07926274291, -21296.853875738845, -29650.997179865502, -17246.471911248198, -12549.811607576801, -16130.38225536135, 26551.793700670445, -15426.48111897482, -25547.26160136004, -2589.159022469404, -29927.82353494448, -27408.89369355365, -8986.20593383383, 6729.506758392663, -9344.191473030029, -22013.897837865097, 0.168, 0.845, -0.4385, 192.0, 0.0, 0.0, 0.0, 0.0, 0.0, 0.0, 0.0, 0.0, 0.0, 1.6620649113910124E9, 0.0, 2022-09-01 16:41:51.391
88.0, -21427.119842424374, -21405.125725880353, -29729.429451159176, -17357.96241259127, -12630.054370171354, -16239.54817528107, 26919.03286207114, -15529.388550447055, -25505.597949695344, -2610.7955111021415, -29895.16763629528, -27413.028766277883, -8938.753180355214, 6652.974385377692, -9304.762995810866, -22014.277817520837, 0.163, 0.8434999999999999, -0.44025000000000003, 192.0, 2.0, 120.0, 13.0, 40.0, 121.0, 24.0, 0.0, 0.0, 0.0, 1.662064911391017E9, 0.0, 2022-09-01 16:41:51.391
90.0, -21351.682704887713, -21314.914085258733, -29657.792110179915, -17261.76050445563, -12561.993308304944, -16139.591174076937, 26574.391314314762, -15440.473311003841, -25569.166310926237, -2610.2143657463034, -29945.034378175067, -27441.236667780482, -8998.20882060633, 6700.203621411756, -9360.128266826661, -22045.45850103599, 0.163, 0.8434999999999999, -0.44025000000000003, 192.0, 0.0, 0.0, 0.0, 0.0, 0.0, 0.0, 0.0, 0.0, 0.0, 1.6620649113910215E9, 0.0, 2022-09-01 16:41:51.391
92.0, -21431.456080848704, -21405.192781113718, -29718.54415160944, -17351.994496821702, -12618.252649098951, -16228.30524782005, 26888.522730889646, -15520.82783232067, -25518.04787135695, -2620.9432030848507, -29903.72835442166, -27413.81107733382, -8938.104979766009, 6664.485533772175, -9296.425795129036, -22007.482887206424, 0.163, 0.8434999999999999, -0.44025000000000003, 192.0, 0.0, 0.0, 0.0, 0.0, 0.0, 0.0, 0.0, 0.0, 0.0, 1.662064911391026E9, 0.0, 2022-09-01 16:41:51.391
94.0, -21364.780827138526, -21330.47089939963, -29672.521909775965, -17272.064658649524, -12569.481142697472, -16140.753464788613, 26618.55836135845, -15445.681267461929, -25592.166255970747, -2642.9820231177837, -29971.141215698866, -27460.414464523135, -9012.73745450228, 6681.137583391379, -9363.32456628377, -22054.04157090683, 0.163, 0.8434999999999999, -0.44025000000000003, 192.0, 0.0, 0.0, 0.0, 0.0, 0.0, 0.0, 0.0, 0.0, 0.0, 1.6620649113910303E9, 0.0, 2022-09-01 16:41:51.391
96.0, -21417.48624056414, -21392.072307118455, -29713.962043996104, -17337.935249559316, -12604.9757128925, -16218.895163404366, 26853.586954306003, -15510.724843826873, -25508.81660089691, -2594.456385905312, -29889.57970018145, -27398.701298082033, -8925.073912748565, 6675.907275188837, -9286.412213613059, -21986.986337540908, 0.163, 0.8434999999999999, -0.44025000000000003, 192.0, 0.0, 0.0, 0.0, 0.0, 0.0, 0.0, 0.0, 0.0, 0.0, 1.662064911391035E9, 0.0, 2022-09-01 16:41:51.391
98.0, -21378.057763344976, -21340.685646615704, -29694.203101897612, -17281.742963998673, -12603.612256480725, -16165.698011600736, 26661.965449090654, -15475.274977120755, -25585.93011926772, -2635.941223614362, -29967.855509263936, -27462.426121524113, -9012.536288802183, 6661.021013381603, -9369.985386131453, -22059.473044809467, 0.1615, 0.84775, -0.441125, 192.0, 2.5, 0.0, 13.0, 80.0, 121.0, 24.0, 0.0, 0.0, 0.0, 1.6620649113910396E9, 0.0, 2022-09-01 16:41:51.391
100.0, -21388.80895242798, -21365.339620749906, -29686.804674482904, -17304.65350206536, -12596.437346510571, -16212.100233089952, 26803.809619404034, -15497.872590765071, -25509.353042763836, -2587.616752101988, -29885.399923968307, -27387.70423981002, -8937.255613476707, 6700.13656617839, -9308.853365046187, -21982.717154349943, 0.1615, 0.84775, -0.441125, 192.0, 0.0, 0.0, 0.0, 0.0, 0.0, 0.0, 0.0, 0.0, 0.0, 1.662064911391044E9, 0.0, 2022-09-01 16:41:51.391
102.0, -21391.915844907267, -21351.995629310088, -29705.35662238081, -17293.76820251563, -12616.196288609062, -16185.456953699228, 26714.53675204954, -15493.648111063017, -25578.263470919548, -2646.155970830437, -29963.295753395054, -27453.23955455298, -9010.949314945856, 6651.2309493101775, -9373.38285128866, -22049.615925504677, 0.1615, 0.84775, -0.441125, 192.0, 0.0, 0.0, 0.0, 0.0, 0.0, 0.0, 0.0, 0.0, 0.0, 1.6620649113910499E9, 0.0, 2022-09-01 16:41:51.391
104.0, -21403.784621213035, -21375.353202265884, -29696.125351920768, -17317.505755127164, -12600.035977367876, -16219.766881438123, 26746.455043131715, -15505.382776902054, -25511.588217209366, -2569.8247635155635, -29889.289127503533, -27382.093951951738, -8942.843549590534, 6715.2686971746325, -9312.407292414582, -21981.06312526025, 0.1615, 0.84775, -0.441125, 192.0, 0.0, 0.0, 0.0, 0.0, 0.0, 0.0, 0.0, 0.0, 0.0, 1.6620649113910544E9, 0.0, 2022-09-01 16:41:51.391
106.0, -21405.52805728055, -21364.46790271615, -29712.933863751157, -17302.84301076448, -12619.124367132708, -16185.099325787942, 26763.91175555131, -15493.044613962724, -25604.191494487703, -2671.6816629983978, -29990.095494996967, -27482.162711878147, -9026.014390708731, 6615.69167562624, -9374.768659444888, -22078.65084155212, 0.1615, 0.84775, -0.441125, 192.0, 0.0, 0.0, 0.0, 0.0, 0.0, 0.0, 0.0, 0.0, 0.0, 1.6620649113910587E9, 0.0, 2022-09-01 16:41:51.391
108.0, -21386.03733611552, -21356.80125436798, -29672.365447564778, -17292.47180133722, -12576.052555567332, -16188.720308389702, 26701.684498987735, -15477.107820166091, -25509.554208463935, -2555.9890336977287, -29882.29303148902, -27372.32623962477, -8928.180805227854, 6728.858557803459, -9287.08276594672, -21961.72886630641, 0.16075, 0.8498749999999999, -0.4465625, 192.0, 2.5, 0.0, 13.0, 80.0, 120.5, 112.0, 0.0, 0.0, 0.0, 1.6620649113910632E9, 0.0, 2022-09-01 16:41:51.391
110.0, -21424.728205767657, -21383.33277503643, -29719.125296965278, -17317.058720238056, -12631.842509727778, -16192.184828780275, 26819.388785289382, -15507.483840880854, -25593.6414711048, -2673.5592095326438, -29978.763160558126, -27474.764284463443, -9013.83268998059, 6604.627562120862, -9362.139923827639, -22061.88703321064, 0.16075, 0.8498749999999999, -0.4465625, 192.0, 0.0, 0.0, 0.0, 0.0, 0.0, 0.0, 0.0, 0.0, 0.0, 1.6620649113910677E9, 0.0, 2022-09-01 16:41:51.391
112.0, -21370.54757720799, -21342.60789663886, -29656.048674112404, -17278.61371977493, -12562.261529238407, -16167.19557847924, 26647.235649494607, -15465.596671771607, -25517.466726001112, -2556.011385442184, -29883.43297045624, -27370.22517564597, -8947.604471159515, 6731.540767138096, -9315.692998849512, -21968.613203598645, 0.16075, 0.8498749999999999, -0.4465625, 192.0, 0.0, 0.0, 0.0, 0.0, 0.0, 0.0, 0.0, 0.0, 0.0, 1.6620649113910725E9, 0.0, 2022-09-01 16:41:51.391
114.0, -21436.14994718432, -21399.828362444445, -29734.65975936172, -17337.219993736744, -12636.268155129928, -16215.654160458347, 26858.772559019635, -15526.549878901229, -25573.72606679512, -2670.1393926309815, -29963.943953984257, -27464.34837154727, -9000.466346796316, 6620.273783239578, -9358.47423773697, -22063.205786133505, 0.16075, 0.8498749999999999, -0.4465625, 192.0, 0.0, 0.0, 0.0, 0.0, 0.0, 0.0, 0.0, 0.0, 0.0, 1.6620649113910768E9, 0.0, 2022-09-01 16:41:51.391
116.0, -21374.436780743217, -21349.738103120104, -29663.53650850493, -17285.74392625617, -12556.047744279831, -16173.118790759898, 26593.166779657222, -15469.86585496257, -25520.461859758125, -2564.1921239128264, -29898.989784597135, -27390.721725311487, -8947.716229881791, 6738.313345708054, -9319.828071573744, -21978.559729881257, 0.16075, 0.8498749999999999, -0.4465625, 192.0, 0.0, 0.0, 0.0, 0.0, 0.0, 0.0, 0.0, 0.0, 0.0, 1.662064911391081E9, 0.0, 2022-09-01 16:41:51.391
118.0, -21442.743711798634, -21412.993539928622, -29735.46442216211, -17344.014924051156, -12630.903736460656, -16216.838802914477, 26889.975594279244, -15535.892908083548, -25576.87766276332, -2678.163668890437, -29973.622259333406, -27485.314307846347, -8994.87841068249, 6598.9278672847595, -9339.497606694415, -22047.514861525877, 0.160375, 0.8509374999999999, -0.44728124999999996, 192.0, 2.5, 0.0, 13.0, 80.0, 121.0, 0.0, 0.0, 0.0, 0.0, 1.6620649113910866E9, 0.0, 2022-09-01 16:41:51.391
120.0, -21335.61180062435, -21310.063756711934, -29619.57062716134, -17244.50495773613, -12523.503604352905, -16133.980886218655, 26560.689694963658, -15440.518014492753, -25516.639711456268, -2551.429277828846, -29885.422275712765, -27380.50697809541, -8947.045677548133, 6773.67380543635, -9282.590065311202, -21947.11082543264, 0.160375, 0.8509374999999999, -0.44728124999999996, 192.0, 0.0, 0.0, 0.0, 0.0, 0.0, 0.0, 0.0, 0.0, 0.0, 1.662064911391091E9, 0.0, 2022-09-01 16:41:51.391
122.0, -21434.317104138983, -21404.969263669165, -29716.085459719357, -17342.696171128293, -12629.227355626506, -16224.483099518193, 26918.071737059563, -15544.654791910029, -25536.53276402149, -2640.299813783147, -29917.094697605935, -27439.068548568317, -8961.082573066065, 6629.102722299424, -9282.947693222486, -22012.802602386786, 0.160375, 0.8509374999999999, -0.44728124999999996, 192.0, 0.0, 0.0, 0.0, 0.0, 0.0, 0.0, 0.0, 0.0, 0.0, 1.662064911871138E9, 0.0, 2022-09-01 16:41:51.871
124.0, -21351.168614765244, -21321.753719062057, -29628.310159243367, -17251.881033406382, -12537.160520215097, -16137.423054864772, 26536.30394176292, -15449.548119252697, -25546.38988332628, -2581.984112499251, -29906.522322478573, -27400.89176903865, -8977.0193668627, 6741.196720742789, -9310.686208091523, -21980.929014793517, 0.160375, 0.8509374999999999, -0.44728124999999996, 192.0, 0.0, 0.0, 0.0, 0.0, 0.0, 0.0, 0.0, 0.0, 0.0, 1.662064911871144E9, 0.0, 2022-09-01 16:41:51.871
126.0, -21447.661095578802, -21418.559124297994, -29725.58495111286, -17342.96439206176, -12627.238050369984, -16219.096329104465, 26932.24274304423, -15543.201928520433, -25544.91466819223, -2644.099610340549, -29927.532962266563, -27436.520449700412, -8965.48586672376, 6633.528367701575, -9295.241152672907, -22001.626730159132, 0.160375, 0.8509374999999999, -0.44728124999999996, 192.0, 0.0, 0.0, 0.0, 0.0, 0.0, 0.0, 0.0, 0.0, 0.0, 1.6620649118711486E9, 0.0, 2022-09-01 16:41:51.871
128.0, -21352.28620198801, -21323.541858618482, -29641.810612894373, -17245.64489670335, -12543.463712151493, -16121.709778512692, 26520.43420319965, -15447.715276207362, -25552.20133688466, -2595.1939934723373, -29921.408584285808, -27405.116248740705, -8983.277855310185, 6743.655412632873, -9324.454882675993, -21964.478130874413, 0.160375, 0.8509374999999999, -0.44728124999999996, 192.0, 0.0, 0.0, 0.0, 0.0, 0.0, 0.0, 0.0, 0.0, 0.0, 1.662064911871153E9, 0.0, 2022-09-01 16:41:51.871
130.0, -21447.035246734053, -21419.497897565117, -29738.347797196842, -17359.415275980864, -12634.703533018057, -16219.230439571196, 26922.89971386191, -15553.550786203241, -25533.805851197943, -2640.098648083049, -29922.906151164312, -27433.99470257696, -8954.734677640758, 6633.483664212664, -9301.65610333158, -21983.96885203944, 0.17200000000000001, 0.852, -0.45, 192.0, 2.5, 48.0, 13.0, 80.0, 120.5, 120.0, 0.0, 0.0, 0.0, 1.6620649118711574E9, 0.0, 2022-09-01 16:41:51.871
132.0, -21355.37074272284, -21325.17353596372, -29653.545278733407, -17267.50490278064, -12548.87283430968, -16129.219964649674, 26515.270950230475, -15457.01360190077, -25578.53169185301, -2614.975287315284, -29946.330779353477, -27438.375644490203, -8999.21464910682, 6720.051970488068, -9352.886301623143, -22002.185523770517, 0.17200000000000001, 0.852, -0.45, 192.0, 0.0, 0.0, 0.0, 0.0, 0.0, 0.0, 0.0, 0.0, 0.0, 1.662064911871162E9, 0.0, 2022-09-01 16:41:51.871
134.0, -21443.369560643383, -21420.839002232435, -29717.9630062536, -17366.031392339635, -12615.056349641842, -16225.466576274226, 26912.50615269019, -15543.492501198352, -25516.684414945175, -2626.687601409865, -29902.2084357987, -27424.808135605832, -8931.734732596247, 6647.431152752776, -9281.651292044078, -21987.723945107933, 0.17200000000000001, 0.852, -0.45, 192.0, 0.0, 0.0, 0.0, 0.0, 0.0, 0.0, 0.0, 0.0, 0.0, 1.662064911871172E9, 0.0, 2022-09-01 16:41:51.871
136.0, -21385.500894248595, -21354.36491422235, -29659.669656714163, -17292.650615292863, -12564.854331595223, -16153.784531806057, 26535.67809291817, -15477.577206799651, -25598.223578718138, -2633.706049168831, -29967.564936586015, -27465.82358668132, -9012.73745450228, 6701.164746423334, -9352.551025456312, -22033.5003177524, 0.17200000000000001, 0.852, -0.45, 192.0, 0.0, 0.0, 0.0, 0.0, 0.0, 0.0, 0.0, 0.0, 0.0, 1.6620649118711765E9, 0.0, 2022-09-01 16:41:51.871
138.0, -21461.116845740897, -21436.842851262434, -29728.848305803338, -17380.96235763578, -12629.562631793337, -16253.473312076727, 26885.639355854913, -15561.284489784777, -25537.493889033067, -2641.8197324061075, -29921.967377897192, -27438.53210670139, -8949.839645605045, 6646.045344596547, -9285.093460690196, -21998.653948146577, 0.17200000000000001, 0.852, -0.45, 192.0, 0.0, 0.0, 0.0, 0.0, 0.0, 0.0, 0.0, 0.0, 0.0, 1.6620649118711808E9, 0.0, 2022-09-01 16:41:51.871
140.0, -21375.88964413281, -21339.657466370758, -29673.63949699873, -17282.972309943714, -12567.58124441877, -16155.125636473374, 26569.317468323407, -15474.939700953926, -25610.628796890833, -2642.512636484222, -29984.060523994034, -27478.653487998665, -9026.662591297936, 6662.9656151492145, -9360.642356949134, -22045.257335335893, 0.17, 0.848, -0.454, 192.0, 2.5, 40.0, 13.0, 64.0, 120.5, 104.0, 0.0, 0.0, 0.0, 1.6620649118711853E9, 0.0, 2022-09-01 16:41:51.871
142.0, -21430.04792094802, -21405.818629958467, -29716.800715541925, -17351.882738099426, -12601.958227391033, -16223.20905008424, 26853.430492094816, -15539.893870341048, -25514.829220155385, -2617.5010344387338, -29896.64285142933, -27410.368908687702, -8932.584098885549, 6664.709051216728, -9279.416117598548, -21970.066066988238, 0.17, 0.848, -0.454, 192.0, 0.0, 0.0, 0.0, 0.0, 0.0, 0.0, 0.0, 0.0, 0.0, 1.6620649118711896E9, 0.0, 2022-09-01 16:41:51.871
144.0, -21345.55832690696, -21310.242570667575, -29649.365502520264, -17253.199786329245, -12538.926308027067, -16112.769080730568, 26623.922780027722, -15444.764845939262, -25578.30817440846, -2629.5039212112333, -29951.87401197839, -27450.937324874085, -8997.895896183956, 6686.32318810501, -9337.150673526607, -22012.93671285352, 0.17, 0.848, -0.454, 192.0, 0.0, 0.0, 0.0, 0.0, 0.0, 0.0, 0.0, 0.0, 0.0, 1.662064911871194E9, 0.0, 2022-09-01 16:41:51.871
146.0, -21406.265664847575, -21380.98584186862, -29687.229357627555, -17326.781729076116, -12576.812514878811, -16193.05654681403, 26817.801811433055, -15508.802593803715, -25485.414324452202, -2568.640121059432, -29858.466071899664, -27372.03566694685, -8899.503517091694, 6729.394999670387, -9252.526969018814, -21933.319799103716, 0.17, 0.848, -0.454, 192.0, 0.0, 0.0, 0.0, 0.0, 0.0, 0.0, 0.0, 0.0, 0.0, 1.6620649118711984E9, 0.0, 2022-09-01 16:41:51.871
148.0, -21396.02856588704, -21359.528167191525, -29689.933918706647, -17300.630188063406, -12591.676424941592, -16158.523101630582, 26669.118007316352, -15489.535390083242, -25594.893168794297, -2653.2414738227694, -29967.45317786374, -27469.981011150005, -9012.580992291092, 6666.4301355397865, -9357.37900225866, -22039.132957355137, 0.17, 0.848, -0.454, 192.0, 0.0, 0.0, 0.0, 0.0, 0.0, 0.0, 0.0, 0.0, 0.0, 1.6620649118712027E9, 0.0, 2022-09-01 16:41:51.871
150.0, -21422.13540341084, -21397.503781021092, -29695.79007575394, -17345.40073220739, -12602.315855302317, -16215.788270925079, 26757.25093570363, -15529.321495213688, -25514.96333062212, -2595.41751091689, -29890.0043833261, -27401.674080094588, -8942.284755979152, 6700.605952811951, -9299.286818419316, -21975.16226472405, 0.17, 0.846, -0.454, 192.0, 2.5, 40.0, 13.0, 56.0, 120.5, 104.0, 0.0, 0.0, 0.0, 1.6620649118712075E9, 0.0, 2022-09-01 16:41:51.871
152.0, -21417.463888819682, -21379.689440690214, -29712.531532350964, -17332.123796000935, -12616.084529886786, -16188.87677060089, 26713.866199715878, -15521.945419543437, -25601.665747364255, -2673.425099065912, -29990.542529886072, -27498.50183707498, -9030.350629133061, 6635.160045046812, -9373.248740821928, -22073.5099403274, 0.17, 0.846, -0.454, 192.0, 0.0, 0.0, 0.0, 0.0, 0.0, 0.0, 0.0, 0.0, 0.0, 1.6620649118712118E9, 0.0, 2022-09-01 16:41:51.871
154.0, -21403.270531090562, -21376.51549297756, -29689.64334602873, -17335.72242685824, -12586.06613708331, -16215.475346502704, 26700.477504787148, -15523.957076544415, -25519.27721730199, -2581.8947055214294, -29894.877063617358, -27401.919949283594, -8945.592814158537, 6727.584508369507, -9299.040949230308, -21983.87944506162, 0.17, 0.846, -0.454, 192.0, 0.0, 0.0, 0.0, 0.0, 0.0, 0.0, 0.0, 0.0, 0.0, 1.6620649118712163E9, 0.0, 2022-09-01 16:41:51.871
156.0, -21409.79724047151, -21370.055838829976, -29716.241921930545, -17326.46880465374, -12609.446061783561, -16187.781535122578, 26770.818444588, -15519.374968931077, -25596.077811250427, -2672.1063461430485, -29978.45023613575, -27482.229767111516, -9018.9288877164, 6631.650821167329, -9357.669574936579, -22063.496358811422, 0.17, 0.846, -0.454, 192.0, 0.0, 0.0, 0.0, 0.0, 0.0, 0.0, 0.0, 0.0, 0.0, 1.6620649118712208E9, 0.0, 2022-09-01 16:41:51.871
158.0, -21389.993594884112, -21363.1938532822, -29679.54035753493, -17314.980008003713, -12568.430610708072, -16185.68047114378, 26651.66129489676, -15501.44886987792, -25518.785478923975, -2567.097850692016, -29887.121008291368, -27387.301908409823, -8947.962099070799, 6759.927482596337, -9295.285856161816, -21955.179805181004, 0.17, 0.846, -0.454, 192.0, 0.0, 0.0, 0.0, 0.0, 0.0, 0.0, 0.0, 0.0, 0.0, 1.662064911871225E9, 0.0, 2022-09-01 16:41:51.871
160.0, -21438.318066396485, -21398.08492637693, -29732.22341921609, -17343.366723461953, -12628.31093410384, -16205.417061497816, 26820.908703912344, -15535.289410983254, -25600.92813979723, -2676.3084741006464, -29980.238375692177, -27488.600014281277, -9024.87445174151, 6630.533233944564, -9360.731763926955, -22052.923983684064, 0.166, 0.85, -0.454, 192.0, 2.5, 24.0, 13.0, 72.0, 120.5, 104.0, 0.0, 0.0, 0.0, 1.6620649118712296E9, 0.0, 2022-09-01 16:41:51.871
162.0, -21391.647623973804, -21362.389190481805, -29667.313953317876, -17307.71569105574, -12563.379116461172, -16181.612453652913, 26608.857704264847, -15494.363366885587, -25538.05268264445, -2568.751879781709, -29899.86150263089, -27398.634242848664, -8968.34689001404, 6752.976090070736, -9316.408254672082, -21968.367334409635, 0.166, 0.85, -0.454, 192.0, 0.0, 0.0, 0.0, 0.0, 0.0, 0.0, 0.0, 0.0, 0.0, 1.662064911871234E9, 0.0, 2022-09-01 16:41:51.871
164.0, -21450.38800840235, -21414.848734718413, -29733.497468650043, -17364.28795627212, -12633.45183532856, -16218.984570382187, 26863.98051547772, -15552.880233869582, -25587.606500101865, -2678.9459799463725, -29968.526061597597, -27489.20351138157, -9011.418701579416, 6616.608097148907, -9350.338202755238, -22061.261184365892, 0.166, 0.85, -0.454, 192.0, 0.0, 0.0, 0.0, 0.0, 0.0, 0.0, 0.0, 0.0, 0.0, 1.6620649118712385E9, 0.0, 2022-09-01 16:41:51.871
166.0, -21380.739972679614, -21352.017981054545, -29657.92622064665, -17298.640882806885, -12558.43938093655, -16165.116866244898, 26565.96470665511, -15492.217599417878, -25532.19652559716, -2562.225170400759, -29898.989784597135, -27404.57980687378, -8966.022308590687, 6750.025659802635, -9315.022446515852, -21983.454761916968, 0.166, 0.85, -0.454, 192.0, 0.0, 0.0, 0.0, 0.0, 0.0, 0.0, 0.0, 0.0, 0.0, 1.662064911871244E9, 0.0, 2022-09-01 16:41:51.871
168.0, -21455.171281715786, -21424.14706041182, -29746.148556011743, -17368.668898185362, -12642.705457533057, -16230.07103563202, 26897.217559482764, -15570.60516722264, -25566.372342869323, -2662.1821716048926, -29956.657285291825, -27478.34056357629, -8995.884239182978, 6624.1629867748015, -9333.395580458115, -22052.432245306045, 0.166, 0.85, -0.454, 192.0, 0.0, 0.0, 0.0, 0.0, 0.0, 0.0, 0.0, 0.0, 0.0, 1.6620649118712485E9, 0.0, 2022-09-01 16:41:51.871
170.0, -21364.825530627433, -21342.920821061234, -29649.633723453728, -17279.932472697794, -12542.949622029022, -16154.924470773278, 26544.14940406673, -15475.833770732139, -25549.429720572203, -2587.393234657435, -29916.73706969465, -27416.068603523807, -8984.551904744138, 6738.268642219144, -9318.531670395336, -21989.69089862, 0.168, 0.848, -0.456, 192.0, 2.5, 32.0, 13.0, 64.0, 120.5, 96.0, 0.0, 0.0, 0.0, 1.6620649118712528E9, 0.0, 2022-09-01 16:41:51.871
172.0, -21463.0167440196, -21438.094548951933, -29738.50425940803, -17376.80493316709, -12630.45670157155, -16238.07296014702, 26931.01339709919, -15564.391382264064, -25550.882583961797, -2666.965444918328, -29936.1160321374, -27461.330886045802, -8969.39742200344, 6610.997809290625, -9292.93892299401, -22015.574218699243, 0.168, 0.848, -0.456, 192.0, 0.0, 0.0, 0.0, 0.0, 0.0, 0.0, 0.0, 0.0, 0.0, 1.6620649118712573E9, 0.0, 2022-09-01 16:41:51.871
174.0, -21378.594205211903, -21352.50971943256, -29662.150700348702, -17293.857609493447, -12554.281956467863, -16160.221834209186, 26529.754880637513, -15480.25941613429, -25567.936964981196, -2612.963630314306, -29938.73118623867, -27438.91208635713, -8996.688901983369, 6706.730330792705, -9327.964106555475, -21990.7414306094, 0.168, 0.848, -0.456, 192.0, 0.0, 0.0, 0.0, 0.0, 0.0, 0.0, 0.0, 0.0, 0.0, 1.662064911871262E9, 0.0, 2022-09-01 16:41:51.871
176.0, -21468.559976644516, -21445.515328111094, -29750.305980480432, -17393.099354875012, -12647.466379102038, -16253.562719054547, 26936.623684957467, -15578.629443482096, -25556.090540419882, -2675.548514789166, -29950.756424755626, -27471.702095473065, -8980.148611086443, 6593.943428271226, -9315.871812805153, -22016.98237859993, 0.168, 0.848, -0.456, 192.0, 0.0, 0.0, 0.0, 0.0, 0.0, 0.0, 0.0, 0.0, 0.0, 1.6620649118712673E9, 0.0, 2022-09-01 16:41:51.871
178.0, -21368.066533573456, -21341.646771627282, -29655.06519735637, -17293.2317606487, -12560.741610615447, -16150.252956182117, 26524.971607324078, -15480.415878345477, -25570.038028959996, -2617.679848394376, -29938.798241472035, -27440.34259800227, -9001.002788663243, 6695.532106820597, -9339.631717161146, -21993.490695177403, 0.168, 0.848, -0.456, 192.0, 0.0, 0.0, 0.0, 0.0, 0.0, 0.0, 0.0, 0.0, 0.0, 1.6620649118712718E9, 0.0, 2022-09-01 16:41:51.871
180.0, -21451.416188647294, -21435.14411868383, -29736.291436706953, -17392.764078708184, -12641.45375984356, -16245.31492535054, 26934.410862256394, -15576.595434736662, -25530.922476163207, -2653.3979360339567, -29917.564084239493, -27451.4290632521, -8968.481000480771, 6619.8267483504715, -9304.025388243841, -22004.197180771494, 0.17400000000000002, 0.844, -0.454, 192.0, 2.5, 56.0, 13.0, 48.0, 120.5, 104.0, 0.0, 0.0, 0.0, 1.662064911871276E9, 0.0, 2022-09-01 16:41:51.871
182.0, -21344.12781526182, -21330.962637777644, -29645.118671073757, -17285.38629834489, -12555.332488457261, -16145.112054957397, 26533.085290561354, -15475.677308520952, -25551.217860128625, -2621.2114240183146, -29932.249180346633, -27449.842089395774, -9010.010541678732, 6688.7371765061835, -9350.025278332863, -22014.635445432123, 0.17400000000000002, 0.844, -0.454, 192.0, 0.0, 0.0, 0.0, 0.0, 0.0, 0.0, 0.0, 0.0, 0.0, 1.6620649118712804E9, 0.0, 2022-09-01 16:41:51.871
184.0, -21440.307371653005, -21434.25004890562, -29731.776384326982, -17394.641625242428, -12639.509158075949, -16258.368344112438, 26911.65678640089, -15585.670242985518, -25490.309356487913, -2644.323127785102, -29891.144322293323, -27431.379548475692, -8947.358601970507, 6616.339876215444, -9287.619207813646, -21993.937730066507, 0.17400000000000002, 0.844, -0.454, 192.0, 0.0, 0.0, 0.0, 0.0, 0.0, 0.0, 0.0, 0.0, 0.0, 1.6620649118712847E9, 0.0, 2022-09-01 16:41:51.871
186.0, -21367.731257406624, -21347.659390885758, -29670.24203184152, -17304.94407474328, -12580.589959691759, -16169.922491302788, 26553.335971037865, -15506.098032724623, -25560.046799188473, -2665.579636762099, -29947.627180531883, -27466.069455870325, -9024.717989530325, 6643.921928873293, -9352.819246389776, -22037.74714919891, 0.17400000000000002, 0.844, -0.454, 192.0, 0.0, 0.0, 0.0, 0.0, 0.0, 0.0, 0.0, 0.0, 0.0, 1.6620649118712893E9, 0.0, 2022-09-01 16:41:51.871
188.0, -21429.7573482701, -21419.05086267601, -29714.565541096395, -17376.2014360668, -12628.333285848295, -16253.07098067653, 26884.789989565612, -15580.46228652743, -25489.504693687522, -2633.259014279725, -29879.34260122092, -27409.877170309686, -8948.386782215452, 6638.043420081547, -9274.565789051747, -21979.20793047046, 0.17400000000000002, 0.844, -0.454, 192.0, 0.0, 0.0, 0.0, 0.0, 0.0, 0.0, 0.0, 0.0, 0.0, 1.6620649118712935E9, 0.0, 2022-09-01 16:41:51.871
190.0, -21358.678800902224, -21340.84210882689, -29654.72992118954, -17286.302719867555, -12578.265378268406, -16166.994412779142, 26592.719744768114, -15505.516887368785, -25566.282935891504, -2670.027633908705, -29948.92358171029, -27464.504833758456, -9035.31271640214, 6627.873376354382, -9348.997098087919, -22035.780195686842, 0.17, 0.842, -0.45, 192.0, 2.5, 40.0, 13.0, 40.0, 120.5, 120.0, 0.0, 0.0, 0.0, 1.662064911871298E9, 0.0, 2022-09-01 16:41:51.871
192.0, -21409.394909071318, -21402.912903179276, -29686.134122149244, -17354.81081662307, -12615.481032786493, -16242.610364271446, 26849.16130890385, -15568.213530565923, -25478.731152860066, -2614.1259210259823, -29855.828566053937, -27389.17945494407, -8944.765799613691, 6664.530237261086, -9262.160570879052, -21951.938802234985, 0.17, 0.842, -0.45, 192.0, 0.0, 0.0, 0.0, 0.0, 0.0, 0.0, 0.0, 0.0, 0.0, 1.6620649118713021E9, 0.0, 2022-09-01 16:41:51.871
194.0, -21351.570946165437, -21334.091882001387, -29646.88445888573, -17293.298815882066, -12580.992291091954, -16167.307337201517, 26652.08597804141, -15506.679178080461, -25550.212031628136, -2660.841066937574, -29921.54269475254, -27449.37270276221, -9014.9279254589, 6642.938452117259, -9326.891222821621, -22016.17771579954, 0.17, 0.842, -0.45, 192.0, 0.0, 0.0, 0.0, 0.0, 0.0, 0.0, 0.0, 0.0, 0.0, 1.6620649118713067E9, 0.0, 2022-09-01 16:41:51.871
196.0, -21407.740879981626, -21401.460039789683, -29690.20213964011, -17365.96433710627, -12610.586000750782, -16244.912593950343, 26810.269273551618, -15563.184388063479, -25478.32882145987, -2612.8295198475744, -29853.19106020821, -27393.001603245928, -8942.463569934795, 6676.823696711504, -9261.512370289847, -21958.57727033821, 0.17, 0.842, -0.45, 192.0, 0.0, 0.0, 0.0, 0.0, 0.0, 0.0, 0.0, 0.0, 0.0, 1.662064911871311E9, 0.0, 2022-09-01 16:41:51.871
198.0, -21395.961510653677, -21377.431914500226, -29697.35469786581, -17336.057703025068, -12614.519907774915, -16202.466631229716, 26706.020737412066, -15538.150434273533, -25576.07299996293, -2683.684549770898, -29956.1208434249, -27484.844921212785, -9038.88899551499, 6604.001713276114, -9346.828978875754, -22050.17471911606, 0.17, 0.842, -0.45, 192.0, 0.0, 0.0, 0.0, 0.0, 0.0, 0.0, 0.0, 0.0, 0.0, 1.6620649118713164E9, 0.0, 2022-09-01 16:41:51.871
200.0, -21419.408490587295, -21406.176257869753, -29700.998032212025, -17369.96529936377, -12606.965018149021, -16240.397541570372, 26755.328685680473, -15563.407905508031, -25500.99349033755, -2618.6409734059544, -29879.409656454285, -27403.70808884002, -8959.853227121022, 6671.459278042231, -9280.17607691003, -21964.20990994095, 0.17, 0.842, -0.451, 192.0, 2.5, 40.0, 13.0, 40.0, 120.5, 112.0, 0.0, 0.0, 0.0, 1.6620649118713207E9, 0.0, 2022-09-01 16:41:51.871
202.0, -21416.36865334137, -21388.60778672788, -29716.867770775294, -17353.983802078226, -12624.667599757624, -16208.233381299184, 26757.452101403727, -15555.785960648771, -25592.30036643748, -2714.485253630311, -29980.28307918109, -27502.01106095446, -9045.12513221802, 6586.656759578796, -9356.976670858463, -22053.929812184553, 0.17, 0.842, -0.451, 192.0, 0.0, 0.0, 0.0, 0.0, 0.0, 0.0, 0.0, 0.0, 0.0, 1.6620649118713253E9, 0.0, 2022-09-01 16:41:51.871
204.0, -21401.14711536731, -21386.9984611271, -29685.97765993806, -17347.81472060856, -12585.283826027373, -16207.763994665624, 26700.969243165167, -15544.677143654484, -25498.33363274737, -2590.5895341145438, -29875.72161861916, -27395.214425947004, -8956.63457591946, 6699.957752222747, -9279.371414109637, -21943.512194575334, 0.17, 0.842, -0.451, 192.0, 0.0, 0.0, 0.0, 0.0, 0.0, 0.0, 0.0, 0.0, 0.0, 1.6620649118713295E9, 0.0, 2022-09-01 16:41:51.871
206.0, -21429.600886058914, -21407.651473003803, -29727.060166246913, -17366.34431676201, -12631.9319167056, -16222.136166350385, 26811.476267752205, -15569.934614888982, -25581.370363398837, -2712.607707096065, -29974.98571574518, -27500.91582547615, -9031.535271589193, 6580.0853467089355, -9343.006830573897, -22040.675227722553, 0.17, 0.842, -0.451, 192.0, 0.0, 0.0, 0.0, 0.0, 0.0, 0.0, 0.0, 0.0, 0.0, 1.662064911871334E9, 0.0, 2022-09-01 16:41:51.871
208.0, -21384.785638426023, -21372.402771997782, -29671.96311616458, -17337.309400714566, -12572.565683432304, -16210.133279577885, 26649.895507084788, -15537.144605773045, -25501.753449649033, -2608.6050401455213, -29881.62247915536, -27403.238702206458, -8955.807561374613, 6697.454356843753, -9281.248960643883, -21949.860090000642, 0.17, 0.842, -0.451, 192.0, 0.0, 0.0, 0.0, 0.0, 0.0, 0.0, 0.0, 0.0, 0.0, 1.6620649118713384E9, 0.0, 2022-09-01 16:41:51.871
210.0, -21428.215077902685, -21409.104336393397, -29724.199142956633, -17374.882683143936, -12636.446969085571, -16231.680361232802, 26860.02425670913, -15581.445763283464, -25560.225613144114, -2703.711712802853, -29960.635895804873, -27493.76326725045, -9011.038721923676, 6571.859904749383, -9337.173025271062, -22048.23011734845, 0.169, 0.844, -0.4535, 192.0, 2.5, 32.0, 13.0, 56.0, 120.5, 96.0, 0.0, 0.0, 0.0, 1.662064911871343E9, 0.0, 2022-09-01 16:41:51.871
212.0, -21360.64575441429, -21349.760454864558, -29639.888362871214, -17310.62141783493, -12549.319869198784, -16172.112962259409, 26606.89075075278, -15514.032902006258, -25487.761257620008, -2590.5895341145438, -29872.234746484133, -27392.6663270791, -8950.554901427615, 6722.667124589339, -9282.634768800113, -21952.00585746835, 0.169, 0.844, -0.4535, 192.0, 0.0, 0.0, 0.0, 0.0, 0.0, 0.0, 0.0, 0.0, 0.0, 1.6620649118713472E9, 0.0, 2022-09-01 16:41:51.871
214.0, -21450.52211886908, -21430.941990726235, -29731.55286688243, -17394.239293842234, -12640.850262743266, -16245.136111394897, 26896.23408272673, -15600.154173392557, -25546.501642048555, -2693.072282442127, -29943.78268048557, -27480.687496744096, -8995.30309382714, 6583.996901988614, -9315.380074427138, -22039.110605610684, 0.169, 0.844, -0.4535, 192.0, 0.0, 0.0, 0.0, 0.0, 0.0, 0.0, 0.0, 0.0, 0.0, 1.6620649118713517E9, 0.0, 2022-09-01 16:41:51.871
216.0, -21382.818684913957, -21365.65254517228, -29659.267325313966, -17327.1393569874, -12568.363555474705, -16186.708651388724, 26562.991924642556, -15532.07075978169, -25522.80879292593, -2605.9898860442504, -29897.1569415518, -27418.013205291416, -8978.718099441303, 6706.082130203501, -9306.84170804521, -21979.498503148377, 0.169, 0.844, -0.4535, 192.0, 0.0, 0.0, 0.0, 0.0, 0.0, 0.0, 0.0, 0.0, 0.0, 1.662064911871356E9, 0.0, 2022-09-01 16:41:51.871
218.0, -21463.217909719697, -21441.827290275967, -29744.561582155417, -17404.54344803613, -12655.378896639217, -16254.523844066125, 26928.46529823128, -15611.37474910912, -25560.270316633025, -2709.4561111278667, -29955.74086376916, -27490.72343000453, -9001.53923053017, 6576.620826318363, -9326.578298399247, -22039.714102710976, 0.169, 0.844, -0.4535, 192.0, 0.0, 0.0, 0.0, 0.0, 0.0, 0.0, 0.0, 0.0, 0.0, 1.6620649118713603E9, 0.0, 2022-09-01 16:41:51.871
220.0, -21356.84595785689, -21338.115196003342, -29639.731900660026, -17304.161763687345, -12547.934061042555, -16151.05761898251, 26551.52547973698, -15501.314759411189, -25529.447261029156, -2611.0860837800606, -29900.554406709005, -27415.48745816797, -8978.695747696847, 6706.819737770526, -9306.46172838947, -21966.087456475194, 0.1695, 0.843, -0.45075, 192.0, 2.5, 40.0, 13.0, 40.0, 121.0, 0.0, 0.0, 0.0, 0.0, 1.6620649118713648E9, 0.0, 2022-09-01 16:41:51.871
222.0, -21456.11005498291, -21438.58628732995, -29740.851192575836, -17417.887439475948, -12648.002820968964, -16257.675440034323, 26946.99489438473, -15610.212458397444, -25532.934133164184, -2682.343445103579, -29923.599055242426, -27466.784711692897, -8977.041718607154, 6593.027006748558, -9296.358739895672, -22006.7452796394, 0.1695, 0.843, -0.45075, 192.0, 0.0, 0.0, 0.0, 0.0, 0.0, 0.0, 0.0, 0.0, 0.0, 1.6620649118713691E9, 0.0, 2022-09-01 16:41:51.871
224.0, -21349.536937420005, -21326.64875109777, -29642.235296039024, -17308.274484667123, -12556.651241380125, -16158.120770230385, 26533.286456261452, -15507.215619947388, -25536.800984954953, -2629.6603834224206, -29913.652528959818, -27435.738138644476, -8996.10775662753, 6693.2522288861555, -9318.50931865088, -21989.601491642177, 0.1695, 0.843, -0.45075, 192.0, 0.0, 0.0, 0.0, 0.0, 0.0, 0.0, 0.0, 0.0, 0.0, 1.6620649118713737E9, 0.0, 2022-09-01 16:41:51.871
226.0, -21460.513348640605, -21441.179089686764, -29747.199088001144, -17425.73290177976, -12659.089286218797, -16272.829922775021, 26945.542030995137, -15629.971400495935, -25519.925417891198, -2664.752622217253, -29912.19966557022, -27450.5796969628, -8964.368279500995, 6596.8715067948715, -9288.51327759186, -22010.813297130266, 0.1695, 0.843, -0.45075, 192.0, 0.0, 0.0, 0.0, 0.0, 0.0, 0.0, 0.0, 0.0, 0.0, 1.662064911871378E9, 0.0, 2022-09-01 16:41:51.871
228.0, -21370.54757720799, -21349.78280660901, -29663.983543394035, -17323.00428426317, -12580.075869569288, -16184.048793798542, 26527.832630614357, -15543.98423957637, -25558.750398010066, -2642.4232295064007, -29934.88668619236, -27450.713807429533, -9013.698579513857, 6670.676966986295, -9341.196339273018, -22026.191297315516, 0.1695, 0.843, -0.45075, 192.0, 0.0, 0.0, 0.0, 0.0, 0.0, 0.0, 0.0, 0.0, 0.0, 1.6620649118713825E9, 0.0, 2022-09-01 16:41:51.871
230.0, -21463.843758564446, -21449.784511302056, -29747.020274045502, -17422.916581978392, -12662.106771720264, -16279.98248100072, 26933.494440733724, -15637.593345355195, -25525.4239470272, -2675.8614392115405, -29913.87604640437, -27448.858612639742, -8975.946483128844, 6589.316617168977, -9302.50546962088, -22017.45176523349, 0.17175, 0.8445, -0.44737499999999997, 192.0, 2.5, 56.0, 13.0, 56.0, 121.0, 16.0, 0.0, 0.0, 0.0, 1.662064911871388E9, 0.0, 2022-09-01 16:41:51.871
232.0, -21379.689440690214, -21358.634097413316, -29671.337267319832, -17323.294856941087, -12591.54231447486, -16169.453104669226, 26550.810223914414, -15536.496405183841, -25565.455921346656, -2660.8857704264847, -29945.660227019816, -27463.499005257967, -9031.244698911274, 6644.212501551212, -9360.396487760127, -22031.242791562414, 0.17175, 0.8445, -0.44737499999999997, 192.0, 0.0, 0.0, 0.0, 0.0, 0.0, 0.0, 0.0, 0.0, 0.0, 1.6620649118713925E9, 0.0, 2022-09-01 16:41:51.871
234.0, -21452.019685747586, -21434.630028561358, -29732.625750616284, -17406.376291081466, -12648.673373302625, -16247.751265496168, 26919.010510326687, -15608.580781052207, -25508.5707317079, -2650.671023210409, -29896.799313640513, -27432.988874076473, -8967.028137091176, 6616.026951793069, -9296.381091640127, -21985.60052938468, 0.17175, 0.8445, -0.44737499999999997, 192.0, 0.0, 0.0, 0.0, 0.0, 0.0, 0.0, 0.0, 0.0, 0.0, 1.6620649118713968E9, 0.0, 2022-09-01 16:41:51.871
236.0, -21370.525225463538, -21344.373684450828, -29667.671581229162, -17316.1870022043, -12587.876628384189, -16161.406476665315, 26588.003526688044, -15525.87932656757, -25565.59003181339, -2665.445526295367, -29945.436709575264, -27462.71669420203, -9031.02118146672, 6639.74215266015, -9351.925176611565, -22015.149535554592, 0.17175, 0.8445, -0.44737499999999997, 192.0, 0.0, 0.0, 0.0, 0.0, 0.0, 0.0, 0.0, 0.0, 0.0, 1.662064911871401E9, 0.0, 2022-09-01 16:41:51.871
238.0, -21437.669865807282, -21422.269513877574, -29719.4158696432, -17398.284959588644, -12638.100998175263, -16255.663783033346, 26888.545082634104, -15604.222190883422, -25492.164551277707, -2645.0383836076717, -29877.30859247549, -27412.268806966404, -8954.757029385213, 6644.279556784578, -9276.756260008367, -21958.376104638115, 0.17175, 0.8445, -0.44737499999999997, 192.0, 0.0, 0.0, 0.0, 0.0, 0.0, 0.0, 0.0, 0.0, 0.0, 1.6620649118714054E9, 0.0, 2022-09-01 16:41:51.871
240.0, -21371.32988826393, -21341.736178605104, -29670.554956263895, -17320.500888884173, -12605.221582081507, -16174.906930316321, 26637.244419723087, -15536.138777272557, -25571.625002816323, -2674.5650380331326, -29950.46585207771, -27471.031543139405, -9041.437094382894, 6620.698466384229, -9351.254624277904, -22024.380806014637, 0.170875, 0.8452500000000001, -0.4466875, 192.0, 2.5, 40.0, 13.0, 56.0, 121.0, 8.0, 0.0, 0.0, 0.0, 1.66206491187141E9, 0.0, 2022-09-01 16:41:51.871
242.0, -21423.454156333704, -21404.544580524514, -29709.49169510504, -17394.77573570916, -12635.239974884984, -16246.723085251224, 26840.757052988658, -15598.880123958603, -25479.692277871643, -2618.3280489835797, -29854.778034064537, -27391.079353222773, -8949.683183393858, 6654.248434811644, -9267.972024437431, -21950.530642334303, 0.170875, 0.8452500000000001, -0.4466875, 192.0, 0.0, 0.0, 0.0, 0.0, 0.0, 0.0, 0.0, 0.0, 0.0, 1.662064912351238E9, 0.0, 2022-09-01 16:41:52.351
244.0, -21376.31432727746, -21345.06658852894, -29683.742485492527, -17334.649543124386, -12608.909619916632, -16164.245148211141, 26685.27831855754, -15538.30689648472, -25567.355819625358, -2685.584448049599, -29947.001331687134, -27472.797330951373, -9044.186358950898, 6610.59547789043, -9357.691926681033, -22041.74811145641, 0.170875, 0.8452500000000001, -0.4466875, 192.0, 0.0, 0.0, 0.0, 0.0, 0.0, 0.0, 0.0, 0.0, 0.0, 1.6620649123512838E9, 0.0, 2022-09-01 16:41:52.351
246.0, -21413.015891673076, -21398.800182199502, -29695.253633887012, -17378.950700634803, -12613.8270036968, -16216.011788369631, 26796.388840244872, -15571.901568401048, -25470.304545200415, -2590.0083887587057, -29845.23383918212, -27374.89669023713, -8937.43442743235, 6687.843106727971, -9266.295643603284, -21932.738653747878, 0.170875, 0.8452500000000001, -0.4466875, 192.0, 0.0, 0.0, 0.0, 0.0, 0.0, 0.0, 0.0, 0.0, 0.0, 1.6620649123513083E9, 0.0, 2022-09-01 16:41:52.351
248.0, -21406.645644503315, -21378.035411600522, -29704.59666306933, -17354.20731952278, -12627.014532925432, -16181.970081564199, 26746.119766964886, -15559.339888017164, -25578.576395341923, -2687.0596631836493, -29959.02657020409, -27485.29195610189, -9041.168873449431, 6596.893858539326, -9352.014583589385, -22035.48962300892, 0.170875, 0.8452500000000001, -0.4466875, 192.0, 0.0, 0.0, 0.0, 0.0, 0.0, 0.0, 0.0, 0.0, 0.0, 1.6620649123513153E9, 0.0, 2022-09-01 16:41:52.351
250.0, -21407.606769514892, -21391.08883036242, -29687.676392516663, -17369.20534005229, -12607.009721637933, -16211.004997611642, 26748.66786583279, -15569.152303833045, -25490.845798354843, -2606.3698656999904, -29863.67402835775, -27394.923853269083, -8958.646232920437, 6702.729368535205, -9268.620225026634, -21934.81736598222, 0.16943750000000002, 0.844625, -0.44634375000000004, 192.0, 2.5, 32.0, 13.0, 48.0, 121.0, 8.0, 0.0, 0.0, 0.0, 1.6620649123513217E9, 0.0, 2022-09-01 16:41:52.351
252.0, -21410.62425501636, -21380.717620935156, -29708.374107882275, -17366.500778973197, -12638.771550508924, -16197.929227105287, 26799.8757123799, -15572.03567886778, -25573.39079062829, -2712.317134418146, -29957.03726494757, -27491.706906760563, -9043.336992661594, 6581.582913587441, -9333.663801391578, -22030.616942717665, 0.16943750000000002, 0.844625, -0.44634375000000004, 192.0, 0.0, 0.0, 0.0, 0.0, 0.0, 0.0, 0.0, 0.0, 0.0, 1.66206491235134E9, 0.0, 2022-09-01 16:41:52.351
254.0, -21393.726336208147, -21371.62046094185, -29670.577308008353, -17363.349183004997, -12592.928122631089, -16209.038044099576, 26692.699097716704, -15563.229091552388, -25488.02947855347, -2599.0161417741947, -29850.10651947338, -27383.680925808065, -8955.114657296499, 6696.4261765988085, -9259.523065033325, -21936.337284605183, 0.16943750000000002, 0.844625, -0.44634375000000004, 192.0, 0.0, 0.0, 0.0, 0.0, 0.0, 0.0, 0.0, 0.0, 0.0, 1.6620649123513465E9, 0.0, 2022-09-01 16:41:52.351
0.0, -21435.47939485066, -21402.957606668188, -29725.383785412763, -17383.041069870123, -12653.188425682596, -16224.281933818094, 26850.927096715823, -15597.069632657724, -25576.29651740748, -2713.0994454740817, -29950.041168933058, -27488.44355207009, -9039.000754237266, 6566.942520969215, -9326.354780954693, -22047.69367548152, 0.16943750000000002, 0.844625, -0.44634375000000004, 192.0, 0.0, 0.0, 0.0, 0.0, 0.0, 0.0, 0.0, 0.0, 0.0, 1.6620649123513527E9, 0.0, 2022-09-01 16:41:52.351
2.0, -21399.113106621877, -21377.051934844487, -29683.273098858965, -17354.542595689607, -12598.426651767095, -16207.048738843054, 26645.46986168264, -15566.581853220685, -25514.181019566182, -2609.096778523538, -29876.414522697276, -27393.403934646125, -8977.645215707447, 6702.8858307463925, -9279.907855976566, -21955.49272960338, 0.16943750000000002, 0.844625, -0.44634375000000004, 192.0, 0.0, 0.0, 0.0, 0.0, 0.0, 0.0, 0.0, 0.0, 0.0, 1.662064912351359E9, 0.0, 2022-09-01 16:41:52.351
4.0, -21457.406456161316, -21426.04695869052, -29749.188393257667, -17406.309235848097, -12666.84534154479, -16236.01659965713, 26893.283652458627, -15616.582705567207, -25582.39854364378, -2723.9847450238162, -29971.0741604655, -27499.664127786655, -9040.163044948942, 6553.017384173559, -9335.47429269246, -22053.952163929007, 0.16871875000000003, 0.8453124999999999, -0.451171875, 192.0, 2.5, 32.0, 13.0, 56.0, 120.5, 96.0, 0.0, 0.0, 0.0, 1.662064912351365E9, 0.0, 2022-09-01 16:41:52.351
6.0, -21370.860501630366, -21352.174443265732, -29662.39656953771, -17338.829319337525, -12572.230407265473, -16177.991471051155, 26606.533122841494, -15540.117387785602, -25517.019691112007, -2597.1162434954936, -29883.947060578714, -27403.551626628832, -8983.859000666023, 6725.1258164794235, -9287.216876413451, -21961.237127928394, 0.16871875000000003, 0.8453124999999999, -0.451171875, 192.0, 0.0, 0.0, 0.0, 0.0, 0.0, 0.0, 0.0, 0.0, 0.0, 1.6620649123513749E9, 0.0, 2022-09-01 16:41:52.351
8.0, -21427.879801735857, -21405.975092169654, -29729.07182324789, -17405.437517814342, -12644.627707556214, -16237.916497935832, 26930.74517616572, -15603.171658894022, -25539.751415223054, -2692.2005644083697, -29921.49799126363, -27471.94796466207, -9004.221439864808, 6579.772422286561, -9298.012768985363, -22031.063977606773, 0.16871875000000003, 0.8453124999999999, -0.451171875, 192.0, 0.0, 0.0, 0.0, 0.0, 0.0, 0.0, 0.0, 0.0, 0.0, 1.6620649123513803E9, 0.0, 2022-09-01 16:41:52.351
10.0, -21361.65158291478, -21338.45047217017, -29646.370368763255, -17337.219993736744, -12563.200302505531, -16182.8194478535, 26571.798511957946, -15524.337056200155, -25510.180057308684, -2610.616697146499, -29865.685685358727, -27399.774181815887, -8978.718099441303, 6707.579697082007, -9283.998225211886, -21971.295412933283, 0.16871875000000003, 0.8453124999999999, -0.451171875, 192.0, 0.0, 0.0, 0.0, 0.0, 0.0, 0.0, 0.0, 0.0, 0.0, 1.662064912351386E9, 0.0, 2022-09-01 16:41:52.351
12.0, -21452.690238081246, -21423.074176677965, -29725.853172046325, -17408.857334716, -12642.459588344049, -16247.63950677389, 26946.860783918, -15593.89568494507, -25534.85638318734, -2700.6942273013865, -29919.35222379592, -27465.62242098122, -8987.569390245604, 6570.697614037706, -9294.905876506076, -22032.986227629928, 0.16871875000000003, 0.8453124999999999, -0.451171875, 192.0, 0.0, 0.0, 0.0, 0.0, 0.0, 0.0, 0.0, 0.0, 0.0, 1.662064912351392E9, 0.0, 2022-09-01 16:41:52.351
14.0, -21360.176367780732, -21329.9344575327, -29646.459775741074, -17311.38137714641, -12557.210034991507, -16160.646517353836, 26547.144537823744, -15494.765698285782, -25537.270371588515, -2611.42135994689, -29896.19581654022, -27407.150257486137, -8985.133050099976, 6712.228859928711, -9305.724120822444, -21986.852227074174, 0.16871875000000003, 0.8453124999999999, -0.451171875, 192.0, 0.0, 0.0, 0.0, 0.0, 0.0, 0.0, 0.0, 0.0, 0.0, 1.662064912351398E9, 0.0, 2022-09-01 16:41:52.351
16.0, -21449.650400835326, -21420.95076095471, -29745.92503856719, -17406.108070148002, -12649.388629125195, -16249.852329474967, 26946.592562984537, -15582.071612128213, -25533.358816308835, -2679.4600700688447, -29913.853694659912, -27447.428100994603, -8977.309939540619, 6596.06684399448, -9301.790213798311, -22020.51395422387, 0.17, 0.85, -0.46, 192.0, 2.5, 40.0, 13.0, 72.0, 120.5, 80.0, 0.0, 0.0, 0.0, 1.6620649123514044E9, 0.0, 2022-09-01 16:41:52.351
18.0, -21347.391169952294, -21317.708053315648, -29658.306200302388, -17299.825525263015, -12569.43643920856, -16149.045961981532, 26534.06876731739, -15479.72297426736, -25539.25967684504, -2618.0598280501163, -29905.20356955571, -27414.883961067673, -8992.844401937056, 6737.016944529646, -9332.233289746438, -21989.467381175447, 0.17, 0.85, -0.46, 192.0, 0.0, 0.0, 0.0, 0.0, 0.0, 0.0, 0.0, 0.0, 0.0, 1.662064912351426E9, 0.0, 2022-09-01 16:41:52.351
20.0, -21434.29475239453, -21408.478487548648, -29747.60141940134, -17403.71643349128, -12650.774437281423, -16253.383905098905, 26940.22231581477, -15573.935577146482, -25512.437583498668, -2666.2054856068476, -29895.234691528643, -27433.927647343597, -8959.227378276275, 6623.8724140968825, -9300.203239941984, -22012.176753542037, 0.17, 0.85, -0.46, 192.0, 0.0, 0.0, 0.0, 0.0, 0.0, 0.0, 0.0, 0.0, 0.0, 1.6620649123514323E9, 0.0, 2022-09-01 16:41:52.351
22.0, -21332.84018431189, -21300.430154851696, -29667.0010288955, -17305.72638579922, -12568.251796752429, -16157.159645218808, 26537.309770263408, -15475.92317770996, -25545.182889125692, -2620.384409473468, -29914.166619082287, -27428.026786807393, -9002.857983453034, 6698.795461511071, -9350.494664966425, -22039.579992244246, 0.17, 0.85, -0.46, 192.0, 0.0, 0.0, 0.0, 0.0, 0.0, 0.0, 0.0, 0.0, 0.0, 1.6620649123514383E9, 0.0, 2022-09-01 16:41:52.351
24.0, -21418.022682431067, -21393.18989434122, -29733.341006438855, -17398.86610494448, -12631.350771349762, -16254.412085343849, 26911.23210325624, -15563.229091552388, -25492.23160651107, -2643.1161335845154, -29876.325115719454, -27414.23576047847, -8940.608375145004, 6629.88503335536, -9292.961274738464, -22035.780195686842, 0.17, 0.85, -0.46, 192.0, 0.0, 0.0, 0.0, 0.0, 0.0, 0.0, 0.0, 0.0, 0.0, 1.6620649123514447E9, 0.0, 2022-09-01 16:41:52.351
26.0, -21344.150167006275, -21305.88398049879, -29662.329514304343, -17295.62339730542, -12559.422857692583, -16150.00708699311, 26551.59253497035, -15467.58597702813, -25540.19845011216, -2631.7614474012194, -29915.507723749608, -27430.463126953022, -8990.184544346876, 6696.225010898711, -9334.669629892067, -22057.371980830667, 0.17200000000000001, 0.846, -0.45, 192.0, 2.5, 48.0, 13.0, 56.0, 120.5, 120.0, 0.0, 0.0, 0.0, 1.6620649123514507E9, 0.0, 2022-09-01 16:41:52.351
28.0, -21436.48522335115, -21409.685481749235, -29740.515916409007, -17392.38409905244, -12636.111692918741, -16257.429570845316, 26872.78710279311, -15563.206739807933, -25502.535760704966, -2635.673002680898, -29879.72258087666, -27418.862571580717, -8935.646287875925, 6660.46221977022, -9289.541457836802, -22028.02414036085, 0.17200000000000001, 0.846, -0.45, 192.0, 0.0, 0.0, 0.0, 0.0, 0.0, 0.0, 0.0, 0.0, 0.0, 1.6620649123514574E9, 0.0, 2022-09-01 16:41:52.351
30.0, -21357.27064100154, -21325.21823945263, -29690.44800882912, -17310.80023179057, -12596.705567444036, -16173.655232626825, 26571.083256135378, -15492.552875584708, -25574.82130227343, -2664.5067530282445, -29945.481413064175, -27474.026676896417, -9021.611097051036, 6658.361155791421, -9382.256493837416, -22082.115361942695, 0.17200000000000001, 0.846, -0.45, 192.0, 0.0, 0.0, 0.0, 0.0, 0.0, 0.0, 0.0, 0.0, 0.0, 1.6620649123514636E9, 0.0, 2022-09-01 16:41:52.351
32.0, -21410.66895850527, -21391.602920484893, -29735.352663439833, -17385.72327920476, -12633.205966139552, -16261.676402291823, 26818.31590155553, -15565.55367297574, -25493.840932111852, -2632.2084822903257, -29863.383455679832, -27415.33099595678, -8938.306145466107, 6653.689641200262, -9317.235269216928, -22029.678169450544, 0.17200000000000001, 0.846, -0.45, 192.0, 0.0, 0.0, 0.0, 0.0, 0.0, 0.0, 0.0, 0.0, 0.0, 1.6620649123514698E9, 0.0, 2022-09-01 16:41:52.351
34.0, -21359.70698114717, -21325.88879178629, -29700.48394208955, -17313.750662058672, -12602.427614024595, -16178.684375129269, 26609.68471880969, -15494.765698285782, -25572.384962127802, -2673.134526387993, -29943.156831640823, -27475.412485052646, -9016.26903012622, 6639.563338704507, -9393.991159676452, -22103.66244359761, 0.17200000000000001, 0.846, -0.45, 192.0, 0.0, 0.0, 0.0, 0.0, 0.0, 0.0, 0.0, 0.0, 0.0, 1.6620649123514757E9, 0.0, 2022-09-01 16:41:52.351
36.0, -21403.628159001848, -21379.778847668036, -29717.3148056644, -17362.656278926883, -12614.944590919566, -16240.956335181754, 26773.187729500263, -15538.664524396007, -25476.09364701434, -2591.193031214837, -29853.459281141673, -27389.5147311109, -8920.089473735032, 6684.780917737594, -9305.36649291116, -22022.525611224846, 0.176, 0.848, -0.45, 192.0, 2.5, 64.0, 13.0, 64.0, 120.5, 120.0, 0.0, 0.0, 0.0, 1.662064912351482E9, 0.0, 2022-09-01 16:41:52.351
38.0, -21381.05289710199, -21346.206527496164, -29707.725907293072, -17312.65542658036, -12605.735672203979, -16185.076974043486, 26658.925611844734, -15502.141773956035, -25572.630831316812, -2687.126718417015, -29955.53969806906, -27483.39205782319, -9012.916268457922, 6641.709106172217, -9382.032976392862, -22114.43598442507, 0.176, 0.848, -0.45, 192.0, 0.0, 0.0, 0.0, 0.0, 0.0, 0.0, 0.0, 0.0, 0.0, 1.6620649123514898E9, 0.0, 2022-09-01 16:41:52.351
40.0, -21389.837132672925, -21369.60880394087, -29698.919319977682, -17330.0897872555, -12587.20607605053, -16217.330541292495, 26724.416223098782, -15514.681102595461, -25476.697144114634, -2590.902458536918, -29852.654618341283, -27384.932623497563, -8912.66869457587, 6718.643810587384, -9288.736795036411, -22004.778326127333, 0.176, 0.848, -0.45, 192.0, 0.0, 0.0, 0.0, 0.0, 0.0, 0.0, 0.0, 0.0, 0.0, 1.6620649123514957E9, 0.0, 2022-09-01 16:41:52.351
42.0, -21397.9508159102, -21365.764303894557, -29721.87456153328, -17326.91583954285, -12622.633591012192, -16201.863134129422, 26717.57658929546, -15526.125195756578, -25573.614308072843, -2689.9653899628393, -29953.662151534816, -27489.62819452622, -9009.608210278537, 6615.848137837427, -9375.528618756369, -22098.61094935071, 0.176, 0.848, -0.45, 192.0, 0.0, 0.0, 0.0, 0.0, 0.0, 0.0, 0.0, 0.0, 0.0, 1.6620649123515017E9, 0.0, 2022-09-01 16:41:52.351
44.0, -21370.905205119278, -21350.162786264755, -29671.024342897457, -17310.353196901466, -12571.135171787164, -16196.744584649157, 26672.291955029006, -15483.00868070229, -25482.88857732875, -2581.9170572658845, -29847.759586305572, -27380.104646695218, -8921.117653979976, 6721.840110044493, -9295.755242795378, -21984.97468053993, 0.176, 0.848, -0.45, 192.0, 0.0, 0.0, 0.0, 0.0, 0.0, 0.0, 0.0, 0.0, 0.0, 1.6620649123515077E9, 0.0, 2022-09-01 16:41:52.351
46.0, -21400.74478396711, -21364.62436492734, -29704.663718302694, -17311.80606029106, -12609.937800161577, -16184.205256009729, 26774.01474404511, -15491.815268017683, -25562.81841550093, -2680.376491591512, -29941.189878128753, -27470.271583827925, -8987.725852456791, 6610.327256956966, -9353.445095234525, -22067.027934435362, 0.17200000000000001, 0.842, -0.454, 192.0, 2.5, 48.0, 13.0, 40.0, 120.5, 104.0, 0.0, 0.0, 0.0, 1.662064912351513E9, 0.0, 2022-09-01 16:41:52.351
48.0, -21388.831304172436, -21364.51260620506, -29674.86884294377, -17303.692377053783, -12571.179875276075, -16189.636729912369, 26615.630282834805, -15484.953282469904, -25503.206313038627, -2577.804336286108, -29862.779958579536, -27381.021068217884, -8922.056427247098, 6746.829360345526, -9296.358739895672, -21975.11756123514, 0.17200000000000001, 0.842, -0.454, 192.0, 0.0, 0.0, 0.0, 0.0, 0.0, 0.0, 0.0, 0.0, 0.0, 1.6620649123515184E9, 0.0, 2022-09-01 16:41:52.351
50.0, -21424.281170878552, -21390.88766466232, -29725.3167301794, -17334.113101257455, -12624.220564868518, -16209.172154566308, 26815.007843376145, -15524.627628878074, -25574.709543551155, -2682.030520681205, -29955.629105046883, -27485.738990990998, -8992.598532748048, 6611.288381968544, -9349.891167866132, -22078.807303763308, 0.17200000000000001, 0.842, -0.454, 192.0, 0.0, 0.0, 0.0, 0.0, 0.0, 0.0, 0.0, 0.0, 0.0, 1.6620649123515253E9, 0.0, 2022-09-01 16:41:52.351
52.0, -21356.60008866788, -21332.102576744866, -29661.21192708158, -17286.012147189635, -12554.617232634691, -16172.358831448417, 26573.139616625263, -15472.078677663647, -25495.204388523627, -2577.781984541653, -29854.91214453127, -27377.690658294043, -8926.839700560535, 6751.500874936685, -9293.453013116481, -21976.68218334701, 0.17200000000000001, 0.842, -0.454, 192.0, 0.0, 0.0, 0.0, 0.0, 0.0, 0.0, 0.0, 0.0, 0.0, 1.6620649123515308E9, 0.0, 2022-09-01 16:41:52.351
54.0, -21438.34041814094, -21411.786545728035, -29759.917230596213, -17374.636813954927, -12659.066934474342, -16244.17498638332, 26847.12730015842, -15558.93755661697, -25569.278069648513, -2705.9468872483835, -29944.185011885766, -27490.276395115423, -9000.44399505186, 6582.007596732092, -9356.909615625098, -22089.245568423936, 0.17200000000000001, 0.842, -0.454, 192.0, 0.0, 0.0, 0.0, 0.0, 0.0, 0.0, 0.0, 0.0, 0.0, 1.6620649123515363E9, 0.0, 2022-09-01 16:41:52.351
56.0, -21363.99851608259, -21343.434911183707, -29670.890232430727, -17308.81092653405, -12566.396601962639, -16188.273273500596, 26524.412813712697, -15482.718108024374, -25520.506563247036, -2600.558412141611, -29879.700229132206, -27410.860647065718, -8967.54222721365, 6719.2026041987665, -9329.148749011607, -22014.903666365586, 0.168, 0.848, -0.452, 192.0, 2.5, 32.0, 13.0, 64.0, 120.5, 112.0, 0.0, 0.0, 0.0, 1.6620649123515415E9, 0.0, 2022-09-01 16:41:52.351
58.0, -21446.521156611583, -21422.224810388663, -29749.70248338014, -17379.66595645737, -12636.31285861884, -16246.052532917563, 26875.55871910557, -15551.494425713352, -25543.886487947286, -2692.781709764208, -29929.611674500906, -27475.233671097, -8977.511105240716, 6582.164058943279, -9335.809568859288, -22071.721800770974, 0.168, 0.848, -0.452, 192.0, 0.0, 0.0, 0.0, 0.0, 0.0, 0.0, 0.0, 0.0, 0.0, 1.6620649123515475E9, 0.0, 2022-09-01 16:41:52.351
60.0, -21359.349353235884, -21337.44464366968, -29660.42961602564, -17280.55832154254, -12542.949622029022, -16157.651383596825, 26498.90947328919, -15459.137017624023, -25537.538592521978, -2614.3941419594457, -29902.409601498795, -27418.482591924978, -8965.8658463795, 6724.008229256658, -9338.46942644947, -22015.77538439934, 0.168, 0.848, -0.452, 192.0, 0.0, 0.0, 0.0, 0.0, 0.0, 0.0, 0.0, 0.0, 0.0, 1.6620649123515525E9, 0.0, 2022-09-01 16:41:52.351
62.0, -21455.797130560535, -21437.044016962533, -29765.08048356539, -17383.890436159425, -12649.992126225487, -16260.067076691043, 26889.08152450103, -15564.525492730796, -25538.544421022467, -2698.7943290226854, -29926.59418899944, -27467.81289193784, -8961.306090510618, 6592.691730581729, -9334.915499081077, -22057.12611164166, 0.168, 0.848, -0.452, 192.0, 0.0, 0.0, 0.0, 0.0, 0.0, 0.0, 0.0, 0.0, 0.0, 1.6620649123515575E9, 0.0, 2022-09-01 16:41:52.351
64.0, -21342.205565238663, -21327.60987610935, -29660.80959568138, -17274.970385428715, -12553.097314011731, -16164.870997055888, 26480.67044981366, -15465.529616538242, -25541.606610012845, -2619.5797466730774, -29910.63504345835, -27434.95582758854, -8980.796811675646, 6709.591354082984, -9362.363441272193, -22037.300114309804, 0.168, 0.848, -0.452, 192.0, 0.0, 0.0, 0.0, 0.0, 0.0, 0.0, 0.0, 0.0, 0.0, 1.6620649123515625E9, 0.0, 2022-09-01 16:41:52.351
66.0, -21435.546450084024, -21426.49399357963, -29747.914343823715, -17381.16352333588, -12651.824969270823, -16267.97959422822, 26886.578129122037, -15574.583777735685, -25510.560036964423, -2681.5611340476435, -29889.19972052571, -27446.399920749656, -8944.698744380325, 6611.131919757357, -9323.314943708772, -22048.967724915474, 0.17, 0.848, -0.452, 192.0, 2.5, 40.0, 13.0, 64.0, 120.5, 112.0, 0.0, 0.0, 0.0, 1.6620649123515692E9, 0.0, 2022-09-01 16:41:52.351
68.0, -21341.333847204907, -21329.062739498942, -29658.552069491398, -17288.828466991006, -12576.276073011884, -16179.332575718472, 26471.685048542626, -15488.753079027305, -25555.509395064044, -2646.71476444182, -29908.77984866856, -27447.584563205786, -8998.700558984347, 6688.13367940589, -9380.401299047626, -22062.51288205539, 0.17, 0.848, -0.452, 192.0, 0.0, 0.0, 0.0, 0.0, 0.0, 0.0, 0.0, 0.0, 0.0, 1.6620649123515751E9, 0.0, 2022-09-01 16:41:52.351
70.0, -21436.14994718432, -21426.963380213187, -29730.30116919293, -17376.223787811254, -12648.718076791534, -16266.705544794268, 26872.16125394836, -15579.344699304665, -25501.19465603765, -2669.67000599742, -29876.839205841927, -27435.849897366752, -8945.704572880813, 6614.7752541035725, -9319.917478551564, -22041.27872482285, 0.17, 0.848, -0.452, 192.0, 0.0, 0.0, 0.0, 0.0, 0.0, 0.0, 0.0, 0.0, 0.0, 1.6620649123515832E9, 0.0, 2022-09-01 16:41:52.351
72.0, -21361.0927893034, -21342.85376582787, -29661.100168359302, -17272.42228656081, -12571.738668887458, -16162.255842954619, 26488.448856884108, -15481.421706845966, -25564.472444590625, -2652.101534855549, -29931.265703590598, -27455.29591504287, -9002.746224730758, 6681.718728747217, -9369.38188903116, -22044.899707424607, 0.17, 0.848, -0.452, 192.0, 0.0, 0.0, 0.0, 0.0, 0.0, 0.0, 0.0, 0.0, 0.0, 1.662064912351589E9, 0.0, 2022-09-01 16:41:52.351
74.0, -21432.14898492682, -21419.67671152076, -29724.40030865673, -17356.308383501575, -12623.035922412388, -16238.92232643632, 26859.756035775667, -15550.2203762794, -25494.332670489868, -2651.945072644362, -29880.460188443685, -27421.455373937533, -8923.978677270256, 6636.344687502943, -9284.825239756732, -21989.892064320098, 0.17, 0.848, -0.452, 192.0, 0.0, 0.0, 0.0, 0.0, 0.0, 0.0, 0.0, 0.0, 0.0, 1.6620649123515952E9, 0.0, 2022-09-01 16:41:52.351
76.0, -21365.093751560897, -21343.8372425839, -29685.038886670936, -17293.634092048895, -12578.53359920187, -16158.254880697117, 26525.530400935462, -15482.181666157445, -25572.027334216516, -2667.2113141073364, -29944.83321247497, -27469.846900683275, -9007.373035833007, 6662.65269072684, -9360.66470869359, -22041.614000989677, 0.17400000000000002, 0.85, -0.454, 192.0, 2.5, 56.0, 13.0, 72.0, 120.5, 104.0, 0.0, 0.0, 0.0, 1.662064912351601E9, 0.0, 2022-09-01 16:41:52.351
78.0, -21425.465813334682, -21417.150964397308, -29740.895896064747, -17385.2538925712, -12632.200137639064, -16249.919384708332, 26823.479154524703, -15560.680992684483, -25494.220911767592, -2636.678831181387, -29870.11133076088, -27417.297949468848, -8933.76874134168, 6650.582748720974, -9297.453975373981, -21994.78709635581, 0.17400000000000002, 0.85, -0.454, 192.0, 0.0, 0.0, 0.0, 0.0, 0.0, 0.0, 0.0, 0.0, 0.0, 1.662064912351607E9, 0.0, 2022-09-01 16:41:52.351
80.0, -21369.877024874335, -21348.79932985298, -29702.205026412612, -17323.272505196634, -12602.226448324496, -16178.885540829366, 26568.937488667667, -15502.700567567417, -25579.202244186672, -2685.7185585163306, -29943.805032230026, -27475.993630408484, -9025.746169775268, 6639.36217300441, -9386.704490984022, -22075.856873495206, 0.17400000000000002, 0.85, -0.454, 192.0, 0.0, 0.0, 0.0, 0.0, 0.0, 0.0, 0.0, 0.0, 0.0, 1.662064912351613E9, 0.0, 2022-09-01 16:41:52.351
82.0, -21406.265664847575, -21391.848789673903, -29714.409078885208, -17366.59018595102, -12608.529640260893, -16232.239154844185, 26788.230453518685, -15539.64800115204, -25487.04600179744, -2619.6244501619876, -29860.969467278657, -27401.674080094588, -8930.013648273189, 6673.426231554298, -9305.634713844624, -22010.88035236363, 0.17400000000000002, 0.85, -0.454, 192.0, 0.0, 0.0, 0.0, 0.0, 0.0, 0.0, 0.0, 0.0, 0.0, 1.6620649123516188E9, 0.0, 2022-09-01 16:41:52.351
84.0, -21398.196685099207, -21372.313365019963, -29721.82985804437, -17335.074226269036, -12622.186556123086, -16192.408346224827, 26624.414518405738, -15514.010550261803, -25571.893223749787, -2677.9848549347944, -29950.711721266714, -27474.67487748562, -9010.435224823383, 6631.717876400695, -9378.970787402486, -22084.529350343866, 0.17400000000000002, 0.85, -0.454, 192.0, 0.0, 0.0, 0.0, 0.0, 0.0, 0.0, 0.0, 0.0, 0.0, 1.6620649123516245E9, 0.0, 2022-09-01 16:41:52.351
86.0, -21418.983807442644, -21405.61746425837, -29726.613131357808, -17365.740819661718, -12620.577230522304, -16240.330486337005, 26737.514345349595, -15542.799597120238, -25514.069260843906, -2627.4028572324346, -29885.06464780148, -27415.71097561252, -8947.58211941506, 6666.765411706617, -9322.979667541942, -22011.126221552637, 0.17400000000000002, 0.851, -0.454, 192.0, 2.5, 56.0, 13.0, 80.0, 120.5, 104.0, 0.0, 0.0, 0.0, 1.6620649123516304E9, 0.0, 2022-09-01 16:41:52.351
88.0, -21400.476563033648, -21373.743876665103, -29720.108773721313, -17329.307476199567, -12622.588887523281, -16185.836933354967, 26677.32109753145, -15514.524640384274, -25588.880549535817, -2694.614552809543, -29962.893421994857, -27488.421200325633, -9022.013428451231, 6608.159137744801, -9392.046557908841, -22078.27086189638, 0.17400000000000002, 0.851, -0.454, 192.0, 0.0, 0.0, 0.0, 0.0, 0.0, 0.0, 0.0, 0.0, 0.0, 1.662064912351636E9, 0.0, 2022-09-01 16:41:52.351
90.0, -21385.970280882157, -21375.53201622153, -29671.58313650884, -17329.642752366395, -12578.935930602067, -16197.817468383011, 26694.24136808412, -15505.561590857697, -25485.280213985472, -2589.9636852697954, -29843.62451358134, -27383.122132196684, -8919.843604546024, 6726.71279033575, -9303.019559743352, -21961.080665717207, 0.17400000000000002, 0.851, -0.454, 192.0, 0.0, 0.0, 0.0, 0.0, 0.0, 0.0, 0.0, 0.0, 0.0, 1.6620649123516417E9, 0.0, 2022-09-01 16:41:52.351
92.0, -21416.502763808105, -21393.458115274683, -29717.515971364497, -17344.126682773433, -12625.315800346829, -16201.170230051308, 26733.401624369817, -15524.560573644707, -25579.649279075777, -2708.5173378607437, -29948.54360205455, -27491.796313738385, -9007.484794555283, 6602.951181286715, -9379.171953102583, -22066.13386465715, 0.17400000000000002, 0.851, -0.454, 192.0, 0.0, 0.0, 0.0, 0.0, 0.0, 0.0, 0.0, 0.0, 0.0, 1.6620649123516471E9, 0.0, 2022-09-01 16:41:52.351
94.0, -21386.19379832671, -21373.43095224273, -29676.92520343366, -17327.407577920865, -12571.805724120823, -16196.655177671335, 26640.038387779998, -15504.77927980176, -25496.970176335595, -2608.7615023567087, -29852.967542763658, -27389.17945494407, -8925.319781937575, 6710.418368627831, -9300.560867853268, -21959.046656971772, 0.17400000000000002, 0.851, -0.454, 192.0, 0.0, 0.0, 0.0, 0.0, 0.0, 0.0, 0.0, 0.0, 0.0, 1.6620649123516529E9, 0.0, 2022-09-01 16:41:52.351
96.0, -21432.10428143791, -21410.110164893886, -29741.879372820782, -17368.065401085067, -12635.172919651619, -16221.063282616531, 26785.39178197286, -15547.98520183387, -25583.58318609991, -2716.4298553979224, -29960.25591614913, -27504.313290633356, -9011.977495190798, 6570.2505791486, -9365.7609064294, -22070.537158314844, 0.175, 0.8505, -0.452, 192.0, 2.5, 64.0, 13.0, 72.0, 120.5, 120.0, 0.0, 0.0, 0.0, 1.6620649123516595E9, 0.0, 2022-09-01 16:41:52.351
98.0, -21362.970335837643, -21351.772111865535, -29663.827081182848, -17314.13064171441, -12551.800912833323, -16182.30535773103, 26598.59825355986, -15493.357538385098, -25501.507580460024, -2596.333932439558, -29860.276563200543, -27395.639109091655, -8935.311011709096, 6713.8605372739485, -9296.716367806956, -21963.807578540753, 0.175, 0.8505, -0.452, 192.0, 0.0, 0.0, 0.0, 0.0, 0.0, 0.0, 0.0, 0.0, 0.0, 1.6620649123516655E9, 0.0, 2022-09-01 16:41:52.351
100.0, -21420.302560365508, -21399.56014151098, -29731.485811649065, -17361.091656815013, -12622.767701478924, -16217.866983159422, 26838.812451221045, -15546.688800655462, -25558.504528821057, -2691.4629568413447, -29933.88085769187, -27482.20741536706, -8988.038776879166, 6601.006579519103, -9339.832882861243, -22057.237870363937, 0.175, 0.8505, -0.452, 192.0, 0.0, 0.0, 0.0, 0.0, 0.0, 0.0, 0.0, 0.0, 0.0, 1.6620649123516755E9, 0.0, 2022-09-01 16:41:52.351
102.0, -21364.445550971694, -21350.27454498703, -29671.225508597556, -17310.889638768393, -12564.519055428393, -16194.621168925903, 26552.77717742648, -15506.030977491258, -25501.909911860217, -2585.292170678636, -29859.38249342233, -27386.072562464782, -8945.905738580912, 6733.530072394618, -9313.323713937249, -21986.87457881863, 0.175, 0.8505, -0.452, 192.0, 0.0, 0.0, 0.0, 0.0, 0.0, 0.0, 0.0, 0.0, 0.0, 1.6620649123516834E9, 0.0, 2022-09-01 16:41:52.351
104.0, -21442.72136005418, -21421.174278399263, -29756.60917241683, -17382.57168323656, -12657.79288504039, -16260.000021457676, 26861.164195676352, -15591.548751777264, -25567.95931672565, -2716.832186798118, -29945.34730259744, -27486.454246813566, -9004.623771265004, 6557.040698175514, -9373.539313499847, -22099.28150168437, 0.175, 0.8505, -0.452, 192.0, 0.0, 0.0, 0.0, 0.0, 0.0, 0.0, 0.0, 0.0, 0.0, 1.6620649123516889E9, 0.0, 2022-09-01 16:41:52.351
106.0, -21343.323152461428, -21328.123966231822, -29652.047711854902, -17289.09668792447, -12556.360668702206, -16180.226645496685, 26513.68397637415, -15499.280750665755, -25507.18492355167, -2592.489432393245, -29868.18908073772, -27393.918024768594, -8957.014555575199, 6714.844014029982, -9339.743475883422, -22012.914361109062, 0.1745, 0.85025, -0.453, 192.0, 2.5, 56.0, 13.0, 72.0, 120.5, 104.0, 0.0, 0.0, 0.0, 1.6620649128310392E9, 0.0, 2022-09-01 16:41:52.831
108.0, -21422.96241795569, -21402.354109567896, -29735.50912565102, -17366.880758628937, -12646.862882001744, -16242.565660782537, 26886.75694307768, -15576.438972525475, -25516.3714905228, -2682.634017781498, -29896.978127596158, -27447.584563205786, -8964.01065158971, 6582.63344557684, -9334.870795592165, -22052.812224961785, 0.1745, 0.85025, -0.453, 192.0, 0.0, 0.0, 0.0, 0.0, 0.0, 0.0, 0.0, 0.0, 0.0, 1.6620649128310707E9, 0.0, 2022-09-01 16:41:52.831
110.0, -21343.74783560608, -21325.397053408273, -29651.15364207669, -17285.36394660043, -12564.29553798384, -16156.869072540889, 26490.996955752013, -15488.708375538396, -25521.870019658807, -2603.5982493875326, -29876.25806048609, -27402.501094639432, -8973.82306740559, 6727.159825224856, -9347.387772487136, -21995.144724267095, 0.1745, 0.85025, -0.453, 192.0, 0.0, 0.0, 0.0, 0.0, 0.0, 0.0, 0.0, 0.0, 0.0, 1.662064912831094E9, 0.0, 2022-09-01 16:41:52.831
112.0, -21456.937069527754, -21436.10524369541, -29755.715102638616, -17394.239293842234, -12664.006669998966, -16246.186643384295, 26890.668498357358, -15593.739222733882, -25532.755319208543, -2689.741872518286, -29906.321156778475, -27455.273563298415, -8972.861942394013, 6580.130050197846, -9336.010734559386, -22021.92211412455, 0.1745, 0.85025, -0.453, 192.0, 0.0, 0.0, 0.0, 0.0, 0.0, 0.0, 0.0, 0.0, 0.0, 1.6620649128310983E9, 0.0, 2022-09-01 16:41:52.831
114.0, -21347.234707741107, -21326.17936446421, -29650.930124632137, -17274.366888328423, -12553.276127967374, -16133.24327865163, 26484.693763815616, -15477.241930632823, -25549.630886272298, -2626.911118854418, -29904.53301722205, -27425.679853639587, -8997.560620017126, 6704.450452858264, -9354.13799931264, -21985.466418917946, 0.1745, 0.85025, -0.453, 192.0, 0.0, 0.0, 0.0, 0.0, 0.0, 0.0, 0.0, 0.0, 0.0, 1.6620649128311028E9, 0.0, 2022-09-01 16:41:52.831
116.0, -21451.460892136205, -21436.19465067323, -29753.479928193086, -17386.147962349412, -12651.176768681618, -16245.627849772913, 26882.487759886713, -15585.536132518786, -25515.656234700233, -2665.780802462197, -29892.418371727275, -27441.057853824837, -8957.215721275297, 6599.3078469405, -9314.575411626747, -21989.44502943099, 0.17125, 0.850125, -0.4535, 192.0, 2.5, 32.0, 13.0, 72.0, 120.5, 104.0, 0.0, 0.0, 0.0, 1.6620649128311071E9, 0.0, 2022-09-01 16:41:52.831
118.0, -21348.285239730507, -21326.469937142127, -29654.48405200053, -17272.645804005362, -12555.667764624091, -16142.675714811769, 26489.141760962222, -15483.746288269316, -25556.11289216434, -2622.32901124108, -29918.81578192899, -27440.05202532435, -9005.8754689545, 6686.65846427184, -9365.13505758465, -22000.330328980726, 0.17125, 0.850125, -0.4535, 192.0, 0.0, 0.0, 0.0, 0.0, 0.0, 0.0, 0.0, 0.0, 0.0, 1.6620649128311126E9, 0.0, 2022-09-01 16:41:52.831
120.0, -21445.62708683337, -21430.226734903663, -29729.27298894799, -17386.326776305053, -12635.441140585082, -16257.809550501055, 26873.144730704396, -15590.721737232416, -25500.747621148545, -2658.9188169144177, -29874.62638314085, -27424.85283909474, -8937.81440708809, 6621.59253616244, -9298.12452770764, -21984.68410786201, 0.17125, 0.850125, -0.4535, 192.0, 0.0, 0.0, 0.0, 0.0, 0.0, 0.0, 0.0, 0.0, 0.0, 1.662064912831117E9, 0.0, 2022-09-01 16:41:52.831
122.0, -21357.78473112401, -21336.729387847114, -29645.63276119623, -17289.297853624565, -12570.174046775586, -16159.327764430973, 26516.500296175516, -15499.794840788227, -25561.499662578066, -2657.6224157360098, -29918.793430184538, -27450.087958584783, -9002.455652052839, 6666.094859372957, -9357.870740636676, -22027.755919427385, 0.17125, 0.850125, -0.4535, 192.0, 0.0, 0.0, 0.0, 0.0, 0.0, 0.0, 0.0, 0.0, 0.0, 1.6620649128311212E9, 0.0, 2022-09-01 16:41:52.831
124.0, -21435.30058089502, -21423.05182493351, -29703.16615142419, -17378.86129365698, -12621.001913666954, -16251.729876009213, 26847.6860937698, -15584.820876696216, -25490.6669843992, -2636.678831181387, -29849.614781095363, -27407.70905109752, -8924.850395304013, 6644.0113358511135, -9281.450126343982, -21986.11461950715, 0.17125, 0.850125, -0.4535, 192.0, 0.0, 0.0, 0.0, 0.0, 0.0, 0.0, 0.0, 0.0, 0.0, 1.6620649128311255E9, 0.0, 2022-09-01 16:41:52.831
126.0, -21374.61559469886, -21352.688533388202, -29656.763929934972, -17304.13941194289, -12574.44322996655, -16165.653308111825, 26555.05705536092, -15506.992102502836, -25575.804779029462, -2677.806040979152, -29926.415375043798, -27465.980048892507, -9008.915306200422, 6651.208597565723, -9352.528673711859, -22044.475024279956, 0.16662500000000002, 0.8520625, -0.45275, 192.0, 2.5, 8.0, 13.0, 88.0, 120.5, 112.0, 0.0, 0.0, 0.0, 1.6620649128311298E9, 0.0, 2022-09-01 16:41:52.831
128.0, -21436.373464628872, -21421.978941199653, -29704.64136655824, -17376.983747122737, -12609.691930972569, -16236.55304152406, 26817.712404455237, -15566.783018920783, -25493.505655945024, -2639.1375230714707, -29858.555478877486, -27414.101650011737, -8924.559822626094, 6638.9598416042145, -9272.062393672752, -21972.122427478127, 0.16662500000000002, 0.8520625, -0.45275, 192.0, 0.0, 0.0, 0.0, 0.0, 0.0, 0.0, 0.0, 0.0, 0.0, 1.662064912831134E9, 0.0, 2022-09-01 16:41:52.831
130.0, -21394.396888541807, -21368.55827195147, -29692.459665830098, -17321.2384964512, -12593.643378453658, -16165.452142411727, 26601.54868382796, -15517.340960185644, -25589.68521233621, -2685.4279858384116, -29954.086834679467, -27488.667069514642, -9025.232079652797, 6625.794664120039, -9366.744383185433, -22044.050341135306, 0.16662500000000002, 0.8520625, -0.45275, 192.0, 0.0, 0.0, 0.0, 0.0, 0.0, 0.0, 0.0, 0.0, 0.0, 1.6620649128311384E9, 0.0, 2022-09-01 16:41:52.831
132.0, -21425.44346159023, -21411.272455605562, -29710.855151516815, -17376.53671223363, -12605.199230337052, -16234.519032778626, 26766.236336974664, -15562.715001429917, -25486.777780863977, -2609.968496557295, -29858.063740499467, -27404.199827218035, -8927.62201161647, 6660.484571514675, -9279.505524576369, -21955.313915647737, 0.16662500000000002, 0.8520625, -0.45275, 192.0, 0.0, 0.0, 0.0, 0.0, 0.0, 0.0, 0.0, 0.0, 0.0, 1.662064912831143E9, 0.0, 2022-09-01 16:41:52.831
