%OpenBCI Raw EEG Data
%Number of channels = 16
%Sample Rate = 125 Hz
%Board = OpenBCI_GUI$BoardCytonSerialDaisy
Sample Index, EXG Channel 0, EXG Channel 1, EXG Channel 2, EXG Channel 3, EXG Channel 4, EXG Channel 5, EXG Channel 6, EXG Channel 7, EXG Channel 8, EXG Channel 9, EXG Channel 10, EXG Channel 11, EXG Channel 12, EXG Channel 13, EXG Channel 14, EXG Channel 15, Accel Channel 0, Accel Channel 1, Accel Channel 2, Other, Other, Other, Other, Other, Other, Other, Analog Channel 0, Analog Channel 1, Analog Channel 2, Timestamp, Other, Timestamp (Formatted)
60.0, -17602.401089954506, 22896.612929894083, -36388.4388075398, -35418.77542957967, -28367.917641153057, -29245.84945986861, -24586.225996759655, -3864.9071890005102, -26338.44629984454, -3892.735110847367, -29258.232326296846, -34387.4659404118, -27861.89649842936, -11305.512345494313, -23120.39859538062, -35557.51270741376, 0.0, 0.0, 0.0, 192.0, 0.0, 0.0, 0.0, 0.0, 0.0, 0.0, 0.0, 0.0, 0.0, 1.6689767286240487E9, 0.0, 2022-11-20 15:38:48.624
62.0, -17621.422424485972, 23311.90834187369, -36395.70312448777, -35445.41870897039, -28371.158644099076, -29257.092387329627, -24591.970395084667, -3870.00338673632, -26257.3988744496, -3819.2202233338626, -29174.30152586717, -34311.090029608014, -27772.981258986147, -11220.12868167504, -23033.807937360758, -35472.53137499468, 0.0, 0.0, 0.0, 192.0, 0.0, 0.0, 0.0, 0.0, 0.0, 0.0, 0.0, 0.0, 0.0, 1.668976728624055E9, 0.0, 2022-11-20 15:38:48.624
64.0, -17622.58471519765, 22927.324226775676, -36401.96161293526, -35437.79676411114, -28377.23831859092, -29261.47332924287, -24597.848903876413, -3882.9003432870322, -26355.366570397207, -3912.1587767790293, -29279.913518418496, -34414.39979248045, -27878.079161415, -11324.108996881128, -23124.421909382574, -35570.14144303101, 0.0, 0.0, 0.0, 192.0, 0.0, 0.0, 0.0, 0.0, 0.0, 0.0, 0.0, 0.0, 0.0, 1.6689767286240609E9, 0.0, 2022-11-20 15:38:48.624
66.0, -17616.01330232779, 23262.756855816468, -36388.41645579535, -35435.89686583244, -28364.989562629413, -29254.79015765073, -24587.94708108271, -3872.104450715119, -26265.28904024232, -3824.651697236502, -29176.559052057157, -34315.13569535443, -27778.546843355518, -11228.93526899043, -23031.863335593145, -35482.32143906611, 0.0, 0.0, 0.0, 192.0, 0.0, 0.0, 0.0, 0.0, 0.0, 0.0, 0.0, 0.0, 0.0, 1.6689767286240673E9, 0.0, 2022-11-20 15:38:48.624
68.0, -17644.69059046395, 22962.215299870408, -36415.41736309735, -35452.14658405144, -28390.93993794202, -29278.684172473455, -24611.63993020534, -3900.178241750985, -26351.007980228424, -3902.234602240873, -29271.777483436763, -34402.95569931933, -27875.28519335809, -11321.695008479956, -23113.603665066203, -35564.642913895004, 0.076, 0.9500000000000001, -0.124, 192.0, 1.0, 48.0, 14.5, 88.0, 126.0, 16.0, 0.0, 0.0, 0.0, 1.6689767286240735E9, 0.0, 2022-11-20 15:38:48.624
70.0, -17598.82481084166, 23203.234160331984, -36363.069577583025, -35413.25454869921, -28334.770004125836, -29231.27612248375, -24561.28144994753, -3845.9752614468653, -26273.29096475732, -3831.401924062005, -29185.410342861458, -34322.08708788003, -27780.245575934125, -11234.836129526631, -23026.141289012587, -35482.61201174403, 0.076, 0.9500000000000001, -0.124, 192.0, 0.0, 0.0, 0.0, 0.0, 0.0, 0.0, 0.0, 0.0, 0.0, 1.6689767286240804E9, 0.0, 2022-11-20 15:38:48.624
72.0, -17658.056933648222, 23008.41635565953, -36422.65932830088, -35471.16791858291, -28388.548301285304, -29288.474236544876, -24613.67393895077, -3899.910020817521, -26340.793233012348, -3891.1481369910407, -29270.525785747268, -34402.17338826339, -27860.577745506496, -11313.134290353571, -23090.536664788327, -35549.44372766539, 0.076, 0.9500000000000001, -0.124, 192.0, 0.0, 0.0, 0.0, 0.0, 0.0, 0.0, 0.0, 0.0, 0.0, 1.668976728624087E9, 0.0, 2022-11-20 15:38:48.624
74.0, -17584.81026706818, 23131.19448795253, -36347.53511518659, -35405.09616197302, -28315.74866959437, -29221.15078224549, -24544.070606716945, -3832.0948281401193, -26277.135464803632, -3845.4164678354823, -29193.278156909724, -34339.67791076635, -27784.82768354746, -11242.74864706381, -23027.21417274644, -35494.4807880498, 0.076, 0.9500000000000001, -0.124, 192.0, 0.0, 0.0, 0.0, 0.0, 0.0, 0.0, 0.0, 0.0, 0.0, 1.668976728624094E9, 0.0, 2022-11-20 15:38:48.624
76.0, -17653.83245394617, 23084.166417618566, -36420.625319555445, -35468.8209854151, -28392.90689145409, -29291.335259835156, -24618.926598897768, -3902.4134161965153, -26314.909912933104, -3871.947988503932, -29244.910686601484, -34378.346428674035, -27843.322198787, -11291.296636020737, -23077.103266370686, -35541.26298919475, 0.076, 0.9500000000000001, -0.124, 192.0, 0.0, 0.0, 0.0, 0.0, 0.0, 0.0, 0.0, 0.0, 0.0, 1.6689767286241012E9, 0.0, 2022-11-20 15:38:48.624
78.0, -17576.316604175165, 23071.627088979138, -36343.3776907179, -35390.96985947727, -28317.961492295446, -29213.5958926196, -24542.505984605075, -3825.23284259234, -26278.789493893328, -3847.785752747745, -29188.941918485394, -34334.805230475096, -27791.77907607306, -11239.619402840068, -23040.736978141904, -35495.55367178365, 0.079, 0.9520000000000001, -0.124, 192.0, 1.0, 72.0, 14.5, 104.0, 126.0, 16.0, 0.0, 0.0, 0.0, 1.6689767286241074E9, 0.0, 2022-11-20 15:38:48.624
80.0, -17666.148265141044, 23143.309133447307, -36431.91295050537, -35473.425444772896, -28407.703746283503, -29294.352745336622, -24626.503840268117, -3905.363846464616, -26309.366680308187, -3863.4096221220047, -29234.762994618774, -34367.88581226895, -27840.595285963453, -11282.020662071785, -23075.270423325353, -35522.01813721873, 0.079, 0.9520000000000001, -0.124, 192.0, 0.0, 0.0, 0.0, 0.0, 0.0, 0.0, 0.0, 0.0, 0.0, 1.668976728624114E9, 0.0, 2022-11-20 15:38:48.624
82.0, -17580.0493454992, 23003.431916645994, -36351.401966977355, -35389.04760945411, -28330.009082556855, -29213.417078663955, -24550.642019586805, -3834.0617816521863, -26305.72334596197, -3864.7954302782337, -29212.277139696736, -34354.8100417626, -27816.634215907365, -11264.429839185457, -23065.122731342643, -35510.14936091296, 0.079, 0.9520000000000001, -0.124, 192.0, 0.0, 0.0, 0.0, 0.0, 0.0, 0.0, 0.0, 0.0, 0.0, 1.6689767286241207E9, 0.0, 2022-11-20 15:38:48.624
84.0, -17663.667221506505, 23208.17389585661, -36434.48340111773, -35473.51485175072, -28411.9058742411, -29295.045649414737, -24633.187011860253, -3917.2773262592946, -26306.215084339987, -3850.557369060203, -29228.392747449012, -34357.26873365268, -27833.710948671218, -11276.85740910261, -23072.945841902, -35519.26887265073, 0.079, 0.9520000000000001, -0.124, 192.0, 0.0, 0.0, 0.0, 0.0, 0.0, 0.0, 0.0, 0.0, 0.0, 1.6689767286241276E9, 0.0, 2022-11-20 15:38:48.624
86.0, -17581.032822255234, 22950.100654375634, -36349.05503380955, -35385.02429545215, -28322.52124816433, -29205.30339542668, -24545.23289742862, -3833.748857229812, -26311.803020453815, -3866.8517907681216, -29220.30141595619, -34359.481556353756, -27819.60699791992, -11265.525074663768, -23073.169359346553, -35520.78879127369, 0.079, 0.9520000000000001, -0.124, 192.0, 0.0, 0.0, 0.0, 0.0, 0.0, 0.0, 0.0, 0.0, 0.0, 1.6689767286241324E9, 0.0, 2022-11-20 15:38:48.624
88.0, -17668.361087842117, 23257.951230758576, -36425.05096495759, -35476.286468063176, -28397.109019411688, -29289.971803423385, -24622.994616388634, -3907.755483121334, -26299.084877858746, -3838.2862613542393, -29225.084689269628, -34353.245419650724, -27821.193971776247, -11257.456094915402, -23058.774835917335, -35509.6799742794, 0.0795, 0.9530000000000001, -0.127, 192.0, 1.0, 64.0, 14.5, 104.0, 125.5, 120.0, 0.0, 0.0, 0.0, 1.6689767286241372E9, 0.0, 2022-11-20 15:38:48.624
90.0, -17597.640168385526, 22883.62656636555, -36361.79552814907, -35411.399353909415, -28333.920637836534, -29231.365529461567, -24560.745008080605, -3847.3834213475493, -26326.331654349764, -3883.7944130652445, -29238.339273731624, -34380.91687928639, -27832.50395447063, -11280.6125021711, -23077.393839048607, -35536.36795715904, 0.0795, 0.9530000000000001, -0.127, 192.0, 0.0, 0.0, 0.0, 0.0, 0.0, 0.0, 0.0, 0.0, 0.0, 1.6689767286241422E9, 0.0, 2022-11-20 15:38:48.624
92.0, -17654.12302662409, 23300.21837952356, -36413.2939473741, -35476.64409597446, -28387.85539720719, -29286.37317256608, -24614.72447094017, -3898.0995295166413, -26290.9041393881, -3844.3212323571724, -29217.619206621555, -34353.535992328645, -27815.628387406876, -11259.981842038851, -23048.51538521235, -35508.36122135654, 0.0795, 0.9530000000000001, -0.127, 192.0, 0.0, 0.0, 0.0, 0.0, 0.0, 0.0, 0.0, 0.0, 0.0, 1.6689767286241517E9, 0.0, 2022-11-20 15:38:48.624
94.0, -17590.286444459733, 22859.57608933164, -36351.603132677454, -35404.73853406173, -28327.371576711128, -29224.816468336165, -24553.10071147689, -3843.3824590900495, -26322.375395581174, -3883.5038403873255, -29236.998169064307, -34381.073341497584, -27830.31348351401, -11281.99831032733, -23071.71649595696, -35534.66922458044, 0.0795, 0.9530000000000001, -0.127, 192.0, 0.0, 0.0, 0.0, 0.0, 0.0, 0.0, 0.0, 0.0, 0.0, 1.6689767286241565E9, 0.0, 2022-11-20 15:38:48.624
96.0, -17668.897529709047, 23321.63135071175, -36430.325976649045, -35489.36223856953, -28408.597816061716, -29305.28274837527, -24631.10829962591, -3916.4726634589033, -26285.58442420774, -3837.2133776203846, -29206.130409971527, -34341.51075381169, -27806.128896013368, -11255.735010592343, -23043.530946198814, -35506.0813434221, 0.0795, 0.9530000000000001, -0.127, 192.0, 0.0, 0.0, 0.0, 0.0, 0.0, 0.0, 0.0, 0.0, 0.0, 1.6689767286241615E9, 0.0, 2022-11-20 15:38:48.624
98.0, -17590.174685737453, 22841.47117632284, -36362.443728738275, -35401.475179371264, -28338.301579749776, -29226.828125337142, -24558.554537123986, -3845.9976131913204, -26342.93900048006, -3900.4464626844483, -29256.153614062503, -34395.51256841571, -27857.80612919404, -11304.640627460556, -23103.38891785013, -35560.68665512641, 0.07875, 0.9545000000000001, -0.1295, 192.0, 1.0, 56.0, 14.5, 112.0, 125.5, 112.0, 0.0, 0.0, 0.0, 1.6689767286241665E9, 0.0, 2022-11-20 15:38:48.624
100.0, -17647.48455852086, 23346.9111736907, -36412.73515376272, -35461.44490974485, -28390.738772241926, -29279.73470446285, -24609.29299703753, -3893.942105047954, -26269.267650755366, -3815.979220387843, -29186.81850276214, -34320.343651812516, -27791.15322722831, -11230.566946335668, -23036.445443206485, -35491.105674637045, 0.07875, 0.9545000000000001, -0.1295, 192.0, 0.0, 0.0, 0.0, 0.0, 0.0, 0.0, 0.0, 0.0, 0.0, 1.6689767286241713E9, 0.0, 2022-11-20 15:38:48.624
102.0, -17598.44483118592, 22845.047455435688, -36368.165775318834, -35400.87168227097, -28344.381254241616, -29231.87961958404, -24563.158996481776, -3850.423258593471, -26342.44726210204, -3887.4153956670043, -29256.93592511844, -34391.51160615821, -27860.51069027313, -11296.214019800904, -23108.44041209703, -35558.42912893643, 0.07875, 0.9545000000000001, -0.1295, 192.0, 0.0, 0.0, 0.0, 0.0, 0.0, 0.0, 0.0, 0.0, 0.0, 1.668976728624176E9, 0.0, 2022-11-20 15:38:48.624
104.0, -17639.12500609458, 23345.346551578827, -36398.22887161122, -35447.16214503791, -28375.874862179146, -29267.240079312334, -24597.983014343146, -3881.4027764085267, -26262.20449950749, -3807.03852260572, -29176.469645079334, -34310.620642974456, -27779.68678232274, -11217.826451996143, -23026.051882034768, -35475.302991307144, 0.07875, 0.9545000000000001, -0.1295, 192.0, 0.0, 0.0, 0.0, 0.0, 0.0, 0.0, 0.0, 0.0, 0.0, 1.6689767286241808E9, 0.0, 2022-11-20 15:38:48.624
106.0, -17605.77620336726, 22858.056170708678, -36373.351380032465, -35405.90082477341, -28348.493975221394, -29237.065224297672, -24571.630307630337, -3857.888741241544, -26340.480308589973, -3890.3434741906494, -29253.65021868351, -34390.61753638, -27858.499033272154, -11298.896229135542, -23100.013804437378, -35541.911189783954, 0.07875, 0.9545000000000001, -0.1295, 192.0, 0.0, 0.0, 0.0, 0.0, 0.0, 0.0, 0.0, 0.0, 0.0, 1.6689767286241856E9, 0.0, 2022-11-20 15:38:48.624
108.0, -17625.53514546575, 23328.515688003983, -36389.13171161791, -35436.47801118827, -28367.291792308308, -29257.025332096262, -24590.897511350813, -3869.4669448693926, -26261.936278574023, -3819.3766855450494, -29174.033304933706, -34313.50401800919, -27780.93848001224, -11227.303591645194, -23030.030492547812, -35471.793767427655, 0.079375, 0.9552500000000002, -0.13375, 192.0, 1.0, 64.0, 14.5, 112.0, 125.5, 88.0, 0.0, 0.0, 0.0, 1.6689767286241906E9, 0.0, 2022-11-20 15:38:48.624
110.0, -17606.849087101113, 22902.267921241277, -36372.4349585098, -35405.05145848411, -28350.617390944648, -29236.64054115302, -24572.39026694182, -3856.7935057632335, -26328.142145650643, -3878.9217327739875, -29246.564715691176, -34381.94505953134, -27851.61469597992, -11295.588170956156, -23099.00797593689, -35535.58564610311, 0.079375, 0.9552500000000002, -0.13375, 192.0, 0.0, 0.0, 0.0, 0.0, 0.0, 0.0, 0.0, 0.0, 0.0, 1.6689767286241956E9, 0.0, 2022-11-20 15:38:48.624
112.0, -17618.986084340344, 23293.356393975784, -36373.10551084346, -35420.51886564718, -28360.876841649635, -29246.162384290983, -24583.543787425016, -3865.8459622676332, -26252.10151101369, -3801.539993469715, -29162.298639094668, -34298.21542480176, -27769.78495952904, -11211.679722270934, -23019.65928312055, -35460.21556379981, 0.079375, 0.9552500000000002, -0.13375, 192.0, 0.0, 0.0, 0.0, 0.0, 0.0, 0.0, 0.0, 0.0, 0.0, 1.6689767286242003E9, 0.0, 2022-11-20 15:38:48.624
114.0, -17616.92972385046, 22946.233802584866, -36376.95001088977, -35413.94745277732, -28363.290830050806, -29247.88346861404, -24585.778961870546, -3871.880933270566, -26331.696073019037, -3871.3891948925493, -29249.023407581262, -34379.888699041454, -27860.51069027313, -11296.057557589718, -23098.873865470156, -35540.659492094455, 0.079375, 0.9552500000000002, -0.13375, 192.0, 0.0, 0.0, 0.0, 0.0, 0.0, 0.0, 0.0, 0.0, 0.0, 1.668976728624205E9, 0.0, 2022-11-20 15:38:48.624
116.0, -17602.222275998865, 23260.879309282223, -36356.45346122426, -35402.7045253163, -28343.777757141324, -29227.029291037237, -24567.942269795214, -3852.2561016388063, -26251.788586591316, -3795.527374211237, -29157.180089614405, -34294.035648588615, -27769.11440719538, -11203.521335544747, -23011.970283027924, -35460.01439809971, 0.079375, 0.9552500000000002, -0.13375, 192.0, 0.0, 0.0, 0.0, 0.0, 0.0, 0.0, 0.0, 0.0, 0.0, 1.6689767286242104E9, 0.0, 2022-11-20 15:38:48.624
118.0, -17635.504023492816, 22996.41346888703, -36393.982040164716, -35433.72874662027, -28382.51333028237, -29263.68615194394, -24606.700194680714, -3890.2540672128284, -26330.82435498528, -3871.970340248387, -29251.862079127084, -34382.973239776285, -27863.885803685884, -11292.99536859934, -23096.169304391064, -35545.17454447443, 0.07768749999999999, 0.9536250000000002, -0.13387500000000002, 192.0, 1.0, 48.0, 14.5, 96.0, 125.5, 104.0, 0.0, 0.0, 0.0, 1.6689767286242151E9, 0.0, 2022-11-20 15:38:48.624
120.0, -17600.590598653627, 23194.673442205603, -36352.67601641131, -35402.793932294124, -28342.928390852023, -29229.130355016037, -24570.557423896484, -3854.4465725954265, -26256.504804671386, -3812.291182552717, -29164.086778651093, -34308.6983929513, -27774.612936331385, -11209.019864680751, -23020.70981510995, -35474.02894187319, 0.07768749999999999, 0.9536250000000002, -0.13387500000000002, 192.0, 0.0, 0.0, 0.0, 0.0, 0.0, 0.0, 0.0, 0.0, 0.0, 1.66897672862422E9, 0.0, 2022-11-20 15:38:48.624
122.0, -17646.434026531464, 23049.83413813521, -36405.2920228591, -35444.97167408129, -28387.47541755145, -29272.068056114684, -24617.83136341946, -3902.815747596711, -26322.77772698137, -3865.8012587787225, -29245.178907534948, -34379.6651815969, -27855.258030326135, -11286.289845262749, -23092.43656306703, -35541.642968850494, 0.07768749999999999, 0.9536250000000002, -0.13387500000000002, 192.0, 0.0, 0.0, 0.0, 0.0, 0.0, 0.0, 0.0, 0.0, 0.0, 1.668976728624225E9, 0.0, 2022-11-20 15:38:48.624
124.0, -17582.061002500177, 23131.172136208075, -36343.087118039984, -35384.689019285324, -28324.35409120966, -29209.05848849517, -24557.794577812503, -3844.7235637573676, -26264.350266975198, -3813.4534732643933, -29168.802996731163, -34310.55358774109, -27777.65277357731, -11211.88088797103, -23029.851678592167, -35477.73933145277, 0.07768749999999999, 0.9536250000000002, -0.13387500000000002, 192.0, 0.0, 0.0, 0.0, 0.0, 0.0, 0.0, 0.0, 0.0, 0.0, 1.6689767286242318E9, 0.0, 2022-11-20 15:38:48.624
126.0, -17656.224090602886, 23100.773763748857, -36416.0432119421, -35451.99012184025, -28397.310185111786, -29276.09137011664, -24627.73318621316, -3909.007180810831, -26321.570732780783, -3858.201665663918, -29242.004959822294, -34367.304666913114, -27855.07921637049, -11279.919598092985, -23085.351060074696, -35533.14930595748, 0.07768749999999999, 0.9536250000000002, -0.13387500000000002, 192.0, 0.0, 0.0, 0.0, 0.0, 0.0, 0.0, 0.0, 0.0, 0.0, 1.6689767286242368E9, 0.0, 2022-11-20 15:38:48.624
128.0, -17587.268958958266, 23059.55714697327, -36351.580780933, -35384.085522185036, -28334.65824540356, -29210.35488967358, -24565.9976680276, -3846.3105376136946, -26279.415342738073, -3823.109426869086, -29183.868072494042, -34316.54385525511, -27795.377706930365, -11222.609725309578, -23041.765158386846, -35482.88023267749, 0.07584374999999999, 0.9538125000000002, -0.13293750000000001, 192.0, 1.0, 40.0, 14.5, 104.0, 125.5, 112.0, 0.0, 0.0, 0.0, 1.6689767286242416E9, 0.0, 2022-11-20 15:38:48.624
130.0, -17651.619631245092, 23180.81536064331, -36423.70986029028, -35450.559610195116, -28408.128429428154, -29277.566585250686, -24634.081081638466, -3915.712704147423, -26311.82537219827, -3836.811046220189, -29233.73481437383, -34350.09382368253, -27849.535983745576, -11266.732068864354, -23084.9487286745, -35525.10267795357, 0.07584374999999999, 0.9538125000000002, -0.13293750000000001, 192.0, 0.0, 0.0, 0.0, 0.0, 0.0, 0.0, 0.0, 0.0, 0.0, 1.6689767286242468E9, 0.0, 2022-11-20 15:38:48.624
132.0, -17562.793798779705, 23021.93916105499, -36336.69451912576, -35364.61715276446, -28324.488201676395, -29198.642575578997, -24554.799444055494, -3837.883929954044, -26280.845854383213, -3818.683781466935, -29185.63386030601, -34312.006451130685, -27800.093925010435, -11225.113120688573, -23054.684466682014, -35493.765532227226, 0.07584374999999999, 0.9538125000000002, -0.13293750000000001, 192.0, 0.0, 0.0, 0.0, 0.0, 0.0, 0.0, 0.0, 0.0, 0.0, 1.6689767286242516E9, 0.0, 2022-11-20 15:38:48.624
134.0, -17656.78288421427, 23241.008608461456, -36422.65932830088, -35455.61110444202, -28415.973891731966, -29284.383867309556, -24640.9654189307, -3920.8759571165992, -26289.406572509597, -3822.4388745354267, -29210.779572818232, -34331.89950369591, -27829.330006757977, -11253.030449513251, -23073.057600624277, -35513.256253392254, 0.07584374999999999, 0.9538125000000002, -0.13293750000000001, 192.0, 0.0, 0.0, 0.0, 0.0, 0.0, 0.0, 0.0, 0.0, 0.0, 1.6689767286242564E9, 0.0, 2022-11-20 15:38:48.624
136.0, -17569.63343258303, 22948.35721830812, -36330.74895510065, -35355.117661370954, -28323.728242364916, -29188.5395870852, -24548.920935263748, -3832.3854008180383, -26294.748639434416, -3837.61570902058, -29197.97202324534, -34330.84897170651, -27817.863561852406, -11238.725333061855, -23064.0945510977, -35505.4778463218, 0.07584374999999999, 0.9538125000000002, -0.13293750000000001, 192.0, 0.0, 0.0, 0.0, 0.0, 0.0, 0.0, 0.0, 0.0, 0.0, 1.6689767286242614E9, 0.0, 2022-11-20 15:38:48.624
138.0, -17657.006401658822, 23279.744181602502, -36412.60104329599, -35449.866706117, -28401.512313069383, -29272.11275960359, -24627.844944935438, -3910.0800645446857, -26278.14129330412, -3815.398075032005, -29196.07212496664, -34323.15997161388, -27813.817896105993, -11230.276373657749, -23048.828309634722, -35492.424427559905, 0.073921875, 0.9549062500000001, -0.13346875000000002, 192.0, 1.0, 32.0, 14.5, 112.0, 125.5, 104.0, 0.0, 0.0, 0.0, 1.6689767286242664E9, 0.0, 2022-11-20 15:38:48.624
140.0, -17591.895770060513, 22880.810246564182, -36349.56912393202, -35378.18466164883, -28330.344358723683, -29203.515255870254, -24558.263964446065, -3847.137552158541, -26304.337537805743, -3853.4407440949376, -29214.60172112009, -34353.22306790627, -27825.08317531147, -11246.101408732105, -23072.18588259052, -35520.72173604032, 0.073921875, 0.9549062500000001, -0.13346875000000002, 192.0, 0.0, 0.0, 0.0, 0.0, 0.0, 0.0, 0.0, 0.0, 0.0, 1.6689767286242712E9, 0.0, 2022-11-20 15:38:48.624
142.0, -17679.671070536504, 23295.010423065476, -36425.58740682452, -35461.109633578024, -28404.462743337484, -29277.052495128217, -24634.997503161136, -3916.9867535813755, -26284.10920907369, -3823.1541303579966, -29206.041002993705, -34334.380547330446, -27813.12499202788, -11232.735065547833, -23048.828309634722, -35496.80536947315, 0.073921875, 0.9549062500000001, -0.13346875000000002, 192.0, 0.0, 0.0, 0.0, 0.0, 0.0, 0.0, 0.0, 0.0, 0.0, 1.6689767286242762E9, 0.0, 2022-11-20 15:38:48.624
144.0, -17596.366118951573, 22854.01050496227, -36352.09487105547, -35376.731798259236, -28330.32200697923, -29202.420020391946, -24559.67212434675, -3844.2541771238066, -26329.93028520707, -3874.809011794211, -29239.41215746548, -34374.770149561184, -27846.116166843913, -11267.648490387022, -23086.446295553007, -35530.75766930076, 0.073921875, 0.9549062500000001, -0.13346875000000002, 192.0, 0.0, 0.0, 0.0, 0.0, 0.0, 0.0, 0.0, 0.0, 0.0, 1.6689767286242812E9, 0.0, 2022-11-20 15:38:48.624
146.0, -17668.53990179776, 23342.038493399443, -36419.01599395466, -35455.946380608846, -28400.43942933553, -29279.578242251664, -24633.1646601158, -3915.779759380789, -26275.749656647404, -3809.8548424070887, -29185.857377750563, -34310.97827088574, -27804.206645990213, -11226.78950152272, -23035.529021683815, -35483.14845361096, 0.073921875, 0.9549062500000001, -0.13346875000000002, 192.0, 0.0, 0.0, 0.0, 0.0, 0.0, 0.0, 0.0, 0.0, 0.0, 1.6689767286242862E9, 0.0, 2022-11-20 15:38:48.624
148.0, -17582.39627866701, 22865.879281268037, -36343.28828374008, -35367.47817605474, -28321.69423361948, -29197.189712189404, -24549.72559806414, -3839.3144415991837, -26330.332616607266, -3869.578703591669, -29229.800907349698, -34359.52625984267, -27850.31829480151, -11278.623196914577, -23081.014821650366, -35532.07642222362, 0.073921875, 0.9549062500000001, -0.13346875000000002, 192.0, 0.0, 0.0, 0.0, 0.0, 0.0, 0.0, 0.0, 0.0, 0.0, 1.668976728624291E9, 0.0, 2022-11-20 15:38:48.624
150.0, -17625.758662910303, 23394.229816702584, -36390.31635407404, -35422.35170869252, -28373.66203947807, -29249.78336689274, -24600.553464955505, -3883.5038403873255, -26249.039322023313, -3782.1610310269634, -29157.470662292322, -34279.35055248148, -27778.725657311163, -11205.197716378894, -23008.88574229309, -35455.90167711993, 0.082, 0.9520000000000001, -0.132, 192.0, 1.0, 72.0, 14.5, 96.0, 125.5, 112.0, 0.0, 0.0, 0.0, 1.668976728624296E9, 0.0, 2022-11-20 15:38:48.624
152.0, -17571.46627562836, 22901.15033401851, -36338.7285278712, -35353.933018914824, -28325.136402265598, -29197.16736044495, -24551.267868431554, -3837.325136342661, -26313.09942163222, -3841.7060782559015, -29222.4471834239, -34342.09189916753, -27844.21626856521, -11265.32390896367, -23076.85739718168, -35521.0346604627, 0.082, 0.9520000000000001, -0.132, 192.0, 0.0, 0.0, 0.0, 0.0, 0.0, 0.0, 0.0, 0.0, 0.0, 1.6689767286243007E9, 0.0, 2022-11-20 15:38:48.624
154.0, -17608.72663363536, 23401.15885748373, -36363.494260727675, -35399.55292934811, -28359.356923026673, -29236.998169064307, -24587.432990960242, -3870.517476858792, -26220.116164698145, -3750.086277733598, -29126.982882855285, -34247.767537566135, -27751.92591570925, -11173.21237006335, -22986.869274004614, -35429.61602564049, 0.082, 0.9520000000000001, -0.132, 192.0, 0.0, 0.0, 0.0, 0.0, 0.0, 0.0, 0.0, 0.0, 0.0, 1.6689767286243057E9, 0.0, 2022-11-20 15:38:48.624
156.0, -17590.554665393196, 22901.552665418705, -36354.01712107863, -35380.28572562763, -28346.281152520318, -29223.40830843548, -24570.66918261876, -3857.553465074714, -26319.603779268717, -3855.631215051558, -29228.526857915745, -34355.19002141834, -27853.13461460288, -11278.37732772557, -23087.027440908845, -35529.52832335571, 0.082, 0.9520000000000001, -0.132, 192.0, 0.0, 0.0, 0.0, 0.0, 0.0, 0.0, 0.0, 0.0, 0.0, 1.6689767286243124E9, 0.0, 2022-11-20 15:38:48.624
158.0, -17608.078433046154, 23352.655572015712, -36359.71681591473, -35403.509188116695, -28355.892402636102, -29242.250829011304, -24586.11423803738, -3870.0704419696863, -26233.1919352045, -3774.807307101167, -29139.365749283523, -34270.96864831074, -27763.325305381455, -11190.065585382652, -23001.84494278967, -35450.17963053937, 0.082, 0.9520000000000001, -0.132, 192.0, 0.0, 0.0, 0.0, 0.0, 0.0, 0.0, 0.0, 0.0, 0.0, 1.6689767286243172E9, 0.0, 2022-11-20 15:38:48.624
160.0, -17613.800479626712, 22922.764470906794, -36362.91311537184, -35398.189472936334, -28358.95459162648, -29250.766843648773, -24589.86933110587, -3881.0227967527867, -26319.939055435545, -3860.9285784874655, -29230.292645727714, -34358.11809994198, -27853.335780302976, -11283.048842316728, -23085.105190885686, -35540.50302988327, 0.08, 0.9520000000000001, -0.136, 192.0, 1.0, 64.0, 14.5, 96.0, 125.5, 96.0, 0.0, 0.0, 0.0, 1.6689767286243222E9, 0.0, 2022-11-20 15:38:48.624
162.0, -17618.67315991797, 23293.89283584271, -36356.76638564663, -35407.688964329835, -28355.154795069076, -29249.224573281357, -24587.365935726873, -3876.753613561823, -26246.71474059996, -3796.8684788785554, -29147.39002554298, -34281.07163680454, -27767.72859903915, -11206.449414068391, -23001.84494278967, -35467.50223249224, 0.08, 0.9520000000000001, -0.136, 192.0, 0.0, 0.0, 0.0, 0.0, 0.0, 0.0, 0.0, 0.0, 0.0, 1.6689767286243272E9, 0.0, 2022-11-20 15:38:48.624
164.0, -17620.885982619046, 22963.243480115354, -36369.10454858596, -35403.19626369432, -28363.402588773086, -29253.873736128062, -24593.57972068545, -3885.3590351771163, -26332.03134918587, -3879.704043829923, -29244.575410434656, -34373.69726582733, -27864.399893808353, -11300.6173134586, -23087.206254864486, -35551.65655036647, 0.08, 0.9520000000000001, -0.136, 192.0, 0.0, 0.0, 0.0, 0.0, 0.0, 0.0, 0.0, 0.0, 0.0, 1.668976728624332E9, 0.0, 2022-11-20 15:38:48.624
166.0, -17588.163028736475, 23260.655791837667, -36338.63912089338, -35373.80371973559, -28333.674768647525, -29219.07207001115, -24560.499138891595, -3849.395078348527, -26232.208458448466, -3792.5322404542258, -29136.14709808196, -34270.409854699355, -27755.524546566554, -11193.530105773223, -22984.656451303537, -35442.4682787023, 0.08, 0.9520000000000001, -0.136, 192.0, 0.0, 0.0, 0.0, 0.0, 0.0, 0.0, 0.0, 0.0, 0.0, 1.668976728624337E9, 0.0, 2022-11-20 15:38:48.624
168.0, -17644.40001778603, 23022.07327152172, -36409.33768860551, -35427.64907212843, -28401.758182258392, -29281.16521610799, -24625.855639678914, -3914.3715994801046, -26328.67858751757, -3866.5388663457475, -29244.128375545548, -34362.968428488784, -27869.406684566344, -11293.196534299439, -23083.674679240547, -35534.110430969056, 0.08, 0.9520000000000001, -0.136, 192.0, 0.0, 0.0, 0.0, 0.0, 0.0, 0.0, 0.0, 0.0, 0.0, 1.668976728624342E9, 0.0, 2022-11-20 15:38:48.624
170.0, -17583.089182745123, 23204.26234057693, -36342.23775175068, -35372.328504601544, -28333.138326780598, -29224.01180553577, -24566.288240705522, -3856.167656918485, -26260.818691351258, -3801.3835312585275, -29160.979886171805, -34285.31846825105, -27785.475884136664, -11211.746777504299, -23021.045091276777, -35473.760720939725, 0.084, 0.9540000000000001, -0.138, 192.0, 1.0, 80.0, 14.5, 104.0, 125.5, 88.0, 0.0, 0.0, 0.0, 1.6689767286243467E9, 0.0, 2022-11-20 15:38:48.624
172.0, -17650.59145100015, 23082.08770538422, -36408.39891533839, -35436.92504607738, -28398.025440934354, -29289.524768534277, -24629.29780832503, -3921.4123989835266, -26324.051776415323, -3854.8712557400772, -29238.249866753802, -34355.145317929426, -27859.61662049492, -11289.217923786393, -23089.28496709883, -35548.16967823144, 0.084, 0.9540000000000001, -0.138, 192.0, 0.0, 0.0, 0.0, 0.0, 0.0, 0.0, 0.0, 0.0, 0.0, 1.6689767286243517E9, 0.0, 2022-11-20 15:38:48.624
174.0, -17586.732517091335, 23125.785365794345, -36339.443783693765, -35378.899917471404, -28330.634931401604, -29222.82716307964, -24564.790673827014, -3855.3182906291836, -26265.467854197963, -3813.94521164241, -29164.19853737337, -34295.62262244494, -27784.961794014194, -11223.481443343335, -23034.90317283907, -35492.133854881984, 0.084, 0.9540000000000001, -0.138, 192.0, 0.0, 0.0, 0.0, 0.0, 0.0, 0.0, 0.0, 0.0, 0.0, 1.6689767286243565E9, 0.0, 2022-11-20 15:38:48.624
176.0, -17661.74497148335, 23140.649275857126, -36413.003374696185, -35450.82783112858, -28402.696955525513, -29290.776466223775, -24633.76815721609, -3921.8594338726325, -26317.480363545463, -3858.581645319658, -29237.892238842516, -34361.9625999883, -27854.87805067039, -11293.80003139973, -23095.34228984622, -35551.365977688554, 0.084, 0.9540000000000001, -0.138, 192.0, 0.0, 0.0, 0.0, 0.0, 0.0, 0.0, 0.0, 0.0, 0.0, 1.6689767286243615E9, 0.0, 2022-11-20 15:38:48.624
178.0, -17573.679098329438, 23061.635859207614, -36328.111449254924, -35364.974780675744, -28318.676748118014, -29200.117790713048, -24548.652714330285, -3836.341659586628, -26266.87601409865, -3822.5729850021585, -29172.982772944306, -34309.61481447396, -27787.040506248537, -11229.27054515726, -23037.89830659608, -35492.31266883763, 0.084, 0.9540000000000001, -0.138, 192.0, 0.0, 0.0, 0.0, 0.0, 0.0, 0.0, 0.0, 0.0, 0.0, 1.6689767286243663E9, 0.0, 2022-11-20 15:38:48.624
180.0, -17659.174520870987, 23209.760869712936, -36409.53885430561, -35447.56447643811, -28397.600757789703, -29281.679306230464, -24626.63795073485, -3913.6786954019904, -26291.887616144137, -3832.653621751502, -29212.835933308117, -34334.53700954164, -27830.02291083609, -11263.647528129522, -23059.065408595256, -35514.91028248194, 0.082, 0.9520000000000001, -0.132, 192.0, 1.0, 72.0, 14.5, 96.0, 125.5, 112.0, 0.0, 0.0, 0.0, 1.6689767286243713E9, 0.0, 2022-11-20 15:38:48.624
0.0, -8772.031518463078, 11439.73457094843, -18147.895413386275, -17653.474826034882, -14143.200414562276, -14575.304338372272, -12256.199092411887, -1885.5931622497037, -13121.770396443653, -1900.8370519682232, -14572.17509414853, -17139.787034963018, -13879.36042301183, -5602.487099467171, -11501.13481296716, -17730.253068238864, 0.084, 0.9520000000000001, -0.138, 192.0, 1.0, 80.0, 14.5, 96.0, 125.5, 88.0, 0.0, 0.0, 0.0, 1.6689767292122936E9, 0.0, 2022-11-20 15:38:49.212
2.0, -17638.566212483194, 23366.893633233743, -36371.85381315396, -35392.95916473379, -28370.17516734304, -29235.724119630355, -24597.983014343146, -3849.5738923041695, -26237.997560262393, -3756.7918010701896, -29136.415319015425, -34255.99297952568, -27769.49438685112, -11152.894634353475, -23024.666073878536, -35436.65682514392, 0.084, 0.9520000000000001, -0.138, 192.0, 0.0, 0.0, 0.0, 0.0, 0.0, 0.0, 0.0, 0.0, 0.0, 1.6689767292123508E9, 0.0, 2022-11-20 15:38:49.212
4.0, -17608.547819679716, 22880.09499074161, -36339.06380403803, -35353.865963681455, -28345.90117286458, -29215.87577055404, -24573.932537309236, -3833.5923950186248, -26322.285988603355, -3840.0520491662087, -29219.11677350006, -34339.16382064388, -27852.106434357935, -11235.84195802712, -23093.889426456622, -35505.299032366165, 0.084, 0.9520000000000001, -0.138, 192.0, 0.0, 0.0, 0.0, 0.0, 0.0, 0.0, 0.0, 0.0, 0.0, 1.6689767292123573E9, 0.0, 2022-11-20 15:38:49.212
6.0, -17618.427290728963, 23350.263935358995, -36339.734356371686, -35378.00584769319, -28354.37248401314, -29235.075919041148, -24589.62346191686, -3844.4106393349934, -26242.602019620183, -3767.4982866642817, -29135.118917837015, -34261.98324703971, -27769.87436650686, -11159.197826289872, -23006.002367258356, -35428.453734928815, 0.084, 0.9520000000000001, -0.138, 192.0, 0.0, 0.0, 0.0, 0.0, 0.0, 0.0, 0.0, 0.0, 0.0, 1.6689767292123752E9, 0.0, 2022-11-20 15:38:49.212
8.0, -17598.780107352748, 22922.07156682868, -36319.26015845063, -35349.57442874604, -28327.863315089147, -29211.2936629407, -24563.583679626427, -3822.595336746614, -26317.145087378634, -3838.554482287703, -29213.662947852965, -34342.09189916753, -27846.362036032922, -11236.244289427315, -23067.71553369946, -35499.88991020798, 0.082, 0.9520000000000001, -0.136, 192.0, 1.0, 72.0, 14.5, 96.0, 125.5, 96.0, 0.0, 0.0, 0.0, 1.6689767292123816E9, 0.0, 2022-11-20 15:38:49.212
10.0, -17598.780107352748, 23330.19206883813, -36317.80729506103, -35370.11568190047, -28319.07907951821, -29211.24895945179, -24556.252307445087, -3815.6886477099238, -26216.875161752127, -3750.2650916892403, -29106.732202378775, -34245.55471486506, -27734.804479456485, -11135.81790158962, -22958.661372502014, -35397.80949328059, 0.082, 0.9520000000000001, -0.136, 192.0, 0.0, 0.0, 0.0, 0.0, 0.0, 0.0, 0.0, 0.0, 0.0, 1.6689767292123878E9, 0.0, 2022-11-20 15:38:49.212
12.0, -17628.530279222763, 22952.313477076706, -36363.33779851649, -35408.270109685676, -28347.152870554077, -29230.538514916723, -24581.1521507683, -3844.075363168164, -26324.096479904234, -3856.257063896306, -29228.92918931594, -34361.80613777711, -27853.402835536344, -11254.773885580766, -23067.447312765995, -35510.84226499108, 0.082, 0.9520000000000001, -0.136, 192.0, 0.0, 0.0, 0.0, 0.0, 0.0, 0.0, 0.0, 0.0, 0.0, 1.6689767292123957E9, 0.0, 2022-11-20 15:38:49.212
14.0, -17599.2047904974, 23273.597451877293, -36351.87135361092, -35407.3089846741, -28325.94106506599, -29204.11875297055, -24559.38155166883, -3817.2532698217956, -26243.496089398395, -3782.004568815776, -29141.355054540047, -34282.435093216314, -27765.627535060354, -11163.534064714202, -23007.36582367013, -35444.1670112809, 0.082, 0.9520000000000001, -0.136, 192.0, 0.0, 0.0, 0.0, 0.0, 0.0, 0.0, 0.0, 0.0, 0.0, 1.668976729212402E9, 0.0, 2022-11-20 15:38:49.212
16.0, -17634.565250225693, 23017.55821914175, -36399.7934937231, -35449.75494739472, -28373.416170289063, -29246.49766045781, -24600.28524402204, -3858.6710522974795, -26321.011939169402, -3847.8304562366557, -29231.00790155028, -34365.11419595649, -27861.181242606788, -11252.471655901869, -23107.725156274457, -35541.39709966148, 0.082, 0.9520000000000001, -0.136, 192.0, 0.0, 0.0, 0.0, 0.0, 0.0, 0.0, 0.0, 0.0, 0.0, 1.6689767292124083E9, 0.0, 2022-11-20 15:38:49.212
18.0, -17578.752944320793, 23229.340997855783, -36339.801411605054, -35399.597632837016, -28323.236503986896, -29203.87288378154, -24551.75960680957, -3810.2124703183736, -26249.352246445687, -3789.268885763751, -29144.998388886263, -34287.620697929946, -27775.21643343168, -11176.45337300937, -23043.79916713228, -35481.20385184334, 0.08, 0.9520000000000001, -0.14, 192.0, 1.0, 64.0, 14.5, 96.0, 125.5, 80.0, 0.0, 0.0, 0.0, 1.6689767292124145E9, 0.0, 2022-11-20 15:38:49.212
20.0, -17635.056988603712, 23085.90985368608, -36404.621470525446, -35452.59361894055, -28399.657118279592, -29270.861061914096, -24622.05584312151, -3878.139421718052, -26302.88467441615, -3829.524377527759, -29213.238264708314, -34341.64486427842, -27846.786719177573, -11241.60870809659, -23107.2557696409, -35543.22994270682, 0.08, 0.9520000000000001, -0.14, 192.0, 0.0, 0.0, 0.0, 0.0, 0.0, 0.0, 0.0, 0.0, 0.0, 1.6689767292124207E9, 0.0, 2022-11-20 15:38:49.212
22.0, -17549.561566062162, 23185.06219208982, -36316.98028051618, -35361.46555679626, -28321.381309197106, -29191.02063071974, -24545.47876661763, -3800.0871300801196, -26243.71960684295, -3785.17851652843, -29135.118917837015, -34276.66834314684, -27776.44577937672, -11170.641919450989, -23054.952687615478, -35482.65671523294, 0.08, 0.9520000000000001, -0.14, 192.0, 0.0, 0.0, 0.0, 0.0, 0.0, 0.0, 0.0, 0.0, 0.0, 1.6689767292124271E9, 0.0, 2022-11-20 15:38:49.212
24.0, -17632.508889735807, 23173.26047101742, -36393.87028144244, -35426.48678141675, -28400.707650268992, -29266.703637445407, -24627.01793039059, -3883.4144334095045, -26279.594156693718, -3797.650789934491, -29184.560976572157, -34310.64299471891, -27830.22407653619, -11213.400806593992, -23086.312185086274, -35510.77520975771, 0.08, 0.9520000000000001, -0.14, 192.0, 0.0, 0.0, 0.0, 0.0, 0.0, 0.0, 0.0, 0.0, 0.0, 1.668976729212433E9, 0.0, 2022-11-20 15:38:49.212
26.0, -17547.214632894353, 23124.354854149205, -36302.45164662023, -35330.62014944794, -28309.266663702332, -29180.314145125645, -24542.640095071805, -3802.4117115034715, -26256.9965430494, -3779.4117664589608, -29140.036301617183, -34274.65668614586, -27784.58181435845, -11166.30568102666, -23039.75350138587, -35468.48570924827, 0.08, 0.9520000000000001, -0.14, 192.0, 0.0, 0.0, 0.0, 0.0, 0.0, 0.0, 0.0, 0.0, 0.0, 1.6689767292124395E9, 0.0, 2022-11-20 15:38:49.212
28.0, -17632.173613568975, 23229.87743972271, -36370.89268814238, -35400.6034613375, -28382.37921981564, -29256.958276862893, -24620.40181403182, -3877.759442062312, -26275.704953158493, -3789.850031119589, -29167.886575208497, -34294.460331733266, -27819.383480475364, -11198.268675597748, -23046.906059611567, -35482.52260476621, 0.078, 0.9440000000000001, -0.138, 192.0, 1.0, 56.0, 14.5, 64.0, 125.5, 88.0, 0.0, 0.0, 0.0, 1.6689767292124455E9, 0.0, 2022-11-20 15:38:49.212
30.0, -17552.62375505254, 23047.263687522853, -36284.436140589256, -35311.50940793865, -28308.864332302135, -29184.3374591276, -24551.75960680957, -3811.307705796684, -26260.95280181799, -3797.5390312122145, -29135.23067655929, -34277.13772978041, -27784.850035291915, -11175.358137531059, -23025.60484714566, -35461.13198532248, 0.078, 0.9440000000000001, -0.138, 192.0, 0.0, 0.0, 0.0, 0.0, 0.0, 0.0, 0.0, 0.0, 0.0, 1.668976729212452E9, 0.0, 2022-11-20 15:38:49.212
32.0, -17634.744064181337, 23279.85594032478, -36358.66628392533, -35386.521862330665, -28392.99629843191, -29264.51316648879, -24634.081081638466, -3888.0859480006634, -26278.856549126693, -3801.7411591698124, -29166.880746708008, -34293.07452357704, -27819.651701408828, -11203.923666944942, -23048.291867767795, -35477.06877911911, 0.078, 0.9440000000000001, -0.138, 192.0, 0.0, 0.0, 0.0, 0.0, 0.0, 0.0, 0.0, 0.0, 0.0, 1.6689767292124581E9, 0.0, 2022-11-20 15:38:49.212
34.0, -17543.727760759328, 22996.815800287226, -36273.48378580616, -35298.45598917675, -28304.014003755332, -29183.10811318256, -24546.10461546238, -3807.1949848169074, -26272.285136256833, -3804.3563132710833, -29144.461947019336, -34276.80245361358, -27795.243596463635, -11189.909123171465, -23030.388120459094, -35460.84141264456, 0.078, 0.9440000000000001, -0.138, 192.0, 0.0, 0.0, 0.0, 0.0, 0.0, 0.0, 0.0, 0.0, 0.0, 1.6689767292124643E9, 0.0, 2022-11-20 15:38:49.212
36.0, -17628.463223989394, 23335.288266573938, -36360.87910662641, -35404.22444393927, -28371.695085966003, -29258.03116059675, -24616.892590152336, -3878.675863584979, -26254.023761036846, -3781.8704583490444, -29143.970208641316, -34271.48273843322, -27793.03077376256, -11192.859553439564, -23013.579608628705, -35451.43132822887, 0.078, 0.9440000000000001, -0.138, 192.0, 0.0, 0.0, 0.0, 0.0, 0.0, 0.0, 0.0, 0.0, 0.0, 1.6689767292124708E9, 0.0, 2022-11-20 15:38:49.212
38.0, -17560.55862433417, 22930.386415766054, -36309.42539089029, -35350.82612643554, -28298.02373624131, -29187.287889395702, -24544.785862539517, -3810.9053743964882, -26289.07129634277, -3832.9218426849657, -29172.87101422203, -34316.32033781056, -27811.56036991601, -11218.98874270782, -23039.306466496764, -35479.50511926474, 0.084, 0.9460000000000001, -0.138, 192.0, 1.0, 80.0, 14.5, 72.0, 125.5, 88.0, 0.0, 0.0, 0.0, 1.668976729212479E9, 0.0, 2022-11-20 15:38:49.212
40.0, -17632.86651764709, 23355.404836583715, -36384.4378452823, -35442.13300253546, -28363.357885284175, -29252.331465760646, -24609.047127848524, -3868.3493576466276, -26250.469833668452, -3790.9452665978993, -29148.909944165942, -34290.057038075574, -27786.68287833725, -11189.305626071171, -23012.976111528413, -35456.63928468696, 0.084, 0.9460000000000001, -0.138, 192.0, 0.0, 0.0, 0.0, 0.0, 0.0, 0.0, 0.0, 0.0, 0.0, 1.6689767292124853E9, 0.0, 2022-11-20 15:38:49.212
42.0, -17587.04544151371, 22876.272842439754, -36346.931618086295, -35395.037876968134, -28318.430878929008, -29210.041965251206, -24563.0472377595, -3830.7090199838904, -26302.616453482682, -3850.4456103379266, -29196.563863344654, -34348.52920157066, -27832.392195748354, -11238.41240863948, -23076.14214135911, -35520.386459873494, 0.084, 0.9460000000000001, -0.138, 192.0, 0.0, 0.0, 0.0, 0.0, 0.0, 0.0, 0.0, 0.0, 0.0, 1.6689767292124915E9, 0.0, 2022-11-20 15:38:49.212
44.0, -17654.413599302006, 23348.006409169007, -36399.502921045176, -35463.72478767929, -28382.222757604453, -29276.247832327826, -24625.676825723272, -3891.9080963025212, -26265.534909431328, -3810.8383191631224, -29166.031380418706, -34313.28050056464, -27805.279529724066, -11209.846879225599, -23049.40945499056, -35500.42635207491, 0.084, 0.9460000000000001, -0.138, 192.0, 0.0, 0.0, 0.0, 0.0, 0.0, 0.0, 0.0, 0.0, 0.0, 1.6689767292124977E9, 0.0, 2022-11-20 15:38:49.212
46.0, -17573.030897740235, 22873.14359821601, -36307.793713545056, -35366.13707138742, -28307.053841001256, -29197.145008700492, -24550.77613005354, -3822.304764068695, -26302.482343015952, -3852.0549359387087, -29192.987584231807, -34344.12590791296, -27832.68276842627, -11240.334658662638, -23085.686336241524, -35535.31742516964, 0.084, 0.9460000000000001, -0.138, 192.0, 0.0, 0.0, 0.0, 0.0, 0.0, 0.0, 0.0, 0.0, 0.0, 1.668976729212504E9, 0.0, 2022-11-20 15:38:49.212
48.0, -17642.63422997406, 23368.458255345617, -36364.07540608352, -35440.21075251231, -28371.85154817719, -29263.5073379883, -24615.149154084822, -3882.00627350882, -26235.292999183297, -3782.563362427159, -29130.425051501403, -34275.97543906873, -27767.370971127868, -11177.88388465451, -23019.324006953717, -35471.816119172116, 0.082, 0.9540000000000001, -0.14, 192.0, 1.0, 72.0, 14.5, 104.0, 125.5, 80.0, 0.0, 0.0, 0.0, 1.66897672921251E9, 0.0, 2022-11-20 15:38:49.212
50.0, -17590.24174097082, 22869.05322898069, -36324.78103933109, -35377.13412965943, -28328.623274400627, -29215.83106706513, -24568.165787239766, -3838.5097787987925, -26318.530895534863, -3862.403793621516, -29213.68529959742, -34354.34065512904, -27847.434919766776, -11262.596996140122, -23096.61633928017, -35550.717777099344, 0.082, 0.9540000000000001, -0.14, 192.0, 0.0, 0.0, 0.0, 0.0, 0.0, 0.0, 0.0, 0.0, 0.0, 1.6689767292125163E9, 0.0, 2022-11-20 15:38:49.212
52.0, -17607.407880712497, 23378.002450228032, -36339.175562760305, -35392.1545019334, -28345.1412135531, -29232.12548877305, -24587.880025849347, -3851.1161626715857, -26224.184182189012, -3765.2631122187513, -29120.456173474333, -34257.95993303775, -27754.78693899953, -11169.21140780585, -23003.16369571253, -35456.54987770914, 0.082, 0.9540000000000001, -0.14, 192.0, 0.0, 0.0, 0.0, 0.0, 0.0, 0.0, 0.0, 0.0, 0.0, 1.6689767292125227E9, 0.0, 2022-11-20 15:38:49.212
54.0, -17595.11442126208, 22898.95986306189, -36335.64398713636, -35357.933981172326, -28339.955608839467, -29215.384032176025, -24580.705115879195, -3845.3270608576613, -26297.609662724695, -3829.0996943831083, -29195.423924377435, -34324.12109662546, -27832.727471915183, -11236.288992916227, -23076.00803089238, -35523.1357244415, 0.082, 0.9540000000000001, -0.14, 192.0, 0.0, 0.0, 0.0, 0.0, 0.0, 0.0, 0.0, 0.0, 0.0, 1.6689767292125287E9, 0.0, 2022-11-20 15:38:49.212
56.0, -17615.029825571757, 23351.7615022375, -36343.154173273346, -35372.82024297956, -28351.220888044943, -29224.12356425805, -24590.0034415726, -3850.1997411489183, -26233.258990437866, -3765.956016296866, -29124.09950782055, -34252.41670041284, -27762.63240130334, -11160.449523979369, -23005.84590504717, -35448.167973538395, 0.082, 0.9540000000000001, -0.14, 192.0, 0.0, 0.0, 0.0, 0.0, 0.0, 0.0, 0.0, 0.0, 0.0, 1.6689767292125351E9, 0.0, 2022-11-20 15:38:49.212
58.0, -17609.128965035554, 22939.327113548174, -36343.82472560701, -35352.86013518097, -28355.333609024718, -29220.92726480094, -24591.00927007309, -3855.3853458625495, -26320.564904280294, -3840.0296974217536, -29215.719308342854, -34336.682777009344, -27853.313428558522, -11244.805007553698, -23084.61345250767, -35520.185294173396, 0.084, 0.9520000000000001, -0.138, 192.0, 1.0, 80.0, 14.5, 96.0, 125.5, 88.0, 0.0, 0.0, 0.0, 1.6689767292125413E9, 0.0, 2022-11-20 15:38:49.212
60.0, -17598.847162586113, 23322.81599316788, -36322.94819628575, -35344.344120543494, -28336.55814368226, -29205.54926461569, -24575.921842565756, -3834.2182438633736, -26230.688539825507, -3759.474010404827, -29117.550446695146, -34243.61011309744, -27755.83747098893, -11147.552567428656, -22989.305614150242, -35420.11653424699, 0.084, 0.9520000000000001, -0.138, 192.0, 0.0, 0.0, 0.0, 0.0, 0.0, 0.0, 0.0, 0.0, 0.0, 1.6689767292125475E9, 0.0, 2022-11-20 15:38:49.212
62.0, -17633.78293916976, 22970.93248020798, -36362.935467116295, -35378.76580700467, -28368.297620808797, -29242.899029600507, -24608.130706325854, -3868.662282069002, -26324.744680493437, -3850.266796382284, -29223.02832877974, -34343.63416953495, -27858.074350127503, -11247.777789566255, -23073.9963738914, -35504.02498293221, 0.084, 0.9520000000000001, -0.138, 192.0, 0.0, 0.0, 0.0, 0.0, 0.0, 0.0, 0.0, 0.0, 0.0, 1.668976729212554E9, 0.0, 2022-11-20 15:38:49.212
64.0, -17588.699470603406, 23267.048390751886, -36324.33400444198, -35355.832917193526, -28322.878876075614, -29203.627014592534, -24567.517586650563, -3823.4670547803707, -26241.305618441776, -3778.8082693586675, -29133.308426536136, -34260.485680161204, -27763.548822826007, -11164.606948448056, -22994.491218863874, -35428.67725237337, 0.084, 0.9520000000000001, -0.138, 192.0, 0.0, 0.0, 0.0, 0.0, 0.0, 0.0, 0.0, 0.0, 0.0, 1.66897672921256E9, 0.0, 2022-11-20 15:38:49.212
66.0, -17627.278581533265, 23043.173318287532, -36380.570993491536, -35409.29828993062, -28371.51627201036, -29255.55011696221, -24612.310482538996, -3872.6855960709568, -26315.35694782221, -3845.8635027245887, -29222.78245959073, -34343.6565212794, -27856.017989637614, -11252.829283813153, -23085.41811530806, -35520.76643952924, 0.084, 0.9520000000000001, -0.138, 192.0, 0.0, 0.0, 0.0, 0.0, 0.0, 0.0, 0.0, 0.0, 0.0, 1.668976729212567E9, 0.0, 2022-11-20 15:38:49.212
68.0, -17562.41381912396, 23229.45275657806, -36310.3194606685, -35359.16332711736, -28302.136457221088, -29195.334517399613, -24543.33299914992, -3813.0958453531084, -26229.772118302837, -3774.6955483788906, -29123.29484502016, -34256.8870493039, -27756.373912855855, -11162.6846984249, -23003.051936990254, -35454.00177884123, 0.085, 0.9520000000000001, -0.139, 192.0, 1.0, 88.0, 14.5, 96.0, 125.5, 80.0, 0.0, 0.0, 0.0, 1.6689767292125735E9, 0.0, 2022-11-20 15:38:49.212
70.0, -17634.63230545906, 23108.61922605267, -36377.82172892353, -35429.079583773564, -28374.265536578365, -29275.778445694265, -24615.238561062644, -3890.1870119794626, -26294.994508623426, -3833.435932807438, -29202.2412064363, -34332.59240777402, -27837.711910928716, -11246.369629665569, -23070.86712966766, -35534.49041062479, 0.085, 0.9520000000000001, -0.139, 192.0, 0.0, 0.0, 0.0, 0.0, 0.0, 0.0, 0.0, 0.0, 0.0, 1.668976729212582E9, 0.0, 2022-11-20 15:38:49.212
72.0, -17564.693697058403, 23156.608421398214, -36311.12412346889, -35361.08557714052, -28311.300672447764, -29207.471514638844, -24553.52539462154, -3825.299897825706, -26240.925638786037, -3794.2309730328293, -29132.99550211376, -34277.09302629149, -27766.36514262738, -11181.728384700822, -23015.814783074235, -35479.46041577583, 0.085, 0.9520000000000001, -0.139, 192.0, 0.0, 0.0, 0.0, 0.0, 0.0, 0.0, 0.0, 0.0, 0.0, 1.6689767292125883E9, 0.0, 2022-11-20 15:38:49.212
74.0, -17627.2115262999, 23190.292500292362, -36370.75857767565, -35415.71324058929, -28377.23831859092, -29266.36836127858, -24616.378500029863, -3884.9567037769207, -26284.466836984975, -3821.0307146347423, -29189.92539524143, -34321.01420414617, -27828.74886140214, -11233.427969625947, -23065.167434831554, -35519.335927884094, 0.085, 0.9520000000000001, -0.139, 192.0, 0.0, 0.0, 0.0, 0.0, 0.0, 0.0, 0.0, 0.0, 0.0, 1.6689767292125945E9, 0.0, 2022-11-20 15:38:49.212
76.0, -17550.27682188473, 23108.462763841482, -36276.83654747445, -35326.529780212615, -28292.391096638574, -29182.996354460283, -24532.604161811374, -3801.3164760251616, -26244.345455687697, -3796.5779062006363, -29127.564028211124, -34271.10275877747, -27770.097883951414, -11176.900407898476, -23014.227809217908, -35467.27871504769, 0.085, 0.9520000000000001, -0.139, 192.0, 0.0, 0.0, 0.0, 0.0, 0.0, 0.0, 0.0, 0.0, 0.0, 1.668976729212629E9, 0.0, 2022-11-20 15:38:49.212
78.0, -17669.344564598152, 23228.961018200043, -36378.78285393511, -35427.51496166169, -28396.974908944954, -29284.562681265197, -24632.851735693424, -3898.166584750007, -26284.176264307054, -3820.6730867234573, -29180.850586992576, -34307.87137840645, -27820.12108804239, -11224.531975332735, -23044.246202021386, -35497.2300526178, 0.0855, 0.9510000000000001, -0.1385, 192.0, 1.0, 88.0, 14.5, 88.0, 125.5, 88.0, 0.0, 0.0, 0.0, 1.6689767292126353E9, 0.0, 2022-11-20 15:38:49.212
80.0, -17576.517769875263, 23025.22486748992, -36299.00947797412, -35331.60362620397, -28307.970262523922, -29186.326764384125, -24542.058949715967, -3809.4525110068935, -26284.91387187408, -3826.9986304043096, -29170.077046165115, -34299.62358470244, -27798.059916265003, -11206.985855935318, -23032.757405371358, -35485.74125596777, 0.0855, 0.9510000000000001, -0.1385, 192.0, 0.0, 0.0, 0.0, 0.0, 0.0, 0.0, 0.0, 0.0, 0.0, 1.6689767292126417E9, 0.0, 2022-11-20 15:38:49.212
82.0, -17642.34365729614, 23315.931655875644, -36377.82172892353, -35404.000926494715, -28380.255804092387, -29254.946619861916, -24613.45042150622, -3875.881895528066, -26281.11407531668, -3808.1561098284856, -29187.086723695604, -34302.03757310362, -27811.98505306066, -11207.79051873571, -23040.066425808243, -35491.19508161487, 0.0855, 0.9510000000000001, -0.1385, 192.0, 0.0, 0.0, 0.0, 0.0, 0.0, 0.0, 0.0, 0.0, 0.0, 1.6689767292126477E9, 0.0, 2022-11-20 15:38:49.212
84.0, -17556.84823475459, 23002.85077129016, -36297.17663492878, -35313.096381794974, -28306.13741947859, -29175.620278790033, -24539.533202592516, -3806.390322016516, -26276.755485147893, -3809.2066418178847, -29165.405531573957, -34291.21932878725, -27792.382573173356, -11190.333806316115, -23035.014931561345, -35477.672276219404, 0.0855, 0.9510000000000001, -0.1385, 192.0, 0.0, 0.0, 0.0, 0.0, 0.0, 0.0, 0.0, 0.0, 0.0, 1.668976729212654E9, 0.0, 2022-11-20 15:38:49.212
86.0, -17639.080302605667, 23367.05009544493, -36372.99375212118, -35406.2584526847, -28389.867054208167, -29253.6055151946, -24622.25700882161, -3884.53202063227, -26257.555336660786, -3781.8257548601337, -29155.280191335703, -34277.405950713866, -27793.12018074038, -11186.824582436631, -23024.822536089723, -35457.91333412091, 0.0855, 0.9510000000000001, -0.1385, 192.0, 0.0, 0.0, 0.0, 0.0, 0.0, 0.0, 0.0, 0.0, 0.0, 1.6689767292126603E9, 0.0, 2022-11-20 15:38:49.212
88.0, -17558.412856866464, 22949.251288086332, -36297.4672076067, -35334.934036127815, -28307.903207290557, -29179.06244743615, -24545.076435217434, -3812.8499761641, -26284.73505791844, -3825.724580970357, -29170.38997058749, -34309.52540749615, -27808.87816058137, -11213.22199263835, -23048.627143934627, -35481.673238476906, 0.08175, 0.9535, -0.13425, 192.0, 1.0, 56.0, 14.5, 112.0, 125.5, 120.0, 0.0, 0.0, 0.0, 1.6689767292126665E9, 0.0, 2022-11-20 15:38:49.212
90.0, -17626.004532099312, 23403.39403192926, -36358.040435080584, -35418.12722899047, -28366.442426019006, -29245.134204046037, -24604.085040579444, -3868.8410960246442, -26236.075310239234, -3775.0084728012653, -29137.018816115717, -34270.409854699355, -27766.432197860744, -11180.990777133797, -23000.705003822448, -35441.037767057154, 0.08175, 0.9535, -0.13425, 192.0, 0.0, 0.0, 0.0, 0.0, 0.0, 0.0, 0.0, 0.0, 0.0, 1.6689767292126727E9, 0.0, 2022-11-20 15:38:49.212
92.0, -17578.41766815396, 22917.601217937616, -36321.22711196269, -35371.076806912046, -28328.913847078544, -29214.065279253162, -24564.611859871373, -3841.303746855706, -26294.949805134514, -3845.0811916686525, -29188.31606964065, -34332.32418684056, -27812.342680971946, -11238.814740039676, -23051.622277691637, -35505.74606725527, 0.08175, 0.9535, -0.13425, 192.0, 0.0, 0.0, 0.0, 0.0, 0.0, 0.0, 0.0, 0.0, 0.0, 1.668976729212679E9, 0.0, 2022-11-20 15:38:49.212
94.0, -17635.861651404102, 23419.509639681535, -36376.45827251176, -35435.047499543136, -28385.329650083742, -29273.252698570814, -24621.11706985439, -3894.5456021482473, -26246.178298733033, -3786.3855107290165, -29142.4279382739, -34277.31654373605, -27771.01430547408, -11192.524277272734, -23009.60099811566, -35468.19513657035, 0.08175, 0.9535, -0.13425, 192.0, 0.0, 0.0, 0.0, 0.0, 0.0, 0.0, 0.0, 0.0, 0.0, 1.668976729212685E9, 0.0, 2022-11-20 15:38:49.212
96.0, -17570.05811572768, 22928.039482598244, -36315.43801014877, -35356.034082893624, -28324.711719120947, -29214.4452589089, -24560.029752258033, -3838.1521508875076, -26307.869113429682, -3847.450476580915, -29198.30729941217, -34332.145372884916, -27828.41358523531, -11246.213167454383, -23073.23641457992, -35537.19497170389, 0.08175, 0.9535, -0.13425, 192.0, 0.0, 0.0, 0.0, 0.0, 0.0, 0.0, 0.0, 0.0, 0.0, 1.6689767292126915E9, 0.0, 2022-11-20 15:38:49.212
98.0, -17627.926782122468, 23425.946942084665, -36365.662379939844, -35410.66174634239, -28378.80294070279, -29268.670590957474, -24614.389194773343, -3885.917828788499, -26235.38240616112, -3774.874362334533, -29129.32981602309, -34258.42931967131, -27761.02307570256, -11180.610797478057, -23007.74580332587, -35470.9220493939, 0.080875, 0.9537500000000001, -0.136125, 192.0, 1.0, 64.0, 14.5, 104.0, 125.5, 88.0, 0.0, 0.0, 0.0, 1.668976729212698E9, 0.0, 2022-11-20 15:38:49.212
100.0, -17575.444886141406, 22938.768319936793, -36314.43218164828, -35339.33732978551, -28326.097527277176, -29213.864113553063, -24560.76735982506, -3833.4806362963486, -26301.0071278819, -3838.263909609784, -29191.82529352013, -34319.002547145195, -27826.55839044552, -11239.664106328977, -23070.46479826746, -35524.096849453075, 0.080875, 0.9537500000000001, -0.136125, 192.0, 0.0, 0.0, 0.0, 0.0, 0.0, 0.0, 0.0, 0.0, 0.0, 1.6689767292127044E9, 0.0, 2022-11-20 15:38:49.212
102.0, -17606.916142334478, 23419.911971081732, -36340.56137091653, -35376.463577325776, -28353.56782121275, -29237.534610931234, -24589.601110172407, -3858.6263488085688, -26229.10156596918, -3765.6430918744913, -29119.360937996025, -34246.381729409906, -27750.093072663913, -11158.527273956213, -22991.36197464013, -35439.00375831172, 0.080875, 0.9537500000000001, -0.136125, 192.0, 0.0, 0.0, 0.0, 0.0, 0.0, 0.0, 0.0, 0.0, 0.0, 1.668976729212713E9, 0.0, 2022-11-20 15:38:49.212
104.0, -17574.841389041114, 22960.941250436455, -36323.775210830594, -35342.0418908646, -28330.769041868338, -29202.10709596957, -24566.511758150074, -3836.9898601758314, -26303.845799427727, -3840.0520491662087, -29201.995337247296, -34327.33974782703, -27823.809125877517, -11231.438664369425, -23057.70195218348, -35501.81216023114, 0.080875, 0.9537500000000001, -0.136125, 192.0, 0.0, 0.0, 0.0, 0.0, 0.0, 0.0, 0.0, 0.0, 0.0, 1.6689767292127192E9, 0.0, 2022-11-20 15:38:49.212
106.0, -17589.14650549251, 23394.38627891377, -36339.734356371686, -35372.350856346, -28345.94587635349, -29210.153723973483, -24584.348450225407, -3846.2211306358736, -26220.205571675968, -3763.5196761512375, -29117.058708317127, -34244.97356950922, -27733.508078278075, -11144.959765071842, -22977.705058777938, -35418.48485690175, 0.080875, 0.9537500000000001, -0.136125, 192.0, 0.0, 0.0, 0.0, 0.0, 0.0, 0.0, 0.0, 0.0, 0.0, 1.6689767292127256E9, 0.0, 2022-11-20 15:38:49.212
108.0, -17595.136773006532, 22988.65741356104, -36354.08417631199, -35378.832862238036, -28361.726207938937, -29222.111907257073, -24599.659395177296, -3865.041299467242, -26322.241285114444, -3854.603034806614, -29224.347081702603, -34346.62930329196, -27842.65164645334, -11254.41625766948, -23085.887501941623, -35520.34175638459, 0.0814375, 0.953875, -0.1340625, 192.0, 1.0, 72.0, 14.5, 104.0, 125.5, 112.0, 0.0, 0.0, 0.0, 1.6689767292127316E9, 0.0, 2022-11-20 15:38:49.212
110.0, -17577.210673953377, 23351.940316193144, -36327.507952154636, -35377.15648140389, -28338.435690216505, -29208.700860583886, -24580.459246690185, -3844.3659358460827, -26227.648702579583, -3771.655711132969, -29117.99748158425, -34249.667435844836, -27738.447813802697, -11161.388297246493, -22994.871198519613, -35432.99113905324, 0.0814375, 0.953875, -0.1340625, 192.0, 0.0, 0.0, 0.0, 0.0, 0.0, 0.0, 0.0, 0.0, 0.0, 1.668976729212738E9, 0.0, 2022-11-20 15:38:49.212
112.0, -17607.474935945862, 23042.391007231596, -36363.67307468332, -35406.213749195784, -28362.776739928337, -29245.35772149059, -24603.660357434794, -3874.786660049756, -26316.340424578244, -3853.552502817214, -29222.044852023704, -34344.63999803543, -27834.470907982697, -11257.679612359956, -23077.773818704347, -35522.17459942992, 0.0814375, 0.953875, -0.1340625, 192.0, 0.0, 0.0, 0.0, 0.0, 0.0, 0.0, 0.0, 0.0, 0.0, 1.6689767292127445E9, 0.0, 2022-11-20 15:38:49.212
114.0, -17559.508092344775, 23311.66247268468, -36313.42635314779, -35366.09236789851, -28303.07523048821, -29197.413229633956, -24548.496252119097, -3824.361124558583, -26232.38727240411, -3779.70233913688, -29130.939141623872, -34260.39627318338, -27736.77143296855, -11165.389259503992, -22985.617576315115, -35439.07081354509, 0.0814375, 0.953875, -0.1340625, 192.0, 0.0, 0.0, 0.0, 0.0, 0.0, 0.0, 0.0, 0.0, 0.0, 1.668976729212751E9, 0.0, 2022-11-20 15:38:49.212
116.0, -17624.551668709715, 23104.595912050714, -36386.47185402773, -35429.32545296258, -28374.645516234104, -29269.251736313312, -24615.998520374123, -3893.7632910923116, -26305.92451166207, -3842.6895550119348, -29220.256712467282, -34337.9568264433, -27827.36305324591, -11252.56106287969, -23064.318068542252, -35522.912206996945, 0.0814375, 0.953875, -0.1340625, 192.0, 0.0, 0.0, 0.0, 0.0, 0.0, 0.0, 0.0, 0.0, 0.0, 1.668976729212757E9, 0.0, 2022-11-20 15:38:49.212
118.0, -17550.85796724057, 23246.194213175084, -36309.80537054603, -35360.10210038449, -28306.159771223043, -29198.374354645533, -24547.222202685145, -3819.8013686897007, -26245.686560355018, -3795.817946889156, -29142.450290018358, -34273.092064034, -27753.892869221316, -11180.253169566771, -23009.064556248733, -35458.87445913249, 0.08271875000000001, 0.9519375000000001, -0.13403125, 192.0, 1.0, 80.0, 14.5, 88.0, 125.5, 104.0, 0.0, 0.0, 0.0, 1.6689767292127643E9, 0.0, 2022-11-20 15:38:49.212
120.0, -17626.429215243963, 23181.418857743607, -36377.53115624561, -35425.99504303873, -28383.273289593853, -29268.98351537985, -24619.083061108955, -3890.3434741906494, -26294.63688071214, -3834.8664444525775, -29203.15762795897, -34329.64197750592, -27823.004463077126, -11244.89441453152, -23069.056638366776, -35512.295128380676, 0.08271875000000001, 0.9519375000000001, -0.13403125, 192.0, 0.0, 0.0, 0.0, 0.0, 0.0, 0.0, 0.0, 0.0, 0.0, 1.6689767296928155E9, 0.0, 2022-11-20 15:38:49.692
122.0, -17560.692734800905, 23183.788142655867, -36306.05027747754, -35351.697844469294, -28316.88860856159, -29196.653270322477, -24554.151243466287, -3825.4563600368933, -26252.86147032517, -3800.914144624966, -29141.91384815143, -34273.9414303233, -27763.92880248175, -11191.294931327693, -23019.480469164904, -35462.02605510069, 0.08271875000000001, 0.9519375000000001, -0.13403125, 192.0, 0.0, 0.0, 0.0, 0.0, 0.0, 0.0, 0.0, 0.0, 0.0, 1.668976729692856E9, 0.0, 2022-11-20 15:38:49.692
124.0, -17632.710055435902, 23247.580021331316, -36375.161871333345, -35408.91831027488, -28386.8495687067, -29258.50054723031, -24618.0101773751, -3888.398872423038, -26289.2054068095, -3819.2872785672284, -29194.39574413249, -34308.430172017834, -27815.47192519569, -11231.639830069522, -23053.164548059052, -35493.09497989356, 0.08271875000000001, 0.9519375000000001, -0.13403125, 192.0, 0.0, 0.0, 0.0, 0.0, 0.0, 0.0, 0.0, 0.0, 0.0, 1.6689767296929274E9, 0.0, 2022-11-20 15:38:49.692
126.0, -17554.501301586784, 23129.272237929374, -36293.62270756039, -35318.97489058672, -28306.539750878783, -29179.06244743615, -24541.656618315774, -3814.302839553695, -26262.562127418772, -3796.957885856377, -29152.396816300967, -34268.956991309766, -27768.555613583998, -11186.39989929198, -23015.50185865186, -35458.36036901002, 0.08271875000000001, 0.9519375000000001, -0.13403125, 192.0, 0.0, 0.0, 0.0, 0.0, 0.0, 0.0, 0.0, 0.0, 0.0, 1.6689767296929748E9, 0.0, 2022-11-20 15:38:49.692
128.0, -17641.181366584464, 23312.690652929625, -36385.018990638135, -35400.692868315324, -28395.23147287744, -29267.21772756788, -24629.20840134721, -3900.848794084644, -26282.812807895283, -3803.529298726237, -29186.4385231064, -34289.07356131954, -27805.59245414644, -11214.02665543874, -23040.759329886358, -35485.227165845296, 0.08135937500000001, 0.9529687500000001, -0.134015625, 192.0, 1.0, 64.0, 14.5, 104.0, 125.5, 104.0, 0.0, 0.0, 0.0, 1.6689767296929839E9, 0.0, 2022-11-20 15:38:49.692
130.0, -17532.462481553852, 23086.558054275283, -36287.81125400201, -35291.70576235125, -28297.196721696466, -29168.087740908595, -24534.459356601164, -3809.720731940357, -26270.944031589515, -3800.332999269128, -29156.710702980843, -34271.97447681123, -27780.670259078775, -11186.377547547525, -23036.71366413995, -35472.77724418369, 0.08135937500000001, 0.9529687500000001, -0.134015625, 192.0, 0.0, 0.0, 0.0, 0.0, 0.0, 0.0, 0.0, 0.0, 0.0, 1.6689767296929896E9, 0.0, 2022-11-20 15:38:49.692
132.0, -17624.52931696526, 23380.282328162473, -36378.022894623624, -35390.41106586588, -28391.409324575583, -29265.429588011455, -24628.604904246917, -3901.072311529197, -26254.359037203674, -3772.7509466112792, -29151.547450011665, -34258.317560949035, -27783.687744580242, -11184.075317868628, -23030.589286159193, -35466.630514458484, 0.08135937500000001, 0.9529687500000001, -0.134015625, 192.0, 0.0, 0.0, 0.0, 0.0, 0.0, 0.0, 0.0, 0.0, 0.0, 1.6689767296929953E9, 0.0, 2022-11-20 15:38:49.692
134.0, -17539.458577568363, 23032.60094316017, -36294.293259894046, -35311.84468410548, -28309.400774169062, -29177.743694513287, -24544.785862539517, -3819.0637611226753, -26277.426037481553, -3810.8383191631224, -29160.063464649138, -34277.83063385852, -27790.79559931703, -11200.88382969902, -23043.620353176637, -35482.723770466306, 0.08135937500000001, 0.9529687500000001, -0.134015625, 192.0, 0.0, 0.0, 0.0, 0.0, 0.0, 0.0, 0.0, 0.0, 0.0, 1.6689767296930108E9, 0.0, 2022-11-20 15:38:49.693
136.0, -17632.553593224715, 23418.727328625602, -36383.074388870526, -35424.98921453825, -28396.058487422288, -29262.859137399097, -24629.25310483612, -3898.680674872479, -26257.421226194052, -3787.860725863067, -29154.76610121323, -34266.855927330966, -27780.603203845407, -11192.770146461744, -23019.726338353914, -35463.30010453464, 0.08135937500000001, 0.9529687500000001, -0.134015625, 192.0, 0.0, 0.0, 0.0, 0.0, 0.0, 0.0, 0.0, 0.0, 0.0, 1.6689767296930163E9, 0.0, 2022-11-20 15:38:49.693
138.0, -17537.357513589563, 22991.004346728845, -36298.696553551745, -35339.113812340955, -28307.165599723532, -29170.993467687786, -24536.00162696858, -3806.3456185276054, -26294.793342923327, -3832.8324357071447, -29180.962345714852, -34302.12698008144, -27803.64785237883, -11223.45909159888, -23054.013914348354, -35501.81216023114, 0.08135937500000001, 0.9529687500000001, -0.134015625, 192.0, 0.0, 0.0, 0.0, 0.0, 0.0, 0.0, 0.0, 0.0, 0.0, 1.6689767296930223E9, 0.0, 2022-11-20 15:38:49.693
140.0, -17608.503116190805, 23451.87496565282, -36372.68082769881, -35426.68794711685, -28384.39087681662, -29240.820317366164, -24607.057822592, -3867.0529564682197, -26240.00921726337, -3773.488554178304, -29136.392967270967, -34252.59551436848, -27758.005590201094, -11174.799343919676, -23008.103431237156, -35452.97359859629, 0.084, 0.9540000000000001, -0.14200000000000002, 192.0, 1.0, 80.0, 14.5, 104.0, 125.5, 72.0, 0.0, 0.0, 0.0, 1.668976729693028E9, 0.0, 2022-11-20 15:38:49.693
142.0, -17540.017371179747, 22959.64484925805, -36307.771361800595, -35349.462670023764, -28318.095602762176, -29173.452159577868, -24540.76254853756, -3802.2552492922846, -26290.92649113256, -3830.9325374284435, -29185.231528905813, -34308.34076504001, -27800.853884321918, -11217.044140940206, -23066.93322264352, -35501.387477086486, 0.084, 0.9540000000000001, -0.14200000000000002, 192.0, 0.0, 0.0, 0.0, 0.0, 0.0, 0.0, 0.0, 0.0, 0.0, 1.6689767296930337E9, 0.0, 2022-11-20 15:38:49.693
144.0, -17613.01816857078, 23450.89148889679, -36370.9373916313, -35419.87066505798, -28382.04394364881, -29241.69203539992, -24605.1579243133, -3861.5320755877588, -26239.94216203, -3770.7169378658464, -29138.426976016402, -34256.79764232608, -27751.47888082014, -11162.908215869453, -23014.786602829292, -35444.03290081416, 0.084, 0.9540000000000001, -0.14200000000000002, 192.0, 0.0, 0.0, 0.0, 0.0, 0.0, 0.0, 0.0, 0.0, 0.0, 1.6689767296930394E9, 0.0, 2022-11-20 15:38:49.693
146.0, -17547.080522427623, 22952.916974177002, -36317.40496366083, -35348.94857990129, -28321.09073651919, -29187.220834162337, -24542.975371238634, -3805.9209353829547, -26306.59506399573, -3835.3134793416834, -29198.15083720098, -34314.867474420964, -27808.63229139236, -11221.670952042456, -23077.19267334851, -35507.22128238932, 0.084, 0.9540000000000001, -0.14200000000000002, 192.0, 0.0, 0.0, 0.0, 0.0, 0.0, 0.0, 0.0, 0.0, 0.0, 1.668976729693045E9, 0.0, 2022-11-20 15:38:49.693
148.0, -17610.358310980595, 23439.089767824385, -36369.171603819326, -35417.25551095671, -28370.063408620765, -29245.84945986861, -24596.463095720184, -3854.848903995622, -26234.711853827463, -3763.653786617969, -29126.155868310438, -34244.16890670883, -27735.810307956974, -11151.911157597442, -23003.65543409055, -35441.23893275725, 0.084, 0.9540000000000001, -0.14200000000000002, 192.0, 0.0, 0.0, 0.0, 0.0, 0.0, 0.0, 0.0, 0.0, 0.0, 1.6689767296930509E9, 0.0, 2022-11-20 15:38:49.693
150.0, -17578.68588908743, 22936.0637588577, -36340.82959184999, -35379.36930410496, -28331.50664943536, -29215.07110775365, -24559.493310391106, -3826.7751129597564, -26332.724253263983, -3859.3863081200493, -29223.341253202114, -34348.59625680402, -27832.302788770532, -11249.543577378223, -23092.86124621168, -35536.88204728151, 0.078, 0.9540000000000001, -0.14, 192.0, 1.0, 56.0, 14.5, 104.0, 125.5, 80.0, 0.0, 0.0, 0.0, 1.6689767296930563E9, 0.0, 2022-11-20 15:38:49.693
152.0, -17597.237836985332, 23407.573808142402, -36351.1784495328, -35406.10199047351, -28343.42012923004, -29230.493811427812, -24573.731371609138, -3837.1910258759294, -26236.81291780626, -3768.9064465649662, -29126.692310177365, -34260.23981097219, -27736.413805057266, -11158.035535578196, -22998.64864333256, -35450.000816583735, 0.078, 0.9540000000000001, -0.14, 192.0, 0.0, 0.0, 0.0, 0.0, 0.0, 0.0, 0.0, 0.0, 0.0, 1.668976729693062E9, 0.0, 2022-11-20 15:38:49.693
154.0, -17584.00560426779, 22947.8654799301, -36339.15321101585, -35382.09621692851, -28332.60188491367, -29217.172171732447, -24563.203699970687, -3829.7255432278566, -26315.513410033396, -3844.812970735189, -29210.39959316249, -34341.91308521188, -27819.003500819625, -11239.664106328977, -23082.199464106496, -35533.86456178004, 0.078, 0.9540000000000001, -0.14, 192.0, 0.0, 0.0, 0.0, 0.0, 0.0, 0.0, 0.0, 0.0, 0.0, 1.668976729693068E9, 0.0, 2022-11-20 15:38:49.693
156.0, -17569.0969907161, 23368.793531512445, -36321.89766429635, -35365.37711207594, -28324.532905165306, -29196.005069733274, -24551.983124254122, -3807.329095283639, -26221.010234476358, -3762.8938273064887, -29111.649586158943, -34246.58289511, -27721.169915338745, -11140.712933625333, -22997.08402122069, -35440.79189786815, 0.078, 0.9540000000000001, -0.14, 192.0, 0.0, 0.0, 0.0, 0.0, 0.0, 0.0, 0.0, 0.0, 0.0, 1.6689767296930735E9, 0.0, 2022-11-20 15:38:49.693
158.0, -17596.321415462662, 22991.205512428944, -36357.92867635831, -35380.799815750106, -28362.285001550317, -29222.15661074598, -24586.360107226385, -3840.1638078884853, -26299.598967981216, -3829.434970549938, -29196.58621508911, -34324.881055936945, -27813.88495133936, -11217.781748507232, -23083.294699584807, -35506.03663993319, 0.078, 0.9540000000000001, -0.14, 192.0, 0.0, 0.0, 0.0, 0.0, 0.0, 0.0, 0.0, 0.0, 0.0, 1.6689767296930792E9, 0.0, 2022-11-20 15:38:49.693
160.0, -17571.063944228168, 23307.79562089391, -36324.691632353264, -35361.08557714052, -28334.926466337023, -29201.391840147, -24563.09194124841, -3818.884947167033, -26236.991731761904, -3777.2659989912513, -29121.596112441555, -34259.926886549816, -27743.208735371678, -11148.223119762317, -23022.855582577657, -35441.37304322398, 0.08600000000000001, 0.9540000000000001, -0.134, 192.0, 1.0, 88.0, 14.5, 104.0, 125.5, 104.0, 0.0, 0.0, 0.0, 1.668976729693085E9, 0.0, 2022-11-20 15:38:49.693
162.0, -17597.684871874437, 23033.763233871847, -36355.22411527921, -35384.73372277424, -28358.52990848183, -29226.582256148133, -24585.86836884837, -3841.974299189365, -26304.650462228117, -3837.325136342661, -29197.10030521158, -34327.42915480485, -27821.708061898717, -11225.493100344313, -23087.966214175965, -35508.33886961208, 0.08600000000000001, 0.9540000000000001, -0.134, 192.0, 0.0, 0.0, 0.0, 0.0, 0.0, 0.0, 0.0, 0.0, 0.0, 1.668976729693091E9, 0.0, 2022-11-20 15:38:49.693
164.0, -17553.56252831966, 23256.341905157795, -36311.50410312464, -35354.13418461492, -28309.065498002234, -29186.125598684026, -24539.91318224826, -3793.135737554519, -26224.362996144653, -3768.526466909226, -29104.09469653305, -34243.96774100873, -27723.561551995463, -11136.711971367833, -23002.202570700952, -35426.86676107249, 0.08600000000000001, 0.9540000000000001, -0.134, 192.0, 0.0, 0.0, 0.0, 0.0, 0.0, 0.0, 0.0, 0.0, 0.0, 1.6689767296930964E9, 0.0, 2022-11-20 15:38:49.693
166.0, -17620.77422389677, 23080.880711183636, -36382.62735398142, -35422.10583950351, -28374.53375751183, -29255.527765217754, -24604.353261512908, -3863.588436077647, -26303.890502916638, -3837.23572936484, -29199.626052335032, -34329.910198439386, -27820.79164037605, -11235.014943482274, -23080.456028038985, -35516.25138714926, 0.08600000000000001, 0.9540000000000001, -0.134, 192.0, 0.0, 0.0, 0.0, 0.0, 0.0, 0.0, 0.0, 0.0, 0.0, 1.6689767296931036E9, 0.0, 2022-11-20 15:38:49.693
168.0, -17561.00565922328, 23178.15550305313, -36320.06482125101, -35366.6958649988, -28313.759364337846, -29197.480284867324, -24546.819871284948, -3809.8771941515442, -26248.659342367573, -3796.2202782893514, -29130.76032766823, -34273.40498845637, -27751.92591570925, -11170.954843873364, -23022.27443722182, -35465.647037702445, 0.08600000000000001, 0.9540000000000001, -0.134, 192.0, 0.0, 0.0, 0.0, 0.0, 0.0, 0.0, 0.0, 0.0, 0.0, 1.6689767296931405E9, 0.0, 2022-11-20 15:38:49.693
170.0, -17616.281523261252, 23146.8630608157, -36378.89461265739, -35414.52859813316, -28375.919565668057, -29249.69395991492, -24601.20166554471, -3859.9898052203425, -26301.789438937838, -3834.732333985846, -29195.222758677337, -34329.08318389454, -27825.776079389583, -11231.103388202595, -23078.04203963781, -35519.201817417365, 0.09, 0.9520000000000001, -0.13, 192.0, 1.0, 104.0, 14.5, 96.0, 125.5, 120.0, 0.0, 0.0, 0.0, 1.6689767296931465E9, 0.0, 2022-11-20 15:38:49.693
172.0, -17541.17966189142, 23124.421909382574, -36301.959908242214, -35332.69886168228, -28299.901282775558, -29169.16062464245, -24525.94334196369, -3782.98804557181, -26242.19968821999, -3789.1571270414743, -29119.070365318104, -34261.960895295255, -27750.67421801975, -11157.722611155821, -23015.948893540968, -35445.105784548025, 0.09, 0.9520000000000001, -0.13, 192.0, 0.0, 0.0, 0.0, 0.0, 0.0, 0.0, 0.0, 0.0, 0.0, 1.668976729693152E9, 0.0, 2022-11-20 15:38:49.693
174.0, -17621.131851808055, 23209.224427846006, -36378.5369847461, -35409.4100486529, -28375.293716823307, -29241.91555284447, -24598.228883532156, -3854.5136278287923, -26282.879863128648, -3811.911202896977, -29175.754389256763, -34304.876244649444, -27807.112372769403, -11205.510640801269, -23055.958516115967, -35482.65671523294, 0.09, 0.9520000000000001, -0.13, 192.0, 0.0, 0.0, 0.0, 0.0, 0.0, 0.0, 0.0, 0.0, 0.0, 1.668976729693158E9, 0.0, 2022-11-20 15:38:49.693
176.0, -17527.343932073585, 23065.055676109278, -36283.27384987758, -35319.533684198104, -28278.153035420542, -29151.390987800478, -24509.29129234449, -3769.688757620902, -26247.2958859558, -3797.3825690010276, -29125.86529563252, -34270.63337214391, -27755.233973888633, -11164.182265303405, -23016.79825983027, -35444.39052872545, 0.09, 0.9520000000000001, -0.13, 192.0, 0.0, 0.0, 0.0, 0.0, 0.0, 0.0, 0.0, 0.0, 0.0, 1.6689767296931636E9, 0.0, 2022-11-20 15:38:49.693
178.0, -17626.29510477723, 23270.065876253353, -36381.24154582519, -35421.77056333668, -28375.98662090142, -29247.011750580285, -24606.29786328052, -3862.5155523437925, -26259.835214595227, -3796.399092244994, -29152.86620293453, -34287.50893920767, -27783.620689346873, -11190.512620271758, -23035.66313215055, -35462.20486905633, 0.09, 0.9520000000000001, -0.13, 192.0, 0.0, 0.0, 0.0, 0.0, 0.0, 0.0, 0.0, 0.0, 0.0, 1.668976729693169E9, 0.0, 2022-11-20 15:38:49.693
180.0, -17540.486757813305, 22998.06749797672, -36296.863710506404, -35335.11285008345, -28293.10635246114, -29168.57947928661, -24524.04344368499, -3784.552667683681, -26269.75938913338, -3818.370857044561, -29145.601885986554, -34293.18628229931, -27777.809235788496, -11188.389204548503, -23042.8380421207, -35473.17957558389, 0.094, 0.9580000000000001, -0.128, 192.0, 1.0, 120.0, 14.5, 120.0, 126.0, 0.0, 0.0, 0.0, 0.0, 1.6689767296931753E9, 0.0, 2022-11-20 15:38:49.693
182.0, -17625.557497210204, 23315.529324475447, -36371.76440617614, -35418.23898771274, -28368.655248720082, -29245.44712846841, -24595.94900559771, -3853.0607644391976, -26253.464967425465, -3790.5876386866144, -29147.34532205407, -34284.55850893957, -27775.998744487613, -11180.409631777959, -23031.282190237307, -35460.95317136683, 0.094, 0.9580000000000001, -0.128, 192.0, 0.0, 0.0, 0.0, 0.0, 0.0, 0.0, 0.0, 0.0, 0.0, 1.6689767296931808E9, 0.0, 2022-11-20 15:38:49.693
184.0, -17542.409007836464, 22946.07734037368, -36290.24759414764, -35329.815486647545, -28285.08207620169, -29155.704874480354, -24510.811210967448, -3770.7392896103015, -26274.699124658004, -3821.9918396463204, -29160.10816813805, -34306.21734931676, -27781.54197711253, -11185.192905091395, -23045.453196221973, -35471.90552614993, 0.094, 0.9580000000000001, -0.128, 192.0, 0.0, 0.0, 0.0, 0.0, 0.0, 0.0, 0.0, 0.0, 0.0, 1.6689767296931863E9, 0.0, 2022-11-20 15:38:49.693
186.0, -17637.962715382902, 23348.453444058116, -36375.96653413374, -35431.538275663646, -28374.980792400933, -29249.470442470367, -24605.82847664696, -3859.945101731432, -26243.898420798592, -3786.6090281735696, -29143.85844991904, -34282.94918333879, -27765.806349015995, -11167.579730460613, -23018.27347496432, -35450.0678718171, 0.094, 0.9580000000000001, -0.128, 192.0, 0.0, 0.0, 0.0, 0.0, 0.0, 0.0, 0.0, 0.0, 0.0, 1.6689767296931925E9, 0.0, 2022-11-20 15:38:49.693
188.0, -17557.42938011043, 22907.8558573551, -36301.04348671955, -35347.85334442298, -28304.952777022456, -29181.901118981972, -24537.543897335996, -3796.2202782893514, -26297.989642380435, -3847.9422149589323, -29182.281098637715, -34328.5020385387, -27809.101678025923, -11215.144242661507, -23066.843815665703, -35502.572119542616, 0.094, 0.9580000000000001, -0.128, 192.0, 0.0, 0.0, 0.0, 0.0, 0.0, 0.0, 0.0, 0.0, 0.0, 1.668976729693198E9, 0.0, 2022-11-20 15:38:49.693
190.0, -17632.263020546798, 23380.259976418016, -36372.90434514336, -35430.688909374345, -28375.8972139236, -29256.108910573592, -24612.846924405923, -3869.601055336125, -26239.115147485158, -3780.8869815930107, -29130.626217201498, -34268.91228782085, -27762.4535873477, -11167.222102549327, -23015.188934229485, -35453.59944744104, 0.088, 0.9560000000000001, -0.136, 192.0, 1.0, 96.0, 14.5, 112.0, 125.5, 96.0, 0.0, 0.0, 0.0, 1.668976729693228E9, 0.0, 2022-11-20 15:38:49.693
192.0, -17578.61883385406, 22878.887996541023, -36332.33592895698, -35370.27214411165, -28324.59996039867, -29208.58910186161, -24563.874252304347, -3827.6691827379686, -26314.194657110533, -3859.833343009155, -29202.420020391946, -34345.5564195581, -27826.446631723244, -11240.759341807288, -23091.98952817792, -35529.72948905581, 0.088, 0.9560000000000001, -0.136, 192.0, 0.0, 0.0, 0.0, 0.0, 0.0, 0.0, 0.0, 0.0, 0.0, 1.6689767296932347E9, 0.0, 2022-11-20 15:38:49.693
194.0, -17629.893735634534, 23378.829464772876, -36376.994714378685, -35426.24091222774, -28372.05271387729, -29259.193451308427, -24610.812915660492, -3868.1258402020744, -26242.311446942265, -3785.603199673081, -29137.443499260367, -34277.09302629149, -27759.614915801874, -11176.900407898476, -23026.02953029031, -35463.32245627909, 0.088, 0.9560000000000001, -0.136, 192.0, 0.0, 0.0, 0.0, 0.0, 0.0, 0.0, 0.0, 0.0, 0.0, 1.668976729693241E9, 0.0, 2022-11-20 15:38:49.693
196.0, -17593.549799150205, 22871.400162148497, -36344.00353956265, -35380.95627796129, -28338.61450417215, -29222.000148534793, -24574.24546173161, -3836.945156686921, -26322.509506047907, -3864.9965959783312, -29212.634767608022, -34356.84405050803, -27835.476736483186, -11252.538711135234, -23099.56676954827, -35537.32908217062, 0.088, 0.9560000000000001, -0.136, 192.0, 0.0, 0.0, 0.0, 0.0, 0.0, 0.0, 0.0, 0.0, 0.0, 1.668976729693247E9, 0.0, 2022-11-20 15:38:49.693
198.0, -17624.48461347635, 23368.793531512445, -36363.00252234966, -35417.92606329037, -28363.08966435071, -29248.106986058592, -24600.28524402204, -3858.425183108471, -26250.76040634637, -3790.6993974088905, -29140.908019650942, -34281.5410234381, -27764.3534856264, -11178.375623032525, -23025.917771568034, -35466.74227318076, 0.088, 0.9560000000000001, -0.136, 192.0, 0.0, 0.0, 0.0, 0.0, 0.0, 0.0, 0.0, 0.0, 0.0, 1.6689767296932557E9, 0.0, 2022-11-20 15:38:49.693
200.0, -17598.355424208097, 22899.920988073467, -36342.79654536206, -35380.151615160896, -28340.42499547303, -29219.429697922435, -24577.173540255255, -3835.4699415528708, -26315.647520500126, -3858.3804796195604, -29209.997261762295, -34347.523373070166, -27831.296960270043, -11244.849711042609, -23089.50848454338, -35527.583721588104, 0.084, 0.9540000000000001, -0.132, 192.0, 1.0, 80.0, 14.5, 104.0, 125.5, 112.0, 0.0, 0.0, 0.0, 1.6689767296932616E9, 0.0, 2022-11-20 15:38:49.693
202.0, -17617.44381397293, 23357.282383117963, -36362.466080482736, -35407.3089846741, -28363.491995750905, -29243.994265078818, -24601.53694171154, -3855.5418080737363, -26247.832327822725, -3782.0269205602317, -29139.58926672808, -34269.3369709655, -27758.474976834656, -11166.171570559927, -23025.135460512098, -35456.01343584221, 0.084, 0.9540000000000001, -0.132, 192.0, 0.0, 0.0, 0.0, 0.0, 0.0, 0.0, 0.0, 0.0, 0.0, 1.668976729693267E9, 0.0, 2022-11-20 15:38:49.693
204.0, -17604.256284744297, 22934.76735767929, -36345.23288550769, -35377.53646105963, -28344.940047853, -29224.01180553577, -24579.34165946742, -3837.7721712317675, -26325.68345376056, -3854.357165617605, -29223.184790990927, -34349.51267832669, -27845.065634854513, -11246.83901629913, -23103.411269594584, -35535.004500747265, 0.084, 0.9540000000000001, -0.132, 192.0, 0.0, 0.0, 0.0, 0.0, 0.0, 0.0, 0.0, 0.0, 0.0, 1.6689767296932728E9, 0.0, 2022-11-20 15:38:49.693
206.0, -17584.273825201253, 23337.210516597097, -36319.863655550915, -35369.06514991107, -28327.729204622414, -29207.292700683203, -24564.187176726722, -3819.331982056139, -26227.447536879485, -3768.4370599314047, -29110.777868125188, -34245.57706660951, -27738.313703335967, -11140.377657458504, -22994.98295724189, -35427.44790642833, 0.084, 0.9540000000000001, -0.132, 192.0, 0.0, 0.0, 0.0, 0.0, 0.0, 0.0, 0.0, 0.0, 0.0, 1.6689767296932786E9, 0.0, 2022-11-20 15:38:49.693
208.0, -17588.81122932568, 22991.78665778478, -36340.13668777188, -35377.514109315176, -28349.969190355445, -29219.45204966689, -24581.174502512757, -3836.453418308904, -26306.192732595533, -3841.1025811556083, -29201.45889538037, -34331.13954438443, -27836.59432370595, -11233.60678358159, -23084.747562974404, -35518.03952670569, 0.084, 0.9540000000000001, -0.132, 192.0, 0.0, 0.0, 0.0, 0.0, 0.0, 0.0, 0.0, 0.0, 0.0, 1.6689767296932845E9, 0.0, 2022-11-20 15:38:49.693
210.0, -17548.891013728502, 23308.89085637222, -36305.02209723259, -35344.74645194369, -28317.514457406338, -29185.142121927995, -24553.167766710256, -3804.2892580377174, -26207.554484314263, -3750.667423089436, -29090.080152759572, -34227.51685708963, -27729.90944742077, -11131.258145720738, -22992.74778279636, -35423.357537193006, 0.084, 0.9520000000000001, -0.135, 192.0, 1.0, 80.0, 14.5, 88.0, 125.5, 88.0, 0.0, 0.0, 0.0, 1.66897672969329E9, 0.0, 2022-11-20 15:38:49.693
212.0, -17588.744174092313, 23067.290850554808, -36353.77125188962, -35382.945583217814, -28365.61541147416, -29228.616264893564, -24598.45240097671, -3850.1550376600076, -26285.562072463283, -3811.8441476636112, -29181.05175269267, -34307.55845398408, -27820.925750842784, -11215.725388017343, -23074.264594824865, -35498.16882588492, 0.084, 0.9520000000000001, -0.135, 192.0, 0.0, 0.0, 0.0, 0.0, 0.0, 0.0, 0.0, 0.0, 0.0, 1.6689767296932957E9, 0.0, 2022-11-20 15:38:49.693
214.0, -17518.380882547008, 23265.193195962096, -36281.41865508779, -35321.925320854825, -28301.17533220951, -29163.01389491724, -24537.901525247282, -3785.893772351, -26221.99371123239, -3754.176646968919, -29099.490237175258, -34238.11158396144, -27745.44390981721, -11141.428189447903, -23004.236579446388, -35428.09610701753, 0.084, 0.9520000000000001, -0.135, 192.0, 0.0, 0.0, 0.0, 0.0, 0.0, 0.0, 0.0, 0.0, 0.0, 1.6689767296933017E9, 0.0, 2022-11-20 15:38:49.693
216.0, -17551.439112596407, 23164.409180213115, -36315.66152759332, -35354.849440437494, -28343.66599841905, -29209.147895472994, -24579.498121678607, -3827.7809414602452, -26246.848851066694, -3777.9365513249104, -29137.421147515914, -34272.220346000235, -27790.885006294848, -11186.556361503168, -23032.64564664908, -35460.886116133464, 0.084, 0.9520000000000001, -0.135, 192.0, 0.0, 0.0, 0.0, 0.0, 0.0, 0.0, 0.0, 0.0, 0.0, 1.6689767296933072E9, 0.0, 2022-11-20 15:38:49.693
218.0, -17488.675414165904, 23235.107747925253, -36258.79868969902, -35301.89815782287, -28285.618518068615, -29156.44248204738, -24522.23295238411, -3774.0696995341423, -26182.386420057588, -3734.663574059436, -29058.631248310954, -34207.10971440193, -27717.05719435897, -11120.551660126646, -22969.099637162642, -35401.117551459974, 0.084, 0.9520000000000001, -0.135, 192.0, 0.0, 0.0, 0.0, 0.0, 0.0, 0.0, 0.0, 0.0, 0.0, 1.668976729693313E9, 0.0, 2022-11-20 15:38:49.693
220.0, -17580.630490855037, 23206.855142933746, -36347.95979833124, -35390.83574901053, -28375.070199378755, -29252.286762271735, -24612.332834283454, -3867.522343101781, -26243.116109742656, -3787.950132840888, -29138.29286554967, -34278.389427469905, -27800.22803547717, -11201.442623310402, -23036.46779495094, -35473.09016860607, 0.082, 0.9490000000000001, -0.1385, 192.0, 1.0, 64.0, 14.5, 72.0, 125.5, 72.0, 0.0, 0.0, 0.0, 1.6689767296933186E9, 0.0, 2022-11-20 15:38:49.693
222.0, -17495.515047969227, 23137.967066522488, -36260.02803564406, -35297.60662288745, -28282.869253500612, -29160.510499538246, -24524.46812682964, -3782.8762868495332, -26212.47186809443, -3772.259208233262, -29092.449437671836, -34241.97843575221, -27751.143604653313, -11158.706087911856, -23000.682652077994, -35438.35555772252, 0.082, 0.9490000000000001, -0.1385, 192.0, 0.0, 0.0, 0.0, 0.0, 0.0, 0.0, 0.0, 0.0, 0.0, 1.6689767296933243E9, 0.0, 2022-11-20 15:38:49.693
224.0, -17576.361307664076, 23266.55665237387, -36341.835420350486, -35378.408179093385, -28362.486167250416, -29238.383977220536, -24601.11225856689, -3857.106430185608, -26229.81682179175, -3770.1357925100083, -29126.58055145509, -34263.97255229623, -27782.637212590842, -11181.527219000724, -23019.122841253622, -35452.83948812956, 0.082, 0.9490000000000001, -0.1385, 192.0, 0.0, 0.0, 0.0, 0.0, 0.0, 0.0, 0.0, 0.0, 0.0, 1.66897672969333E9, 0.0, 2022-11-20 15:38:49.693
226.0, -17497.347891014564, 23076.767990203858, -36263.13492812335, -35302.09932352297, -28283.8750820011, -29161.046941405173, -24528.871420487336, -3787.167821784952, -26221.166696687545, -3776.9530745688767, -29103.066516288105, -34253.69074984679, -27754.742235510617, -11163.109381569551, -23006.11412598063, -35441.0154153127, 0.082, 0.9490000000000001, -0.1385, 192.0, 0.0, 0.0, 0.0, 0.0, 0.0, 0.0, 0.0, 0.0, 0.0, 1.6689767296933355E9, 0.0, 2022-11-20 15:38:49.693
228.0, -17576.2495489418, 23330.41558628268, -36341.52249592811, -35381.8503477395, -28365.861280663168, -29235.83587835263, -24609.672976693273, -3864.706023300412, -26224.76532754485, -3769.532295409715, -29121.52905720819, -34262.653799373365, -27775.238785176134, -11176.967463131841, -23014.786602829292, -35446.93862759336, 0.082, 0.9490000000000001, -0.1385, 192.0, 0.0, 0.0, 0.0, 0.0, 0.0, 0.0, 0.0, 0.0, 0.0, 1.6689767296933415E9, 0.0, 2022-11-20 15:38:49.693
230.0, -17490.03887057768, 23034.65730365006, -36263.91723917928, -35301.24995723367, -28282.109294189133, -29158.521194281722, -24529.296103631987, -3789.2912375082065, -26226.642874079094, -3781.8481066045892, -29109.7720396247, -34258.518726649134, -27762.721808281163, -11166.372736260026, -23015.32304469622, -35446.089261304056, 0.08, 0.9495, -0.13825, 192.0, 1.0, 56.0, 14.5, 88.0, 125.5, 88.0, 0.0, 0.0, 0.0, 1.668976729693349E9, 0.0, 2022-11-20 15:38:49.693
232.0, -17580.42932515494, 23378.807113028422, -36347.28924599758, -35392.28861240013, -28363.8943271511, -29246.40825347999, -24610.477639493663, -3869.0869652136525, -26215.444650106987, -3762.178571483919, -29112.275435003692, -34251.79085156809, -27767.482729850144, -11172.87709389652, -23007.54463762577, -35447.58682818256, 0.08, 0.9495, -0.13825, 192.0, 0.0, 0.0, 0.0, 0.0, 0.0, 0.0, 0.0, 0.0, 0.0, 1.6689767296933544E9, 0.0, 2022-11-20 15:38:49.693
234.0, -17493.83866713508, 22987.875102505102, -36259.469242032676, -35292.86805306293, -28270.151110905543, -29154.229659346303, -24517.360272092854, -3782.1163275380527, -26239.33866492971, -3790.0288450752314, -29122.557237453133, -34267.749997109175, -27773.16007294179, -11181.862495167554, -23013.423146417517, -35460.5731917111, 0.08, 0.9495, -0.13825, 192.0, 0.0, 0.0, 0.0, 0.0, 0.0, 0.0, 0.0, 0.0, 0.0, 1.66897672969336E9, 0.0, 2022-11-20 15:38:49.693
236.0, -17577.411839653472, 23419.06260479243, -36337.65564413734, -35379.23519363823, -28350.259763033362, -29234.36066321858, -24598.228883532156, -3856.1453051740295, -26200.22311213292, -3737.2116729273407, -29094.28228071717, -34228.58974082348, -27741.532354537532, -11147.954898828853, -22975.156959910033, -35428.49843841773, 0.08, 0.9495, -0.13825, 192.0, 0.0, 0.0, 0.0, 0.0, 0.0, 0.0, 0.0, 0.0, 0.0, 1.6689767296933658E9, 0.0, 2022-11-20 15:38:49.693
238.0, -17514.849306923068, 22956.0685701452, -36281.41865508779, -35310.01184106014, -28290.40179138205, -29174.48033982281, -24541.433100871218, -3803.1269673260413, -26264.9984675644, -3808.401979017494, -29152.57563025661, -34289.76646539765, -27792.44962840672, -11202.426100066436, -23036.17722227302, -35482.142625110464, 0.08, 0.9495, -0.13825, 192.0, 0.0, 0.0, 0.0, 0.0, 0.0, 0.0, 0.0, 0.0, 0.0, 1.6689767296933715E9, 0.0, 2022-11-20 15:38:49.693
240.0, -17587.47012465836, 23434.105328810852, -36352.608961177946, -35393.853234512004, -28365.816577174257, -29244.59776217911, -24614.702119195717, -3869.645758825035, -26206.28043488031, -3745.3253561646175, -29103.535902921667, -34234.5800083375, -27743.208735371678, -11149.765390129733, -22987.58452982718, -35428.09610701753, 0.078, 0.95275, -0.136125, 192.0, 1.0, 48.0, 14.5, 112.0, 125.5, 104.0, 0.0, 0.0, 0.0, 1.6689767301733086E9, 0.0, 2022-11-20 15:38:50.173
242.0, -17531.724873986826, 22933.73917743435, -36296.439027361754, -35329.92724536982, -28312.84294281518, -29189.813636519153, -24559.940345280214, -3820.4719210233598, -26283.43865674003, -3821.9918396463204, -29171.82048223263, -34303.825712660044, -27816.634215907365, -11220.665123541967, -23059.646553951094, -35503.53324455419, 0.078, 0.95275, -0.136125, 192.0, 0.0, 0.0, 0.0, 0.0, 0.0, 0.0, 0.0, 0.0, 0.0, 1.6689767301734295E9, 0.0, 2022-11-20 15:38:50.173
244.0, -17574.550816363193, 23440.721445169624, -36325.56335038702, -35378.85521398249, -28353.165489812553, -29230.940846316917, -24598.362993998886, -3852.1219911720746, -26208.3367953702, -3749.8627602890447, -29097.009193540718, -34231.38370888039, -27745.242744117113, -11151.754695386255, -22983.49416059186, -35432.58880765305, 0.078, 0.95275, -0.136125, 192.0, 0.0, 0.0, 0.0, 0.0, 0.0, 0.0, 0.0, 0.0, 0.0, 1.668976730173438E9, 0.0, 2022-11-20 15:38:50.173
246.0, -17532.574240276128, 22949.54186076425, -36289.06295169151, -35325.81452439005, -28316.84390507268, -29190.97592723083, -24562.53314763703, -3820.5836797456363, -26272.553357190296, -3817.1862145884297, -29158.811766959643, -34295.019125344654, -27810.08515478196, -11215.79244325071, -23048.023646834332, -35492.26796534872, 0.078, 0.95275, -0.136125, 192.0, 0.0, 0.0, 0.0, 0.0, 0.0, 0.0, 0.0, 0.0, 0.0, 1.668976730173447E9, 0.0, 2022-11-20 15:38:50.173
248.0, -17547.79577825019, 23452.634924964303, -36303.07749546498, -35349.30620781257, -28330.232600001407, -29199.82721803513, -24577.53116816654, -3829.3902670610273, -26196.020984175324, -3736.272899660218, -29078.32313517608, -34211.64711852636, -27733.351616066888, -11134.38738994448, -22972.810026742223, -35417.59078712354, 0.078, 0.95275, -0.136125, 192.0, 0.0, 0.0, 0.0, 0.0, 0.0, 0.0, 0.0, 0.0, 0.0, 1.6689767301734536E9, 0.0, 2022-11-20 15:38:50.173
250.0, -17524.929943672414, 22989.68559380598, -36289.17471041378, -35318.95253884227, -28313.44643991547, -29179.129502669515, -24556.274659189545, -3813.6769907089465, -26265.043171053312, -3799.1036533240863, -29148.597019743567, -34279.574069926035, -27805.03366053506, -11198.067509897652, -23039.820556619234, -35482.90258442194, 0.079, 0.954375, -0.1330625, 192.0, 1.0, 64.0, 14.5, 112.0, 125.5, 120.0, 0.0, 0.0, 0.0, 1.6689767301734612E9, 0.0, 2022-11-20 15:38:50.173
252.0, -17532.820109465138, 23437.145166056773, -36282.402131843824, -35327.088573824, -28317.894437062077, -29183.97983121632, -24561.28144994753, -3814.7051709538905, -26181.60410900165, -3717.7433035067684, -29057.98304772175, -34192.24580433915, -27718.465354259653, -11111.34274141106, -22954.660410244516, -35398.81532178108, 0.079, 0.954375, -0.1330625, 192.0, 0.0, 0.0, 0.0, 0.0, 0.0, 0.0, 0.0, 0.0, 0.0, 1.668976730173468E9, 0.0, 2022-11-20 15:38:50.173
254.0, -17536.195222877886, 23027.482393679908, -36296.2155099172, -35327.55796045756, -28328.22094300043, -29190.886520253007, -24568.925746551246, -3825.590470503625, -26262.76329311887, -3792.8898683655107, -29146.652417975954, -34275.77427336863, -27808.609939647908, -11195.988797663307, -23035.730187383913, -35476.420578529905, 0.079, 0.954375, -0.1330625, 192.0, 0.0, 0.0, 0.0, 0.0, 0.0, 0.0, 0.0, 0.0, 0.0, 1.6689767301734753E9, 0.0, 2022-11-20 15:38:50.173
0.0, -17529.690865241395, 23388.261900933016, -36288.347695868935, -35325.36748950094, -28318.162657995545, -29181.699953281877, -24562.399037170297, -3816.180386087941, -26189.024888160813, -3729.008582712243, -29067.683704815354, -34200.717115487714, -27725.930836907726, -11115.790738557665, -22961.589451025662, -35402.81628403858, 0.079, 0.954375, -0.1330625, 192.0, 0.0, 0.0, 0.0, 0.0, 0.0, 0.0, 0.0, 0.0, 0.0, 1.6689767301734827E9, 0.0, 2022-11-20 15:38:50.173
2.0, -17553.316659130654, 23071.962365145966, -36322.50116139664, -35347.719233956246, -28348.40456824357, -29208.81261930616, -24589.06466830548, -3844.6565085240018, -26274.43090372454, -3793.56042069917, -29162.991543172782, -34282.16687228285, -27824.3679194889, -11207.119966402051, -23050.147062557586, -35487.10471237954, 0.079, 0.954375, -0.1330625, 192.0, 0.0, 0.0, 0.0, 0.0, 0.0, 0.0, 0.0, 0.0, 0.0, 1.6689767301734896E9, 0.0, 2022-11-20 15:38:50.173
4.0, -17517.866792424535, 23346.48649054605, -36286.33603886796, -35325.38984124539, -28315.8827800611, -29179.598889303077, -24558.95686852418, -3811.240650563318, -26190.455399805953, -3725.208786154841, -29068.84599552703, -34200.40419106534, -27735.54208702351, -11124.284401450683, -22972.20652964193, -35410.572339364575, 0.0805, 0.9561875, -0.13153125, 192.0, 1.0, 72.0, 14.5, 120.0, 125.5, 120.0, 0.0, 0.0, 0.0, 1.6689767301734965E9, 0.0, 2022-11-20 15:38:50.173
6.0, -17561.318583645654, 23127.662912328593, -36331.53126615659, -35361.28674284062, -28359.781606171324, -29218.87090431105, -24598.318290509975, -3851.3173283716833, -26273.179206035045, -3802.9705051148544, -29164.131482140005, -34290.10174156448, -27832.973341104193, -11220.709827030878, -23061.32293478524, -35491.68681999288, 0.0805, 0.9561875, -0.13153125, 192.0, 0.0, 0.0, 0.0, 0.0, 0.0, 0.0, 0.0, 0.0, 0.0, 1.6689767301735163E9, 0.0, 2022-11-20 15:38:50.173
8.0, -17506.579161474605, 23297.357356233282, -36272.12032939438, -35307.0837625365, -28299.11897171962, -29162.075121650116, -24541.52250784904, -3795.1473945554967, -26183.504007280353, -3729.8355972570894, -29063.101597202018, -34200.20302536524, -27727.07077587495, -11121.021046760208, -22970.68661101897, -35398.65885956989, 0.0805, 0.9561875, -0.13153125, 192.0, 0.0, 0.0, 0.0, 0.0, 0.0, 0.0, 0.0, 0.0, 0.0, 1.6689767301735237E9, 0.0, 2022-11-20 15:38:50.173
10.0, -17580.652842599495, 23191.45479100404, -36348.76446113163, -35379.77163550516, -28367.358847541673, -29231.365529461567, -24607.92954062576, -3864.1919331779404, -26259.00820005038, -3792.733406154324, -29159.079987893107, -34284.24558451719, -27816.79067811855, -11206.158841390472, -23046.79430088929, -35476.375875041, 0.0805, 0.9561875, -0.13153125, 192.0, 0.0, 0.0, 0.0, 0.0, 0.0, 0.0, 0.0, 0.0, 0.0, 1.6689767301735303E9, 0.0, 2022-11-20 15:38:50.173
12.0, -17508.479059753307, 23230.279771122907, -36279.183480642256, -35313.386954472895, -28296.325003662707, -29163.371522828525, -24538.214449669656, -3793.426310232438, -26212.918902983536, -3759.138734237997, -29097.724449363286, -34235.20585718225, -27753.267020376567, -11148.714858140333, -22994.22299793041, -35427.73847910625, 0.0805, 0.9561875, -0.13153125, 192.0, 0.0, 0.0, 0.0, 0.0, 0.0, 0.0, 0.0, 0.0, 0.0, 1.6689767301735373E9, 0.0, 2022-11-20 15:38:50.173
14.0, -17578.887054787523, 23266.55665237387, -36342.327158728505, -35378.22936513774, -28361.972077127946, -29228.951541060396, -24602.475714978664, -3856.52528482977, -26251.87799356914, -3786.9666560848545, -29149.893420921973, -34277.24948850268, -27809.861637337406, -11203.186059377917, -23036.534850184304, -35470.49736624925, 0.08325, 0.95409375, -0.132765625, 192.0, 1.0, 88.0, 14.5, 96.0, 125.5, 104.0, 0.0, 0.0, 0.0, 1.6689767301735444E9, 0.0, 2022-11-20 15:38:50.173
16.0, -17480.718193139815, 23179.429552487083, -36246.3040645485, -35282.25097444665, -28264.138491647067, -29135.968284126317, -24508.576036521918, -3763.206751728863, -26207.71094652545, -3752.656728345958, -29087.37559168048, -34226.019290211116, -27745.667427261764, -11146.01029706124, -22983.382401869585, -35417.74724933472, 0.08325, 0.95409375, -0.132765625, 192.0, 0.0, 0.0, 0.0, 0.0, 0.0, 0.0, 0.0, 0.0, 0.0, 1.6689767301735516E9, 0.0, 2022-11-20 15:38:50.173
18.0, -17581.81513331117, 23335.467080529583, -36348.65270240935, -35385.42662685235, -28364.162548084565, -29237.199334764402, -24606.834305147448, -3858.8945697420327, -26221.56902808774, -3751.494437634282, -29119.18212404038, -34239.69855781776, -27775.059971220493, -11174.218198563838, -23000.526189866807, -35441.171877523884, 0.08325, 0.95409375, -0.132765625, 192.0, 0.0, 0.0, 0.0, 0.0, 0.0, 0.0, 0.0, 0.0, 0.0, 1.6689767301735587E9, 0.0, 2022-11-20 15:38:50.173
20.0, -17500.812411405135, 23104.28298762834, -36277.23887887465, -35304.84858809097, -28287.473712858406, -29159.079987893107, -24531.79949901098, -3788.8665543635557, -26237.28230443982, -3776.886019335511, -29120.61263568552, -34250.87443004542, -27771.774264785563, -11177.079221854117, -23008.684576592994, -35454.806441641624, 0.08325, 0.95409375, -0.132765625, 192.0, 0.0, 0.0, 0.0, 0.0, 0.0, 0.0, 0.0, 0.0, 0.0, 1.668976730173566E9, 0.0, 2022-11-20 15:38:50.173
22.0, -17580.205807710387, 23395.81679055891, -36356.83344087999, -35390.58987982153, -28371.18099584353, -29239.188640020926, -24614.63506396235, -3871.1209739590854, -26225.882914767615, -3752.656728345958, -29125.909999121428, -34245.42060439833, -27781.385514901343, -11174.486419497302, -23009.891570793578, -35449.77729913918, 0.08325, 0.95409375, -0.132765625, 192.0, 0.0, 0.0, 0.0, 0.0, 0.0, 0.0, 0.0, 0.0, 0.0, 1.668976730173574E9, 0.0, 2022-11-20 15:38:50.173
24.0, -17490.1282775555, 23064.18395807552, -36267.47116654768, -35296.891367064876, -28280.991706966368, -29149.133461610494, -24525.51865881904, -3780.685815892913, -26244.457214409977, -3779.6352839035135, -29125.5747229546, -34257.82582257102, -27783.21835794668, -11180.029652122219, -23020.016911031835, -35460.327322522084, 0.082625, 0.9530468750000001, -0.1313828125, 192.0, 1.0, 72.0, 14.5, 96.0, 125.5, 120.0, 0.0, 0.0, 0.0, 1.6689767301735816E9, 0.0, 2022-11-20 15:38:50.173
26.0, -17576.920101275457, 23440.341465513884, -36345.590513418974, -35384.62196405196, -28361.94972538349, -29228.012767793272, -24602.76628765658, -3853.7089650284015, -26215.623464062628, -3742.1290567075084, -29109.28030124668, -34232.21072342524, -27767.505081594598, -11159.242529778783, -22992.859541518636, -35430.01835704069, 0.082625, 0.9530468750000001, -0.1313828125, 192.0, 0.0, 0.0, 0.0, 0.0, 0.0, 0.0, 0.0, 0.0, 0.0, 1.6689767301736674E9, 0.0, 2022-11-20 15:38:50.173
28.0, -17495.068013080123, 23026.07423377922, -36267.85114620342, -35297.941899054276, -28281.572852322206, -29149.982827899796, -24524.602237296374, -3779.0317868032203, -26248.257010967376, -3788.888906108011, -29129.508629978733, -34260.39627318338, -27784.380648658356, -11185.572884747135, -23015.92654179651, -35455.07466257509, 0.082625, 0.9530468750000001, -0.1313828125, 192.0, 0.0, 0.0, 0.0, 0.0, 0.0, 0.0, 0.0, 0.0, 0.0, 1.6689767301736732E9, 0.0, 2022-11-20 15:38:50.173
30.0, -17572.360345406574, 23469.868119939343, -36344.763498874134, -35383.929059973845, -28359.8933648936, -29226.716366614863, -24603.459191734695, -3852.747840016823, -26206.705118024962, -3747.0240887432205, -29102.95475756583, -34229.372051879414, -27757.53620356753, -11157.946128600375, -22983.36005012513, -35424.408069182406, 0.082625, 0.9530468750000001, -0.1313828125, 192.0, 0.0, 0.0, 0.0, 0.0, 0.0, 0.0, 0.0, 0.0, 0.0, 1.668976730173679E9, 0.0, 2022-11-20 15:38:50.173
32.0, -17483.355698985542, 23017.17823948601, -36259.826869943965, -35284.374390169905, -28277.795407509257, -29139.164583583428, -24520.51186806105, -3774.8967140789887, -26245.172470232545, -3788.821850874645, -29133.3754817695, -34266.87827907542, -27786.92874752626, -11184.723518457833, -23022.07327152172, -35455.99108409775, 0.082625, 0.9530468750000001, -0.1313828125, 192.0, 0.0, 0.0, 0.0, 0.0, 0.0, 0.0, 0.0, 0.0, 0.0, 1.668976730173685E9, 0.0, 2022-11-20 15:38:50.173
34.0, -17568.515845360263, 23495.662033040768, -36334.548751658054, -35373.647257524404, -28362.352056783686, -29224.01180553577, -24607.951892370213, -3857.62052030808, -26190.85773120615, -3722.750094264757, -29081.318268933093, -34206.10388590144, -27738.738386480618, -11134.119169011017, -22971.804198241734, -35407.57720560756, 0.082625, 0.9530468750000001, -0.1313828125, 192.0, 0.0, 0.0, 0.0, 0.0, 0.0, 0.0, 0.0, 0.0, 0.0, 1.6689767301736908E9, 0.0, 2022-11-20 15:38:50.173
36.0, -17504.2322283068, 22996.145247953566, -36275.5624980405, -35305.65325089136, -28302.248215943364, -29172.58044154411, -24553.793615555005, -3810.32422904065, -26265.713723386973, -3800.936496369421, -29148.261743576735, -34277.36124722496, -27807.44764893623, -11205.711806501366, -23040.356998486164, -35483.39432279996, 0.084, 0.9560000000000001, -0.134, 192.0, 1.0, 80.0, 14.5, 112.0, 125.5, 104.0, 0.0, 0.0, 0.0, 1.6689767301736965E9, 0.0, 2022-11-20 15:38:50.173
38.0, -17560.871548756546, 23490.945814960698, -36327.507952154636, -35373.937830202325, -28355.42301600254, -29231.298474228202, -24613.69629069523, -3863.8566570111107, -26194.165789385534, -3727.756885022746, -29079.686591587855, -34207.556749291034, -27740.21360161467, -11141.942279570376, -22971.446570330452, -35417.59078712354, 0.084, 0.9560000000000001, -0.134, 192.0, 0.0, 0.0, 0.0, 0.0, 0.0, 0.0, 0.0, 0.0, 0.0, 1.6689767301737053E9, 0.0, 2022-11-20 15:38:50.173
40.0, -17526.94160067339, 22996.972262498413, -36299.05418146303, -35330.62014944794, -28325.538733665795, -29198.508465112267, -24579.67693563425, -3837.0569154091977, -26279.169473549067, -3818.9743541448543, -29162.745673983776, -34293.43215148833, -27825.32904450048, -11226.968315478363, -23052.493995725396, -35498.52645379621, 0.084, 0.9560000000000001, -0.134, 192.0, 0.0, 0.0, 0.0, 0.0, 0.0, 0.0, 0.0, 0.0, 0.0, 1.6689767301737113E9, 0.0, 2022-11-20 15:38:50.173
42.0, -17543.75011250378, 23487.861274225867, -36302.9210332538, -35343.293588554094, -28333.071271547233, -29205.77278206024, -24584.370801969864, -3839.1356276435413, -26197.04916442027, -3734.9541467373547, -29074.523338618677, -34205.76860973461, -27741.286485348523, -11142.746942370766, -22966.953869694935, -35415.35561267801, 0.084, 0.9560000000000001, -0.134, 192.0, 0.0, 0.0, 0.0, 0.0, 0.0, 0.0, 0.0, 0.0, 0.0, 1.6689767301737168E9, 0.0, 2022-11-20 15:38:50.173
44.0, -17507.629693464005, 23050.683504424516, -36275.38368408486, -35300.668811877826, -28302.829361299202, -29169.54060429819, -24549.837356786415, -3806.7703016722567, -26259.969325061957, -3787.7042636518795, -29139.276342305704, -34263.34670345148, -27805.59245414644, -11201.397919821493, -23027.79531810228, -35473.470148261804, 0.084, 0.9560000000000001, -0.134, 192.0, 0.0, 0.0, 0.0, 0.0, 0.0, 0.0, 0.0, 0.0, 0.0, 1.6689767301737227E9, 0.0, 2022-11-20 15:38:50.173
46.0, -17525.980475661814, 23467.901166427277, -36284.27967837807, -35331.9389023708, -28310.898341047567, -29184.11394168305, -24562.890775548312, -3816.202737832396, -26175.815007187728, -3712.1330156484864, -29052.529222074656, -34180.71230420021, -27712.452735001178, -11113.823785045599, -22945.58560199566, -35389.56169957658, 0.08, 0.9560000000000001, -0.13, 192.0, 1.0, 64.0, 14.5, 112.0, 125.5, 120.0, 0.0, 0.0, 0.0, 1.6689767301737285E9, 0.0, 2022-11-20 15:38:50.173
48.0, -17527.343932073585, 23082.93707167352, -36290.62757380338, -35327.35679475746, -28320.151963252065, -29192.495845853788, -24570.132740751833, -3827.1327408710413, -26261.064560540268, -3794.6109526885693, -29145.132499352992, -34271.72860762222, -27804.251349479124, -11207.41053907997, -23030.49987918137, -35469.80446217114, 0.08, 0.9560000000000001, -0.13, 192.0, 0.0, 0.0, 0.0, 0.0, 0.0, 0.0, 0.0, 0.0, 0.0, 1.6689767301737516E9, 0.0, 2022-11-20 15:38:50.173
50.0, -17515.74337670128, 23420.91779958222, -36269.21460261519, -35320.7853818876, -28304.483390388894, -29181.47643583732, -24557.235784201122, -3814.302839553695, -26178.69838222246, -3719.3526291075505, -29051.255172640704, -34183.10394085693, -27714.35263327988, -11123.166814227918, -22951.039427642754, -35391.19337692182, 0.08, 0.9560000000000001, -0.13, 192.0, 0.0, 0.0, 0.0, 0.0, 0.0, 0.0, 0.0, 0.0, 0.0, 1.6689767301737576E9, 0.0, 2022-11-20 15:38:50.173
52.0, -17546.90170847198, 23123.14785994862, -36305.58089084398, -35344.94761764379, -28335.08292854821, -29210.578407118133, -24585.48838919263, -3846.0646684246863, -26259.187014006024, -3794.8568218775777, -29141.95855164034, -34269.91811632134, -27807.47000068069, -11213.22199263835, -23027.90707682456, -35475.54886049615, 0.08, 0.9560000000000001, -0.13, 192.0, 0.0, 0.0, 0.0, 0.0, 0.0, 0.0, 0.0, 0.0, 0.0, 1.6689767301737633E9, 0.0, 2022-11-20 15:38:50.173
54.0, -17500.14185907148, 23363.272650631985, -36252.964884396184, -35306.189692758286, -28287.96545123642, -29163.460929806344, -24540.539031093005, -3799.684798679924, -26184.263966591832, -3731.2214054133187, -29055.099672687018, -34195.01742065161, -27718.554761237476, -11129.291192208671, -22949.228936341875, -35404.24679568372, 0.08, 0.9560000000000001, -0.13, 192.0, 0.0, 0.0, 0.0, 0.0, 0.0, 0.0, 0.0, 0.0, 0.0, 1.6689767301737695E9, 0.0, 2022-11-20 15:38:50.173
56.0, -17549.65097303998, 23188.414953758118, -36296.48373085067, -35344.88056241042, -28332.35601572466, -29211.606587363076, -24584.840188603426, -3844.1871218904403, -26237.23760095091, -3775.9695978128434, -29124.3230252651, -34255.54594463658, -27784.3582969139, -11192.636035995012, -23006.807030058746, -35463.88124989048, 0.082, 0.9520000000000001, -0.13, 192.0, 1.0, 72.0, 14.5, 96.0, 125.5, 120.0, 0.0, 0.0, 0.0, 1.6689767301737752E9, 0.0, 2022-11-20 15:38:50.173
58.0, -17495.1797718024, 23300.643062668212, -36240.738480179134, -35288.710628594235, -28281.349334877654, -29157.20244135886, -24535.979275224123, -3792.375778243039, -26184.42042880302, -3733.4118763699385, -29060.28527740065, -34195.71032472972, -27715.403165269276, -11129.53706139768, -22955.666238745005, -35402.99509799422, 0.082, 0.9520000000000001, -0.13, 192.0, 0.0, 0.0, 0.0, 0.0, 0.0, 0.0, 0.0, 0.0, 0.0, 1.668976730173781E9, 0.0, 2022-11-20 15:38:50.173
60.0, -17564.38077263603, 23249.926954499122, -36316.935577027274, -35354.916495670856, -28352.025550845334, -29222.983625290828, -24603.19097080123, -3859.9898052203425, -26236.544696872796, -3773.7344233673125, -29131.207362557336, -34252.77432832412, -27785.63234634785, -11193.328940073126, -23016.395928430073, -35455.119366064, 0.082, 0.9520000000000001, -0.13, 192.0, 0.0, 0.0, 0.0, 0.0, 0.0, 0.0, 0.0, 0.0, 0.0, 1.6689767301737866E9, 0.0, 2022-11-20 15:38:50.173
62.0, -17489.83770487758, 23240.516870083437, -36246.54993373751, -35288.73298033869, -28280.388209866072, -29158.409435559446, -24533.90056298978, -3797.069644578653, -26193.22701611841, -3745.6382805869916, -29073.7633793072, -34207.713211502225, -27726.556685752475, -11139.036552791185, -22974.911090721023, -35415.802647567114, 0.082, 0.9520000000000001, -0.13, 192.0, 0.0, 0.0, 0.0, 0.0, 0.0, 0.0, 0.0, 0.0, 0.0, 1.6689767301737924E9, 0.0, 2022-11-20 15:38:50.173
64.0, -17563.24083366881, 23323.46419375708, -36318.85782705043, -35361.26439109616, -28350.684446178013, -29231.07495678365, -24603.72741266816, -3864.5495610892253, -26218.685653053006, -3757.663519103947, -29115.158810038425, -34238.82683978401, -27769.807311273496, -11181.214294578349, -23008.7292800819, -35453.979427096776, 0.082, 0.9520000000000001, -0.13, 192.0, 0.0, 0.0, 0.0, 0.0, 0.0, 0.0, 0.0, 0.0, 0.0, 1.668976730173798E9, 0.0, 2022-11-20 15:38:50.173
66.0, -17498.823106148615, 23170.667668660604, -36252.71901520718, -35289.71645709473, -28282.64573605606, -29161.873955950017, -24536.493365346596, -3797.6731416789466, -26203.55352205676, -3756.881208048011, -29085.34158293505, -34219.15730466334, -27737.97842716914, -11154.995698332275, -22990.490256606372, -35433.90756057591, 0.082, 0.9500000000000001, -0.13, 192.0, 1.0, 72.0, 14.5, 88.0, 125.5, 120.0, 0.0, 0.0, 0.0, 1.668976730173805E9, 0.0, 2022-11-20 15:38:50.173
68.0, -17566.437133125917, 23380.99758398504, -36322.724678841194, -35359.83387945103, -28351.153832811575, -29229.577389905142, -24603.21332254569, -3860.7274127873675, -26216.76340302985, -3753.5731498686255, -29113.05774605963, -34230.02025246862, -27765.582831571443, -11176.02868986472, -22999.766230555324, -35446.13396479296, 0.082, 0.9500000000000001, -0.13, 192.0, 0.0, 0.0, 0.0, 0.0, 0.0, 0.0, 0.0, 0.0, 0.0, 1.6689767301738107E9, 0.0, 2022-11-20 15:38:50.173
70.0, -17485.03207981969, 23124.131336704653, -36249.478012261156, -35282.83211980249, -28273.526224318295, -29152.933258167897, -24527.306798375466, -3787.3466357405946, -26217.925693741527, -3760.4798389053153, -29098.28324297467, -34220.498409330656, -27751.233011631135, -11162.662346680445, -22993.284224663286, -35441.82007811309, 0.082, 0.9500000000000001, -0.13, 192.0, 0.0, 0.0, 0.0, 0.0, 0.0, 0.0, 0.0, 0.0, 0.0, 1.6689767301738183E9, 0.0, 2022-11-20 15:38:50.173
72.0, -17580.652842599495, 23425.902238595754, -36340.76253661663, -35387.68415304234, -28359.155757326575, -29247.436433724935, -24616.758479685603, -3878.6088083516133, -26215.176429173524, -3747.918158521433, -29110.062612302616, -34223.02415645411, -27761.939497225227, -11171.535989229202, -22991.384326384585, -35446.02220607069, 0.082, 0.9500000000000001, -0.13, 192.0, 0.0, 0.0, 0.0, 0.0, 0.0, 0.0, 0.0, 0.0, 0.0, 1.6689767301738243E9, 0.0, 2022-11-20 15:38:50.173
74.0, -17503.382862017497, 23063.066370852754, -36264.31957057948, -35301.98756480069, -28279.382381365584, -29169.272383364725, -24537.94622873619, -3805.9209353829547, -26236.522345128342, -3778.8753245920334, -29118.600978684542, -34240.25735142915, -27764.711113537684, -11181.97425388983, -23011.2326754609, -35462.651903945436, 0.082, 0.9500000000000001, -0.13, 192.0, 0.0, 0.0, 0.0, 0.0, 0.0, 0.0, 0.0, 0.0, 0.0, 1.66897673017383E9, 0.0, 2022-11-20 15:38:50.173
76.0, -17585.413764168476, 23456.390018032795, -36330.45838242273, -35377.67057152636, -28352.852565390178, -29245.44712846841, -24607.10252608091, -3873.2890931712504, -26217.210437918955, -3749.795705055679, -29110.286129747168, -34222.64417679837, -27757.91618322327, -11174.575826475124, -22994.468867119416, -35447.49742120474, 0.08, 0.96, -0.134, 192.0, 1.0, 64.0, 15.0, 0.0, 125.5, 104.0, 0.0, 0.0, 0.0, 1.6689767301738367E9, 0.0, 2022-11-20 15:38:50.173
78.0, -17512.301208055163, 23015.41245167404, -36268.499346792625, -35303.395724701375, -28285.529111090793, -29175.419113089934, -24539.957885737167, -3807.820833661656, -26244.166641732056, -3792.4428334764048, -29127.42991774439, -34249.26510444464, -27772.221299674668, -11196.413480807958, -23018.40758543105, -35466.31759003611, 0.08, 0.96, -0.134, 192.0, 0.0, 0.0, 0.0, 0.0, 0.0, 0.0, 0.0, 0.0, 0.0, 1.6689767301738443E9, 0.0, 2022-11-20 15:38:50.173
80.0, -17587.71599384737, 23473.578509518924, -36344.71879538522, -35384.86783324097, -28358.28403929282, -29243.524878445256, -24608.600092959416, -3870.1151454585965, -26205.967510457936, -3749.3263184221173, -29102.79829535464, -34218.79967675205, -27748.64020927432, -11168.719669427834, -22989.551483339248, -35436.232141999266, 0.08, 0.96, -0.134, 192.0, 0.0, 0.0, 0.0, 0.0, 0.0, 0.0, 0.0, 0.0, 0.0, 1.6689767301738524E9, 0.0, 2022-11-20 15:38:50.173
82.0, -17501.438260249884, 23000.59324510017, -36269.43812005975, -35291.146968739864, -28276.096674930654, -29153.223830845815, -24524.736347763104, -3789.045368319198, -26249.307542956776, -3795.594429444603, -29136.594132971066, -34255.61299986995, -27782.83837829094, -11195.206486607372, -23025.314274467743, -35467.16695632541, 0.08, 0.96, -0.134, 192.0, 0.0, 0.0, 0.0, 0.0, 0.0, 0.0, 0.0, 0.0, 0.0, 1.6689767301738603E9, 0.0, 2022-11-20 15:38:50.173
84.0, -17566.414781381463, 23497.383117363825, -36323.12701024139, -35360.504431784684, -28337.429861716017, -29216.21104672087, -24582.62736590235, -3841.1919881334293, -26191.550635284264, -3721.207823897341, -29076.84792004203, -34188.4683595262, -27727.338996808412, -11128.799453830654, -22965.478654560884, -35404.850292784016, 0.08, 0.96, -0.134, 192.0, 0.0, 0.0, 0.0, 0.0, 0.0, 0.0, 0.0, 0.0, 0.0, 1.6689767301738682E9, 0.0, 2022-11-20 15:38:50.173
86.0, -17511.541248743684, 22992.233692673886, -36272.74617823913, -35298.52304441012, -28286.914919247025, -29167.841871719585, -24533.90056298978, -3797.3155137676617, -26266.227813509442, -3796.242630033807, -29143.34435979657, -34258.09404350448, -27793.969547029683, -11197.039329652707, -23041.9886758314, -35475.90648840743, 0.084, 0.9500000000000001, -0.132, 192.0, 1.0, 80.0, 14.5, 88.0, 125.5, 112.0, 0.0, 0.0, 0.0, 1.668976730173876E9, 0.0, 2022-11-20 15:38:50.173
88.0, -17532.261315853753, 23514.258684427583, -36285.91135572331, -35328.966120358244, -28302.248215943364, -29191.646479564486, -24551.178461453732, -3808.424330761949, -26170.69645770746, -3702.6558759994364, -29051.16576566288, -34165.84839413743, -27701.20980754016, -11107.610000087023, -22953.07343638819, -35389.2040716653, 0.084, 0.9500000000000001, -0.132, 192.0, 0.0, 0.0, 0.0, 0.0, 0.0, 0.0, 0.0, 0.0, 0.0, 1.6689767301738837E9, 0.0, 2022-11-20 15:38:50.173
90.0, -17504.45574575135, 23027.75061461337, -36265.92889618026, -35299.0818380215, -28285.327945390698, -29164.600868773567, -24529.81019375446, -3788.397167729994, -26243.67490335404, -3777.3107024801616, -29125.932350865885, -34244.95121776476, -27776.60224158791, -11183.06948936814, -23025.56014365675, -35464.171822568394, 0.084, 0.9500000000000001, -0.132, 192.0, 0.0, 0.0, 0.0, 0.0, 0.0, 0.0, 0.0, 0.0, 0.0, 1.6689767301738913E9, 0.0, 2022-11-20 15:38:50.173
92.0, -17521.353664559563, 23495.818495251955, -36274.37785558437, -35327.06622207954, -28294.93919550648, -29178.570709058135, -24545.165842195256, -3797.2484585342954, -26159.40882675753, -3688.1272421034864, -29036.301855600104, -34159.20992603421, -27687.932871333705, -11092.902552235431, -22941.942267649447, -35382.386789606426, 0.084, 0.9500000000000001, -0.132, 192.0, 0.0, 0.0, 0.0, 0.0, 0.0, 0.0, 0.0, 0.0, 0.0, 1.6689767301738992E9, 0.0, 2022-11-20 15:38:50.173
94.0, -17524.907591927957, 23031.639818148593, -36280.2116608872, -35318.97489058672, -28297.46494262993, -29177.698991024376, -24547.021036985047, -3800.332999269128, -26250.983923790925, -3770.2251994878293, -29129.46392648982, -34249.82389805602, -27781.609032345896, -11183.538876001701, -23025.202515745463, -35467.055197603135, 0.084, 0.9500000000000001, -0.132, 192.0, 0.0, 0.0, 0.0, 0.0, 0.0, 0.0, 0.0, 0.0, 0.0, 1.668976730173905E9, 0.0, 2022-11-20 15:38:50.173
96.0, -17517.710330213347, 23433.83710787739, -36259.87157343287, -35312.80580911706, -28280.008230210333, -29160.71166523834, -24533.3417693784, -3781.423423459938, -26173.73629495338, -3701.3594748210285, -29045.756643504697, -34173.67150469679, -27693.699621403175, -11097.439956359858, -22944.669180472993, -35381.17979540584, 0.076, 0.9480000000000001, -0.13, 192.0, 1.0, 48.0, 14.5, 80.0, 125.5, 120.0, 0.0, 0.0, 0.0, 1.6689767301739109E9, 0.0, 2022-11-20 15:38:50.173
98.0, -17532.730702487315, 23075.493940769906, -36277.64121027484, -35319.064297564546, -28293.17340769451, -29180.314145125645, -24549.993818997602, -3801.22706904734, -26246.223002221945, -3767.7665075977457, -29125.664129932422, -34251.38852016789, -27775.037619476036, -11176.006338120264, -23016.910018552546, -35447.87740086048, 0.076, 0.9480000000000001, -0.13, 192.0, 0.0, 0.0, 0.0, 0.0, 0.0, 0.0, 0.0, 0.0, 0.0, 1.6689767301739163E9, 0.0, 2022-11-20 15:38:50.173
100.0, -17513.2846848112, 23370.514615835502, -36253.79189894103, -35311.017669560635, -28275.627288297095, -29174.10036016707, -24536.068682201945, -3787.950132840888, -26169.355353040144, -3702.946448677355, -29037.441794567323, -34173.35858027441, -27688.536368433997, -11097.28349414867, -22943.73040720587, -35389.159368176384, 0.076, 0.9480000000000001, -0.13, 192.0, 0.0, 0.0, 0.0, 0.0, 0.0, 0.0, 0.0, 0.0, 0.0, 1.6689767301739223E9, 0.0, 2022-11-20 15:38:50.173
102.0, -17557.04940045469, 23095.163475890575, -36305.84911177744, -35354.290646826106, -28322.051861530766, -29222.648349124, -24577.91114782228, -3832.877139196055, -26254.649609881595, -3780.618760659547, -29134.895400392463, -34262.20676448426, -27789.72271558317, -11197.97810291983, -23034.992579816888, -35486.411808301425, 0.076, 0.9480000000000001, -0.13, 192.0, 0.0, 0.0, 0.0, 0.0, 0.0, 0.0, 0.0, 0.0, 0.0, 1.6689767301739297E9, 0.0, 2022-11-20 15:38:50.173
104.0, -17511.965931888335, 23307.505048215993, -36252.51784950708, -35303.50748342365, -28266.664238770514, -29166.657229263456, -24523.127022162324, -3774.203810000874, -26188.55550152725, -3726.7734082667125, -29058.497137844224, -34195.01742065161, -27706.842447142895, -11122.138633982973, -22960.0695324027, -35412.29342368763, 0.076, 0.9480000000000001, -0.13, 192.0, 0.0, 0.0, 0.0, 0.0, 0.0, 0.0, 0.0, 0.0, 0.0, 1.6689767306539133E9, 0.0, 2022-11-20 15:38:50.653
106.0, -17575.75781056378, 23147.086578260252, -36314.47688513719, -35355.56469626006, -28324.55525690976, -29216.903950798984, -24579.654583889795, -3828.876176938555, -26249.32989470123, -3771.7451181107904, -29130.53681022368, -34257.80347082656, -27781.027886990058, -11182.197771334384, -23015.300692951765, -35459.16503181041, 0.078, 0.9480000000000001, -0.13, 192.0, 1.0, 64.0, 14.5, 80.0, 125.5, 120.0, 0.0, 0.0, 0.0, 1.6689767306540377E9, 0.0, 2022-11-20 15:38:50.654
108.0, -17506.914437641437, 23225.20592513155, -36241.431384257245, -35284.95553552575, -28247.35233156113, -29139.52221149471, -24507.905484188257, -3757.462353403849, -26202.927673212012, -3736.764638038235, -29066.23084142576, -34205.00865042313, -27715.827848413926, -11120.261087448727, -22962.05883765922, -35404.38090615045, 0.078, 0.9480000000000001, -0.13, 192.0, 0.0, 0.0, 0.0, 0.0, 0.0, 0.0, 0.0, 0.0, 0.0, 1.6689767306540785E9, 0.0, 2022-11-20 15:38:50.654
110.0, -17581.636319355526, 23205.849314433257, -36321.00359451814, -35350.46849852425, -28324.309387720754, -29208.81261930616, -24580.749819368106, -3828.8538251941, -26243.116109742656, -3758.468181904338, -29121.95374035284, -34245.465307887236, -27772.86950026387, -11165.858646137554, -23003.74484106837, -35445.08343280356, 0.078, 0.9480000000000001, -0.13, 192.0, 0.0, 0.0, 0.0, 0.0, 0.0, 0.0, 0.0, 0.0, 0.0, 1.668976730654111E9, 0.0, 2022-11-20 15:38:50.654
112.0, -17518.872620925024, 23148.58414513876, -36260.18449785525, -35288.06242800503, -28267.0218666818, -29144.126670852504, -24520.310702360955, -3767.9006180644774, -26220.38438563161, -3744.4089346419496, -29084.067533501093, -34213.90464471634, -27736.413805057266, -11124.731436339789, -22982.711849535925, -35416.45084815632, 0.078, 0.9480000000000001, -0.13, 192.0, 0.0, 0.0, 0.0, 0.0, 0.0, 0.0, 0.0, 0.0, 0.0, 1.6689767306541176E9, 0.0, 2022-11-20 15:38:50.654
114.0, -17598.86951433057, 23249.770492287935, -36338.21443774873, -35374.630734280436, -28347.13051880962, -29226.805773592685, -24601.53694171154, -3847.5398835587366, -26250.693351113005, -3761.887998806, -29131.252066046247, -34249.98036026721, -27787.219320204178, -11169.949015372875, -23022.386195944095, -35457.10867132052, 0.078, 0.9480000000000001, -0.13, 192.0, 0.0, 0.0, 0.0, 0.0, 0.0, 0.0, 0.0, 0.0, 0.0, 1.6689767306541245E9, 0.0, 2022-11-20 15:38:50.654
116.0, -17511.85417316606, 23073.191711091007, -36250.595599483924, -35294.49973040816, -28258.997590422347, -29147.43472903189, -24519.394280838285, -3769.621702387536, -26224.742975800393, -3757.9987952707766, -29088.292013203147, -34227.38274662289, -27747.366159840367, -11137.628392890501, -22993.641852574572, -35434.95809256531, 0.081, 0.9520000000000001, -0.129, 192.0, 1.0, 80.0, 14.5, 112.0, 126.0, 0.0, 0.0, 0.0, 0.0, 1.6689767306541317E9, 0.0, 2022-11-20 15:38:50.654
118.0, -17597.930741063446, 23294.004594564987, -36330.078402766994, -35379.43635933833, -28337.228696015918, -29225.084689269628, -24596.15017129781, -3845.7070405134014, -26235.60592360567, -3762.3573854395613, -29113.817705371108, -34249.376863166915, -27776.490482865633, -11165.657480437456, -23005.421221902518, -35449.26320901671, 0.081, 0.9520000000000001, -0.129, 192.0, 0.0, 0.0, 0.0, 0.0, 0.0, 0.0, 0.0, 0.0, 0.0, 1.66897673065414E9, 0.0, 2022-11-20 15:38:50.654
120.0, -17495.40328924695, 23021.045091276777, -36232.64714868631, -35272.840890030966, -28238.031654123268, -29125.775888654698, -24498.76362070604, -3751.8073620566565, -26224.608865333663, -3761.9997575282764, -29089.275489959182, -34232.85892401444, -27747.410863329278, -11144.579785416101, -22989.551483339248, -35428.58784539555, 0.081, 0.9520000000000001, -0.129, 192.0, 0.0, 0.0, 0.0, 0.0, 0.0, 0.0, 0.0, 0.0, 0.0, 1.6689767306541471E9, 0.0, 2022-11-20 15:38:50.654
122.0, -17588.185380480933, 23347.939353935642, -36322.14353348536, -35370.96504818977, -28332.534829680306, -29217.48509615482, -24591.322194495464, -3837.816874720678, -26208.537961070295, -3740.1173997065307, -29091.130684748972, -34221.615996553424, -27750.763624997573, -11143.618660404523, -22984.79056177027, -35420.407106924904, 0.081, 0.9520000000000001, -0.129, 192.0, 0.0, 0.0, 0.0, 0.0, 0.0, 0.0, 0.0, 0.0, 0.0, 1.6689767306541605E9, 0.0, 2022-11-20 15:38:50.654
