%OpenBCI Raw EEG Data
%Number of channels = 16
%Sample Rate = 125 Hz
%Board = OpenBCI_GUI$BoardCytonSerialDaisy
Sample Index, EXG Channel 0, EXG Channel 1, EXG Channel 2, EXG Channel 3, EXG Channel 4, EXG Channel 5, EXG Channel 6, EXG Channel 7, EXG Channel 8, EXG Channel 9, EXG Channel 10, EXG Channel 11, EXG Channel 12, EXG Channel 13, EXG Channel 14, EXG Channel 15, Accel Channel 0, Accel Channel 1, Accel Channel 2, Other, Other, Other, Other, Other, Other, Other, Analog Channel 0, Analog Channel 1, Analog Channel 2, Timestamp, Other, Timestamp (Formatted)
180.0, -24096.454572254966, -24030.405167389534, -54183.176658532226, -55175.83998153687, -22885.39235417752, -38128.87974129674, -52180.43800359226, -34372.557326860115, -13812.819279768382, -57367.40617363527, -56441.865139229914, -66339.68697067344, -52681.49705904687, -48599.06269300732, -48569.13370718166, -49483.00713098134, 0.112, 0.9460000000000001, 0.12, 192.0, 1.5, 64.0, 14.5, 72.0, 1.5, 96.0, 0.0, 0.0, 0.0, 1.658165493399258E9, 0.0, 2022-07-18 13:31:33.399
182.0, -24132.083252916724, -23976.02337312977, -54251.64005179883, -55239.631860212314, -22946.166747351497, -38179.72995993256, -52239.7818851211, -34414.55625469163, -13837.562660880407, -57414.21072652468, -56485.22752347321, -66384.27870086177, -52726.4464171465, -48642.380373761705, -48608.740998356465, -49522.32384947823, 0.112, 0.9460000000000001, 0.12, 192.0, 0.0, 0.0, 0.0, 0.0, 0.0, 0.0, 0.0, 0.0, 0.0, 1.6581654933992653E9, 0.0, 2022-07-18 13:31:33.399
184.0, -24110.603226495175, -24051.86284206663, -54192.07265282544, -55193.497859656556, -22898.37871770605, -38153.98075032005, -52191.41271011981, -34413.99746108025, -13830.54421312144, -57383.32061568745, -56469.78246805459, -66367.38078205357, -52704.1393761801, -48629.7292864, -48599.2191552185, -49509.583355138704, 0.112, 0.9460000000000001, 0.12, 192.0, 0.0, 0.0, 0.0, 0.0, 0.0, 0.0, 0.0, 0.0, 0.0, 1.6581654933992715E9, 0.0, 2022-07-18 13:31:33.399
186.0, -24138.699369275495, -23968.669649203977, -54247.68379303024, -55248.50550276107, -22956.53795677876, -38193.00689613901, -52248.72258290322, -34432.50470548924, -13838.300268447432, -57415.12714804735, -56480.31013969304, -66384.05518341722, -52719.62913508763, -48645.084934840794, -48611.84789083575, -49534.17027403954, 0.112, 0.9460000000000001, 0.12, 192.0, 0.0, 0.0, 0.0, 0.0, 0.0, 0.0, 0.0, 0.0, 0.0, 1.6581654933992777E9, 0.0, 2022-07-18 13:31:33.399
188.0, -24112.81604919625, -24053.673333367507, -54186.462364967156, -55194.57074339042, -22902.849066597115, -38152.14790727472, -52196.419500877804, -34396.89837657194, -13841.74243709355, -57397.87160132785, -56473.26934018962, -66372.45462804493, -52709.86142276066, -48633.909062613144, -48605.12001575471, -49522.94969832298, 0.112, 0.9460000000000001, 0.12, 192.0, 0.0, 0.0, 0.0, 0.0, 0.0, 0.0, 0.0, 0.0, 0.0, 1.658165493399284E9, 0.0, 2022-07-18 13:31:33.399
190.0, -24140.53221232083, -23969.89899514902, -54249.248415142116, -55248.34904054988, -22960.40480856953, -38185.340247790846, -52269.621463968935, -34428.3249292761, -13835.55100387943, -57406.56642992097, -56475.81743905752, -66380.70242174894, -52706.50866109236, -48636.6806789256, -48610.5738414018, -49527.0400675583, 0.112, 0.9480000000000001, 0.114, 192.0, 1.5, 64.0, 14.5, 80.0, 1.5, 72.0, 0.0, 0.0, 0.0, 1.65816549339929E9, 0.0, 2022-07-18 13:31:33.399
192.0, -24108.457459027464, -24060.66942938202, -54184.47305971063, -55184.22188570761, -22896.09883977161, -38147.588151405835, -52196.79948053354, -34400.452303940336, -13838.099102747334, -57403.23601999712, -56474.96807276822, -66379.18250312597, -52709.280277404825, -48637.194769048074, -48616.25118449345, -49517.94290756499, 0.112, 0.9480000000000001, 0.114, 192.0, 0.0, 0.0, 0.0, 0.0, 0.0, 0.0, 0.0, 0.0, 0.0, 1.6581654933992963E9, 0.0, 2022-07-18 13:31:33.399
194.0, -24132.887915717118, -23967.39559977002, -54232.238737611624, -55228.00895309555, -22932.73334893386, -38170.14106156124, -52216.759588332134, -34433.644644456464, -13832.555870122418, -57400.665569384764, -56471.74942156666, -66377.77434322529, -52701.52422207883, -48630.51159745593, -48597.58747787327, -49505.470634158926, 0.112, 0.9480000000000001, 0.114, 192.0, 0.0, 0.0, 0.0, 0.0, 0.0, 0.0, 0.0, 0.0, 0.0, 1.6581654933993025E9, 0.0, 2022-07-18 13:31:33.399
196.0, -24109.2397700834, -24054.343885701168, -54179.041585807994, -55181.182048461684, -22897.39524095002, -38136.16640998917, -52188.26111415162, -34380.22397520828, -13836.892108546748, -57400.73262461813, -56477.56087512504, -66377.26025310281, -52706.57571632573, -48627.58351893229, -48606.774044844395, -49509.62805862762, 0.112, 0.9480000000000001, 0.114, 192.0, 0.0, 0.0, 0.0, 0.0, 0.0, 0.0, 0.0, 0.0, 0.0, 1.6581654933993084E9, 0.0, 2022-07-18 13:31:33.399
198.0, -24133.983151195425, -23966.769750925276, -54237.983135936636, -55238.02253461153, -22940.020017626288, -38174.34318951883, -52244.4310479678, -34419.85361812754, -13823.570468851385, -57391.993092536104, -56460.7747150391, -66365.03384888577, -52694.12579466413, -48615.29005948187, -48594.3688266717, -49499.01098001134, 0.112, 0.9480000000000001, 0.114, 192.0, 0.0, 0.0, 0.0, 0.0, 0.0, 0.0, 0.0, 0.0, 0.0, 1.6581654933993144E9, 0.0, 2022-07-18 13:31:33.399
200.0, -24105.10469735917, -24041.938667528473, -54176.67230089573, -55181.20440020614, -22888.365136190074, -38152.952570075104, -52189.31164614102, -34426.84971414205, -13845.698695862138, -57408.30986598848, -56482.41120367184, -66384.39045958406, -52718.10921646467, -48642.40272550616, -48619.00044906145, -49533.65618391707, 0.11, 0.9470000000000001, 0.115, 192.0, 1.5, 48.0, 14.5, 72.0, 1.5, 80.0, 0.0, 0.0, 0.0, 1.6581654933993204E9, 0.0, 2022-07-18 13:31:33.399
202.0, -24124.506011546375, -23970.614250971586, -54232.328144589446, -55222.95745884866, -22932.979218122866, -38171.482166228554, -52243.42521946731, -34416.85848437053, -13808.393634366232, -57366.64621432379, -56441.64162178536, -66343.15149106401, -52673.94216942098, -48600.694370352554, -48574.09579445074, -49487.723349061416, 0.11, 0.9470000000000001, 0.115, 192.0, 0.0, 0.0, 0.0, 0.0, 0.0, 0.0, 0.0, 0.0, 0.0, 1.6581654933993266E9, 0.0, 2022-07-18 13:31:33.399
204.0, -24124.193087124004, -24050.253516465847, -54211.16104259027, -55209.59111566438, -22921.53512496175, -38175.550183719424, -52226.5273006591, -34442.183010838395, -13872.36432699732, -57432.896784889315, -56509.43446271831, -66406.7198522949, -52745.71362086697, -48670.5882752643, -48653.37743203371, -49557.7960679288, 0.11, 0.9470000000000001, 0.115, 192.0, 0.0, 0.0, 0.0, 0.0, 0.0, 0.0, 0.0, 0.0, 0.0, 1.6581654933993323E9, 0.0, 2022-07-18 13:31:33.399
206.0, -24126.58472378072, -23981.499550521323, -54235.189167879726, -55229.90885137425, -22938.164822836497, -38175.93016337516, -52249.63900442589, -34425.7768304082, -13826.766768308493, -57371.72006031514, -56453.01865971311, -66351.24282255684, -52689.700149261975, -48613.72543737, -48592.89361153765, -49499.256849200356, 0.11, 0.9470000000000001, 0.115, 192.0, 0.0, 0.0, 0.0, 0.0, 0.0, 0.0, 0.0, 0.0, 0.0, 1.6581654933993387E9, 0.0, 2022-07-18 13:31:33.399
208.0, -24117.66637774305, -24033.66852208001, -54197.61588545035, -55199.59988589286, -22906.224180009864, -38168.3082185159, -52212.780977819086, -34434.225789812306, -13860.540254180463, -57427.577069708954, -56500.80668935856, -66400.97545396989, -52735.34241143971, -48661.98285364901, -48640.77104816092, -49552.52105623735, 0.11, 0.9470000000000001, 0.115, 192.0, 0.0, 0.0, 0.0, 0.0, 0.0, 0.0, 0.0, 0.0, 0.0, 1.6581654933993447E9, 0.0, 2022-07-18 13:31:33.399
210.0, -24124.327197590734, -23981.566605754688, -54210.13286234532, -55205.99248480707, -22906.313586987686, -38158.71932014458, -52217.586602876974, -34430.40364151045, -13818.094291459834, -57362.46643811065, -56444.32383112, -66340.5586887072, -52670.50000077487, -48599.174451729596, -48571.14536418264, -49485.91285776054, 0.109, 0.9465000000000001, 0.1155, 192.0, 1.5, 48.0, 14.5, 72.0, 1.5, 80.0, 0.0, 0.0, 0.0, 1.658165493399351E9, 0.0, 2022-07-18 13:31:33.399
212.0, -24115.81118295326, -24007.09229792265, -54193.68197842622, -55189.49689739906, -22907.162953276988, -38156.21592476558, -52204.80140504854, -34407.58251042158, -13852.113646520811, -57416.35649399239, -56494.12351776642, -66386.0668404182, -52726.37936191313, -48649.421173265124, -48625.50480669794, -49537.7912566413, 0.109, 0.9465000000000001, 0.1155, 192.0, 0.0, 0.0, 0.0, 0.0, 0.0, 0.0, 0.0, 0.0, 0.0, 1.658165493399361E9, 0.0, 2022-07-18 13:31:33.399
214.0, -24106.892836915595, -23979.55494875371, -54190.97741734713, -55187.03820550897, -22901.843238096626, -38138.22277047906, -52195.07839621048, -34398.57475740609, -13808.68420704415, -57340.762894244544, -56425.861290199915, -66317.67050238496, -52662.85570417115, -48581.203649187526, -48561.623521044676, -49463.40465109404, 0.109, 0.9465000000000001, 0.1155, 192.0, 0.0, 0.0, 0.0, 0.0, 0.0, 0.0, 0.0, 0.0, 0.0, 1.6581654933993669E9, 0.0, 2022-07-18 13:31:33.399
216.0, -24122.606113267677, -23993.74830648283, -54198.129975572825, -55198.14702250326, -22912.460316712895, -38159.92631434516, -52203.28148642558, -34439.43374627039, -13850.146693008744, -57403.57129616396, -56483.34997693897, -66379.45072405944, -52727.184024713526, -48647.00718486395, -48619.46983569501, -49529.61051817066, 0.109, 0.9465000000000001, 0.1155, 192.0, 0.0, 0.0, 0.0, 0.0, 0.0, 0.0, 0.0, 0.0, 0.0, 1.6581654933993728E9, 0.0, 2022-07-18 13:31:33.399
218.0, -24120.192124866502, -24005.170047899494, -54188.67518766823, -55183.88660954078, -22901.329147974153, -38140.5026484135, -52197.44768112274, -34414.01981282471, -13810.382939622754, -57341.14287390028, -56427.51531928961, -66322.18555476493, -52667.102535617654, -48581.60598058772, -48562.45053558952, -49462.15295340454, 0.109, 0.9465000000000001, 0.1155, 192.0, 0.0, 0.0, 0.0, 0.0, 0.0, 0.0, 0.0, 0.0, 0.0, 1.6581654933993788E9, 0.0, 2022-07-18 13:31:33.399
220.0, -24139.995770453905, -24003.739536254354, -54223.67801948524, -55215.91665934523, -22945.317381062196, -38176.35484651981, -52248.47671371421, -34433.75640317874, -13875.471219476607, -57426.21361329718, -56505.03116906061, -66400.50606733633, -52743.612556888176, -48653.77976343391, -48637.28417602589, -49540.60757644267, 0.1095, 0.95025, 0.11875, 192.0, 1.5, 56.0, 14.5, 104.0, 1.5, 104.0, 0.0, 0.0, 0.0, 1.6581654933993852E9, 0.0, 2022-07-18 13:31:33.399
222.0, -24105.417621781544, -24016.032995704772, -54179.734489886105, -55180.39973740575, -22890.019165279766, -38135.18293323314, -52189.08812869646, -34384.06847525459, -13818.250753671022, -57347.9378042147, -56440.25581362913, -66336.51302296079, -52670.52235251932, -48586.38925390116, -48572.82174501679, -49466.399784851055, 0.1095, 0.95025, 0.11875, 192.0, 0.0, 0.0, 0.0, 0.0, 0.0, 0.0, 0.0, 0.0, 0.0, 1.6581654933993917E9, 0.0, 2022-07-18 13:31:33.399
224.0, -24122.516706289854, -23979.107913864606, -54215.87726067034, -55216.989543079086, -22928.44181399844, -38165.693064414634, -52230.93059431679, -34446.40749054045, -13858.08156229038, -57417.116453303875, -56495.82225034502, -66398.02502370179, -52727.76517006936, -48648.86237965374, -48624.85660610874, -49532.04685831629, 0.1095, 0.95025, 0.11875, 192.0, 0.0, 0.0, 0.0, 0.0, 0.0, 0.0, 0.0, 0.0, 0.0, 1.6581654933993976E9, 0.0, 2022-07-18 13:31:33.399
226.0, -24108.882142172115, -24026.068928965204, -54177.32050148494, -55178.23161819358, -22883.045421009712, -38124.4987993835, -52195.14545144385, -34382.74972233173, -13811.254657656511, -57348.787170504, -56439.22763338419, -66341.29629627423, -52663.973291393915, -48593.56416387131, -48572.397061872136, -49467.584427307185, 0.1095, 0.95025, 0.11875, 192.0, 0.0, 0.0, 0.0, 0.0, 0.0, 0.0, 0.0, 0.0, 0.0, 1.658165493399404E9, 0.0, 2022-07-18 13:31:33.399
228.0, -24131.479755816432, -23966.523881736266, -54223.990943907615, -55221.25872627005, -22921.82569763967, -38162.00502657951, -52218.95005928875, -34447.59213299658, -13844.201128983634, -57402.11843277436, -56484.735785095196, -66384.63632877306, -52713.03537047331, -48631.94210910107, -48613.3231059698, -49510.54448015028, 0.1095, 0.95025, 0.11875, 192.0, 0.0, 0.0, 0.0, 0.0, 0.0, 0.0, 0.0, 0.0, 0.0, 1.65816549339941E9, 0.0, 2022-07-18 13:31:33.399
230.0, -24105.596435737185, -24032.595638346153, -54170.726736870616, -55178.14221121577, -22875.37877266154, -38123.76119181648, -52157.39335505883, -34369.45043438082, -13832.913498033704, -57364.56750208945, -56455.589110325476, -66354.19325282493, -52679.418346812534, -48596.53694588387, -48577.560314841314, -49477.150973934054, 0.11474999999999999, 0.9521250000000001, 0.115375, 192.0, 1.5, 96.0, 14.5, 104.0, 1.5, 64.0, 0.0, 0.0, 0.0, 1.6581654933994164E9, 0.0, 2022-07-18 13:31:33.399
232.0, -24132.552639550286, -23964.020486357273, -54233.6021940234, -55240.190653823694, -22941.249363571333, -38174.991390108036, -52245.4815799572, -34428.257874042734, -13842.033009771469, -57410.79090962302, -56481.20420947125, -66388.88316021957, -52712.23070767292, -48632.031516078896, -48604.22594597649, -49507.81756732673, 0.11474999999999999, 0.9521250000000001, 0.115375, 192.0, 0.0, 0.0, 0.0, 0.0, 0.0, 0.0, 0.0, 0.0, 0.0, 1.658165493399423E9, 0.0, 2022-07-18 13:31:33.399
234.0, -24115.073575386235, -24052.868670567117, -54184.696577155184, -55195.71068235763, -22895.562397904683, -38152.818459608374, -52208.37768416139, -34427.83319089808, -13843.910556305715, -57391.97074079165, -56470.78829655508, -66374.913319935, -52701.05483544527, -48627.136484043185, -48602.81778607581, -49505.18006148101, 0.11474999999999999, 0.9521250000000001, 0.115375, 192.0, 0.0, 0.0, 0.0, 0.0, 0.0, 0.0, 0.0, 0.0, 0.0, 1.6581654933994296E9, 0.0, 2022-07-18 13:31:33.399
236.0, -24148.265915902368, -23966.657992203, -54238.89955745931, -55240.548281734984, -22940.69056995995, -38185.49671000203, -52229.209509993736, -34473.363694353546, -13850.25845173102, -57416.8035288815, -56483.97582578371, -66391.0736311762, -52715.38230364112, -48647.14129533068, -48605.85762332173, -49524.9390035795, 0.11474999999999999, 0.9521250000000001, 0.115375, 192.0, 0.0, 0.0, 0.0, 0.0, 0.0, 0.0, 0.0, 0.0, 0.0, 1.6581654933994362E9, 0.0, 2022-07-18 13:31:33.399
238.0, -24113.665415485553, -24048.979467031895, -54171.33023397091, -55173.33658615787, -22888.43219142344, -38138.11101175678, -52172.12315465488, -34407.13547553247, -13848.760884852516, -57389.19912447919, -56477.382061169395, -66373.97454666789, -52700.09371043369, -48629.66223116663, -48596.24637320595, -49507.504642904365, 0.11474999999999999, 0.9521250000000001, 0.115375, 192.0, 0.0, 0.0, 0.0, 0.0, 0.0, 0.0, 0.0, 0.0, 0.0, 1.658165493399443E9, 0.0, 2022-07-18 13:31:33.399
240.0, -24137.090043674714, -23949.648314672508, -54224.95206891919, -55222.35396174836, -22945.07151187319, -38171.146890061726, -52251.3824404934, -34432.951740378354, -13839.462559159108, -57386.44985991119, -56469.3801366544, -66366.01732564179, -52694.99751269788, -48612.56314665832, -48586.14338471215, -49503.21310796894, 0.113375, 0.9560625, 0.1126875, 192.0, 1.5, 64.0, 15.0, 0.0, 1.5, 56.0, 0.0, 0.0, 0.0, 1.65816549339945E9, 0.0, 2022-07-18 13:31:33.399
242.0, -24105.19410433699, -24039.301161682746, -54161.920149555226, -55168.955644244634, -22895.651804882506, -38142.29078796993, -52195.74894854414, -34404.5203214312, -13852.895957576748, -57386.203990722184, -56476.28682569109, -66372.409924556, -52705.16755642505, -48622.308507240836, -48606.349361699744, -49514.25486972986, 0.113375, 0.9560625, 0.1126875, 192.0, 0.0, 0.0, 0.0, 0.0, 0.0, 0.0, 0.0, 0.0, 0.0, 1.6581654933994565E9, 0.0, 2022-07-18 13:31:33.399
244.0, -24124.90834294657, -23944.84268961462, -54213.217403080154, -55215.40256922276, -22937.02488386928, -38172.17507030667, -52236.272661241615, -34439.34433929257, -13821.268239172488, -57372.32355741544, -56446.60370905444, -66350.43815975645, -52682.435832314, -48601.409626175126, -48584.981094000475, -49489.35502640665, 0.113375, 0.9560625, 0.1126875, 192.0, 0.0, 0.0, 0.0, 0.0, 0.0, 0.0, 0.0, 0.0, 0.0, 1.6581654933994648E9, 0.0, 2022-07-18 13:31:33.399
246.0, -24088.631461695608, -24021.553876585233, -54154.633480862794, -55156.05868769392, -22883.783028576738, -38149.622160151266, -52183.969579216195, -34411.76228663472, -13837.249736458032, -57386.42750816674, -56461.66878481732, -66359.87059591658, -52703.02178895733, -48618.732228127985, -48598.816823818306, -49503.928363791514, 0.113375, 0.9560625, 0.1126875, 192.0, 0.0, 0.0, 0.0, 0.0, 0.0, 0.0, 0.0, 0.0, 0.0, 1.6581654933994713E9, 0.0, 2022-07-18 13:31:33.399
248.0, -24111.05026138428, -23934.11385227607, -54212.032760624024, -55201.29861847146, -22922.116270317587, -38171.906849373205, -52223.10748375744, -34436.88564740249, -13813.154555935213, -57355.090362440395, -56437.64065952786, -66332.89204035903, -52680.87121020212, -48591.261934192415, -48565.87035249118, -49472.88179074309, 0.113375, 0.9560625, 0.1126875, 192.0, 0.0, 0.0, 0.0, 0.0, 0.0, 0.0, 0.0, 0.0, 0.0, 1.6581654933994775E9, 0.0, 2022-07-18 13:31:33.399
250.0, -24098.175656578023, -24022.80557427473, -54171.777268860016, -55167.72629829959, -22886.44288616692, -38153.93604683114, -52190.63039906388, -34413.3716122355, -13848.64912613024, -57400.21853449566, -56481.51713389363, -66375.13683737956, -52724.59122235671, -48635.451332980556, -48611.66907688011, -49519.440474443494, 0.1136875, 0.95803125, 0.11634375, 192.0, 1.5, 72.0, 15.0, 0.0, 1.5, 96.0, 0.0, 0.0, 0.0, 1.6581654933994837E9, 0.0, 2022-07-18 13:31:33.399
252.0, -24108.43510728301, -23941.244058757315, -54210.0434553675, -55209.61346740884, -22911.275674256765, -38171.12453831727, -52214.90439354234, -34449.380272553004, -13804.68324478665, -57351.69289728319, -56435.24902287115, -66332.28854325874, -52678.233704356404, -48585.606942845225, -48562.58464605625, -49476.659235556035, 0.1136875, 0.95803125, 0.11634375, 192.0, 0.0, 0.0, 0.0, 0.0, 0.0, 0.0, 0.0, 0.0, 0.0, 1.65816549339949E9, 0.0, 2022-07-18 13:31:33.399
254.0, -24093.660604198052, -24002.398431587033, -54181.1873532757, -55183.640740351766, -22894.310700215185, -38159.27811375596, -52199.61580033491, -34424.18985655187, -13836.60153586883, -57396.28462747153, -56475.23629370169, -66373.2145873564, -52720.36674265465, -48631.67388816761, -48613.3231059698, -49529.67757340403, 0.1136875, 0.95803125, 0.11634375, 192.0, 0.0, 0.0, 0.0, 0.0, 0.0, 0.0, 0.0, 0.0, 0.0, 1.6581654933994973E9, 0.0, 2022-07-18 13:31:33.399
0.0, -24091.29131928579, -23932.839802842118, -54204.410815764764, -55194.36957769032, -22902.223217752366, -38146.58232290534, -52217.944230788264, -34390.08109451307, -13803.83387849735, -57337.477187809614, -56429.839900712956, -66319.83862159713, -52670.544704263775, -48576.48743110746, -48563.07638443427, -49469.79725000826, 0.1136875, 0.95803125, 0.11634375, 192.0, 0.0, 0.0, 0.0, 0.0, 0.0, 0.0, 0.0, 0.0, 0.0, 1.658165493399504E9, 0.0, 2022-07-18 13:31:33.399
2.0, -24101.304900801766, -23987.42276280198, -54203.56144947546, -55191.3744439333, -22913.756717891305, -38158.920485844676, -52215.06085575353, -34419.92067336091, -13841.675381860183, -57396.329330960434, -56487.26153221864, -66373.28164258978, -52729.30744043678, -48631.897405612166, -48623.94018458607, -49528.045896058786, 0.1136875, 0.95803125, 0.11634375, 192.0, 0.0, 0.0, 0.0, 0.0, 0.0, 0.0, 0.0, 0.0, 0.0, 1.6581654933995101E9, 0.0, 2022-07-18 13:31:33.399
4.0, -24096.67808969952, -23942.004018068794, -54207.51770824406, -55195.75538584655, -22900.72565087386, -38139.09448851281, -52196.66537006681, -34375.060722239105, -13798.87179122827, -57329.02822840551, -56432.857386214426, -66312.82017383816, -52666.499038517366, -48573.67111130609, -48560.88591347765, -49463.62816853859, 0.11284374999999999, 0.953015625, 0.121171875, 192.0, 1.5, 64.0, 14.5, 80.0, 1.5, 120.0, 0.0, 0.0, 0.0, 1.6581654933995163E9, 0.0, 2022-07-18 13:31:33.399
6.0, -24112.72664221843, -23973.6093847286, -54214.33499030292, -55207.55710691895, -22917.332997004152, -38160.82038412338, -52241.59237642198, -34400.27348998469, -13844.335239450365, -57406.74524387661, -56495.419918944826, -66378.13197113656, -52734.157768983576, -48636.61362369223, -48622.12969328519, -49534.39379148409, 0.11284374999999999, 0.953015625, 0.121171875, 192.0, 0.0, 0.0, 0.0, 0.0, 0.0, 0.0, 0.0, 0.0, 0.0, 1.658165493399523E9, 0.0, 2022-07-18 13:31:33.399
8.0, -24101.61782522414, -23947.92723034945, -54207.718873944155, -55198.459946925635, -22895.607101393594, -38135.629968122244, -52183.58959956045, -34377.69822808483, -13801.73281451855, -57344.897966968776, -56438.378267094886, -66321.42559545346, -52670.79057345278, -48575.950989240526, -48571.03360546036, -49474.33465413268, 0.11284374999999999, 0.953015625, 0.121171875, 192.0, 0.0, 0.0, 0.0, 0.0, 0.0, 0.0, 0.0, 0.0, 0.0, 1.6581654933995297E9, 0.0, 2022-07-18 13:31:33.399
10.0, -24106.57991249322, -23936.885468588527, -54216.12312985935, -55208.741749375076, -22902.424383452464, -38148.705738628596, -52202.320361414, -34390.34931544654, -13832.39940791123, -57409.270991000056, -56487.79797408557, -66374.53334027926, -52723.2948211783, -48632.41149573463, -48612.85371933624, -49533.96910833944, 0.11284374999999999, 0.953015625, 0.121171875, 192.0, 0.0, 0.0, 0.0, 0.0, 0.0, 0.0, 0.0, 0.0, 0.0, 1.6581654933995361E9, 0.0, 2022-07-18 13:31:33.399
12.0, -24107.38457529361, -23952.866965874073, -54203.24852505309, -55199.644589381765, -22889.39331643502, -38135.67467161115, -52196.17363168879, -34376.46888213979, -13800.056433684402, -57337.52189129852, -56433.59499378145, -66316.66467388447, -52663.414497782534, -48574.16284968411, -48558.09194542074, -49476.16749717802, 0.11284374999999999, 0.953015625, 0.121171875, 192.0, 0.0, 0.0, 0.0, 0.0, 0.0, 0.0, 0.0, 0.0, 0.0, 1.6581654933995428E9, 0.0, 2022-07-18 13:31:33.399
14.0, -24134.2960756178, -23946.02733207075, -54238.63133652584, -55239.430694512215, -22935.080282101666, -38175.326666274865, -52254.82460913952, -34449.62614174201, -13859.199149513144, -57414.7024649027, -56502.8854015929, -66390.73835500937, -52737.309364951776, -48645.57667321881, -48622.97905957449, -49553.05749810428, 0.113421875, 0.9505078125, 0.1245859375, 192.0, 1.5, 72.0, 14.5, 80.0, 2.0, 0.0, 0.0, 0.0, 0.0, 1.6581654933995495E9, 0.0, 2022-07-18 13:31:33.399
16.0, -24098.62269146713, -23968.043800359228, -54183.243713765594, -55185.607693863836, -22883.358345432087, -38124.990537761514, -52180.77327975909, -34378.65935309641, -13806.203163409611, -57348.317783870436, -56441.105179918435, -66331.88621185854, -52677.49609678938, -48586.456309134526, -48566.54090482485, -49481.86719201413, 0.113421875, 0.9505078125, 0.1245859375, 192.0, 0.0, 0.0, 0.0, 0.0, 0.0, 0.0, 0.0, 0.0, 0.0, 1.6581654933995564E9, 0.0, 2022-07-18 13:31:33.399
18.0, -24128.81989822625, -23930.716387118864, -54228.01425790957, -55222.7339414041, -22928.53122097626, -38159.99336957853, -52218.45832091074, -34390.014039279704, -13831.058303243912, -57405.582953164936, -56476.21977045772, -66372.52168327829, -52719.00328624288, -48621.28032699589, -48596.715759839506, -49517.83114884271, 0.113421875, 0.9505078125, 0.1245859375, 192.0, 0.0, 0.0, 0.0, 0.0, 0.0, 0.0, 0.0, 0.0, 0.0, 1.6581654933995628E9, 0.0, 2022-07-18 13:31:33.399
20.0, -24108.882142172115, -23984.852312189618, -54182.66256840975, -55180.53384787248, -22887.783990834236, -38129.01385176347, -52180.393300103344, -34353.06660569509, -13822.072901972879, -57358.01844096404, -56447.251909643644, -66334.76958689328, -52682.8828672031, -48586.38925390116, -48573.42524211708, -49479.49790710186, 0.113421875, 0.9505078125, 0.1245859375, 192.0, 0.0, 0.0, 0.0, 0.0, 0.0, 0.0, 0.0, 0.0, 0.0, 1.6581654933995712E9, 0.0, 2022-07-18 13:31:33.399
22.0, -24129.244581370902, -23924.45789867138, -54238.944260948214, -55237.754313678066, -22936.86842165809, -38178.210041309605, -52238.016097309126, -34416.63496692598, -13834.187547467656, -57400.17383100675, -56476.57739836901, -66368.05133438723, -52719.115044965154, -48627.24824276546, -48600.11322499672, -49522.21209075595, 0.113421875, 0.9505078125, 0.1245859375, 192.0, 0.0, 0.0, 0.0, 0.0, 0.0, 0.0, 0.0, 0.0, 0.0, 1.6581654933995776E9, 0.0, 2022-07-18 13:31:33.399
24.0, -24099.941444389995, -23992.340146582144, -54180.89678059778, -55181.182048461684, -22879.42443840795, -38129.57264537486, -52187.83643100697, -34371.6632570819, -13827.63848634225, -57363.58402533341, -56455.767924281114, -66342.2127177969, -52694.08109117521, -48603.13071049818, -48583.438823633056, -49496.529936376806, 0.113421875, 0.9505078125, 0.1245859375, 192.0, 0.0, 0.0, 0.0, 0.0, 0.0, 0.0, 0.0, 0.0, 0.0, 1.6581654933995836E9, 0.0, 2022-07-18 13:31:33.399
26.0, -24123.05314815678, -23916.45597415638, -54230.987039922125, -55229.84179614089, -22924.507906974308, -38164.709587658595, -52233.277527484606, -34406.442571454354, -13822.564640350896, -57382.53830463151, -56467.12261046441, -66355.69081970345, -52703.35706512417, -48612.63020189169, -48591.08312023677, -49509.00220978287, 0.11800000000000001, 0.9460000000000001, 0.124, 192.0, 1.5, 88.0, 14.5, 72.0, 1.5, 112.0, 0.0, 0.0, 0.0, 1.65816549339959E9, 0.0, 2022-07-18 13:31:33.399
28.0, -24097.661566455554, -24008.388699101055, -54165.00469029006, -55172.77779254649, -22873.076542982646, -38132.9477587876, -52160.477895793665, -34376.33477167306, -13817.311980403898, -57370.02132773654, -56453.73391553568, -66347.4653777439, -52682.078204402715, -48610.350323957246, -48572.95585548352, -49495.41234915404, 0.11800000000000001, 0.9460000000000001, 0.124, 192.0, 0.0, 0.0, 0.0, 0.0, 0.0, 0.0, 0.0, 0.0, 0.0, 1.6581654933995962E9, 0.0, 2022-07-18 13:31:33.399
30.0, -24147.327142635244, -23943.34512273611, -54241.42530458276, -55248.1925783387, -22944.669180472993, -38185.72022744659, -52239.62542290991, -34455.34818832257, -13821.268239172488, -57392.82010708095, -56463.14399995137, -66362.48575001786, -52695.44454758699, -48617.10055078275, -48583.88585852216, -49506.67762835952, 0.11800000000000001, 0.9460000000000001, 0.124, 192.0, 0.0, 0.0, 0.0, 0.0, 0.0, 0.0, 0.0, 0.0, 0.0, 1.6581654933996024E9, 0.0, 2022-07-18 13:31:33.399
32.0, -24102.24367406889, -24022.69381555245, -54165.51878041253, -55177.985749004576, -22881.547854131208, -38129.93027328614, -52183.567247816, -34380.00045776373, -13835.774521323983, -57395.25644722658, -56476.666805346824, -66374.15336062353, -52705.212259913955, -48627.91879509912, -48599.174451729596, -49519.105198276666, 0.11800000000000001, 0.9460000000000001, 0.124, 192.0, 0.0, 0.0, 0.0, 0.0, 0.0, 0.0, 0.0, 0.0, 0.0, 1.6581654933996086E9, 0.0, 2022-07-18 13:31:33.399
34.0, -24127.63525577012, -23938.69595988941, -54231.21055736668, -55239.922432890235, -22934.052101856723, -38169.962247605596, -52243.08994330048, -34424.502780974246, -13808.103061688313, -57378.224417951635, -56451.02935445659, -66352.62863071306, -52682.74875673637, -48609.657419879135, -48582.18712594356, -49496.35112242116, 0.11800000000000001, 0.9460000000000001, 0.124, 192.0, 0.0, 0.0, 0.0, 0.0, 0.0, 0.0, 0.0, 0.0, 0.0, 1.6581654933996146E9, 0.0, 2022-07-18 13:31:33.399
36.0, -24102.578950235722, -24031.14277495656, -54166.77047810203, -55182.14317347326, -22877.278670940243, -38134.445325666115, -52160.67906149376, -34395.44551318235, -13828.711370076106, -57391.18842973572, -56466.36265115293, -66367.53724426475, -52710.97900998343, -48629.796341633366, -48592.62539060419, -49518.27818373182, 0.122, 0.9540000000000001, 0.11800000000000001, 192.0, 1.5, 104.0, 14.5, 104.0, 1.5, 88.0, 0.0, 0.0, 0.0, 1.6581654933996208E9, 0.0, 2022-07-18 13:31:33.399
38.0, -24131.993845938905, -23949.201279783403, -54229.69063874372, -55225.729075161114, -22938.63420947006, -38159.56868643388, -52236.71969613072, -34423.13932456247, -13807.54426807693, -57368.07672596893, -56443.56387180852, -66344.1126160756, -52679.351291579165, -48599.35326568523, -48565.35626236871, -49483.029482725804, 0.122, 0.9540000000000001, 0.11800000000000001, 192.0, 0.0, 0.0, 0.0, 0.0, 0.0, 0.0, 0.0, 0.0, 0.0, 1.6581654933996267E9, 0.0, 2022-07-18 13:31:33.399
40.0, -24091.71600243044, -24023.677292308486, -54160.936672799195, -55154.80699000442, -22890.39914493551, -38122.1965697046, -52187.99289321815, -34387.89062355645, -13839.484910903564, -57394.78706059302, -56473.44815414526, -66368.67718323198, -52718.86917577615, -48626.24241426497, -48614.61950714821, -49516.64650638658, 0.122, 0.9540000000000001, 0.11800000000000001, 192.0, 0.0, 0.0, 0.0, 0.0, 0.0, 0.0, 0.0, 0.0, 0.0, 1.658165493399633E9, 0.0, 2022-07-18 13:31:33.399
42.0, -24112.503124773877, -23949.11187280558, -54210.93752514572, -55202.863240583334, -22922.96563660689, -38146.15763976069, -52224.314477958025, -34407.917786588405, -13791.719233002572, -57348.317783870436, -56422.03914189806, -66316.93289481795, -52664.68854721649, -48573.24642816144, -48560.014195443895, -49460.02953768129, 0.122, 0.9540000000000001, 0.11800000000000001, 192.0, 0.0, 0.0, 0.0, 0.0, 0.0, 0.0, 0.0, 0.0, 0.0, 1.6581654933996391E9, 0.0, 2022-07-18 13:31:33.399
44.0, -24105.015290381347, -24026.42655687649, -54177.3875567183, -55177.82928679339, -22899.138677017534, -38139.206247235095, -52196.71007355572, -34404.5203214312, -13842.54709989394, -57405.89587758731, -56481.718299593726, -66374.24276760135, -52725.52999562383, -48633.66319342413, -48618.06167579433, -49520.625116899624, 0.122, 0.9540000000000001, 0.11800000000000001, 192.0, 0.0, 0.0, 0.0, 0.0, 0.0, 0.0, 0.0, 0.0, 0.0, 1.6581654933996453E9, 0.0, 2022-07-18 13:31:33.399
0.0, -12042.315249719055, -11923.247507005633, -27085.441599540904, -27581.672678193176, -11435.688905202021, -19042.456929976575, -26077.288517628735, -17173.225244668156, -6901.056397087145, -28680.52913910498, -28218.92091261398, -33166.077216396, -26347.476404604484, -24295.183932207103, -24281.90699600065, -24736.22855379922, 0.116, 0.9500000000000001, 0.12, 192.0, 1.5, 80.0, 14.5, 88.0, 1.5, 96.0, 0.0, 0.0, 0.0, 1.65816549398638E9, 0.0, 2022-07-18 13:31:33.986
2.0, -24064.983316061895, -23909.236360697316, -54126.76085552703, -55129.37070481428, -22849.406045604475, -38076.19667961558, -52138.79670367202, -34373.78667280515, -13836.579184124374, -57291.544352953955, -56427.51531928961, -66286.86979852556, -52700.7866145118, -48531.87334917466, -48569.62544555968, -49462.488229571376, 0.116, 0.9500000000000001, 0.12, 192.0, 0.0, 0.0, 0.0, 0.0, 0.0, 0.0, 0.0, 0.0, 0.0, 1.6581654939864316E9, 0.0, 2022-07-18 13:31:33.986
4.0, -24060.71413287093, -23887.421058108936, -54120.61412580182, -55130.10831238131, -22834.1398041415, -38058.82937417381, -52104.88910733332, -34357.380492374956, -13779.939863674625, -57223.79621550992, -56357.129675999844, -66225.02252161772, -52627.87522409859, -48470.65192111158, -48502.14552904911, -49395.857679350105, 0.116, 0.9500000000000001, 0.12, 192.0, 0.0, 0.0, 0.0, 0.0, 0.0, 0.0, 0.0, 0.0, 0.0, 1.658165493986451E9, 0.0, 2022-07-18 13:31:33.986
6.0, -24072.91818534353, -23907.58233160762, -54130.09126545087, -55147.72148701209, -22846.38856010301, -38081.11406339575, -52125.78798839903, -34338.090936910026, -13832.086483488856, -57306.162393827726, -56424.92251693279, -66300.70552834339, -52692.27059987433, -48546.960776682, -48558.94131171004, -49461.30358711524, 0.116, 0.9500000000000001, 0.12, 192.0, 0.0, 0.0, 0.0, 0.0, 0.0, 0.0, 0.0, 0.0, 0.0, 1.6581654939864619E9, 0.0, 2022-07-18 13:31:33.986
8.0, -24083.602319193164, -23930.69403537441, -54134.87453876431, -55150.9177864692, -22847.23792639231, -38077.87306044973, -52149.50318926611, -34337.42038457637, -13791.562770791385, -57244.24806168653, -56376.35217623141, -66247.73189398431, -52627.629354909586, -48485.135851518615, -48509.052218085795, -49397.62346716207, 0.116, 0.9520000000000001, 0.116, 192.0, 1.5, 80.0, 14.5, 96.0, 1.5, 80.0, 0.0, 0.0, 0.0, 1.6581654939864683E9, 0.0, 2022-07-18 13:31:33.986
10.0, -24099.82968566772, -23915.271331700245, -54158.47798090911, -55171.52609485699, -22874.730572072338, -38111.80300853289, -52165.4623348072, -34396.00430679373, -13850.638431386762, -57323.50734752505, -56455.81262777003, -66323.75017687681, -52699.37845461112, -48560.014195443895, -48593.206535960024, -49490.56202060724, 0.116, 0.9520000000000001, 0.116, 192.0, 0.0, 0.0, 0.0, 0.0, 0.0, 0.0, 0.0, 0.0, 0.0, 1.6581654939864748E9, 0.0, 2022-07-18 13:31:33.986
12.0, -24067.978449818904, -23923.45207017089, -54115.09324492136, -55130.309478081406, -22834.318618097142, -38068.84295568978, -52122.34581975291, -34315.918006410364, -13792.38978533623, -57240.1129889623, -56387.99743509263, -66251.19641437488, -52625.01420080831, -48484.55470616278, -48522.41856127007, -49409.15696730101, 0.116, 0.9520000000000001, 0.116, 192.0, 0.0, 0.0, 0.0, 0.0, 0.0, 0.0, 0.0, 0.0, 0.0, 1.6581654939864817E9, 0.0, 2022-07-18 13:31:33.986
14.0, -24097.34864203318, -23897.613453580554, -54162.836571077896, -55180.39973740575, -22886.219368722366, -38117.27918592444, -52177.73344251316, -34388.42706542338, -13833.1146637338, -57308.19640257316, -56440.747552007146, -66313.13309826054, -52675.66325374404, -48546.20081737052, -48575.66041656261, -49476.41336636703, 0.116, 0.9520000000000001, 0.116, 192.0, 0.0, 0.0, 0.0, 0.0, 0.0, 0.0, 0.0, 0.0, 0.0, 1.6581654939864984E9, 0.0, 2022-07-18 13:31:33.986
16.0, -24072.515853943332, -23946.340256493124, -54123.050465947446, -55140.09954215283, -22843.28166762372, -38077.42602556062, -52116.17673828325, -34348.506849826204, -13807.320750632376, -57247.31025067691, -56394.39003400684, -66265.9932692043, -52633.68667765697, -48501.922011604554, -48531.761590452385, -49428.11124659911, 0.116, 0.9520000000000001, 0.116, 192.0, 0.0, 0.0, 0.0, 0.0, 0.0, 0.0, 0.0, 0.0, 0.0, 1.6581654939865048E9, 0.0, 2022-07-18 13:31:33.986
18.0, -24083.423505237522, -23877.67569752642, -54164.7364693566, -55170.29674891195, -22881.592557620115, -38100.24715664949, -52154.93466316875, -34379.754588574724, -13819.569506593885, -57297.75813791253, -56424.78840646606, -66300.81728706567, -52679.686567745994, -48537.59539575522, -48561.86939023369, -49465.14808716156, 0.112, 0.9520000000000001, 0.116, 192.0, 1.5, 64.0, 14.5, 96.0, 1.5, 80.0, 0.0, 0.0, 0.0, 1.6581654939865115E9, 0.0, 2022-07-18 13:31:33.986
20.0, -24068.224319007913, -23945.915573348473, -54117.21666064461, -55119.35712329831, -22836.33027509812, -38065.66900797713, -52118.9036511068, -34353.49128883974, -13807.678378543662, -57242.2140529411, -56391.596065949925, -66254.8397487211, -52656.060773856734, -48492.60133416669, -48530.934575907544, -49424.17733957498, 0.112, 0.9520000000000001, 0.116, 192.0, 0.0, 0.0, 0.0, 0.0, 0.0, 0.0, 0.0, 0.0, 0.0, 1.658165493986518E9, 0.0, 2022-07-18 13:31:33.986
22.0, -24104.590607236696, -23882.838950495596, -54177.521667185036, -55180.66795833921, -22886.398182678007, -38115.75926730147, -52187.92583798478, -34440.26076081524, -13826.140919463745, -57278.557989425426, -56423.201432609734, -66286.46746712536, -52694.34931210868, -48517.38941876763, -48555.76736399739, -49458.979005691894, 0.112, 0.9520000000000001, 0.116, 192.0, 0.0, 0.0, 0.0, 0.0, 0.0, 0.0, 0.0, 0.0, 0.0, 1.6581654939865243E9, 0.0, 2022-07-18 13:31:33.986
24.0, -24086.508045972354, -23967.239137558838, -54122.84930024735, -55130.443588548136, -22832.463423307352, -38077.00134241597, -52115.43913071622, -34354.653579551414, -13837.74147483605, -57263.35880319581, -56422.46382504271, -66283.18176069042, -52679.95478867946, -48514.66250594408, -48545.57496852577, -49448.20546486443, 0.112, 0.9520000000000001, 0.116, 192.0, 0.0, 0.0, 0.0, 0.0, 0.0, 0.0, 0.0, 0.0, 0.0, 1.6581654939865305E9, 0.0, 2022-07-18 13:31:33.986
26.0, -24106.557560748766, -23876.58046204811, -54179.98035907512, -55180.48914438357, -22889.52742690175, -38113.76996204495, -52184.461317594214, -34380.96158277531, -13834.992210268047, -57281.48606794907, -56428.990534423654, -66292.68125208393, -52684.29102710379, -48526.97831713895, -48545.7090789925, -49450.57474977669, 0.112, 0.9520000000000001, 0.116, 192.0, 0.0, 0.0, 0.0, 0.0, 0.0, 0.0, 0.0, 0.0, 0.0, 1.6581654939865367E9, 0.0, 2022-07-18 13:31:33.986
28.0, -24072.582909176697, -23962.36645726758, -54113.84154723186, -55120.653524476715, -22829.401234316974, -38072.12866212471, -52118.389560984324, -34355.19002141834, -13841.764788838005, -57269.05849803192, -56423.53670877656, -66282.69002231241, -52673.13750662059, -48514.32722977725, -48545.79848597032, -49445.07622064069, 0.114, 0.9520000000000001, 0.11800000000000001, 192.0, 1.5, 72.0, 14.5, 96.0, 1.5, 88.0, 0.0, 0.0, 0.0, 1.658165493986543E9, 0.0, 2022-07-18 13:31:33.986
30.0, -24109.955025905972, -23877.183959148402, -54178.348681729876, -55178.99157750507, -22880.407915163985, -38108.15967418667, -52183.343730371445, -34374.07724548307, -13829.001942754025, -57276.50162893553, -56419.155766863325, -66280.56660658916, -52673.22691359841, -48509.74512216391, -48538.73533472244, -49443.8692264401, 0.114, 0.9520000000000001, 0.11800000000000001, 192.0, 0.0, 0.0, 0.0, 0.0, 0.0, 0.0, 0.0, 0.0, 0.0, 1.6581654939865491E9, 0.0, 2022-07-18 13:31:33.986
32.0, -24081.992993592383, -23961.852367145108, -54106.64428551725, -55115.825547674365, -22826.875487193523, -38067.79242370038, -52125.117436065375, -34348.10451842601, -13838.769655080994, -57271.67365213319, -56428.49879604564, -66283.22646417934, -52683.262846858845, -48513.947250121506, -48556.862599475695, -49452.45229631094, 0.114, 0.9520000000000001, 0.11800000000000001, 192.0, 0.0, 0.0, 0.0, 0.0, 0.0, 0.0, 0.0, 0.0, 0.0, 1.6581654939865556E9, 0.0, 2022-07-18 13:31:33.986
34.0, -24105.596435737185, -23868.869110211028, -54169.56444615894, -55172.77779254649, -22885.39235417752, -38100.940060727604, -52177.17464890178, -34370.67978032587, -13824.799814796426, -57256.161541481204, -56407.64461846884, -66266.17208315994, -52655.94901513446, -48497.384607480126, -48541.775171968366, -49430.033496622265, 0.114, 0.9520000000000001, 0.11800000000000001, 192.0, 0.0, 0.0, 0.0, 0.0, 0.0, 0.0, 0.0, 0.0, 0.0, 1.658165493986562E9, 0.0, 2022-07-18 13:31:33.986
36.0, -24073.499330699367, -23954.141015308025, -54119.85416649034, -55126.308515823905, -22844.37690310203, -38074.98968541499, -52117.6519534173, -34356.15114642992, -13839.417855670197, -57272.52301842249, -56425.77188322209, -66284.3440514021, -52678.010186911844, -48518.17172982356, -48569.62544555968, -49452.42994456649, 0.114, 0.9520000000000001, 0.11800000000000001, 192.0, 0.0, 0.0, 0.0, 0.0, 0.0, 0.0, 0.0, 0.0, 0.0, 1.6581654939865687E9, 0.0, 2022-07-18 13:31:33.986
38.0, -24090.57606346322, -23868.667944510933, -54171.03966129299, -55169.55914134492, -22883.313641943176, -38096.335601369814, -52162.10957313891, -34393.590318392555, -13817.311980403898, -57248.67370708868, -56398.92743813127, -66263.42281859193, -52650.696355187465, -48495.50706094588, -48540.81404695679, -49423.395028519044, 0.116, 0.9540000000000001, 0.116, 192.0, 1.5, 80.0, 14.5, 104.0, 1.5, 80.0, 0.0, 0.0, 0.0, 1.6581654939865775E9, 0.0, 2022-07-18 13:31:33.986
40.0, -24068.09020854118, -23934.024445298248, -54114.80267224344, -55113.791538928934, -22834.408025074965, -38068.10534812276, -52114.5003574491, -34354.89944874042, -13854.25941398852, -57285.732899395574, -56440.121703162404, -66296.01166200778, -52689.14135565059, -48533.527378264356, -48573.69346305054, -49460.4765725704, 0.116, 0.9540000000000001, 0.116, 192.0, 0.0, 0.0, 0.0, 0.0, 0.0, 0.0, 0.0, 0.0, 0.0, 1.6581654939865842E9, 0.0, 2022-07-18 13:31:33.986
42.0, -24093.05710709776, -23870.18786313389, -54163.86475132284, -55155.20932140462, -22880.47497039735, -38101.47650259453, -52165.730555740665, -34380.22397520828, -13811.433471612154, -57231.61932606928, -56391.50665897211, -66240.42287354742, -52643.16381730602, -48479.7937845938, -48522.5526717368, -49403.14434804253, 0.116, 0.9540000000000001, 0.116, 192.0, 0.0, 0.0, 0.0, 0.0, 0.0, 0.0, 0.0, 0.0, 0.0, 1.6581654939865909E9, 0.0, 2022-07-18 13:31:33.986
44.0, -24091.76070591935, -23945.22266927036, -54134.6286695753, -55132.09761763783, -22861.543042843707, -38104.225767162534, -52136.18154957075, -34396.47369342729, -13856.516940178508, -57292.23725703207, -56449.12945617789, -66298.38094692004, -52706.53101283682, -48540.94815742352, -48577.493259607945, -49471.09365118667, 0.116, 0.9540000000000001, 0.116, 192.0, 0.0, 0.0, 0.0, 0.0, 0.0, 0.0, 0.0, 0.0, 0.0, 1.6581654939865975E9, 0.0, 2022-07-18 13:31:33.986
46.0, -24078.23790052389, -23866.29865959867, -54128.9736782281, -55128.8119112029, -22852.356475872573, -38086.43377857611, -52135.98038387065, -34364.06366396709, -13814.1603844357, -57236.62611682727, -56391.171382805274, -66248.76007422926, -52648.68469818649, -48487.661598642066, -48519.110503090684, -49417.874147638584, 0.116, 0.9540000000000001, 0.116, 192.0, 0.0, 0.0, 0.0, 0.0, 0.0, 0.0, 0.0, 0.0, 0.0, 1.6581654939866025E9, 0.0, 2022-07-18 13:31:33.986
48.0, -24083.803484893262, -23916.92536078994, -54126.269117149015, -55131.53882402645, -22858.793778275704, -38094.88273798022, -52138.59553797192, -34370.56802160359, -13840.915422548704, -57285.37527148429, -56429.012886168115, -66288.43442063742, -52693.254076630365, -48528.23001482845, -48562.83051524527, -49459.64955802555, 0.116, 0.9560000000000001, 0.114, 192.0, 1.5, 80.0, 14.5, 112.0, 1.5, 72.0, 0.0, 0.0, 0.0, 1.6581654939866076E9, 0.0, 2022-07-18 13:31:33.986
50.0, -24096.67808969952, -23894.30539540117, -54158.142704742284, -55158.36091737282, -22878.016278507268, -38093.65339203518, -52161.19315161624, -34373.78667280515, -13810.762919278493, -57229.540613834935, -56391.193734549735, -66245.40731256096, -52646.65068944105, -48486.83458409722, -48530.97927939645, -49414.25316503682, 0.116, 0.9560000000000001, 0.114, 192.0, 0.0, 0.0, 0.0, 0.0, 0.0, 0.0, 0.0, 0.0, 0.0, 1.6581654939866126E9, 0.0, 2022-07-18 13:31:33.986
52.0, -24097.10277284417, -23915.606607867077, -54158.88031230931, -55156.39396386075, -22886.174665233455, -38104.87396775174, -52168.68098600877, -34381.31921068659, -13859.93675708017, -57312.19736483066, -56461.53467435059, -66314.38479595004, -52720.72437056594, -48554.493314563435, -48607.22107973351, -49484.41529088203, 0.116, 0.9560000000000001, 0.114, 192.0, 0.0, 0.0, 0.0, 0.0, 0.0, 0.0, 0.0, 0.0, 0.0, 1.6581654939866176E9, 0.0, 2022-07-18 13:31:33.986
54.0, -24080.160150547046, -23892.40549712247, -54143.14468421277, -55139.20547237462, -22860.894842254504, -38082.54457504089, -52153.23593059015, -34388.963507290304, -13806.1584599207, -57233.63098307026, -56395.529972974065, -66243.2838968377, -52647.254186541344, -48480.71020611646, -48537.774209710864, -49413.71672316989, 0.116, 0.9560000000000001, 0.114, 192.0, 0.0, 0.0, 0.0, 0.0, 0.0, 0.0, 0.0, 0.0, 0.0, 1.6581654939866226E9, 0.0, 2022-07-18 13:31:33.986
56.0, -24090.33019427421, -23897.30052915818, -54147.70444008165, -55147.74383875655, -22876.18343546193, -38109.411371876166, -52143.71408745219, -34388.069437512095, -13854.1700070107, -57290.44911747565, -56450.828188756495, -66298.67151959795, -52704.47465234693, -48538.64592774462, -48587.79741380184, -49480.83901176918, 0.116, 0.9560000000000001, 0.114, 192.0, 0.0, 0.0, 0.0, 0.0, 0.0, 0.0, 0.0, 0.0, 0.0, 1.6581654939866276E9, 0.0, 2022-07-18 13:31:33.986
58.0, -24091.671298941532, -23924.770823093753, -54134.56161434193, -55136.61267001781, -22866.058095223678, -38093.184005401614, -52147.625642731866, -34364.55540234511, -13814.786233280449, -57229.406503368205, -56392.579542705964, -66241.67457123692, -52644.951956862446, -48482.52069741735, -48525.57015723827, -49411.03451383526, 0.116, 0.9560000000000001, 0.118, 192.0, 1.5, 80.0, 14.5, 112.0, 1.5, 104.0, 0.0, 0.0, 0.0, 1.6581654939866323E9, 0.0, 2022-07-18 13:31:33.986
60.0, -24089.190255306992, -23889.231549409815, -54136.79678878746, -55145.50866431101, -22865.90163301249, -38108.852578264785, -52156.99102365864, -34386.393056677945, -13849.252623230532, -57300.95443736964, -56443.966203208714, -66301.28667369923, -52700.04900694478, -48543.92093943607, -48577.09092820775, -49472.747680276356, 0.116, 0.9560000000000001, 0.118, 192.0, 0.0, 0.0, 0.0, 0.0, 0.0, 0.0, 0.0, 0.0, 0.0, 1.6581654939866376E9, 0.0, 2022-07-18 13:31:33.986
62.0, -24076.494464456377, -23931.096366774604, -54112.27692511999, -55125.19092860114, -22836.017350675746, -38090.99353444499, -52121.4517499747, -34391.221033480295, -13805.510259331497, -57233.92155574817, -56383.840010623935, -66245.72023698332, -52637.3747154921, -48488.06393004226, -48512.047351842804, -49412.44267373594, 0.116, 0.9560000000000001, 0.118, 192.0, 0.0, 0.0, 0.0, 0.0, 0.0, 0.0, 0.0, 0.0, 0.0, 1.6581654939866424E9, 0.0, 2022-07-18 13:31:33.986
64.0, -24084.67520292702, -23878.972098704828, -54154.991108774084, -55162.7195075416, -22878.351554674096, -38122.88947378272, -52162.89188419484, -34393.94794630384, -13842.480044660575, -57300.14977456925, -56440.747552007146, -66305.04176676771, -52701.07718718972, -48545.37380282567, -48562.964625712, -49476.815697767226, 0.116, 0.9560000000000001, 0.118, 192.0, 0.0, 0.0, 0.0, 0.0, 0.0, 0.0, 0.0, 0.0, 0.0, 1.6581654939866471E9, 0.0, 2022-07-18 13:31:33.986
66.0, -24059.820063092717, -23921.462764914366, -54102.486861048565, -55109.58941097133, -22834.81035647516, -38076.50960403796, -52130.30304077901, -34355.078262696064, -13806.091404687335, -57231.73108479156, -56388.958560104205, -66247.46367305085, -52649.288195286776, -48488.98035156493, -48520.47395950246, -49420.57870871767, 0.116, 0.9560000000000001, 0.118, 192.0, 0.0, 0.0, 0.0, 0.0, 0.0, 0.0, 0.0, 0.0, 0.0, 1.6581654939866529E9, 0.0, 2022-07-18 13:31:33.986
68.0, -24080.92010985853, -23852.10530186955, -54154.94640528517, -55148.682612023666, -22887.828694323147, -38105.38805787421, -52187.545858329046, -34401.45813244082, -13825.135090963257, -57272.81359110041, -56411.82439468198, -66270.82124600664, -52687.464974816445, -48517.14354957861, -48559.254236132416, -49455.8721132126, 0.117, 0.958, 0.12, 192.0, 1.5, 88.0, 15.0, 0.0, 1.5, 104.0, 0.0, 0.0, 0.0, 1.6581654939866595E9, 0.0, 2022-07-18 13:31:33.986
70.0, -24026.448908620943, -23898.10519195857, -54073.764869423496, -55067.746945351, -22806.46834450583, -38032.499019205454, -52098.13888050782, -34304.40685801588, -13790.288721357432, -57217.04598868442, -56369.82546685046, -66216.90883838045, -52646.67304118551, -48471.88126705662, -48519.91516589108, -49400.23862126334, 0.117, 0.958, 0.12, 192.0, 0.0, 0.0, 0.0, 0.0, 0.0, 0.0, 0.0, 0.0, 0.0, 1.6581654939866688E9, 0.0, 2022-07-18 13:31:33.986
72.0, -24063.530452672298, -23822.019853832706, -54137.53439635449, -55132.544652526936, -22859.95606898738, -38083.684514008106, -52155.40404980231, -34369.78571054765, -13798.223590639067, -57243.801026797424, -56383.50473445711, -66234.38790254449, -52663.25803557134, -48493.517755689354, -48520.92099439156, -49414.18610980346, 0.117, 0.958, 0.12, 192.0, 0.0, 0.0, 0.0, 0.0, 0.0, 0.0, 0.0, 0.0, 0.0, 1.6581654939866755E9, 0.0, 2022-07-18 13:31:33.986
74.0, -24031.36629240111, -23890.17032267694, -54074.882456646264, -55080.442736201614, -22801.349795025566, -38039.852743131254, -52105.31379047797, -34272.6897326338, -13791.67452951366, -57224.645581799225, -56370.11603952838, -66219.90397213746, -52638.4252474815, -48480.956075305476, -48499.30685750328, -49395.857679350105, 0.117, 0.958, 0.12, 192.0, 0.0, 0.0, 0.0, 0.0, 0.0, 0.0, 0.0, 0.0, 0.0, 1.658165493986682E9, 0.0, 2022-07-18 13:31:33.986
76.0, -24060.71413287093, -23798.95285355483, -54149.44787614917, -55151.00719344702, -22868.919118513957, -38079.907069195164, -52168.6139307754, -34331.69833799581, -13793.462669070086, -57237.363724394294, -56381.24720826712, -66233.04679787718, -52651.523369732306, -48486.83458409722, -48507.68876167402, -49407.36882774458, 0.117, 0.958, 0.12, 192.0, 0.0, 0.0, 0.0, 0.0, 0.0, 0.0, 0.0, 0.0, 0.0, 1.6581654939866884E9, 0.0, 2022-07-18 13:31:33.986
78.0, -24039.681141338486, -23880.648479538977, -54089.45579403112, -55102.16863181217, -22814.962007398844, -38049.57575196931, -52090.159307737275, -34307.469047006256, -13802.470422085575, -57230.881718502256, -56387.10336531441, -66237.65125723496, -52650.98692786538, -48490.16499402106, -48514.05900884378, -49418.567051716695, 0.1155, 0.952, 0.11699999999999999, 192.0, 1.5, 72.0, 14.5, 72.0, 1.5, 72.0, 0.0, 0.0, 0.0, 1.6581654939866948E9, 0.0, 2022-07-18 13:31:33.986
80.0, -24059.305972970247, -23783.351335925025, -54151.61599536133, -55161.17723717418, -22865.409894634475, -38085.852633220275, -52149.011450888094, -34346.09286142503, -13783.06910789837, -57229.808834768395, -56372.73119362965, -66228.01765537473, -52638.08997131467, -48481.76073810586, -48498.88217435863, -49416.42128424899, 0.1155, 0.952, 0.11699999999999999, 192.0, 0.0, 0.0, 0.0, 0.0, 0.0, 0.0, 0.0, 0.0, 0.0, 1.6581654939867013E9, 0.0, 2022-07-18 13:31:33.986
82.0, -24033.824984291197, -23868.57853753311, -54086.03597712946, -55100.96163761159, -22804.881370649502, -38043.831353644295, -52073.46255462916, -34279.23879375921, -13795.094346415324, -57244.918614020185, -56386.566923447484, -66240.40052180296, -52654.13852383358, -48497.13873829112, -48513.723732676954, -49428.0665431102, 0.1155, 0.952, 0.11699999999999999, 192.0, 0.0, 0.0, 0.0, 0.0, 0.0, 0.0, 0.0, 0.0, 0.0, 1.6581654939867077E9, 0.0, 2022-07-18 13:31:33.986
84.0, -24071.085342298193, -23786.12295223748, -54143.23409119059, -55145.754533500025, -22860.15723468748, -38077.06839764934, -52139.7578286836, -34322.93645416933, -13776.408288050687, -57232.58045108086, -56364.32693771445, -66222.18385007189, -52635.6759829135, -48473.57999963522, -48482.006607294876, -49388.995693802324, 0.1155, 0.952, 0.11699999999999999, 192.0, 0.0, 0.0, 0.0, 0.0, 0.0, 0.0, 0.0, 0.0, 0.0, 1.6581654939867144E9, 0.0, 2022-07-18 13:31:33.986
86.0, -24038.720016326908, -23862.923546185917, -54097.18949761266, -55096.468936976074, -22826.696673237882, -38060.43869977459, -52107.79483411251, -34315.96270989927, -13809.757090778005, -57263.69407936264, -56396.088766585446, -66251.86696670855, -52673.7857072098, -48502.88313661613, -48522.15034033661, -49427.239528565355, 0.1155, 0.952, 0.11699999999999999, 192.0, 0.0, 0.0, 0.0, 0.0, 0.0, 0.0, 0.0, 0.0, 0.0, 1.658165493986721E9, 0.0, 2022-07-18 13:31:33.986
88.0, -24059.10480727015, -23786.77115282669, -54151.347774427864, -55145.08398116636, -22871.578976104138, -38087.86429022125, -52159.89675043783, -34338.49326831022, -13778.174075862657, -57227.19368066713, -56361.68943186873, -66220.64157970448, -52644.393163251065, -48471.523639145336, -48503.57604069424, -49409.626353934575, 0.11375, 0.948, 0.11649999999999999, 192.0, 1.5, 64.0, 14.5, 64.0, 1.5, 80.0, 0.0, 0.0, 0.0, 1.658165493986728E9, 0.0, 2022-07-18 13:31:33.986
90.0, -24041.134004728083, -23857.894403683473, -54090.551029509435, -55102.414501001185, -22821.9357516689, -38067.0324643889, -52110.36528472487, -34306.46321850577, -13815.434433869654, -57277.73097488058, -56398.390996264345, -66252.24694636428, -52686.16857363803, -48521.85976765869, -48543.49625629142, -49450.91002594352, 0.11375, 0.948, 0.11649999999999999, 192.0, 0.0, 0.0, 0.0, 0.0, 0.0, 0.0, 0.0, 0.0, 0.0, 1.6581654939867346E9, 0.0, 2022-07-18 13:31:33.986
92.0, -24047.280734453292, -23804.116106524005, -54125.55386132644, -55143.89933871023, -22841.2923623672, -38072.75451096946, -52148.810285187996, -34322.51177102468, -13751.687258683118, -57227.12662543376, -56338.24245193511, -66200.7261753948, -52616.721703615396, -48474.40701418007, -48473.51294440186, -49393.130766526556, 0.11375, 0.948, 0.11649999999999999, 192.0, 0.0, 0.0, 0.0, 0.0, 0.0, 0.0, 0.0, 0.0, 0.0, 1.6581654939867413E9, 0.0, 2022-07-18 13:31:33.986
94.0, -24052.734560100387, -23883.44244759589, -54111.159337897225, -55133.95281242762, -22825.713196481847, -38068.664141734145, -52112.376941725845, -34313.88399766493, -13804.63854129774, -57311.124481096806, -56408.58339173596, -66275.71627804235, -52669.203599596454, -48543.47390454697, -48532.56625325278, -49454.03927016727, 0.11375, 0.948, 0.11649999999999999, 192.0, 0.0, 0.0, 0.0, 0.0, 0.0, 0.0, 0.0, 0.0, 0.0, 1.658165493986748E9, 0.0, 2022-07-18 13:31:33.986
96.0, -24054.165071745527, -23842.47170000931, -54127.0737799494, -55148.70496376813, -22839.504222810774, -38068.15005161167, -52144.74226769713, -34334.62641651946, -13743.86414812376, -57259.00021302703, -56357.82258007796, -66230.20812633134, -52601.14253773005, -48489.74031087641, -48477.4915549149, -49390.82853684766, 0.11375, 0.948, 0.11649999999999999, 192.0, 0.0, 0.0, 0.0, 0.0, 0.0, 0.0, 0.0, 0.0, 0.0, 1.6581654939867544E9, 0.0, 2022-07-18 13:31:33.986
98.0, -24064.022191050317, -23894.975947734827, -54124.10099793685, -55156.72924002758, -22847.506147325774, -38087.50666230997, -52135.108665836895, -34344.304721868604, -13783.694956743117, -57327.86593769383, -56420.78744420856, -66298.38094692004, -52655.99371862337, -48559.79067799934, -48546.69255574853, -49455.80505797924, 0.113875, 0.9510000000000001, 0.11725, 192.0, 1.5, 72.0, 14.5, 104.0, 1.5, 88.0, 0.0, 0.0, 0.0, 1.6581654939867616E9, 0.0, 2022-07-18 13:31:33.986
100.0, -24061.94347881597, -23878.748581260275, -54134.6286695753, -55172.42016463521, -22851.060074694167, -38096.760284514465, -52152.27480557857, -34340.54962880011, -13743.260651023467, -57275.42874520168, -56370.11603952838, -66253.76686498724, -52599.42145340699, -48510.795654153306, -48495.84233711271, -49409.84987137913, 0.113875, 0.9510000000000001, 0.11725, 192.0, 0.0, 0.0, 0.0, 0.0, 0.0, 0.0, 0.0, 0.0, 0.0, 1.658165493986768E9, 0.0, 2022-07-18 13:31:33.986
102.0, -24067.10673178515, -23897.76991579174, -54140.26130917804, -55183.506629885036, -22859.307868398177, -38131.33843318682, -52139.869587405876, -34373.00436174922, -13785.907779444193, -57352.94459497269, -56427.78354022307, -66317.42463319596, -52664.48738151639, -48581.00248348743, -48567.36791936969, -49496.39582591008, 0.113875, 0.9510000000000001, 0.11725, 192.0, 0.0, 0.0, 0.0, 0.0, 0.0, 0.0, 0.0, 0.0, 0.0, 1.6581654939867764E9, 0.0, 2022-07-18 13:31:33.986
104.0, -24047.79482457576, -23887.711630786853, -54115.227355388095, -55152.97414695909, -22834.67624600843, -38099.10721768227, -52129.76659891207, -34352.7089777838, -13729.536679927907, -57275.98753881306, -56358.22491147815, -66249.43062656291, -52591.97832250337, -48516.8529769007, -48503.240764527414, -49435.64378448055, 0.113875, 0.9510000000000001, 0.11725, 192.0, 0.0, 0.0, 0.0, 0.0, 0.0, 0.0, 0.0, 0.0, 0.0, 1.6581654939867947E9, 0.0, 2022-07-18 13:31:33.986
106.0, -24062.56932766072, -23886.929319730916, -54134.96394574213, -55167.9721674886, -22864.739342300814, -38116.45217137959, -52157.23689284765, -34365.44947212332, -13764.740677445017, -57336.00197267556, -56407.73402544666, -66298.71622308687, -52654.8314279117, -48567.010291458406, -48548.32423309377, -49478.693244301474, 0.113875, 0.9510000000000001, 0.11725, 192.0, 0.0, 0.0, 0.0, 0.0, 0.0, 0.0, 0.0, 0.0, 0.0, 1.6581654939868011E9, 0.0, 2022-07-18 13:31:33.986
108.0, -24060.445911937466, -23918.93701779092, -54114.176823398695, -55135.897414195235, -22840.0406646777, -38078.163633127646, -52129.31956402297, -34339.342634599525, -13750.1449883157, -57276.725146380086, -56370.406612206294, -66255.75617024377, -52617.12403501559, -48524.27375605986, -48502.36904649366, -49418.701162183424, 0.1139375, 0.9495, 0.118625, 192.0, 1.5, 72.0, 14.5, 80.0, 1.5, 96.0, 0.0, 0.0, 0.0, 1.658165493986808E9, 0.0, 2022-07-18 13:31:33.986
110.0, -24070.57125217572, -23884.291813885193, -54137.28852716548, -55148.92848121268, -22856.603307319085, -38091.306458867366, -52144.76461944159, -34330.379585072944, -13783.672604998661, -57333.409170318744, -56413.52312726058, -66299.4985341428, -52663.88388441609, -48557.39904134262, -48535.203759098506, -49443.19867410645, 0.1139375, 0.9495, 0.118625, 192.0, 0.0, 0.0, 0.0, 0.0, 0.0, 0.0, 0.0, 0.0, 0.0, 1.6581654939868145E9, 0.0, 2022-07-18 13:31:33.986
112.0, -24049.2253362209, -23929.21882024036, -54092.495631277045, -55106.63898070324, -22809.955216640858, -38052.0344438594, -52099.77055785305, -34293.968593355254, -13751.217872049556, -57276.43457370217, -56363.92460631426, -66248.7377224848, -52613.637162880565, -48500.62561042614, -48485.58288640772, -49381.731376854346, 0.1139375, 0.9495, 0.118625, 192.0, 0.0, 0.0, 0.0, 0.0, 0.0, 0.0, 0.0, 0.0, 0.0, 1.6581654939868217E9, 0.0, 2022-07-18 13:31:33.986
114.0, -24087.938557617494, -23892.092572700094, -54152.3312511839, -55165.20055117614, -22866.549833601694, -38096.402656603175, -52176.012358190106, -34362.94607674433, -13790.735756246539, -57332.515100540535, -56417.121758117886, -66300.28084519874, -52661.08991635918, -48545.28439584785, -48534.24263408693, -49438.19188334845, 0.1139375, 0.9495, 0.118625, 192.0, 0.0, 0.0, 0.0, 0.0, 0.0, 0.0, 0.0, 0.0, 0.0, 1.658165493986828E9, 0.0, 2022-07-18 13:31:33.986
116.0, -24051.259344966336, -23943.523936691756, -54084.381948039765, -55107.84597490382, -22802.065050848134, -38050.91685663663, -52098.72002586365, -34303.31162253757, -13771.222683337055, -57279.38500397027, -56387.70686241471, -66260.78531274621, -52623.53898567426, -48504.98420059493, -48507.26407852937, -49403.25610676481, 0.1139375, 0.9495, 0.118625, 192.0, 0.0, 0.0, 0.0, 0.0, 0.0, 0.0, 0.0, 0.0, 0.0, 1.6581654939868348E9, 0.0, 2022-07-18 13:31:33.986
118.0, -24087.96090936195, -23886.169360419437, -54151.2807191945, -55177.38225190428, -22872.450694137897, -38108.852578264785, -52164.16593362879, -34385.47663515528, -13776.073011883856, -57309.49280375157, -56404.604781222915, -66283.38292639052, -52649.69052668697, -48531.87334917466, -48520.47395950246, -49435.04028738026, 0.11296875, 0.94875, 0.1173125, 192.0, 1.5, 64.0, 14.5, 80.0, 1.5, 80.0, 0.0, 0.0, 0.0, 1.6581654939868424E9, 0.0, 2022-07-18 13:31:33.986
120.0, -24051.90754555554, -23955.437416486435, -54088.718186464095, -55121.72640821057, -22816.57133299963, -38071.525165024424, -52118.948354595705, -34351.166707416385, -13777.324709573355, -57284.03416681697, -56391.10432757191, -66265.5909378041, -52634.98307883538, -48524.09494210422, -48518.015267612376, -49431.843987923145, 0.11296875, 0.94875, 0.1173125, 192.0, 0.0, 0.0, 0.0, 0.0, 0.0, 0.0, 0.0, 0.0, 0.0, 1.6581654944658651E9, 0.0, 2022-07-18 13:31:34.465
122.0, -24061.317629971225, -23859.95076417336, -54138.003782988046, -55169.939121000665, -22868.695601069405, -38100.4930258385, -52163.5624365285, -34389.5670043906, -13768.29460481341, -57296.90877162323, -56392.69130142824, -66270.53067332873, -52639.0734480707, -48530.77811369635, -48527.917090406074, -49443.422191551, 0.11296875, 0.94875, 0.1173125, 192.0, 0.0, 0.0, 0.0, 0.0, 0.0, 0.0, 0.0, 0.0, 0.0, 1.6581654944658923E9, 0.0, 2022-07-18 13:31:34.465
124.0, -24045.738464085873, -23963.282878790247, -54094.08260513337, -55129.54951876993, -22829.155365127965, -38076.08492089331, -52117.67430516175, -34337.107460153995, -13767.892273413216, -57291.36553899832, -56389.20442929321, -66263.17694940293, -52628.99281132136, -48524.720790948966, -48531.09103811873, -49442.8186944507, 0.11296875, 0.94875, 0.1173125, 192.0, 0.0, 0.0, 0.0, 0.0, 0.0, 0.0, 0.0, 0.0, 0.0, 1.6581654944659257E9, 0.0, 2022-07-18 13:31:34.465
126.0, -24072.91818534353, -23876.11107541455, -54158.00859427555, -55183.573685118405, -22884.095952999112, -38109.81370327636, -52182.33790187096, -34389.00821077922, -13766.39470653471, -57308.330513039895, -56397.340464274945, -66276.43153386492, -52637.28530851428, -48529.61582298468, -48539.048259144816, -49441.298775827745, 0.11296875, 0.94875, 0.1173125, 192.0, 0.0, 0.0, 0.0, 0.0, 0.0, 0.0, 0.0, 0.0, 0.0, 1.658165494465956E9, 0.0, 2022-07-18 13:31:34.465
128.0, -24052.175766489003, -23971.038934116237, -54103.38093082678, -55130.13066412576, -22837.447862320885, -38089.9430024556, -52128.69371517822, -34376.64769609543, -13781.1021543863, -57308.777547929, -56404.44831901173, -66287.6968130704, -52643.2755760283, -48540.098791134216, -48551.25231161741, -49448.02665090879, 0.11296875, 0.94875, 0.1173125, 192.0, 0.0, 0.0, 0.0, 0.0, 0.0, 0.0, 0.0, 0.0, 0.0, 1.658165494465976E9, 0.0, 2022-07-18 13:31:34.465
130.0, -24060.848243337663, -23871.908947456952, -54163.23890247809, -55177.717528071116, -22884.408877421487, -38121.81659004886, -52175.05123317853, -34372.15499545992, -13769.591005991819, -57304.39660601576, -56390.567885704986, -66279.0913914551, -52637.195901536455, -48532.87917767515, -48539.98703241194, -49436.44844728094, 0.10400000000000001, 0.9500000000000001, 0.108, 192.0, 1.5, 32.0, 14.5, 88.0, 1.5, 48.0, 0.0, 0.0, 0.0, 1.6581654944660091E9, 0.0, 2022-07-18 13:31:34.466
132.0, -24027.387681888067, -23944.507413447787, -54106.957209939625, -55123.1122163668, -22845.673304280437, -38093.139301912706, -52132.85113964691, -34366.94703900183, -13773.055526382392, -57302.943742626165, -56395.954656118716, -66279.47137111085, -52651.18809356548, -48545.79848597032, -48563.25519838992, -49452.65346201104, 0.10400000000000001, 0.9500000000000001, 0.108, 192.0, 0.0, 0.0, 0.0, 0.0, 0.0, 0.0, 0.0, 0.0, 0.0, 1.6581654944660451E9, 0.0, 2022-07-18 13:31:34.466
134.0, -24056.310839213234, -23858.564956017133, -54163.4847716671, -55172.375461146294, -22891.96376704738, -38118.55323535839, -52181.55559081502, -34396.183120749374, -13759.957404131581, -57273.28297773397, -56373.26763549657, -66250.3917515745, -52636.3241835027, -48514.23782279943, -48541.283433590346, -49433.83329317967, 0.10400000000000001, 0.9500000000000001, 0.108, 192.0, 0.0, 0.0, 0.0, 0.0, 0.0, 0.0, 0.0, 0.0, 0.0, 1.6581654944660575E9, 0.0, 2022-07-18 13:31:34.466
136.0, -24010.4674113354, -23919.942846291407, -54086.684177718664, -55107.26482954798, -22831.010559917755, -38074.36383657024, -52117.003752828095, -34348.39509110393, -13772.519084515463, -57294.763004155524, -56392.42308049477, -66268.7425337723, -52665.649672228064, -48533.996764897915, -48560.99767219993, -49460.230703381385, 0.10400000000000001, 0.9500000000000001, 0.108, 192.0, 0.0, 0.0, 0.0, 0.0, 0.0, 0.0, 0.0, 0.0, 0.0, 1.658165494466064E9, 0.0, 2022-07-18 13:31:34.466
138.0, -24036.842469792664, -23849.06546462363, -54123.92218398121, -55140.70303925312, -22853.76463577326, -38076.621362760234, -52153.280634079056, -34338.06858516557, -13742.67950566763, -57239.24127092854, -56347.272556695054, -66223.30143729466, -52611.17847099048, -48484.88998232961, -48502.68197091603, -49404.373693987574, 0.10400000000000001, 0.9500000000000001, 0.108, 192.0, 0.0, 0.0, 0.0, 0.0, 0.0, 0.0, 0.0, 0.0, 0.0, 1.658165494466071E9, 0.0, 2022-07-18 13:31:34.466
140.0, -24027.09710921015, -23914.265503199756, -54085.23131432907, -55108.67298944867, -22818.56063825615, -38056.61655147273, -52102.13984276532, -34314.26397732067, -13774.687203727628, -57284.14592553925, -56383.4600309682, -66257.74547550028, -52651.29985228775, -48519.64694495761, -48525.74897119391, -49431.68752571196, 0.10400000000000001, 0.9480000000000001, 0.116, 192.0, 1.5, 32.0, 14.5, 80.0, 1.5, 80.0, 0.0, 0.0, 0.0, 1.6581654944660778E9, 0.0, 2022-07-18 13:31:34.466
142.0, -24041.08930123917, -23861.940069429886, -54125.03977120397, -55143.40760033222, -22844.890993224504, -38068.306513822856, -52125.83269188794, -34347.255152136706, -13742.344229500799, -57240.73883780705, -56342.33282117043, -66221.02155936022, -52601.07548249668, -48478.9444183045, -48476.99981653688, -49381.26199022079, 0.10400000000000001, 0.9480000000000001, 0.116, 192.0, 0.0, 0.0, 0.0, 0.0, 0.0, 0.0, 0.0, 0.0, 0.0, 1.6581654944660852E9, 0.0, 2022-07-18 13:31:34.466
144.0, -24039.479975638387, -23914.690186344407, -54105.75021573904, -55121.68170472166, -22835.749129742282, -38063.34442655378, -52102.27395323205, -34321.39418380192, -13787.762974233983, -57311.01272237453, -56404.82829866747, -66285.81926653616, -52667.63897748459, -48540.32230857877, -48540.232901600946, -49447.19963636394, 0.10400000000000001, 0.9480000000000001, 0.116, 192.0, 0.0, 0.0, 0.0, 0.0, 0.0, 0.0, 0.0, 0.0, 0.0, 1.6581654944660914E9, 0.0, 2022-07-18 13:31:34.466
146.0, -24032.79680404625, -23868.5338340442, -54120.90469847974, -55129.4154083032, -22848.84725199309, -38053.75552818245, -52130.638316945835, -34315.292157565615, -13735.772816630939, -57228.11010218979, -56334.085027466426, -66212.2820272782, -52601.3660551746, -48459.81132505075, -48474.943456046996, -49363.60411210109, 0.10400000000000001, 0.9480000000000001, 0.116, 192.0, 0.0, 0.0, 0.0, 0.0, 0.0, 0.0, 0.0, 0.0, 0.0, 1.6581654944660969E9, 0.0, 2022-07-18 13:31:34.466
148.0, -24043.793862318264, -23913.930227032928, -54125.1738816707, -55143.38524858776, -22862.86179576657, -38095.01684844695, -52140.67425020626, -34382.52620488718, -13790.735756246539, -57310.25276306305, -56406.52703124607, -66286.35570840308, -52689.25311437287, -48542.62453825767, -48566.22798040247, -49458.10728765813, 0.10400000000000001, 0.9480000000000001, 0.116, 192.0, 0.0, 0.0, 0.0, 0.0, 0.0, 0.0, 0.0, 0.0, 0.0, 1.6581654944661036E9, 0.0, 2022-07-18 13:31:34.466
150.0, -24050.18646123248, -23900.49682861529, -54125.86678574882, -55141.8653299648, -22855.105740440576, -38090.14416815569, -52137.835578660444, -34371.640905337445, -13752.760142416972, -57251.95941352361, -56354.51452189857, -66232.44330077688, -52628.83634911017, -48496.35642723518, -48509.00751459689, -49409.78281614576, 0.112, 0.9520000000000001, 0.116, 192.0, 1.5, 64.0, 14.5, 96.0, 1.5, 80.0, 0.0, 0.0, 0.0, 1.6581654944661093E9, 0.0, 2022-07-18 13:31:34.466
152.0, -24053.606278134142, -23903.91664551695, -54137.08736146538, -55151.38717310276, -22871.46721738186, -38102.43762760611, -52158.04155564804, -34354.67593129587, -13793.77559349246, -57316.24303057707, -56411.19854583724, -66286.10983921407, -52684.49219280389, -48559.05307043232, -48569.55839032631, -49468.9255319745, 0.112, 0.9520000000000001, 0.116, 192.0, 0.0, 0.0, 0.0, 0.0, 0.0, 0.0, 0.0, 0.0, 0.0, 1.6581654944661148E9, 0.0, 2022-07-18 13:31:34.466
154.0, -24031.008664489826, -23902.553189105176, -54105.81727097241, -55120.54176575444, -22830.429414561917, -38069.9381911681, -52110.499395191604, -34358.87805925346, -13757.833988408327, -57254.216939713595, -56356.1014957549, -66228.66585596393, -52619.40391295003, -48500.20092728149, -48506.90645061809, -49403.457272464904, 0.112, 0.9520000000000001, 0.116, 192.0, 0.0, 0.0, 0.0, 0.0, 0.0, 0.0, 0.0, 0.0, 0.0, 1.6581654944661202E9, 0.0, 2022-07-18 13:31:34.466
156.0, -24067.643173652075, -23903.53666586121, -54145.87159703632, -55155.902225482736, -22874.864682539068, -38100.58243281632, -52156.90161668082, -34369.22691693627, -13785.483096299542, -57311.43740551918, -56404.35891203391, -66282.93589150142, -52672.04227114228, -48545.329099336755, -48551.632291273156, -49452.87697945559, 0.112, 0.9520000000000001, 0.116, 192.0, 0.0, 0.0, 0.0, 0.0, 0.0, 0.0, 0.0, 0.0, 0.0, 1.6581654944661255E9, 0.0, 2022-07-18 13:31:34.466
158.0, -24046.52077514181, -23932.97391330885, -54104.27500060499, -55124.498024523025, -22840.28653386671, -38068.0829963783, -52133.94637512522, -34346.8081172476, -13766.841741423816, -57264.54344565194, -56366.226835993155, -66246.68136199491, -52631.16093053352, -48499.12804354764, -48512.18146230954, -49400.48449045235, 0.112, 0.9520000000000001, 0.116, 192.0, 0.0, 0.0, 0.0, 0.0, 0.0, 0.0, 0.0, 0.0, 0.0, 1.6581654944661312E9, 0.0, 2022-07-18 13:31:34.466
160.0, -24050.6781996105, -23873.831197480107, -54122.73754152507, -55146.179216644676, -22851.596516561094, -38081.7399122405, -52134.326354780955, -34332.81592521857, -13794.088517914835, -57323.149719613764, -56405.63296146786, -66292.68125208393, -52675.439736299486, -48543.8091807138, -48552.05697441781, -49451.82644746619, 0.11800000000000001, 0.9500000000000001, 0.114, 192.0, 1.5, 88.0, 14.5, 88.0, 1.5, 72.0, 0.0, 0.0, 0.0, 1.658165494466137E9, 0.0, 2022-07-18 13:31:34.466
162.0, -24032.12625171259, -23925.195506238404, -54084.91838990669, -55113.27744880646, -22815.409042287953, -38055.40955727215, -52099.56939215295, -34321.90827392438, -13745.562880702362, -57247.46671288809, -56344.72445782715, -66225.62601871802, -52603.55652613122, -48485.47112768544, -48492.15429927759, -49387.92281006847, 0.11800000000000001, 0.9500000000000001, 0.114, 192.0, 0.0, 0.0, 0.0, 0.0, 0.0, 0.0, 0.0, 0.0, 0.0, 1.6581654944661424E9, 0.0, 2022-07-18 13:31:34.466
164.0, -24055.215603734923, -23866.90215669896, -54144.88812028028, -55165.69228955416, -22874.551758116693, -38103.6446218067, -52172.726651755176, -34387.13066424497, -13778.129372373745, -57302.4743559926, -56394.50179272912, -66276.31977514265, -52659.72645994741, -48534.98024165395, -48550.67116626158, -49454.06162191172, 0.11800000000000001, 0.9500000000000001, 0.114, 192.0, 0.0, 0.0, 0.0, 0.0, 0.0, 0.0, 0.0, 0.0, 0.0, 1.658165494466148E9, 0.0, 2022-07-18 13:31:34.466
166.0, -24035.99310350336, -23944.529765192245, -54103.42563431569, -55121.92757391067, -22838.878373966025, -38073.335656325304, -52126.145616310314, -34349.78089926016, -13770.038040880925, -57260.766000839, -56370.29485348402, -66246.0331614057, -52633.26199451232, -48500.42444472605, -48533.169750353074, -49422.99269711885, 0.11800000000000001, 0.9500000000000001, 0.114, 192.0, 0.0, 0.0, 0.0, 0.0, 0.0, 0.0, 0.0, 0.0, 0.0, 1.6581654944661553E9, 0.0, 2022-07-18 13:31:34.466
168.0, -24070.347734731167, -23876.82633123712, -54158.545036142474, -55178.09750772685, -22899.943339817924, -38130.109087241784, -52190.22806766368, -34392.42802768088, -13781.124506130756, -57304.46366124912, -56397.8098509085, -66280.76777228925, -52671.55053276426, -48538.22124459997, -48570.34070138225, -49462.53293306028, 0.11800000000000001, 0.9500000000000001, 0.114, 192.0, 0.0, 0.0, 0.0, 0.0, 0.0, 0.0, 0.0, 0.0, 0.0, 1.6581654944661613E9, 0.0, 2022-07-18 13:31:34.466
170.0, -24035.344902914156, -23954.141015308025, -54092.13800336576, -55111.1093295943, -22850.747150271793, -38078.40950231666, -52146.61981423138, -34358.60983832, -13775.380107805742, -57275.473448690595, -56373.088821540936, -66250.6376207635, -52651.389259265576, -48514.17076756606, -48552.34754709573, -49437.20840659242, 0.116, 0.9500000000000001, 0.116, 192.0, 1.5, 80.0, 14.5, 88.0, 1.5, 80.0, 0.0, 0.0, 0.0, 1.6581654944661667E9, 0.0, 2022-07-18 13:31:34.466
172.0, -24064.692743383974, -23869.76317998924, -54153.27002445103, -55171.07905996789, -22894.422458937464, -38111.31127015487, -52188.75285252963, -34412.29872850165, -13778.10702062929, -57298.13811756827, -56387.52804845906, -66267.17791166043, -52660.397012281064, -48524.89960490461, -48559.455401832514, -49447.28904334176, 0.116, 0.9500000000000001, 0.116, 192.0, 0.0, 0.0, 0.0, 0.0, 0.0, 0.0, 0.0, 0.0, 0.0, 1.6581654944661725E9, 0.0, 2022-07-18 13:31:34.466
174.0, -24038.250629693346, -23956.845576387117, -54074.547180479436, -55108.85180340431, -22822.18162085791, -38067.90418242266, -52102.6986363767, -34341.62251253397, -13780.319843330366, -57291.678463420685, -56389.31618801549, -66269.27897563923, -52647.85768364164, -48525.01136362689, -48535.203759098506, -49431.79928443424, 0.116, 0.9500000000000001, 0.116, 192.0, 0.0, 0.0, 0.0, 0.0, 0.0, 0.0, 0.0, 0.0, 0.0, 1.6581654944661787E9, 0.0, 2022-07-18 13:31:34.466
176.0, -24062.904603827552, -23864.801092720165, -54138.96490799963, -55168.86623726681, -22866.438074879417, -38104.53869158491, -52148.76558169909, -34375.28423968366, -13771.24503508151, -57288.258646519025, -56379.526123944066, -66264.85333023708, -52632.434979967475, -48518.03761935683, -48509.63336344163, -49416.041304593244, 0.116, 0.9500000000000001, 0.116, 192.0, 0.0, 0.0, 0.0, 0.0, 0.0, 0.0, 0.0, 0.0, 0.0, 1.658165494466186E9, 0.0, 2022-07-18 13:31:34.466
178.0, -24026.13598419857, -23940.394692468013, -54069.69685193263, -55099.15114631071, -22804.27787354921, -38063.47853702051, -52097.93771480772, -34321.08125937954, -13793.127392903256, -57294.80770764443, -56396.40169100782, -66276.27507165374, -52654.85377965615, -48528.766456695375, -48533.862654431185, -49431.508711756316, 0.116, 0.9500000000000001, 0.116, 192.0, 0.0, 0.0, 0.0, 0.0, 0.0, 0.0, 0.0, 0.0, 0.0, 1.6581654944661937E9, 0.0, 2022-07-18 13:31:34.466
180.0, -24028.929952255483, -23835.922638883905, -54115.85320423284, -55132.8128734604, -22849.85308049358, -38078.990647672494, -52141.92594789576, -34328.367928071966, -13751.866072638759, -57254.060477502404, -56348.30073694, -66228.41998677493, -52614.64299138105, -48479.43615668251, -48498.05515981378, -49384.458289677896, 0.112, 0.9540000000000001, 0.11, 192.0, 1.5, 64.0, 14.5, 104.0, 1.5, 56.0, 0.0, 0.0, 0.0, 1.6581654944662004E9, 0.0, 2022-07-18 13:31:34.466
182.0, -24020.61510331811, -23931.16342200797, -54062.96897685158, -55092.691492163125, -22814.604379487562, -38058.33763579579, -52087.96883678065, -34332.99473917422, -13778.039965395925, -57276.725146380086, -56373.02176630757, -66251.73285624181, -52650.830465654195, -48504.783034894834, -48530.08520961824, -49412.66619118049, 0.112, 0.9540000000000001, 0.11, 192.0, 0.0, 0.0, 0.0, 0.0, 0.0, 0.0, 0.0, 0.0, 0.0, 1.6581654944662066E9, 0.0, 2022-07-18 13:31:34.466
184.0, -24053.71803685642, -23862.454159552355, -54116.74727401105, -55150.87308298029, -22862.90649925548, -38093.20635714607, -52151.64895673382, -34383.95671653232, -13758.035154108424, -57257.770867081985, -56347.96546077317, -66231.66098972094, -52620.38738970606, -48484.15237476258, -48502.59256393821, -49392.0578827927, 0.112, 0.9540000000000001, 0.11, 192.0, 0.0, 0.0, 0.0, 0.0, 0.0, 0.0, 0.0, 0.0, 0.0, 1.6581654944662132E9, 0.0, 2022-07-18 13:31:34.466
186.0, -24022.157373685524, -23925.86605857206, -54052.95539533561, -55094.256114275, -22810.536361996696, -38057.57767648431, -52109.31475273547, -34327.6526722494, -13782.666776498172, -57299.27805653549, -56386.90219961431, -66270.08363843961, -52652.149218577055, -48531.67218347457, -48541.909282435096, -49432.15691234552, 0.112, 0.9540000000000001, 0.11, 192.0, 0.0, 0.0, 0.0, 0.0, 0.0, 0.0, 0.0, 0.0, 0.0, 1.6581654944662192E9, 0.0, 2022-07-18 13:31:34.466
188.0, -24031.500402867845, -23847.076159367105, -54088.24879983054, -55120.87704192127, -22825.489679037295, -38066.853650433266, -52128.13492156684, -34336.72748049825, -13730.00606656147, -57232.42398886967, -56325.47960585113, -66208.30341676515, -52587.08329046766, -48464.81811580874, -48467.20975246546, -49360.72073706636, 0.112, 0.9540000000000001, 0.11, 192.0, 0.0, 0.0, 0.0, 0.0, 0.0, 0.0, 0.0, 0.0, 0.0, 1.6581654944662263E9, 0.0, 2022-07-18 13:31:34.466
190.0, -24036.70835932593, -23924.860230071572, -54087.06415737441, -55115.49027150754, -22833.983341930314, -38082.16459538515, -52115.72970339414, -34372.66908558239, -13792.38978533623, -57299.61333270232, -56398.83803115345, -66274.33046988613, -52657.401878524055, -48530.375782296156, -48541.99868941292, -49442.483418283875, 0.116, 0.9520000000000001, 0.116, 192.0, 1.5, 80.0, 14.5, 96.0, 1.5, 80.0, 0.0, 0.0, 0.0, 1.6581654944662335E9, 0.0, 2022-07-18 13:31:34.466
192.0, -24056.66846712452, -23876.78162774821, -54123.00576245854, -55141.127722397774, -22860.023124220745, -38095.93326996962, -52148.98909914364, -34378.480539140764, -13756.738752930016, -57245.14213146474, -56354.067487009466, -66226.14010884048, -52610.19499423444, -48477.98329329292, -48500.6479621706, -49392.0578827927, 0.116, 0.9520000000000001, 0.116, 192.0, 0.0, 0.0, 0.0, 0.0, 0.0, 0.0, 0.0, 0.0, 0.0, 1.658165494466241E9, 0.0, 2022-07-18 13:31:34.466
194.0, -24035.568420358708, -23906.062412984662, -54094.35082606683, -55116.92078315268, -22843.52753681273, -38096.93909847011, -52143.155293840806, -34368.44460588034, -13797.508334816497, -57308.19640257316, -56405.05181611202, -66281.30421415617, -52677.85372470066, -48539.115314378185, -48566.13857342465, -49457.25792136883, 0.116, 0.9520000000000001, 0.116, 192.0, 0.0, 0.0, 0.0, 0.0, 0.0, 0.0, 0.0, 0.0, 0.0, 1.6581654944662476E9, 0.0, 2022-07-18 13:31:34.466
196.0, -24045.51494664132, -23885.543511574688, -54103.22446861559, -55127.47080653558, -22842.633467034517, -38099.755418271474, -52131.42062800177, -34369.80806229211, -13748.043924336902, -57241.94583200763, -56338.1977484462, -66218.92049538142, -52613.704218113926, -48481.20194449448, -48494.3447702342, -49384.033606533245, 0.116, 0.9520000000000001, 0.116, 192.0, 0.0, 0.0, 0.0, 0.0, 0.0, 0.0, 0.0, 0.0, 0.0, 1.6581654944662545E9, 0.0, 2022-07-18 13:31:34.466
198.0, -24051.304048455248, -23906.621206596043, -54087.17591609668, -55124.11804486729, -22843.438129834907, -38107.77969453093, -52132.64997394681, -34382.70501884282, -13799.005901695002, -57318.90288816725, -56400.40265326532, -66286.42276363645, -52681.8323352137, -48553.06280291829, -48550.20177962801, -49450.61945326561, 0.116, 0.9520000000000001, 0.116, 192.0, 0.0, 0.0, 0.0, 0.0, 0.0, 0.0, 0.0, 0.0, 0.0, 1.658165494466267E9, 0.0, 2022-07-18 13:31:34.466
200.0, -24046.409016419533, -23899.379241392522, -54072.26730254499, -55113.724483695565, -22829.535344783708, -38082.74574074099, -52125.676229676756, -34351.32316962757, -13756.291718040911, -57246.61734659879, -56341.751675814594, -66227.23534431879, -52610.39615993454, -48488.89094458711, -48488.35450272018, -49382.49133616583, 0.11, 0.9500000000000001, 0.116, 192.0, 1.5, 56.0, 14.5, 88.0, 1.5, 80.0, 0.0, 0.0, 0.0, 1.6581654944662733E9, 0.0, 2022-07-18 13:31:34.466
202.0, -24053.226298478403, -23888.762162776253, -54093.836735944366, -55124.96741115659, -22847.37203685904, -38099.82247350484, -52133.38758151384, -34381.006286264215, -13798.000073194513, -57307.16822232822, -56399.150955575824, -66279.00198447729, -52658.720631446915, -48535.6060904987, -48533.21445384198, -49436.537854258764, 0.11, 0.9500000000000001, 0.116, 192.0, 0.0, 0.0, 0.0, 0.0, 0.0, 0.0, 0.0, 0.0, 0.0, 1.658165494466279E9, 0.0, 2022-07-18 13:31:34.466
204.0, -24058.367199703123, -23921.105137003084, -54096.474241790085, -55118.127777353264, -22844.0416269352, -38092.24523213449, -52131.84531114642, -34364.19777443383, -13777.548227017907, -57248.47254138858, -56367.07620228246, -66237.47244327933, -52622.309639729225, -48490.29910448779, -48506.3476570067, -49394.27070549378, 0.11, 0.9500000000000001, 0.116, 192.0, 0.0, 0.0, 0.0, 0.0, 0.0, 0.0, 0.0, 0.0, 0.0, 1.6581654944662848E9, 0.0, 2022-07-18 13:31:34.466
206.0, -24058.05427528075, -23880.089685927593, -54117.775454256, -55140.926556697676, -22864.694638811903, -38113.948776000594, -52160.45554404921, -34388.65058286793, -13795.966064449081, -57309.00106537355, -56409.276295814074, -66286.46746712536, -52675.90912293305, -48545.21734061448, -48552.6604715181, -49451.24530211036, 0.11, 0.9500000000000001, 0.116, 192.0, 0.0, 0.0, 0.0, 0.0, 0.0, 0.0, 0.0, 0.0, 0.0, 1.6581654944662905E9, 0.0, 2022-07-18 13:31:34.466
208.0, -24033.735577313375, -23909.750450819785, -54084.98544514006, -55103.308570779394, -22831.926981440425, -38077.51543253844, -52136.82975015995, -34371.55149835962, -13748.312145270365, -57249.03133499996, -56351.966423030666, -66230.20812633134, -52618.420436194, -48494.21065976747, -48499.53037494783, -49393.22017350438, 0.11, 0.9500000000000001, 0.116, 192.0, 0.0, 0.0, 0.0, 0.0, 0.0, 0.0, 0.0, 0.0, 0.0, 1.658165494466297E9, 0.0, 2022-07-18 13:31:34.466
210.0, -24029.868725522607, -23843.209307576337, -54122.84930024735, -55133.81870196089, -22860.917193998957, -38104.85161600728, -52159.94145392674, -34386.37070493349, -13769.456895525087, -57296.12646056729, -56386.991606592135, -66266.08267618212, -52662.40866928204, -48529.16878809557, -48540.70228823451, -49440.53881651626, 0.113, 0.9530000000000001, 0.112, 192.0, 1.5, 80.0, 14.5, 112.0, 1.5, 48.0, 0.0, 0.0, 0.0, 1.658165494466304E9, 0.0, 2022-07-18 13:31:34.466
212.0, -24014.803649759728, -23905.235398439814, -54083.73374745056, -55098.32413176586, -22806.915379394937, -38071.77103421343, -52106.163156767274, -34338.001529932204, -13743.215947534556, -57235.53088134896, -56346.04321075002, -66215.61243720203, -52613.41364543601, -48480.93372356102, -48495.17178477905, -49388.369844957575, 0.113, 0.9530000000000001, 0.112, 192.0, 0.0, 0.0, 0.0, 0.0, 0.0, 0.0, 0.0, 0.0, 0.0, 1.6581654944663115E9, 0.0, 2022-07-18 13:31:34.466
214.0, -24059.864766581628, -23852.664095480934, -54155.88517855229, -55166.161676187716, -22873.188301704922, -38135.49585765551, -52178.940436713754, -34412.96928083531, -13778.755221218495, -57294.09245182186, -56397.407519508306, -66266.99909770479, -52665.06852687222, -48531.73923870793, -48543.11627663569, -49452.85462771114, 0.113, 0.9530000000000001, 0.112, 192.0, 0.0, 0.0, 0.0, 0.0, 0.0, 0.0, 0.0, 0.0, 0.0, 1.658165494466319E9, 0.0, 2022-07-18 13:31:34.466
216.0, -24033.04267323526, -23926.469555672356, -54096.56364876791, -55109.455300504604, -22826.22728660432, -38087.752531498976, -52135.041610603526, -34347.90335272591, -13780.945692175113, -57260.296614205436, -56380.73311814465, -66237.51714676824, -52643.32027951721, -48507.12996806264, -48524.6537357156, -49428.24535706584, 0.113, 0.9530000000000001, 0.112, 192.0, 0.0, 0.0, 0.0, 0.0, 0.0, 0.0, 0.0, 0.0, 0.0, 1.658165494466328E9, 0.0, 2022-07-18 13:31:34.466
218.0, -24060.557670659742, -23837.19668831786, -54137.176768443205, -55149.464923079606, -22877.0998569846, -38113.613499833766, -52176.928779712776, -34384.31434444361, -13775.737735717028, -57287.81161162992, -56391.171382805274, -66255.44324582139, -52658.85474191365, -48519.669296702064, -48535.047296887315, -49439.30947057122, 0.113, 0.9530000000000001, 0.112, 192.0, 0.0, 0.0, 0.0, 0.0, 0.0, 0.0, 0.0, 0.0, 0.0, 1.6581654944663355E9, 0.0, 2022-07-18 13:31:34.466
220.0, -24037.89300178206, -23918.132354990525, -54073.38488976776, -55098.279428276954, -22825.22145810383, -38074.98968541499, -52123.150482553305, -34379.70988508581, -13775.53657001693, -57266.443343930645, -56380.7554698891, -66243.12743462651, -52640.056924826735, -48507.3981889961, -48519.73635193543, -49424.512615741805, 0.1105, 0.9535, 0.112, 192.0, 1.5, 48.0, 14.5, 104.0, 1.5, 64.0, 0.0, 0.0, 0.0, 1.6581654944663427E9, 0.0, 2022-07-18 13:31:34.466
222.0, -24055.729693857396, -23808.47469669279, -54130.98533522908, -55145.754533500025, -22874.663516838973, -38095.843862991795, -52159.561474271, -34350.78672776064, -13770.865055425771, -57275.78637311296, -56381.71659490068, -66246.72606548382, -52650.15991332054, -48513.41080825458, -48514.17076756606, -49425.898423898034, 0.1105, 0.9535, 0.112, 192.0, 0.0, 0.0, 0.0, 0.0, 0.0, 0.0, 0.0, 0.0, 0.0, 1.6581654944663503E9, 0.0, 2022-07-18 13:31:34.466
224.0, -24026.538315598766, -23888.91862498744, -54077.09527934734, -55093.49615496352, -22830.85409770657, -38060.86338291924, -52125.0056773431, -34303.78100917113, -13769.456895525087, -57265.37046019679, -56375.659272153294, -66237.8300711906, -52647.36594526362, -48504.783034894834, -48516.383590267134, -49408.0617318227, 0.1105, 0.9535, 0.112, 192.0, 0.0, 0.0, 0.0, 0.0, 0.0, 0.0, 0.0, 0.0, 0.0, 1.6581654944663577E9, 0.0, 2022-07-18 13:31:34.466
226.0, -24033.17678370199, -23772.60014684202, -54128.66075380573, -55139.83132121937, -22855.128092185034, -38077.00134241597, -52145.27870956406, -34337.398032831916, -13744.087665568313, -57258.73199209357, -56350.62531836335, -66220.70863493784, -52623.11430252961, -48485.96286606346, -48496.445834213, -49391.029702547756, 0.1105, 0.9535, 0.112, 192.0, 0.0, 0.0, 0.0, 0.0, 0.0, 0.0, 0.0, 0.0, 0.0, 1.658165494466365E9, 0.0, 2022-07-18 13:31:34.466
228.0, -24014.066042192706, -23870.076104411615, -54078.302273547924, -55098.88292537724, -22806.915379394937, -38046.67002519012, -52085.621903612846, -34318.75667795619, -13764.271290811455, -57268.09737302034, -56365.735097615136, -66232.30919031014, -52636.3241835027, -48495.66352315707, -48514.729561177446, -49404.2619352653, 0.1105, 0.9535, 0.112, 192.0, 0.0, 0.0, 0.0, 0.0, 0.0, 0.0, 0.0, 0.0, 0.0, 1.6581654944663727E9, 0.0, 2022-07-18 13:31:34.466
230.0, -24060.021228792815, -23806.194818758348, -54143.99405050207, -55172.88955126877, -22868.405028391484, -38091.75349375648, -52164.545913284535, -34354.586524318045, -13738.76795038795, -57264.45403867413, -56351.38527767483, -66227.10123385207, -52612.877203569085, -48484.97938930743, -48498.435139469526, -49397.77992937326, 0.10825, 0.9497500000000001, 0.115, 192.0, 1.5, 40.0, 14.5, 72.0, 1.5, 88.0, 0.0, 0.0, 0.0, 1.6581654944663851E9, 0.0, 2022-07-18 13:31:34.466
232.0, -24034.450833135943, -23885.096476685583, -54088.76288995301, -55133.90810893871, -22832.66458900745, -38081.516394795945, -52132.4041047578, -34352.79838476162, -13786.310110844388, -57311.526812497, -56403.50954574461, -66279.8960542555, -52661.62635822611, -48545.329099336755, -48553.17456164057, -49463.91874121651, 0.10825, 0.9497500000000001, 0.115, 192.0, 0.0, 0.0, 0.0, 0.0, 0.0, 0.0, 0.0, 0.0, 0.0, 1.6581654944663923E9, 0.0, 2022-07-18 13:31:34.466
234.0, -24056.221432235412, -23805.300748980135, -54139.43429463319, -55174.81180129192, -22869.343801658608, -38099.50954908247, -52171.49730581013, -34349.71384402679, -13741.24899402249, -57247.511416377005, -56343.96449851567, -66219.38988201498, -52605.32231394319, -48487.728653875434, -48490.72378763244, -49411.928583613466, 0.10825, 0.9497500000000001, 0.115, 192.0, 0.0, 0.0, 0.0, 0.0, 0.0, 0.0, 0.0, 0.0, 0.0, 1.6581654944663997E9, 0.0, 2022-07-18 13:31:34.466
236.0, -24039.18940296047, -23876.736924259298, -54109.88528846327, -55138.15494038522, -22849.115472926555, -38090.054761177875, -52134.72868618115, -34346.85282073651, -13785.684261999639, -57301.49087923657, -56398.458051497706, -66270.37421111754, -52664.42032628302, -48536.41075329909, -48556.01323318639, -49466.19861915096, 0.10825, 0.9497500000000001, 0.115, 192.0, 0.0, 0.0, 0.0, 0.0, 0.0, 0.0, 0.0, 0.0, 0.0, 1.6581654944664068E9, 0.0, 2022-07-18 13:31:34.466
238.0, -24036.306027925733, -23803.534961168167, -54135.16511144223, -55151.81185624741, -22858.436150364418, -38090.36768560025, -52150.39725904432, -34366.85763202401, -13743.86414812376, -57244.53863436445, -56346.780818317035, -66221.66975994942, -52617.481662926875, -48485.33701721871, -48507.42054074056, -49411.88388012456, 0.10825, 0.9497500000000001, 0.115, 192.0, 0.0, 0.0, 0.0, 0.0, 0.0, 0.0, 0.0, 0.0, 0.0, 1.6581654944664145E9, 0.0, 2022-07-18 13:31:34.466
240.0, -24040.23993494987, -23871.976002690317, -54111.74048325307, -55128.63309724726, -22856.08921719661, -38090.814720489354, -52129.587784956435, -34341.64486427842, -13777.01178515098, -57296.39468150076, -56393.138336317345, -66266.93204247142, -52671.4834775309, -48535.404924798604, -48559.67891927707, -49455.894464957055, 0.110125, 0.949875, 0.1175, 192.0, 1.5, 64.0, 14.5, 88.0, 1.5, 96.0, 0.0, 0.0, 0.0, 1.6581654949459891E9, 0.0, 2022-07-18 13:31:34.945
242.0, -24053.494519411866, -23841.532926742188, -54128.10196019435, -55140.926556697676, -22861.788912032716, -38078.945944183586, -52162.288387094544, -34348.305684126106, -13732.174185773634, -57237.721352305576, -56343.00337350409, -66213.7795941567, -52605.63523836556, -48479.92789506053, -48497.83164236923, -49379.78677508674, 0.110125, 0.949875, 0.1175, 192.0, 0.0, 0.0, 0.0, 0.0, 0.0, 0.0, 0.0, 0.0, 0.0, 1.658165494946108E9, 0.0, 2022-07-18 13:31:34.946
244.0, -24062.99401080537, -23886.839912753097, -54117.12725366679, -55134.73512348356, -22853.630525306526, -38084.64563901969, -52123.709276164685, -34342.31541661208, -13794.468497570575, -57318.254687578046, -56412.00320863762, -66283.76290604626, -52674.165686865534, -48544.077401647264, -48560.68474777755, -49444.38331656258, 0.110125, 0.949875, 0.1175, 192.0, 0.0, 0.0, 0.0, 0.0, 0.0, 0.0, 0.0, 0.0, 0.0, 1.658165494946114E9, 0.0, 2022-07-18 13:31:34.946
246.0, -24042.13983322857, -23853.938144914886, -54103.336227337866, -55122.24049833304, -22833.558658785663, -38058.35998754024, -52107.280743990035, -34322.1988466023, -13747.283965025421, -57253.83696005785, -56349.306565440485, -66226.56479198513, -52613.86068032512, -48481.6936828725, -48492.131947533126, -49377.66335936348, 0.110125, 0.949875, 0.1175, 192.0, 0.0, 0.0, 0.0, 0.0, 0.0, 0.0, 0.0, 0.0, 0.0, 1.6581654949461203E9, 0.0, 2022-07-18 13:31:34.946
248.0, -24045.067911752216, -23855.323953071114, -54103.09035814886, -55127.44845479113, -22839.124243155034, -38078.498909294474, -52114.187433026724, -34338.33680609904, -13767.691107713117, -57294.539486710964, -56382.4094989788, -66259.80183599018, -52650.897520887556, -48519.71400019098, -48530.733410207446, -49429.16177858851, 0.110125, 0.949875, 0.1175, 192.0, 0.0, 0.0, 0.0, 0.0, 0.0, 0.0, 0.0, 0.0, 0.0, 1.6581654949461272E9, 0.0, 2022-07-18 13:31:34.946
250.0, -24063.709266627942, -23891.310261644157, -54123.63161130329, -55152.52711206998, -22861.230118421332, -38093.67574377963, -52156.298119580526, -34367.37172214648, -13740.377275988732, -57244.44922738663, -56345.50676888308, -66220.7309866823, -52603.04243600875, -48480.71020611646, -48490.3438079767, -49394.91890608298, 0.11206250000000001, 0.9499375000000001, 0.11674999999999999, 192.0, 1.5, 72.0, 14.5, 88.0, 1.5, 80.0, 0.0, 0.0, 0.0, 1.6581654949461348E9, 0.0, 2022-07-18 13:31:34.946
252.0, -24075.935670844996, -23880.022630694228, -54137.98143124359, -55166.87693201029, -22873.121246471554, -38101.70002003908, -52154.08529687945, -34372.065588482095, -13802.381015107754, -57329.8328912059, -56428.05176115654, -66302.6948335999, -52682.18996312499, -48562.7634600119, -48573.08996595025, -49478.51443034583, 0.11206250000000001, 0.9499375000000001, 0.11674999999999999, 192.0, 0.0, 0.0, 0.0, 0.0, 0.0, 0.0, 0.0, 0.0, 0.0, 1.658165494946142E9, 0.0, 2022-07-18 13:31:34.946
254.0, -24067.71022888544, -23913.751413077287, -54121.59760255786, -55137.39498107374, -22852.021199705745, -38068.641789989684, -52138.37202052737, -34331.47482055126, -13760.203273320589, -57250.439494900646, -56368.84199009443, -66238.09829212408, -52618.84511933865, -48490.32145623225, -48510.19215705302, -49399.63512416305, 0.11206250000000001, 0.9499375000000001, 0.11674999999999999, 192.0, 0.0, 0.0, 0.0, 0.0, 0.0, 0.0, 0.0, 0.0, 0.0, 1.6581654949461486E9, 0.0, 2022-07-18 13:31:34.946
0.0, -24089.95021461847, -23891.44437211089, -54167.55278915796, -55172.040184979465, -22893.461333925883, -38104.672802051646, -52176.88407622386, -34384.06847525459, -13815.54619259193, -57322.4791672801, -56436.79129323856, -66302.82894406664, -52691.175364396026, -48550.22413137247, -48580.80131778733, -49466.28802612877, 0.11206250000000001, 0.9499375000000001, 0.11674999999999999, 192.0, 0.0, 0.0, 0.0, 0.0, 0.0, 0.0, 0.0, 0.0, 0.0, 1.6581654949461553E9, 0.0, 2022-07-18 13:31:34.946
2.0, -24054.790920590272, -23929.196468495902, -54114.243878632056, -55123.872175678276, -22836.95612394287, -38059.94696139657, -52122.56933719747, -34338.24739912122, -13772.809657193382, -57254.30634669142, -56377.84974310992, -66238.27710607971, -52632.591442178666, -48491.21552601046, -48521.32332579176, -49394.60598166061, 0.11206250000000001, 0.9499375000000001, 0.11674999999999999, 192.0, 0.0, 0.0, 0.0, 0.0, 0.0, 0.0, 0.0, 0.0, 0.0, 1.6581654949461622E9, 0.0, 2022-07-18 13:31:34.946
4.0, -24062.14464451607, -23868.086799155095, -54151.95127152816, -55166.69811805464, -22882.061944253677, -38105.72333404104, -52155.873436435875, -34377.452358895825, -13796.167230149178, -57305.8271176609, -56413.411368538305, -66278.4431908659, -52678.97131192342, -48536.79073295483, -48559.05307043232, -49442.14814211705, 0.11603125, 0.9509687500000001, 0.115375, 192.0, 1.5, 96.0, 14.5, 96.0, 1.5, 72.0, 0.0, 0.0, 0.0, 1.6581654949461691E9, 0.0, 2022-07-18 13:31:34.946
6.0, -24030.025187733794, -23924.994340538306, -54081.74444219404, -55106.951905125614, -22825.959065670857, -38071.54751676888, -52096.95423805169, -34342.85185847901, -13752.96130811707, -57246.97497451008, -56362.6058533914, -66226.31892279613, -52626.288250242265, -48495.26119175687, -48507.5993546962, -49404.932487598955, 0.11603125, 0.9509687500000001, 0.115375, 192.0, 0.0, 0.0, 0.0, 0.0, 0.0, 0.0, 0.0, 0.0, 0.0, 1.658165494946188E9, 0.0, 2022-07-18 13:31:34.946
8.0, -24064.022191050317, -23863.728208986307, -54135.25451842005, -55157.8691789948, -22889.058040268188, -38122.33068017133, -52182.919047226795, -34392.29391721415, -13779.649290996706, -57294.830059388885, -56395.41821425179, -66265.88151048202, -52662.09574485967, -48538.51181727789, -48541.59635801272, -49444.159799118024, 0.11603125, 0.9509687500000001, 0.115375, 192.0, 0.0, 0.0, 0.0, 0.0, 0.0, 0.0, 0.0, 0.0, 0.0, 1.6581654949461997E9, 0.0, 2022-07-18 13:31:34.946
10.0, -24015.13892592656, -23920.032253269226, -54043.478255686554, -55071.9490733086, -22807.004786372756, -38054.91781889413, -52090.047549015, -34313.66048022038, -13757.454008752586, -57250.75241932302, -56352.659327108784, -66224.32961753961, -52619.69448562795, -48495.46235745697, -48506.99585759591, -49395.38829271654, 0.11603125, 0.9509687500000001, 0.115375, 192.0, 0.0, 0.0, 0.0, 0.0, 0.0, 0.0, 0.0, 0.0, 0.0, 1.658165494946206E9, 0.0, 2022-07-18 13:31:34.946
12.0, -24051.013475777327, -23841.376464531, -54120.591774057364, -55142.98291718757, -22868.71795281386, -38100.2918601384, -52154.08529687945, -34385.767207833196, -13764.62891872274, -57273.4170882007, -56362.76231560258, -66239.05941713565, -52637.46412246992, -48503.15135754959, -48509.65571518609, -49408.285249267254, 0.11603125, 0.9509687500000001, 0.115375, 192.0, 0.0, 0.0, 0.0, 0.0, 0.0, 0.0, 0.0, 0.0, 0.0, 1.6581654949462132E9, 0.0, 2022-07-18 13:31:34.946
14.0, -24026.024225476292, -23928.79413709571, -54062.25372102901, -55092.02093982947, -22823.299208080676, -38054.06845260483, -52096.17192699575, -34311.671174963856, -13766.662927468173, -57253.456980402116, -56354.24630096511, -66225.78248092919, -52633.3737532346, -48491.12611903264, -48508.493424474414, -49392.10258628161, 0.11601562500000001, 0.948484375, 0.1156875, 192.0, 1.5, 80.0, 14.5, 72.0, 1.5, 80.0, 0.0, 0.0, 0.0, 1.6581654949462197E9, 0.0, 2022-07-18 13:31:34.946
16.0, -24057.026095035806, -23846.852641922553, -54125.15152992625, -55155.07521093789, -22871.958955759877, -38083.326886096824, -52158.19801785923, -34365.002437234216, -13756.783456418927, -57264.87872181878, -56354.02278352056, -66234.45495777785, -52638.76052364833, -48498.21162202497, -48501.497328459904, -49389.17450775797, 0.11601562500000001, 0.948484375, 0.1156875, 192.0, 0.0, 0.0, 0.0, 0.0, 0.0, 0.0, 0.0, 0.0, 0.0, 1.6581654949462268E9, 0.0, 2022-07-18 13:31:34.946
18.0, -24020.972731229394, -23933.97974180934, -54059.929139605665, -55095.12783230875, -22814.045585876178, -38038.91396986413, -52077.35175816438, -34306.93260513933, -13773.793133949415, -57269.66199513221, -56367.567940660476, -66248.22363236232, -52640.615718438115, -48504.291296516814, -48517.47882574545, -49398.69635089592, 0.11601562500000001, 0.948484375, 0.1156875, 192.0, 0.0, 0.0, 0.0, 0.0, 0.0, 0.0, 0.0, 0.0, 0.0, 1.658165494946234E9, 0.0, 2022-07-18 13:31:34.946
20.0, -24060.5800224042, -23849.713665212832, -54136.99795448756, -55163.03243196398, -22877.63629885153, -38098.14609267069, -52157.4604102922, -34363.259001166705, -13758.01280236397, -57256.5638728814, -56354.000431776105, -66230.67751296492, -52624.14248277456, -48485.73934861891, -48494.18830802302, -49386.11231876759, 0.11601562500000001, 0.948484375, 0.1156875, 192.0, 0.0, 0.0, 0.0, 0.0, 0.0, 0.0, 0.0, 0.0, 0.0, 1.6581654949462416E9, 0.0, 2022-07-18 13:31:34.946
22.0, -24029.153469700035, -23930.984608052328, -54079.30810204841, -55106.57192546987, -22831.345836084587, -38077.78365347191, -52125.4527122322, -34362.85666976651, -13790.601645779807, -57286.515210451515, -56389.02561533757, -66255.82322547713, -52657.51363724633, -48521.16686358057, -48539.62940450066, -49437.47662752589, 0.11601562500000001, 0.948484375, 0.1156875, 192.0, 0.0, 0.0, 0.0, 0.0, 0.0, 0.0, 0.0, 0.0, 0.0, 1.6581654949462488E9, 0.0, 2022-07-18 13:31:34.946
24.0, -24053.33805720068, -23853.33464781459, -54132.81817827442, -55156.4163156052, -22874.9987930058, -38111.087752710315, -52165.41763131829, -34368.846937280534, -13756.515235485464, -57259.98368978306, -56353.218120720165, -66227.2800478077, -52621.75084611784, -48490.63438065462, -48509.85688088619, -49412.77794990277, 0.11601562500000001, 0.948484375, 0.1156875, 192.0, 0.0, 0.0, 0.0, 0.0, 0.0, 0.0, 0.0, 0.0, 0.0, 1.6581654949462564E9, 0.0, 2022-07-18 13:31:34.946
26.0, -24022.023263218794, -23914.19844796639, -54066.67936643116, -55099.91110562219, -22816.727795210816, -38076.37549357122, -52092.30507520498, -34335.431079319846, -13774.307224071888, -57281.754288882534, -56370.47366743966, -66247.41896956194, -52644.75079116235, -48518.79757866831, -48526.19600608302, -49433.319203057195, 0.12, 0.9460000000000001, 0.11, 192.0, 1.5, 96.0, 14.5, 72.0, 1.5, 56.0, 0.0, 0.0, 0.0, 1.658165494946262E9, 0.0, 2022-07-18 13:31:34.946
28.0, -24062.166996260527, -23860.39779906247, -54128.95132648365, -55155.85752199382, -22867.019220235255, -38102.75055202848, -52163.45067780622, -34375.0160187502, -13745.652287680185, -57242.2140529411, -56341.52815837004, -66215.18775405738, -52605.63523836556, -48488.80153760929, -48484.6441131406, -49389.420376946975, 0.12, 0.9460000000000001, 0.11, 192.0, 0.0, 0.0, 0.0, 0.0, 0.0, 0.0, 0.0, 0.0, 0.0, 1.6581654949462676E9, 0.0, 2022-07-18 13:31:34.946
30.0, -24053.18159498949, -23930.001131296296, -54097.9718086686, -55127.850786191324, -22842.074673423132, -38092.44639783459, -52128.71606692268, -34352.26194289469, -13800.34700636232, -57301.692044936666, -56404.85065041193, -66274.59869081959, -52671.52818101981, -48544.2562156029, -48549.01713717188, -49450.28417709877, 0.12, 0.9460000000000001, 0.11, 192.0, 0.0, 0.0, 0.0, 0.0, 0.0, 0.0, 0.0, 0.0, 0.0, 1.658165494946273E9, 0.0, 2022-07-18 13:31:34.946
32.0, -24049.202984476447, -23865.67281075392, -54115.80850074393, -55140.77009448649, -22848.86960373755, -38083.21512737455, -52133.298174536016, -34355.0559109516, -13749.273270281945, -57250.75241932302, -56343.986850260124, -66220.7309866823, -52605.79170057675, -48485.73934861891, -48491.32728473274, -49387.43107169045, 0.12, 0.9460000000000001, 0.11, 192.0, 0.0, 0.0, 0.0, 0.0, 0.0, 0.0, 0.0, 0.0, 0.0, 1.6581654949462788E9, 0.0, 2022-07-18 13:31:34.946
34.0, -24050.074702510203, -23915.45014565589, -54096.474241790085, -55126.308515823905, -22840.46534782235, -38086.85846172076, -52122.54698545301, -34341.89073346743, -13790.042852168424, -57312.53264099749, -56399.68739744275, -66278.62200482155, -52666.81196293974, -48543.49625629142, -48550.17942788356, -49444.2715578403, 0.12, 0.9460000000000001, 0.11, 192.0, 0.0, 0.0, 0.0, 0.0, 0.0, 0.0, 0.0, 0.0, 0.0, 1.6581654949462843E9, 0.0, 2022-07-18 13:31:34.946
36.0, -24047.906583298038, -23876.423999836923, -54096.496593534546, -55122.754588455515, -22839.213650132853, -38078.47655755002, -52140.56249148399, -34328.74790772771, -13742.05365682288, -57237.54253834993, -56332.16277744326, -66210.56094295514, -52603.154194731025, -48475.144621747095, -48479.16793574905, -49364.09585047911, 0.126, 0.9500000000000001, 0.108, 192.0, 1.5, 120.0, 14.5, 88.0, 1.5, 48.0, 0.0, 0.0, 0.0, 1.6581654949462898E9, 0.0, 2022-07-18 13:31:34.946
38.0, -24075.77920863381, -23924.12262250455, -54105.86197446132, -55134.62336476128, -22869.902595269992, -38111.98182248853, -52146.48570376464, -34381.632135108965, -13806.136108176246, -57320.5792690014, -56410.25977257011, -66285.7969147917, -52682.72640499192, -48557.354337853714, -48557.86842797619, -49451.80409572174, 0.126, 0.9500000000000001, 0.108, 192.0, 0.0, 0.0, 0.0, 0.0, 0.0, 0.0, 0.0, 0.0, 0.0, 1.658165494946298E9, 0.0, 2022-07-18 13:31:34.946
40.0, -24049.962943787927, -23894.707726801364, -54086.43830852966, -55113.4115592732, -22839.526574555228, -38084.06449366385, -52126.68205817724, -34339.32028285507, -13749.653249937684, -57240.33650640685, -56342.310469425975, -66214.94188486837, -52610.060883767714, -48482.07366252824, -48486.611066652666, -49381.664321620985, 0.126, 0.9500000000000001, 0.108, 192.0, 0.0, 0.0, 0.0, 0.0, 0.0, 0.0, 0.0, 0.0, 0.0, 1.6581654949463034E9, 0.0, 2022-07-18 13:31:34.946
42.0, -24056.3778944466, -23897.52404660273, -54108.1195006513, -55139.09371365234, -22852.311772383666, -38109.50077885399, -52139.66842170578, -34361.89554475493, -13790.847514968815, -57298.898076879756, -56397.54162997504, -66269.6366035505, -52666.56609375073, -48532.87917767515, -48533.862654431185, -49445.23268285188, 0.126, 0.9500000000000001, 0.108, 192.0, 0.0, 0.0, 0.0, 0.0, 0.0, 0.0, 0.0, 0.0, 0.0, 1.6581654949463089E9, 0.0, 2022-07-18 13:31:34.946
44.0, -24053.360408945133, -23916.388918923014, -54106.64428551725, -55137.46203630711, -22844.309847868666, -38093.318115868344, -52123.5528139535, -34367.34937040202, -13760.426790765143, -57248.67370708868, -56350.714725341175, -66229.24700131977, -52613.05601752472, -48487.90746783107, -48492.86955510015, -49400.819766619185, 0.126, 0.9500000000000001, 0.108, 192.0, 0.0, 0.0, 0.0, 0.0, 0.0, 0.0, 0.0, 0.0, 0.0, 1.6581654949463143E9, 0.0, 2022-07-18 13:31:34.946
46.0, -24056.601411891155, -23882.078991184117, -54126.00089621555, -55155.254024893526, -22864.113493456065, -38098.68253453762, -52147.15625609831, -34358.31926564208, -13786.690090500128, -57307.65996070623, -56396.580504963466, -66279.82899902212, -52673.5845415097, -48538.42241030007, -48552.951044196016, -49456.02857542379, 0.126, 0.9520000000000001, 0.12, 192.0, 1.5, 120.0, 14.5, 96.0, 1.5, 96.0, 0.0, 0.0, 0.0, 1.65816549494632E9, 0.0, 2022-07-18 13:31:34.946
48.0, -24046.274905952803, -23926.15663124998, -54092.80855569942, -55126.37557105727, -22832.932809940914, -38063.277371320415, -52107.906592834785, -34338.53797179913, -13757.655174452684, -57248.65135534422, -56352.48051315314, -66235.70665546735, -52619.04628503875, -48489.85206959869, -48509.186328552525, -49399.05397880721, 0.126, 0.9520000000000001, 0.12, 192.0, 0.0, 0.0, 0.0, 0.0, 0.0, 0.0, 0.0, 0.0, 0.0, 1.6581654949463255E9, 0.0, 2022-07-18 13:31:34.946
50.0, -24068.20196726346, -23883.35304061807, -54127.78903577197, -55157.690365039154, -22872.71891507136, -38099.77777001593, -52147.31271830949, -34361.5602685881, -13777.39176480672, -57302.09437633686, -56389.47265022667, -66276.9456239874, -52655.77020117881, -48528.11825610617, -48535.11435212068, -49437.81190369272, 0.126, 0.9520000000000001, 0.12, 192.0, 0.0, 0.0, 0.0, 0.0, 0.0, 0.0, 0.0, 0.0, 0.0, 1.6581654949463313E9, 0.0, 2022-07-18 13:31:34.946
52.0, -24054.165071745527, -23947.234326271337, -54085.90186666273, -55119.446530276124, -22833.446900063384, -38073.11213888075, -52116.422607472254, -34351.63609404994, -13769.05456412489, -57261.481256661566, -56362.98583304713, -66247.26250735075, -52628.27755549879, -48494.992970823405, -48506.90645061809, -49400.909173597, 0.126, 0.9520000000000001, 0.12, 192.0, 0.0, 0.0, 0.0, 0.0, 0.0, 0.0, 0.0, 0.0, 0.0, 1.6581654949463365E9, 0.0, 2022-07-18 13:31:34.946
54.0, -24074.795731877774, -23876.58046204811, -54129.93480323968, -55160.88666449627, -22876.33989767312, -38113.121761455746, -52173.821887233484, -34396.83132133858, -13789.908741701693, -57303.18961181517, -56394.34533051793, -66282.57826359013, -52663.43684952699, -48528.29707006182, -48536.097828876715, -49440.42705779398, 0.126, 0.9520000000000001, 0.12, 192.0, 0.0, 0.0, 0.0, 0.0, 0.0, 0.0, 0.0, 0.0, 0.0, 1.658165494946342E9, 0.0, 2022-07-18 13:31:34.946
56.0, -24055.215603734923, -23951.36939899557, -54083.84550617284, -55114.81971917388, -22835.346798342085, -38090.09946466678, -52132.6052704579, -34354.89944874042, -13768.853398424793, -57253.07700074637, -56363.32110921397, -66243.39565555999, -52620.85677633963, -48493.696569645, -48508.560479707776, -49406.67592366647, 0.112, 0.9460000000000001, 0.116, 192.0, 1.5, 64.0, 14.5, 72.0, 1.5, 80.0, 0.0, 0.0, 0.0, 1.6581654949463477E9, 0.0, 2022-07-18 13:31:34.946
58.0, -24075.75685688935, -23869.897290455974, -54140.84245453387, -55162.808914519424, -22886.331127444642, -38120.9001685262, -52191.591524075455, -34382.50385314272, -13791.182791135645, -57297.556972212435, -56399.32976953146, -66275.53746408671, -52668.75656470735, -48529.63817472913, -48550.47000056148, -49448.74190673136, 0.112, 0.9460000000000001, 0.116, 192.0, 0.0, 0.0, 0.0, 0.0, 0.0, 0.0, 0.0, 0.0, 0.0, 1.6581654949463532E9, 0.0, 2022-07-18 13:31:34.946
60.0, -24042.586868117676, -23947.726064649352, -54062.790162895944, -55096.13366080924, -22817.55480975566, -38073.7379877255, -52110.34293298041, -34335.8557624645, -13772.228511837544, -57266.04101253045, -56366.76327786008, -66244.02150440472, -52634.17841603499, -48502.7490261494, -48520.56336648028, -49410.58747894615, 0.112, 0.9460000000000001, 0.116, 192.0, 0.0, 0.0, 0.0, 0.0, 0.0, 0.0, 0.0, 0.0, 0.0, 1.658165494946359E9, 0.0, 2022-07-18 13:31:34.946
62.0, -24074.058124310748, -23855.972153660317, -54116.5237565665, -55147.67678352318, -22861.408932376973, -38100.604784560775, -52140.31662229498, -34378.18996646285, -13776.363584561775, -57281.821344115895, -56370.49601918412, -66252.47046380883, -52636.905328858535, -48504.872441872656, -48514.88602338863, -49416.86831913809, 0.112, 0.9460000000000001, 0.116, 192.0, 0.0, 0.0, 0.0, 0.0, 0.0, 0.0, 0.0, 0.0, 0.0, 1.6581654949463642E9, 0.0, 2022-07-18 13:31:34.946
64.0, -24053.33805720068, -23948.955410594393, -54062.94662510713, -55094.74785265301, -22814.89495216548, -38053.286141548895, -52104.08444453293, -34324.858704192484, -13786.645387011218, -57268.253835231524, -56375.30164424201, -66249.20710911836, -52631.876186356094, -48493.182479522526, -48509.36514250817, -49404.105473054115, 0.112, 0.9460000000000001, 0.116, 192.0, 0.0, 0.0, 0.0, 0.0, 0.0, 0.0, 0.0, 0.0, 0.0, 1.6581654949463696E9, 0.0, 2022-07-18 13:31:34.946
66.0, -24074.795731877774, -23860.10722638455, -54131.81234977393, -55155.70105978264, -22869.969650503357, -38089.04893267738, -52158.84621844843, -34364.08601571155, -13776.877674684249, -57272.254797489026, -56383.23651352365, -66255.91263245496, -52639.676945171, -48500.111520303675, -48508.87340413015, -49400.77506313027, 0.11, 0.9520000000000001, 0.114, 192.0, 1.5, 56.0, 14.5, 96.0, 1.5, 72.0, 0.0, 0.0, 0.0, 1.6581654949463751E9, 0.0, 2022-07-18 13:31:34.946
68.0, -24049.985295532384, -23948.083692560638, -54082.012663127505, -55104.38145451325, -22824.595609259082, -38068.664141734145, -52102.810395098975, -34336.59337003152, -13785.907779444193, -57274.64643414575, -56398.368644519884, -66262.05936218017, -52650.45048599845, -48512.49438673191, -48524.02788687085, -49411.45919697991, 0.11, 0.9520000000000001, 0.114, 192.0, 0.0, 0.0, 0.0, 0.0, 0.0, 0.0, 0.0, 0.0, 0.0, 1.6581654949463809E9, 0.0, 2022-07-18 13:31:34.946
70.0, -24073.76755163283, -23860.7330752293, -54145.08928598038, -55157.556254572424, -22872.741266815814, -38106.10331369678, -52151.44779103372, -34391.8692340695, -13774.955424661091, -57261.213035728106, -56377.67092915427, -66242.8368619486, -52633.95489859044, -48494.098901045196, -48511.68972393152, -49396.416472961486, 0.11, 0.9520000000000001, 0.114, 192.0, 0.0, 0.0, 0.0, 0.0, 0.0, 0.0, 0.0, 0.0, 0.0, 1.6581654949463887E9, 0.0, 2022-07-18 13:31:34.946
72.0, -24051.259344966336, -23947.524898949254, -54079.978654382074, -55109.90233539371, -22837.492565809796, -38078.00717091646, -52109.582973668934, -34341.1084224115, -13799.050605183913, -57290.71733840911, -56401.76610967709, -66272.3411646296, -52670.34353856368, -48528.922918906566, -48552.101677906714, -49432.24631932334, 0.11, 0.9520000000000001, 0.114, 192.0, 0.0, 0.0, 0.0, 0.0, 0.0, 0.0, 0.0, 0.0, 0.0, 1.6581654949463944E9, 0.0, 2022-07-18 13:31:34.946
74.0, -24066.57028991822, -23864.82344446462, -54117.12725366679, -55150.13547541326, -22864.42641787844, -38092.87108097924, -52146.10572410891, -34349.04329169313, -13761.902005899192, -57253.52403563548, -56351.832312563936, -66235.39373104498, -52620.40974145052, -48486.00756955237, -48497.11638654666, -49376.47871690735, 0.11, 0.9520000000000001, 0.114, 192.0, 0.0, 0.0, 0.0, 0.0, 0.0, 0.0, 0.0, 0.0, 0.0, 1.6581654949463997E9, 0.0, 2022-07-18 13:31:34.946
76.0, -24056.86963282462, -23948.64248617202, -54084.35959629531, -55124.38626580075, -22839.504222810774, -38092.17817690113, -52132.78408441354, -34376.044198995136, -13798.603570294807, -57304.553068226945, -56402.95075213323, -66286.78039154773, -52664.01799488282, -48534.17557885356, -48547.69838424902, -49437.856607181624, 0.112, 0.9520000000000001, 0.114, 192.0, 1.5, 64.0, 14.5, 96.0, 1.5, 72.0, 0.0, 0.0, 0.0, 1.6581654949464052E9, 0.0, 2022-07-18 13:31:34.946
78.0, -24070.660659153542, -23879.039153938193, -54113.9756576986, -55151.43187659167, -22857.698542797392, -38103.4434561066, -52149.4584857772, -34388.3153067011, -13761.253805309989, -57258.6649368602, -56364.01401329208, -66245.7872922167, -52617.816939093704, -48487.97452306444, -48499.17274703655, -49398.11520554009, 0.112, 0.9520000000000001, 0.114, 192.0, 0.0, 0.0, 0.0, 0.0, 0.0, 0.0, 0.0, 0.0, 0.0, 1.658165494946411E9, 0.0, 2022-07-18 13:31:34.946
80.0, -24054.723865356907, -23929.64350338501, -54083.398471283734, -55118.39599828673, -22830.31765583964, -38097.654354292674, -52126.34678201041, -34372.46791988229, -13790.735756246539, -57301.06619609192, -56403.59895272243, -66282.4441531234, -52657.49128550188, -48530.375782296156, -48539.89762543412, -49448.898368942544, 0.112, 0.9520000000000001, 0.114, 192.0, 0.0, 0.0, 0.0, 0.0, 0.0, 0.0, 0.0, 0.0, 0.0, 1.6581654949464164E9, 0.0, 2022-07-18 13:31:34.946
82.0, -24047.414844920022, -23867.550357288168, -54096.80951795692, -55120.295896565425, -22845.785063002713, -38084.91385995315, -52139.53431123905, -34363.594277333534, -13745.160549302167, -57236.871986016275, -56343.00337350409, -66219.32282678162, -52601.5672208747, -48468.66261585506, -48488.06393004226, -49387.43107169045, 0.112, 0.9520000000000001, 0.114, 192.0, 0.0, 0.0, 0.0, 0.0, 0.0, 0.0, 0.0, 0.0, 0.0, 1.6581654949464219E9, 0.0, 2022-07-18 13:31:34.946
84.0, -24037.37891165959, -23904.833067039617, -54075.441250257645, -55114.99853312952, -22838.18546988791, -38087.886641965706, -52124.11160756488, -34367.48348086876, -13780.073974141356, -57294.45007973315, -56380.19667627772, -66264.9874407038, -52650.696355187465, -48521.79271242532, -48537.26011958839, -49440.85174093863, 0.112, 0.9520000000000001, 0.114, 192.0, 0.0, 0.0, 0.0, 0.0, 0.0, 0.0, 0.0, 0.0, 0.0, 1.6581654949464273E9, 0.0, 2022-07-18 13:31:34.946
86.0, -24041.446929150454, -23877.496883570777, -54086.17008759619, -55125.0121146455, -22842.18643214541, -38078.43185406111, -52128.604308200396, -34364.35423664501, -13738.38797073221, -57233.742741792536, -56325.16668142875, -66213.55607671215, -52597.92388652848, -48471.791860078796, -48487.28161898633, -49378.98211228634, 0.106, 0.9480000000000001, 0.114, 192.0, 1.5, 40.0, 14.5, 80.0, 1.5, 72.0, 0.0, 0.0, 0.0, 1.6581654949464328E9, 0.0, 2022-07-18 13:31:34.946
88.0, -24053.919202556517, -23901.21208443786, -54102.50921279302, -55132.27643159348, -22847.99788570379, -38093.85455773527, -52139.48960775013, -34391.95864104732, -13792.278026613954, -57303.30137053745, -56399.95561837621, -66281.10304845608, -52666.99077689538, -48531.31455556328, -48555.968529697486, -49444.293909584754, 0.106, 0.9480000000000001, 0.114, 192.0, 0.0, 0.0, 0.0, 0.0, 0.0, 0.0, 0.0, 0.0, 0.0, 1.6581654949464383E9, 0.0, 2022-07-18 13:31:34.946
90.0, -24057.830757836196, -23904.78836355071, -54108.07479716239, -55127.359047813305, -22841.560583300663, -38081.76226398495, -52134.1028373364, -34385.11900724399, -13765.455933267587, -57237.721352305576, -56359.32014695647, -66229.67168446443, -52609.05505526723, -48472.73063334592, -48499.77624413684, -49378.42331867496, 0.106, 0.9480000000000001, 0.114, 192.0, 0.0, 0.0, 0.0, 0.0, 0.0, 0.0, 0.0, 0.0, 0.0, 1.6581654949464438E9, 0.0, 2022-07-18 13:31:34.946
92.0, -24062.055237538247, -23890.639709310497, -54125.15152992625, -55136.165635128695, -22858.212632919865, -38099.95658397157, -52149.52554101057, -34391.31044045812, -13809.220648911078, -57312.018550875015, -56421.92738317578, -66289.26143518227, -52682.011149169346, -48534.577910253756, -48561.064727433295, -49449.345403831656, 0.106, 0.9480000000000001, 0.114, 192.0, 0.0, 0.0, 0.0, 0.0, 0.0, 0.0, 0.0, 0.0, 0.0, 1.6581654949464493E9, 0.0, 2022-07-18 13:31:34.946
94.0, -24038.116519226616, -23901.368546649046, -54093.99319815555, -55101.8557073898, -22820.058205134657, -38069.424101045624, -52116.422607472254, -34351.21141090529, -13753.542453472908, -57236.33554414935, -56356.41442017727, -66221.51329773823, -52615.89468907055, -48466.338034431705, -48500.670313915056, -49378.55742914169, 0.106, 0.9480000000000001, 0.114, 192.0, 0.0, 0.0, 0.0, 0.0, 0.0, 0.0, 0.0, 0.0, 0.0, 1.6581654949464548E9, 0.0, 2022-07-18 13:31:34.946
96.0, -24046.453719908444, -23870.120807900526, -54117.84250948936, -55137.976126429574, -22862.146539944, -38106.21507241906, -52154.57703525747, -34395.870196327, -13787.025366666958, -57302.027321103495, -56400.02267360958, -66271.44709485139, -52667.817791440226, -48523.02205837036, -48551.31936685078, -49440.44940953844, 0.111, 0.9500000000000001, 0.118, 192.0, 1.5, 80.0, 14.5, 96.0, 1.5, 104.0, 0.0, 0.0, 0.0, 1.6581654949464605E9, 0.0, 2022-07-18 13:31:34.946
98.0, -24042.005722761838, -23921.038081769715, -54069.47333448808, -55111.221088316575, -22828.440109305397, -38081.58345002931, -52110.23117425814, -34378.30172518513, -13750.212043549067, -57239.93417500665, -56341.885786281324, -66223.41319601693, -52605.07644475418, -48479.07852877123, -48497.00462782438, -49387.83340309065, 0.111, 0.9500000000000001, 0.118, 192.0, 0.0, 0.0, 0.0, 0.0, 0.0, 0.0, 0.0, 0.0, 0.0, 1.6581654949464657E9, 0.0, 2022-07-18 13:31:34.946
100.0, -24071.353563231656, -23872.892424212983, -54107.739520995565, -55156.170446416196, -22872.227176693345, -38119.894340025705, -52168.2115993752, -34384.783731077165, -13784.544323032418, -57304.7765856715, -56395.0605863405, -66283.51703685726, -52657.71480294643, -48534.46615153148, -48538.26594808888, -49443.6233572511, 0.111, 0.9500000000000001, 0.118, 192.0, 0.0, 0.0, 0.0, 0.0, 0.0, 0.0, 0.0, 0.0, 0.0, 1.6581654949464712E9, 0.0, 2022-07-18 13:31:34.946
102.0, -24050.342923443666, -23934.091500531616, -54070.970901366585, -55112.02575111696, -22833.335141341107, -38078.3871505722, -52143.08823860744, -34320.45541053479, -13770.239206581022, -57252.115875734795, -56364.30458597, -66239.34998981356, -52616.18526174847, -48484.33118871823, -48496.89286910211, -49393.1084147821, 0.111, 0.9500000000000001, 0.118, 192.0, 0.0, 0.0, 0.0, 0.0, 0.0, 0.0, 0.0, 0.0, 0.0, 1.6581654949464781E9, 0.0, 2022-07-18 13:31:34.946
104.0, -24077.56734819023, -23863.14706363047, -54144.84341679137, -55171.83901927937, -22883.492455898817, -38115.82632253484, -52190.675102552785, -34393.70207711483, -13792.68035801415, -57306.58707697238, -56407.9128394023, -66279.96310948886, -52663.36979429362, -48521.926822892055, -48542.84805570222, -49440.0694298827, 0.111, 0.9500000000000001, 0.118, 192.0, 0.0, 0.0, 0.0, 0.0, 0.0, 0.0, 0.0, 0.0, 0.0, 1.6581654954269347E9, 0.0, 2022-07-18 13:31:35.426
106.0, -24052.779263589295, -23935.276142987746, -54102.26334360401, -55125.99559140153, -22831.81522271815, -38073.693284236586, -52104.151499766296, -34373.98783850525, -13771.513256014974, -57267.82915208687, -56387.32688275896, -66251.35287658607, -52641.06275332723, -48493.808328367275, -48525.92778514955, -49421.89746164053, 0.1105, 0.9470000000000001, 0.122, 192.0, 1.5, 56.0, 14.5, 64.0, 1.5, 120.0, 0.0, 0.0, 0.0, 1.6581654954269793E9, 0.0, 2022-07-18 13:31:35.426
108.0, -24077.500292956865, -23840.81767091962, -54172.537228171495, -55180.69031008367, -22889.929758301947, -38108.4949503535, -52183.50019258264, -34391.75747534722, -13790.512238801986, -57293.69012042166, -56410.59504873694, -66271.87177799604, -52673.204561853956, -48521.010401369385, -48548.52539879387, -49448.138409631065, 0.1105, 0.9470000000000001, 0.122, 192.0, 0.0, 0.0, 0.0, 0.0, 0.0, 0.0, 0.0, 0.0, 0.0, 1.6581654954270184E9, 0.0, 2022-07-18 13:31:35.427
110.0, -24032.685045323975, -23907.805849052176, -54099.961113925114, -55113.165690084184, -22829.37888257252, -38057.48826950649, -52114.25448826009, -34314.241625576215, -13779.24695959651, -57259.04491651594, -56388.802097893014, -66243.32860032661, -52642.67207892801, -48493.98714232292, -48537.39423005513, -49429.3182407997, 0.1105, 0.9470000000000001, 0.122, 192.0, 0.0, 0.0, 0.0, 0.0, 0.0, 0.0, 0.0, 0.0, 0.0, 1.6581654954270792E9, 0.0, 2022-07-18 13:31:35.427
112.0, -24055.841452579672, -23812.162734527916, -54153.04650700647, -55169.805010533935, -22874.395295905506, -38091.4405693341, -52166.04348016304, -34338.96265494378, -13752.089590083313, -57260.631890372264, -56375.50280994211, -66239.39469330249, -52638.33584050368, -48485.761700363364, -48518.059971101284, -49416.86831913809, 0.1105, 0.9470000000000001, 0.122, 192.0, 0.0, 0.0, 0.0, 0.0, 0.0, 0.0, 0.0, 0.0, 0.0, 1.6581654954271271E9, 0.0, 2022-07-18 13:31:35.427
114.0, -24034.04850173575, -23894.640671568, -54078.95047413713, -55110.863460405286, -22819.007673145257, -38055.18603982759, -52113.002790570594, -34315.96270989927, -13770.574482747852, -57271.7183556221, -56380.80017337802, -66246.5919550171, -52638.20173003695, -48496.177613279535, -48524.27375605986, -49420.55635697322, 0.1105, 0.9470000000000001, 0.122, 192.0, 0.0, 0.0, 0.0, 0.0, 0.0, 0.0, 0.0, 0.0, 0.0, 1.658165495427133E9, 0.0, 2022-07-18 13:31:35.427
116.0, -24055.975563046406, -23795.935368053364, -54127.9231462387, -55158.36091737282, -22861.38658063252, -38086.29966810938, -52129.163101811784, -34349.11034692649, -13742.992430090002, -57258.4637711601, -56356.83910332192, -66228.30822805264, -52615.537061159266, -48479.70437761598, -48491.30493298828, -49399.344551485134, 0.10925, 0.9435, 0.121, 192.0, 1.5, 48.0, 14.5, 48.0, 1.5, 96.0, 0.0, 0.0, 0.0, 1.6581654954271388E9, 0.0, 2022-07-18 13:31:35.427
118.0, -24031.27688542329, -23889.5891773211, -54074.815401412896, -55111.24344006103, -22828.0377779052, -38057.264752061936, -52098.4965084191, -34297.23194804573, -13763.44427626661, -57270.89134107725, -56372.306510484996, -66242.6356962485, -52638.35819224813, -48503.665447672065, -48517.38941876763, -49419.57288021719, 0.10925, 0.9435, 0.121, 192.0, 0.0, 0.0, 0.0, 0.0, 0.0, 0.0, 0.0, 0.0, 0.0, 1.6581654954271452E9, 0.0, 2022-07-18 13:31:35.427
120.0, -24055.841452579672, -23810.486353693766, -54121.23997464657, -55155.63400454927, -22875.53523487273, -38087.39490358769, -52148.318546809984, -34336.43690782034, -13749.76500865996, -57255.558044380916, -56348.05486775099, -66227.72708269682, -52615.84998558164, -48484.6441131406, -48490.12029053215, -49395.12007178308, 0.10925, 0.9435, 0.121, 192.0, 0.0, 0.0, 0.0, 0.0, 0.0, 0.0, 0.0, 0.0, 0.0, 1.6581654954271517E9, 0.0, 2022-07-18 13:31:35.427
122.0, -24034.026149991292, -23885.5882150636, -54064.958282108106, -55103.5544399684, -22831.36818782904, -38067.90418242266, -52116.75788363909, -34327.0044716602, -13776.96708166207, -57283.20715227213, -56383.61649317938, -66262.30523136917, -52648.41647725302, -48511.53326172033, -48525.74897119391, -49435.487322269364, 0.10925, 0.9435, 0.121, 192.0, 0.0, 0.0, 0.0, 0.0, 0.0, 0.0, 0.0, 0.0, 0.0, 1.6581654954271572E9, 0.0, 2022-07-18 13:31:35.427
124.0, -24076.472112711923, -23829.32887426959, -54128.30312589445, -55159.85848425132, -22873.56828136066, -38102.12470318374, -52163.361270828405, -34355.12296618497, -13746.926337114137, -57240.20239594012, -56348.65836485128, -66223.05556810566, -52606.26108721031, -48470.27194145584, -48480.33022646073, -49394.89655433853, 0.10925, 0.9435, 0.121, 192.0, 0.0, 0.0, 0.0, 0.0, 0.0, 0.0, 0.0, 0.0, 0.0, 1.6581654954271626E9, 0.0, 2022-07-18 13:31:35.427
126.0, -24063.82102535022, -23899.58040709262, -54089.43344228667, -55130.04125714794, -22842.18643214541, -38089.563022799855, -52112.533403937035, -34367.88581226895, -13810.82997451186, -57311.83973691938, -56416.40650229532, -66285.64045258051, -52669.76239320784, -48538.89179693363, -48540.05408764531, -49463.85168598314, 0.109625, 0.94675, 0.1175, 192.0, 1.5, 56.0, 14.5, 88.0, 1.5, 72.0, 0.0, 0.0, 0.0, 1.658165495427168E9, 0.0, 2022-07-18 13:31:35.427
