%OpenBCI Raw EEG Data
%Number of channels = 16
%Sample Rate = 125 Hz
%Board = OpenBCI_GUI$BoardCytonSerialDaisy
Sample Index, EXG Channel 0, EXG Channel 1, EXG Channel 2, EXG Channel 3, EXG Channel 4, EXG Channel 5, EXG Channel 6, EXG Channel 7, EXG Channel 8, EXG Channel 9, EXG Channel 10, EXG Channel 11, EXG Channel 12, EXG Channel 13, EXG Channel 14, EXG Channel 15, Accel Channel 0, Accel Channel 1, Accel Channel 2, Other, Other, Other, Other, Other, Other, Other, Analog Channel 0, Analog Channel 1, Analog Channel 2, Timestamp, Other, Timestamp (Formatted)
180.0, -20331.236163525125, 21736.289171730183, -32973.85221408036, -31694.304250991852, -25498.199522280636, -25726.924923291794, -21582.26330068866, -702.7611974193094, -24818.460621650294, -1812.7488270698582, -25815.68370052382, -30025.366547747442, -25892.394887494433, -7675.410231996803, -19929.351798218704, -32159.60051531798, 0.056, 0.9500000000000001, -0.148, 192.0, 0.5, 96.0, 14.5, 88.0, 125.5, 48.0, 0.0, 0.0, 0.0, 1.6689769545551827E9, 0.0, 2022-11-20 15:42:34.555
182.0, -20315.45583193968, 21455.52890962707, -32956.41785340522, -31664.755244821936, -25475.400742936225, -25705.08726895896, -21560.202128911274, -685.192726277438, -24894.88123594299, -1884.1179471156536, -25891.07613457157, -30098.076772460554, -25959.025437715703, -7744.946508997263, -19991.891979204654, -32229.89675162992, 0.056, 0.9500000000000001, -0.148, 192.0, 0.0, 0.0, 0.0, 0.0, 0.0, 0.0, 0.0, 0.0, 0.0, 1.6689769545551991E9, 0.0, 2022-11-20 15:42:34.555
184.0, -20326.83286986743, 21731.215325738827, -32958.58597261739, -31684.380076453697, -25481.055734283418, -25717.984225509674, -21568.382867381915, -691.2053455359156, -24820.829906562558, -1820.2590132068412, -25818.92470346984, -30026.551190203572, -25884.92940484636, -7676.416060497291, -19919.40527193609, -32161.92509674133, 0.056, 0.9500000000000001, -0.148, 192.0, 0.0, 0.0, 0.0, 0.0, 0.0, 0.0, 0.0, 0.0, 0.0, 1.6689769545552056E9, 0.0, 2022-11-20 15:42:34.555
186.0, -20330.6997216582, 21453.919584026287, -32975.81916759243, -31682.0778467748, -25496.992528080053, -25722.298112189546, -21577.837655286512, -700.6601334405105, -24891.148494618952, -1889.2588483403742, -25894.942986362337, -30097.24975791571, -25955.762083025227, -7751.562625356034, -19994.730650750476, -32232.28838828664, 0.056, 0.9500000000000001, -0.148, 192.0, 0.0, 0.0, 0.0, 0.0, 0.0, 0.0, 0.0, 0.0, 0.0, 1.6689769545552118E9, 0.0, 2022-11-20 15:42:34.555
188.0, -20329.895058857808, 21710.875238284498, -32972.17583324621, -31692.672573646614, -25496.29962400194, -25720.28645518857, -21578.016469242153, -697.352075261125, -24829.077700266567, -1826.1151702541317, -25828.20067741879, -30032.04971933958, -25891.50081771622, -7684.440336756747, -19941.37703673566, -32176.56548935956, 0.056, 0.9500000000000001, -0.148, 192.0, 0.0, 0.0, 0.0, 0.0, 0.0, 0.0, 0.0, 0.0, 0.0, 1.668976954555218E9, 0.0, 2022-11-20 15:42:34.555
190.0, -20341.696779930207, 21462.77087483059, -32988.78317937651, -31696.98646032649, -25516.23738005607, -25731.19410648276, -21594.713222350267, -710.7184184453987, -24905.230093625796, -1898.2218978669523, -25910.20922782531, -30111.44311564483, -25977.644440846976, -7766.985329030196, -20020.993950485463, -32247.95696114981, 0.056, 0.9460000000000001, -0.15, 192.0, 0.5, 96.0, 14.5, 72.0, 125.5, 40.0, 0.0, 0.0, 0.0, 1.6689769545552225E9, 0.0, 2022-11-20 15:42:34.555
192.0, -20317.02045405155, 21688.322328129092, -32960.39646391827, -31687.978707311002, -25491.42694371068, -25713.536228363067, -21572.83086452852, -686.869107111586, -24829.569438644583, -1837.492208181883, -25821.4951540822, -30037.011806608654, -25892.998384594728, -7691.347025793437, -19945.065074570786, -32174.330314914027, 0.056, 0.9460000000000001, -0.15, 192.0, 0.0, 0.0, 0.0, 0.0, 0.0, 0.0, 0.0, 0.0, 0.0, 1.6689769545552273E9, 0.0, 2022-11-20 15:42:34.555
194.0, -20346.144777076814, 21483.759162874125, -33000.42843823772, -31711.872722133725, -25524.373415037804, -25744.6275049004, -21602.581036398537, -719.7261714608874, -24900.26800635672, -1899.6971130010027, -25904.50953298921, -30113.521827879173, -25980.61722285953, -7773.087355266494, -20013.72963353749, -32241.743176191234, 0.056, 0.9460000000000001, -0.15, 192.0, 0.0, 0.0, 0.0, 0.0, 0.0, 0.0, 0.0, 0.0, 0.0, 1.668976954555232E9, 0.0, 2022-11-20 15:42:34.555
196.0, -20280.92238675623, 21691.63038630848, -32937.26240840703, -31655.680436573082, -25475.557205147412, -25691.676222285776, -21552.669591029837, -666.9313510574522, -24826.127269998466, -1826.6069086321484, -25813.15795340037, -30028.093460570988, -25894.85357938452, -7685.468517001691, -19943.768673392377, -32167.22246017724, 0.056, 0.9460000000000001, -0.15, 192.0, 0.0, 0.0, 0.0, 0.0, 0.0, 0.0, 0.0, 0.0, 0.0, 1.6689769545552363E9, 0.0, 2022-11-20 15:42:34.555
198.0, -20332.241992025614, 21533.290628587085, -32993.320583500936, -31698.59578592727, -25533.269409331013, -25748.404949713346, -21610.98529231373, -725.9846599083734, -24887.192235850365, -1871.5115632428603, -25885.21997752428, -30085.29157463212, -25974.917528023427, -7755.138904468883, -20007.33703462327, -32232.958940620298, 0.056, 0.9460000000000001, -0.15, 192.0, 0.0, 0.0, 0.0, 0.0, 0.0, 0.0, 0.0, 0.0, 0.0, 1.668976954555241E9, 0.0, 2022-11-20 15:42:34.555
200.0, -20277.50256985457, 21661.8131592051, -32928.366414113814, -31640.45889859902, -25470.81863532289, -25690.223358896183, -21553.295439874582, -669.6582638809996, -24820.42757516236, -1816.0121817603329, -25803.63611026241, -30013.497771441675, -25893.98186135076, -7674.762031407599, -19939.343027990228, -32164.696713053792, 0.056, 0.9500000000000001, -0.152, 192.0, 0.5, 96.0, 14.5, 88.0, 125.5, 32.0, 0.0, 0.0, 0.0, 1.6689769545552459E9, 0.0, 2022-11-20 15:42:34.555
202.0, -20350.391608523325, 21568.919309248842, -32995.73457190211, -31704.697812163573, -25538.43266230019, -25756.205708528247, -21620.50713545169, -736.7582007358315, -24881.49254101426, -1857.2064467914638, -25882.64952691192, -30077.781388495136, -25969.955440754347, -7738.553910083046, -19994.551836794835, -32226.47693472826, 0.056, 0.9500000000000001, -0.152, 192.0, 0.0, 0.0, 0.0, 0.0, 0.0, 0.0, 0.0, 0.0, 0.0, 1.6689769545552504E9, 0.0, 2022-11-20 15:42:34.555
204.0, -20276.764962287543, 21628.37494949996, -32921.727946010586, -31634.200410151534, -25460.51448112899, -25682.7131727592, -21549.02625668362, -669.032415036251, -24838.7113021268, -1828.8644348221344, -25824.82556400604, -30036.028329852623, -25910.47744875878, -7686.764918180099, -19951.345914762725, -32183.427474907337, 0.056, 0.9500000000000001, -0.152, 192.0, 0.0, 0.0, 0.0, 0.0, 0.0, 0.0, 0.0, 0.0, 0.0, 1.6689769545552552E9, 0.0, 2022-11-20 15:42:34.555
206.0, -20360.159320850293, 21602.13400150943, -33006.86574064085, -31719.092335592788, -25543.57356352491, -25758.95497309625, -21623.390510486428, -742.2790816162923, -24859.833700637068, -1838.3192227267293, -25866.913898815383, -30065.867908700457, -25954.62214405801, -7721.164252896817, -19977.5645110088, -32209.6013676645, 0.056, 0.9500000000000001, -0.152, 192.0, 0.0, 0.0, 0.0, 0.0, 0.0, 0.0, 0.0, 0.0, 0.0, 1.6689769545552597E9, 0.0, 2022-11-20 15:42:34.555
208.0, -20273.456904108156, 21597.574245640546, -32924.96894895661, -31636.010901452413, -25459.26278343949, -25672.006687165107, -21538.006846667155, -657.0295282637511, -24842.511098684205, -1837.5816151597041, -25832.045177465105, -30046.66776021335, -25917.45119302883, -7688.262485058604, -19958.05143809932, -32191.921137800353, 0.056, 0.9500000000000001, -0.152, 192.0, 0.0, 0.0, 0.0, 0.0, 0.0, 0.0, 0.0, 0.0, 0.0, 1.6689769545552645E9, 0.0, 2022-11-20 15:42:34.555
210.0, -20350.972753879163, 21642.52360374017, -33006.4410574962, -31727.027204874423, -25538.745586722565, -25757.233888773193, -21617.534353439136, -736.4452763134572, -24844.813328363103, -1833.8712255801233, -25852.92170678636, -30060.704655731282, -25943.31216136362, -7710.547174280546, -19964.19816782453, -32203.812265850578, 0.054, 0.9460000000000001, -0.156, 192.0, 0.5, 88.0, 14.5, 72.0, 125.5, 16.0, 0.0, 0.0, 0.0, 1.6689769545552692E9, 0.0, 2022-11-20 15:42:34.555
212.0, -20263.353915614356, 21575.401315140884, -32928.27700713599, -31639.20720090952, -25458.100492727815, -25682.64611752583, -21537.87273620042, -661.1646009879829, -24863.365276261007, -1852.8925601115895, -25847.69139858382, -30063.56567902156, -25937.23248687178, -7710.815395214009, -19966.992135881443, -32213.08823979953, 0.054, 0.9460000000000001, -0.156, 192.0, 0.0, 0.0, 0.0, 0.0, 0.0, 0.0, 0.0, 0.0, 0.0, 1.6689769545552769E9, 0.0, 2022-11-20 15:42:34.555
214.0, -20333.069006570462, 21701.66631956891, -33000.093162070894, -31713.19147505659, -25529.983702896083, -25757.34564749547, -21612.32639698105, -732.0643344002169, -24846.53441268616, -1816.9733067719112, -25845.54563111611, -30044.678454956826, -25938.707702005828, -7706.814432956509, -19955.81626365379, -32197.88905356992, 0.054, 0.9460000000000001, -0.156, 192.0, 0.0, 0.0, 0.0, 0.0, 0.0, 0.0, 0.0, 0.0, 0.0, 1.6689769545552816E9, 0.0, 2022-11-20 15:42:34.555
216.0, -20265.186758659693, 21546.94754444928, -32931.920341482204, -31635.67562528558, -25460.08979798434, -25685.75301000512, -21547.528689805116, -666.1713917459717, -24865.891023384458, -1849.003356576366, -25847.17730846135, -30054.736739961714, -25940.987579940273, -7712.692941748255, -19973.876473173677, -32208.036745552632, 0.054, 0.9460000000000001, -0.156, 192.0, 0.0, 0.0, 0.0, 0.0, 0.0, 0.0, 0.0, 0.0, 0.0, 1.668976954555286E9, 0.0, 2022-11-20 15:42:34.555
218.0, -20339.573364206954, 21728.68957861538, -32989.00669682106, -31703.848445874268, -25533.224705842105, -25748.181432268793, -21610.784126613635, -725.9623081639181, -24841.035883550154, -1814.6934288374698, -25837.744872301206, -30032.966140862245, -25933.90207694794, -7703.551078266035, -19958.319659032783, -32189.32833544354, 0.054, 0.9460000000000001, -0.156, 192.0, 0.0, 0.0, 0.0, 0.0, 0.0, 0.0, 0.0, 0.0, 0.0, 1.6689769545552907E9, 0.0, 2022-11-20 15:42:34.555
220.0, -20277.34610764338, 21526.808622695044, -32924.454858834135, -31625.773802491884, -25472.249146968028, -25681.573233791976, -21549.54034680609, -666.3278539571588, -24872.909471143423, -1850.0315368213103, -25853.63696260893, -30053.41798703885, -25948.207193399336, -7718.504395306635, -19980.604348254725, -32211.143638031917, 0.054, 0.9480000000000001, -0.158, 192.0, 0.5, 88.0, 14.5, 80.0, 125.5, 8.0, 0.0, 0.0, 0.0, 1.6689769545552957E9, 0.0, 2022-11-20 15:42:34.555
222.0, -20338.36637000637, 21755.01993358373, -32975.081560025406, -31691.17500676811, -25525.088670860372, -25738.637237386374, -21602.066946276063, -718.2062528379265, -24825.926104298367, -1798.8013385297465, -25819.416441847854, -30012.603701663462, -25913.673748215886, -7682.763955922599, -19934.537402932336, -32169.12235845594, 0.054, 0.9480000000000001, -0.158, 192.0, 0.0, 0.0, 0.0, 0.0, 0.0, 0.0, 0.0, 0.0, 0.0, 1.6689769545553005E9, 0.0, 2022-11-20 15:42:34.555
224.0, -20281.950567001175, 21510.938884131778, -32922.57731229989, -31622.421040823585, -25465.767141075987, -25683.339021603948, -21544.9358874483, -665.5678946456784, -24884.35356430454, -1862.8837898831118, -25867.49504417122, -30065.867908700457, -25959.09249294907, -7731.2225379017045, -19981.47606628848, -32216.888036356933, 0.054, 0.9480000000000001, -0.158, 192.0, 0.0, 0.0, 0.0, 0.0, 0.0, 0.0, 0.0, 0.0, 0.0, 1.6689769545553048E9, 0.0, 2022-11-20 15:42:34.555
226.0, -20339.88628862933, 21760.987849353296, -32975.86387108134, -31694.997155069967, -25520.28304580248, -25748.583763668987, -21603.60921664348, -723.0565813847281, -24819.91348503989, -1793.459271604928, -25813.470877822743, -30008.289814983586, -25898.899245130928, -7677.287778531048, -19924.14384176062, -32159.22053566224, 0.054, 0.9480000000000001, -0.158, 192.0, 0.0, 0.0, 0.0, 0.0, 0.0, 0.0, 0.0, 0.0, 0.0, 1.6689769545553095E9, 0.0, 2022-11-20 15:42:34.555
228.0, -20290.176008960727, 21495.270311268607, -32942.4256613762, -31644.571619578794, -25484.542606418447, -25707.769478293598, -21566.59472782549, -689.5960199351335, -24883.660660226426, -1864.135487572609, -25875.966355319782, -30075.501510560694, -25958.04196095967, -7745.617061330922, -19995.825886228788, -32227.750984162212, 0.054, 0.9480000000000001, -0.158, 192.0, 0.0, 0.0, 0.0, 0.0, 0.0, 0.0, 0.0, 0.0, 0.0, 1.6689769545553143E9, 0.0, 2022-11-20 15:42:34.555
230.0, -20327.97280883465, 21769.25799480176, -32983.82109210743, -31697.74641963797, -25522.831144670385, -25740.872411831908, -21606.202019000295, -725.4258662969908, -24813.29736868112, -1802.042341475766, -25811.906255710874, -30012.000204563166, -25893.825399139572, -7678.51712447609, -19940.99705707992, -32166.88718401041, 0.056, 0.9490000000000001, -0.159, 192.0, 0.5, 104.0, 14.5, 88.0, 125.5, 0.0, 0.0, 0.0, 0.0, 1.6689769545553188E9, 0.0, 2022-11-20 15:42:34.555
232.0, -20294.624006107333, 21495.806753135534, -32972.04172277948, -31665.582259366784, -25509.755374164033, -25712.843324284953, -21590.242873459207, -709.4443690114462, -24889.49446552926, -1879.4017290355837, -25892.283128772156, -30093.986403225234, -25978.91849028093, -7753.931910268297, -20026.15720345464, -32244.38068203696, 0.056, 0.9490000000000001, -0.159, 192.0, 0.0, 0.0, 0.0, 0.0, 0.0, 0.0, 0.0, 0.0, 0.0, 1.6689769545553236E9, 0.0, 2022-11-20 15:42:34.555
234.0, -20297.999119520086, 21780.50092226278, -32968.89012681128, -31680.781445596393, -25510.202409053138, -25715.123202219394, -21590.734611837222, -709.3996655225355, -24805.518961610673, -1790.8217657592018, -25800.149238127382, -30004.668832381827, -25896.4629049853, -7662.669737657277, -19938.605420423202, -32160.44988160728, 0.056, 0.9490000000000001, -0.159, 192.0, 0.0, 0.0, 0.0, 0.0, 0.0, 0.0, 0.0, 0.0, 0.0, 1.6689769545553284E9, 0.0, 2022-11-20 15:42:34.555
236.0, -20277.413162876746, 21533.916477431834, -32950.606399846845, -31647.991436480457, -25493.975042578586, -25696.258329899112, -21571.735629050214, -691.5406217027452, -24876.418695022905, -1855.105382812665, -25874.289974485633, -30075.725028005247, -25976.146873968468, -7732.273069891104, -20001.413822342616, -32225.42640273886, 0.056, 0.9490000000000001, -0.159, 192.0, 0.0, 0.0, 0.0, 0.0, 0.0, 0.0, 0.0, 0.0, 0.0, 1.668976954555333E9, 0.0, 2022-11-20 15:42:34.555
238.0, -20282.956395501664, 21779.718611206845, -32939.050547963445, -31654.540497605863, -25493.483304200567, -25701.734507290665, -21569.835730771512, -688.5454879457341, -24790.18566491433, -1767.5759515256825, -25775.80818841555, -29981.64653559286, -25883.431837967855, -7639.133350745839, -19907.871771797156, -32133.806602216555, 0.056, 0.9490000000000001, -0.159, 192.0, 0.0, 0.0, 0.0, 0.0, 0.0, 0.0, 0.0, 0.0, 0.0, 1.6689769545553377E9, 0.0, 2022-11-20 15:42:34.555
240.0, -20296.72507008613, 21540.331428090507, -32955.18850746018, -31656.395692395654, -25506.96140610712, -25713.245655685147, -21580.40810589887, -700.3025055292255, -24887.147532361454, -1858.9498828589778, -25876.480445442256, -30078.13901640642, -25989.75908634175, -7743.538349096579, -19999.044537430353, -32223.682966671346, 0.056, 0.9525000000000001, -0.1595, 192.0, 0.5, 96.0, 14.5, 112.0, 125.5, 0.0, 0.0, 0.0, 0.0, 1.6689769545553422E9, 0.0, 2022-11-20 15:42:34.555
242.0, -20275.15563668676, 21757.813901640642, -32921.61618728831, -31635.69797703004, -25479.513463916002, -25685.484789071656, -21550.680285773313, -667.7583656022985, -24801.450944119806, -1782.3728063550957, -25778.266880305637, -29986.83214030649, -25886.27050951368, -7651.069182284973, -19914.353777689194, -32135.728852239714, 0.056, 0.9525000000000001, -0.1595, 192.0, 0.0, 0.0, 0.0, 0.0, 0.0, 0.0, 0.0, 0.0, 0.0, 1.6689769545553467E9, 0.0, 2022-11-20 15:42:34.555
244.0, -20320.68614014222, 21557.7881405101, -32966.05145526546, -31665.98459076698, -25521.19946732515, -25721.80637381153, -21589.70643159228, -702.9176596304965, -24873.043581610156, -1844.3094902407518, -25863.181157491348, -30057.977742907733, -25968.01083898674, -7729.1661774118165, -19984.58295876777, -32203.43228619484, 0.056, 0.9525000000000001, -0.1595, 192.0, 0.0, 0.0, 0.0, 0.0, 0.0, 0.0, 0.0, 0.0, 0.0, 1.6689769545553532E9, 0.0, 2022-11-20 15:42:34.555
246.0, -20276.00500297606, 21721.961703534333, -32920.72211751009, -31626.287892614353, -25468.359943432803, -25670.307954586504, -21538.833861212, -650.5028188828014, -24820.092298995532, -1801.1929751864643, -25799.568092771544, -30000.712573613237, -25896.93229161886, -7655.606586409401, -19930.737606374933, -32146.79296574509, 0.056, 0.9525000000000001, -0.1595, 192.0, 0.0, 0.0, 0.0, 0.0, 0.0, 0.0, 0.0, 0.0, 0.0, 1.668976954555358E9, 0.0, 2022-11-20 15:42:34.555
248.0, -20328.576305934945, 21583.33618442252, -32978.32256297142, -31677.965125795025, -25518.629016712788, -25723.95214127924, -21587.627719357937, -701.3306857741698, -24864.996953606245, -1838.3192227267293, -25867.07036102657, -30058.313019074565, -25957.237298159278, -7711.19537486975, -19982.079563388776, -32201.063001282575, 0.056, 0.9525000000000001, -0.1595, 192.0, 0.0, 0.0, 0.0, 0.0, 0.0, 0.0, 0.0, 0.0, 0.0, 1.6689769545553625E9, 0.0, 2022-11-20 15:42:34.555
250.0, -20252.40156083126, 21701.889837013467, -32915.4694575631, -31623.225703623975, -25445.292943154927, -25664.69766672822, -21521.82418368151, -639.9080920109859, -24820.360519928996, -1801.461196119928, -25806.00539517467, -30007.97689056121, -25889.60091943752, -7649.079877028451, -19937.018446566875, -32160.047550207088, 0.055, 0.9532500000000002, -0.16175, 192.0, 0.5, 88.0, 14.5, 104.0, 125.0, 112.0, 0.0, 0.0, 0.0, 1.6689769545553672E9, 0.0, 2022-11-20 15:42:34.555
252.0, -20314.785279606018, 21631.481841979246, -32991.64420266679, -31698.03699231589, -25518.4725545016, -25735.597400140454, -21589.41585891436, -706.0916073431501, -24848.613124920503, -1813.2405654478748, -25852.340561430523, -30045.907800901867, -25936.204306626834, -7695.5938572399455, -19979.173836609585, -32209.064925797575, 0.055, 0.9532500000000002, -0.16175, 192.0, 0.0, 0.0, 0.0, 0.0, 0.0, 0.0, 0.0, 0.0, 0.0, 1.668976954555372E9, 0.0, 2022-11-20 15:42:34.555
254.0, -20255.62021203282, 21655.86759517999, -32932.99322521606, -31642.984645722467, -25454.99360024853, -25677.728733745666, -21532.843593697977, -649.161714215483, -24826.01551127619, -1808.9266787680006, -25814.67787202333, -30022.147896545877, -25891.679631671865, -7661.663909156789, -19962.36532477919, -32193.351649445493, 0.055, 0.9532500000000002, -0.16175, 192.0, 0.0, 0.0, 0.0, 0.0, 0.0, 0.0, 0.0, 0.0, 0.0, 1.6689769545553763E9, 0.0, 2022-11-20 15:42:34.555
0.0, -20330.11857630236, 21651.307839311106, -33003.937662117205, -31714.152600068166, -25519.85836265783, -25740.00069379815, -21595.696699106302, -707.8126916662087, -24856.68210466887, -1819.8343300621905, -25857.660276610884, -30055.27318182864, -25934.08089090358, -7696.644389229345, -19990.126191392683, -32217.290367757127, 0.055, 0.9532500000000002, -0.16175, 192.0, 0.0, 0.0, 0.0, 0.0, 0.0, 0.0, 0.0, 0.0, 0.0, 1.6689769545553813E9, 0.0, 2022-11-20 15:42:34.555
2.0, -20258.704752767655, 21617.04261506112, -32935.31780663941, -31644.482212600975, -25446.768158288975, -25666.575213262466, -21523.96995114922, -636.2647576647709, -24853.508156956217, -1824.4834929088943, -25834.63797982192, -30046.645408468892, -25910.41039352541, -7669.956406349708, -19976.469275530493, -32199.07369602605, 0.055, 0.9532500000000002, -0.16175, 192.0, 0.0, 0.0, 0.0, 0.0, 0.0, 0.0, 0.0, 0.0, 0.0, 1.6689769545553858E9, 0.0, 2022-11-20 15:42:34.555
4.0, -20331.839660625417, 21685.036621694162, -33007.04455459649, -31717.192437314086, -25515.969159122607, -25732.311693705524, -21591.248701959696, -700.1460433180384, -24860.459549481817, -1811.8994607805564, -25854.866308553974, -30056.435472540317, -25938.730053750285, -7684.28387454556, -19981.610176755214, -32200.347745460007, 0.0565, 0.950625, -0.159875, 192.0, 0.5, 104.0, 14.5, 80.0, 125.5, 8.0, 0.0, 0.0, 0.0, 1.668976954555402E9, 0.0, 2022-11-20 15:42:34.555
6.0, -20254.524976554512, 21580.743382065702, -32922.82318148889, -31622.041061167845, -25439.012102962984, -25645.162242074282, -21512.704671943746, -620.1044464235838, -24857.48676746926, -1826.5175016543271, -25837.87898276794, -30052.725082960736, -25926.436594299867, -7671.297511017026, -19977.38569705316, -32188.881300554433, 0.0565, 0.950625, -0.159875, 192.0, 0.0, 0.0, 0.0, 0.0, 0.0, 0.0, 0.0, 0.0, 0.0, 1.6689769545554068E9, 0.0, 2022-11-20 15:42:34.555
8.0, -20338.25461128409, 21703.700328314346, -32988.80553112096, -31694.863044603237, -25513.465763743614, -25719.347681921445, -21583.447943144794, -686.2656100112928, -24843.181651017865, -1798.1307861960872, -25833.252171665692, -30036.36360601945, -25921.720376219797, -7661.082763800951, -19959.504301488912, -32165.188451431808, 0.0565, 0.950625, -0.159875, 192.0, 0.0, 0.0, 0.0, 0.0, 0.0, 0.0, 0.0, 0.0, 0.0, 1.6689769545554116E9, 0.0, 2022-11-20 15:42:34.555
10.0, -20266.885491238296, 21542.16427113584, -32917.21289363061, -31611.513389529395, -25440.956704730597, -25645.005779863095, -21510.31303528703, -616.8857952220196, -24874.630555466483, -1838.878016338112, -25849.703055584796, -30061.28580108712, -25933.253876358736, -7675.723156419177, -19977.81038019781, -32182.71221908477, 0.0565, 0.950625, -0.159875, 192.0, 0.0, 0.0, 0.0, 0.0, 0.0, 0.0, 0.0, 0.0, 0.0, 1.668976954555416E9, 0.0, 2022-11-20 15:42:34.555
12.0, -20341.137986318827, 21722.341683190072, -32993.29823175648, -31704.027259829913, -25520.886542902776, -25727.70723434773, -21587.113629235464, -690.4230344799798, -24842.846374851033, -1797.1920129289645, -25828.737119285717, -30034.821335652035, -25915.99832963924, -7656.947691076719, -19948.686057172545, -32156.717140283246, 0.0565, 0.950625, -0.159875, 192.0, 0.0, 0.0, 0.0, 0.0, 0.0, 0.0, 0.0, 0.0, 0.0, 1.6689769545554209E9, 0.0, 2022-11-20 15:42:34.555
14.0, -20275.5356163425, 21508.659006197337, -32934.08846069437, -31637.620227053194, -25460.760350318, -25671.80552146501, -21528.529707018104, -633.5378448412234, -24887.43810503937, -1855.5747694462264, -25859.560174889586, -30080.75417050769, -25949.168318410913, -7703.394616054848, -19991.109668148718, -32202.89584432791, 0.05625, 0.9493125, -0.1599375, 192.0, 0.5, 96.0, 14.5, 80.0, 125.5, 0.0, 0.0, 0.0, 0.0, 1.6689769545554254E9, 0.0, 2022-11-20 15:42:34.555
16.0, -20332.10788155888, 21738.50199443126, -32980.08835078339, -31700.22746327251, -25508.52602821899, -25727.66253085882, -21580.542216365604, -683.6728076544771, -24841.549973672627, -1811.4524258914503, -25822.612741304965, -30042.912667144858, -25915.46188777231, -7676.1031360749175, -19950.921231618075, -32166.753073543678, 0.05625, 0.9493125, -0.1599375, 192.0, 0.0, 0.0, 0.0, 0.0, 0.0, 0.0, 0.0, 0.0, 0.0, 1.66897695455543E9, 0.0, 2022-11-20 15:42:34.555
18.0, -20274.462732608645, 21493.459819967728, -32933.08263219388, -31636.457936341518, -25459.486300884048, -25673.772474977075, -21531.793061708577, -637.7176210543658, -24881.805465436635, -1862.9955486053884, -25860.566003390075, -30083.726952520246, -25950.196498655856, -7714.48108130468, -19994.037746672362, -32209.891940342422, 0.05625, 0.9493125, -0.1599375, 192.0, 0.0, 0.0, 0.0, 0.0, 0.0, 0.0, 0.0, 0.0, 0.0, 1.6689769545554347E9, 0.0, 2022-11-20 15:42:34.555
20.0, -20320.328512230935, 21748.560279436148, -32979.14957751627, -31695.041858558878, -25499.317109503405, -25724.510934890623, -21575.825998285534, -681.8846680980525, -24817.052461749612, -1793.7274925383917, -25803.367889328943, -30019.443335466785, -25884.34825949052, -7652.7455631191215, -19935.40912096609, -32154.12433792643, 0.05625, 0.9493125, -0.1599375, 192.0, 0.0, 0.0, 0.0, 0.0, 0.0, 0.0, 0.0, 0.0, 0.0, 1.668976954555442E9, 0.0, 2022-11-20 15:42:34.555
22.0, -20284.20809319116, 21472.58329064647, -32953.93680977068, -31655.79219529536, -25468.404646921714, -25691.095076929938, -21544.89118395939, -655.3307956851478, -24884.890006171467, -1868.9634643749553, -25875.87694834196, -30094.612252069983, -25955.65032430295, -7724.874642476398, -20010.421575358105, -32233.629492953958, 0.05625, 0.9493125, -0.1599375, 192.0, 0.0, 0.0, 0.0, 0.0, 0.0, 0.0, 0.0, 0.0, 0.0, 1.6689769545554469E9, 0.0, 2022-11-20 15:42:34.555
24.0, -20317.825116851942, 21738.390235708983, -32976.48971992609, -31697.254681259954, -25493.215083267103, -25720.46526914421, -21567.44409411479, -677.5931331626336, -24819.06411875059, -1796.432053617484, -25807.570017286544, -30025.835934381, -25885.21997752428, -7655.293661987026, -19942.494623958424, -32169.50233811168, 0.051125000000000004, 0.94865625, -0.15996875, 192.0, 0.5, 56.0, 14.5, 80.0, 125.5, 0.0, 0.0, 0.0, 0.0, 1.6689769545554516E9, 0.0, 2022-11-20 15:42:34.555
26.0, -20293.037032251006, 21468.649383622334, -32953.06509173693, -31656.149823206644, -25469.544585888932, -25687.116466416894, -21541.493718802183, -650.0781357381506, -24896.289395843673, -1868.069394596743, -25883.677707156865, -30101.161313195385, -25959.114844693526, -7728.585032055978, -20014.355482382238, -32238.43511801185, 0.051125000000000004, 0.94865625, -0.15996875, 192.0, 0.0, 0.0, 0.0, 0.0, 0.0, 0.0, 0.0, 0.0, 0.0, 1.668976954555456E9, 0.0, 2022-11-20 15:42:34.555
28.0, -20309.06323302546, 21736.602096152557, -32964.28566745349, -31679.68621011808, -25483.581481406865, -25703.366184635903, -21556.447035842782, -664.6291213785555, -24814.616121603984, -1784.5409255672605, -25796.483552036712, -30013.27425399712, -25872.814759351586, -7638.976888534652, -19932.54809767581, -32150.8386314915, 0.051125000000000004, 0.94865625, -0.15996875, 192.0, 0.0, 0.0, 0.0, 0.0, 0.0, 0.0, 0.0, 0.0, 0.0, 1.6689769545554607E9, 0.0, 2022-11-20 15:42:34.555
30.0, -20304.078794011926, 21477.992412804655, -32967.4819669106, -31663.45884364353, -25493.99739432304, -25701.62274856839, -21558.45869284376, -668.6524353805107, -24900.893855201466, -1862.1014788271762, -25887.70102115882, -30099.931967250344, -25967.250879675255, -7730.417875101313, -20021.01630222992, -32235.864667399488, 0.051125000000000004, 0.94865625, -0.15996875, 192.0, 0.0, 0.0, 0.0, 0.0, 0.0, 0.0, 0.0, 0.0, 0.0, 1.6689769545554655E9, 0.0, 2022-11-20 15:42:34.555
32.0, -20282.15173270127, 21731.952933305853, -32940.81633577542, -31653.668779572105, -25473.210271979606, -25685.17186464928, -21536.68809374429, -644.9819380023406, -24815.48783963774, -1778.9306377089786, -25791.074429878525, -30006.434620193795, -25877.3074599871, -7637.769894334066, -19935.140900032628, -32147.374111100926, 0.051125000000000004, 0.94865625, -0.15996875, 192.0, 0.0, 0.0, 0.0, 0.0, 0.0, 0.0, 0.0, 0.0, 0.0, 1.66897695455547E9, 0.0, 2022-11-20 15:42:34.555
34.0, -20314.6958726282, 21493.616282178915, -32970.67826636771, -31669.40440766864, -25496.52314144649, -25709.535266105566, -21558.41398935485, -667.1772202464605, -24886.25346258324, -1844.108324540654, -25874.357029719, -30084.19633915381, -25962.311144150633, -7719.24200287366, -19999.849200230743, -32219.592597436025, 0.0475625, 0.9493281250000001, -0.160984375, 192.0, 0.5, 48.0, 14.5, 88.0, 125.0, 120.0, 0.0, 0.0, 0.0, 1.6689769545554745E9, 0.0, 2022-11-20 15:42:34.555
36.0, -20291.383003161314, 21691.38451711947, -32941.017501475515, -31648.147898691645, -25463.867242797285, -25680.36623959139, -21528.730872718203, -636.8906065095194, -24828.25068572172, -1792.7663675268136, -25802.339709084, -30017.342271487985, -25887.499855458722, -7644.341307203926, -19930.26821974137, -32149.16225065735, 0.0475625, 0.9493281250000001, -0.160984375, 192.0, 0.0, 0.0, 0.0, 0.0, 0.0, 0.0, 0.0, 0.0, 0.0, 1.6689769545554793E9, 0.0, 2022-11-20 15:42:34.555
38.0, -20326.83286986743, 21515.63275046739, -32992.82884512292, -31687.978707311002, -25505.776763650985, -25720.12999297738, -21573.344954650995, -679.8283076081643, -24901.385593579485, -1852.713746155947, -25883.722410645772, -30089.069019445065, -25971.408304143944, -7717.833842972976, -20007.00175845644, -32221.403088736904, 0.0475625, 0.9493281250000001, -0.160984375, 192.0, 0.0, 0.0, 0.0, 0.0, 0.0, 0.0, 0.0, 0.0, 0.0, 1.668976954555484E9, 0.0, 2022-11-20 15:42:34.555
40.0, -20259.10708416785, 21685.215435649807, -32933.48496359408, -31636.435584597064, -25448.3551321453, -25662.93187891625, -21521.108927858942, -625.714734281866, -24837.549011415125, -1795.0462454612548, -25803.34553758449, -30018.124582543922, -25893.17719855037, -7640.630917624345, -19954.631621197655, -32163.80264327558, 0.0475625, 0.9493281250000001, -0.160984375, 192.0, 0.0, 0.0, 0.0, 0.0, 0.0, 0.0, 0.0, 0.0, 0.0, 1.6689769545554883E9, 0.0, 2022-11-20 15:42:34.555
42.0, -20316.215791251157, 21564.18073942432, -32986.72681888662, -31679.976782796002, -25499.406516481224, -25710.764612050607, -21573.680230817823, -677.1460982735275, -24870.54018623116, -1818.8061498172463, -25853.54755563111, -30058.670646985847, -25944.697969519853, -7690.587066481957, -19998.28457811887, -32206.226254251753, 0.0475625, 0.9493281250000001, -0.160984375, 192.0, 0.0, 0.0, 0.0, 0.0, 0.0, 0.0, 0.0, 0.0, 0.0, 1.668976954555493E9, 0.0, 2022-11-20 15:42:34.555
44.0, -20279.648337322276, 21630.543068712126, -32936.189524673166, -31636.97202646399, -25449.293905412425, -25664.02711439456, -21526.853326183955, -630.2297866618379, -24839.29244748264, -1802.0646932202212, -25808.73230799822, -30022.79609713508, -25892.685460172353, -7640.921490302264, -19958.6102317107, -32167.55773634407, 0.0475625, 0.9493281250000001, -0.160984375, 192.0, 0.0, 0.0, 0.0, 0.0, 0.0, 0.0, 0.0, 0.0, 0.0, 1.6689769545554976E9, 0.0, 2022-11-20 15:42:34.555
0.0, -10165.931006184937, 10753.915995826244, -16478.890654908497, -15833.729902950516, -12759.023935678475, -12865.30648056346, -10796.585475991425, -356.01858568413087, -12453.162664552054, -938.0133078114162, -12940.207176233194, -15050.413018514279, -12978.808638907509, -3857.262892396795, -10007.188917063346, -16114.132537142343, 0.045, 0.9500000000000001, -0.158, 192.0, 0.5, 56.0, 14.5, 88.0, 125.5, 16.0, 0.0, 0.0, 0.0, 1.6689769551324892E9, 0.0, 2022-11-20 15:42:35.132
2.0, -20259.86704347933, 21572.65205057288, -32888.78147468346, -31597.185921333545, -25448.80216703441, -25660.629649237355, -21522.69590171527, -641.7409350563211, -24845.8638603525, -1832.4630656794388, -25803.5914067735, -30032.340292017496, -25915.97597789478, -7685.066185601496, -19940.080635557253, -32172.720989313246, 0.045, 0.9500000000000001, -0.158, 192.0, 0.0, 0.0, 0.0, 0.0, 0.0, 0.0, 0.0, 0.0, 0.0, 1.668976955132522E9, 0.0, 2022-11-20 15:42:35.132
4.0, -20332.867840870364, 21670.19506337584, -32960.06118775144, -31676.109931005234, -25519.545438235455, -25729.830650070984, -21592.27688220464, -713.6017934801333, -24834.0621392801, -1807.0938357226653, -25809.179342887324, -30027.042928581588, -25924.916675676905, -7685.155592579316, -19931.654027897603, -32158.8405560065, 0.045, 0.9500000000000001, -0.158, 192.0, 0.0, 0.0, 0.0, 0.0, 0.0, 0.0, 0.0, 0.0, 0.0, 1.668976955132573E9, 0.0, 2022-11-20 15:42:35.132
6.0, -20258.10125566736, 21542.745416491678, -32896.58223349837, -31604.606700492706, -25447.61752457828, -25661.56842250448, -21527.657988984345, -651.5757026166561, -24855.54216570165, -1841.9625570729445, -25816.73423251322, -30047.02538812463, -25930.281094346177, -7693.135165349861, -19953.603440952713, -32184.880338296934, 0.045, 0.9500000000000001, -0.158, 192.0, 0.0, 0.0, 0.0, 0.0, 0.0, 0.0, 0.0, 0.0, 0.0, 1.6689769551326287E9, 0.0, 2022-11-20 15:42:35.132
8.0, -20319.92618083074, 21720.531191889193, -32962.18460347469, -31678.613326384228, -25505.642653184255, -25726.343777935956, -21585.7948763126, -711.3666190346025, -24821.29929319612, -1794.9344867389784, -25792.929624668315, -30011.374355718417, -25908.734012691264, -7665.7095749032, -19918.265332968873, -32157.298285639084, 0.056, 0.9500000000000001, -0.154, 192.0, 0.5, 96.0, 14.5, 88.0, 125.5, 24.0, 0.0, 0.0, 0.0, 1.6689769551326616E9, 0.0, 2022-11-20 15:42:35.132
10.0, -20254.6814387657, 21531.033102397098, -32902.03605914546, -31606.864226682694, -25442.811899520388, -25660.339076559434, -21524.12641336041, -650.3687084160696, -24867.902680385436, -1849.3833362321063, -25826.1443169289, -30050.691074215305, -25934.639684514965, -7698.633694485867, -19955.74920842042, -32197.777294847645, 0.056, 0.9500000000000001, -0.154, 192.0, 0.0, 0.0, 0.0, 0.0, 0.0, 0.0, 0.0, 0.0, 0.0, 1.668976955132687E9, 0.0, 2022-11-20 15:42:35.132
12.0, -20319.00975930807, 21743.06175030014, -32955.412024904734, -31673.762997837428, -25501.395821737748, -25720.04058599956, -21580.184588454318, -702.6270869525775, -24815.621950104472, -1784.4738703338946, -25787.72166821023, -30001.22666373571, -25893.691288672842, -7653.7066881307, -19907.022405507854, -32149.36341635745, 0.056, 0.9500000000000001, -0.154, 192.0, 0.0, 0.0, 0.0, 0.0, 0.0, 0.0, 0.0, 0.0, 0.0, 1.668976955132694E9, 0.0, 2022-11-20 15:42:35.132
14.0, -20275.937947742696, 21502.936959616778, -32917.83874247536, -31618.844761710738, -25465.163643975695, -25675.31474534449, -21538.87856470091, -662.4610021663907, -24881.760761947724, -1852.7360979004025, -25843.176346203847, -30060.391731308908, -25948.85539398854, -7709.876621946886, -19973.09416211774, -32211.300100243105, 0.056, 0.9500000000000001, -0.154, 192.0, 0.0, 0.0, 0.0, 0.0, 0.0, 0.0, 0.0, 0.0, 0.0, 1.6689769551327012E9, 0.0, 2022-11-20 15:42:35.132
16.0, -20325.759986133577, 21752.002448082265, -32964.19626047567, -31680.781445596393, -25509.643615441753, -25720.644083099854, -21581.570396610547, -702.0459415967396, -24831.58109564556, -1788.7430535248584, -25803.859627706963, -30010.301471984563, -25904.12955333347, -7659.764010878088, -19925.84257433922, -32162.238021163706, 0.056, 0.9500000000000001, -0.154, 192.0, 0.0, 0.0, 0.0, 0.0, 0.0, 0.0, 0.0, 0.0, 0.0, 1.6689769551327074E9, 0.0, 2022-11-20 15:42:35.132
18.0, -20285.817418791943, 21484.9214535858, -32929.14872516975, -31630.445317083042, -25463.263745696993, -25676.231166867157, -21537.44805305577, -661.611635877089, -24887.125180616997, -1854.4571822234611, -25860.364837689976, -30071.589955281015, -25951.112920178526, -7714.369322582403, -19978.63739474266, -32211.925949087854, 0.06, 0.9500000000000001, -0.162, 192.0, 0.5, 112.0, 14.5, 88.0, 125.0, 120.0, 0.0, 0.0, 0.0, 1.6689769551327136E9, 0.0, 2022-11-20 15:42:35.132
20.0, -20351.50919574609, 21729.650703626958, -32983.86579559634, -31702.9320243516, -25517.71259519012, -25736.491469918667, -21590.444039159305, -714.7640841918093, -24834.889153824945, -1809.5748793572045, -25817.315377869058, -30026.84176288149, -25900.50857073171, -7669.621130182878, -19924.14384176062, -32159.712274040256, 0.06, 0.9500000000000001, -0.162, 192.0, 0.0, 0.0, 0.0, 0.0, 0.0, 0.0, 0.0, 0.0, 0.0, 1.6689769551327195E9, 0.0, 2022-11-20 15:42:35.132
22.0, -20314.584113905923, 21462.659116108312, -32951.25460043605, -31654.339331905765, -25487.984775064564, -25700.214588667703, -21557.83284399901, -684.8798018550638, -24916.093041431075, -1902.356970591184, -25901.78262016566, -30116.360499424994, -25977.398571657966, -7755.429477146802, -20001.123249664695, -32238.971559878777, 0.06, 0.9500000000000001, -0.162, 192.0, 0.0, 0.0, 0.0, 0.0, 0.0, 0.0, 0.0, 0.0, 0.0, 1.6689769551327264E9, 0.0, 2022-11-20 15:42:35.132
24.0, -20313.89120982781, 21758.126826063017, -32944.19144918817, -31660.530765119885, -25489.72821113208, -25701.37687937938, -21557.251698643173, -683.449290209924, -24820.338168184542, -1805.395103144062, -25800.842142205496, -30016.448201709773, -25886.1587507914, -7659.696955644722, -19910.41987066506, -32145.585971544504, 0.06, 0.9500000000000001, -0.162, 192.0, 0.0, 0.0, 0.0, 0.0, 0.0, 0.0, 0.0, 0.0, 0.0, 1.6689769551327329E9, 0.0, 2022-11-20 15:42:35.132
26.0, -20309.39850919229, 21488.36362223192, -32944.794946288464, -31639.095442187245, -25495.494961201544, -25692.70440253072, -21559.710390533255, -681.0353018087509, -24891.34966031905, -1865.4989439843828, -25872.63594539594, -30082.0505716861, -25964.65807731844, -7724.360552353925, -19982.86187444471, -32207.008565307686, 0.06, 0.9500000000000001, -0.162, 192.0, 0.0, 0.0, 0.0, 0.0, 0.0, 0.0, 0.0, 0.0, 0.0, 1.6689769551327395E9, 0.0, 2022-11-20 15:42:35.132
28.0, -20304.97286379014, 21754.192919038884, -32939.832859019385, -31647.365587635708, -25496.031403068475, -25693.285547886557, -21561.632640556414, -680.5659151751894, -24818.795897817123, -1798.331951896185, -25792.549645012576, -30003.953576559255, -25893.3113090171, -7649.258690984094, -19920.254638225393, -32139.841573219488, 0.06, 0.9520000000000001, -0.164, 192.0, 0.5, 112.0, 14.5, 96.0, 125.0, 112.0, 0.0, 0.0, 0.0, 1.6689769551327448E9, 0.0, 2022-11-20 15:42:35.132
30.0, -20312.3936429493, 21510.849477153955, -32953.91445802623, -31647.320884146797, -25500.501751959535, -25698.672318300287, -21567.622908070436, -690.6242001800777, -24893.54013127567, -1867.264731796352, -25873.127683773957, -30079.748342007202, -25979.365525170033, -7730.082598934484, -19994.6188920282, -32213.602329922003, 0.06, 0.9520000000000001, -0.164, 192.0, 0.0, 0.0, 0.0, 0.0, 0.0, 0.0, 0.0, 0.0, 0.0, 1.6689769551327498E9, 0.0, 2022-11-20 15:42:35.132
32.0, -20294.15461947377, 21744.089930545084, -32926.824143746395, -31636.860267741715, -25474.394914435736, -25678.734562246154, -21543.41596882534, -665.1655632454829, -24815.353729171005, -1793.9733617274, -25784.078333864014, -29998.387992189884, -25882.537768189643, -7645.101266515407, -19907.670606097057, -32133.53838128309, 0.06, 0.9520000000000001, -0.164, 192.0, 0.0, 0.0, 0.0, 0.0, 0.0, 0.0, 0.0, 0.0, 0.0, 1.6689769551327548E9, 0.0, 2022-11-20 15:42:35.132
34.0, -20327.07873905644, 21523.567619749025, -32964.62094362032, -31660.97780000899, -25500.99349033755, -25706.60718758192, -21573.389658139906, -697.3967787500357, -24893.83070395359, -1862.5708654607374, -25875.608727408497, -30080.217728640764, -25965.57449884111, -7726.081636676984, -19979.218540098496, -32206.874454840956, 0.06, 0.9520000000000001, -0.164, 192.0, 0.0, 0.0, 0.0, 0.0, 0.0, 0.0, 0.0, 0.0, 0.0, 1.6689769551327596E9, 0.0, 2022-11-20 15:42:35.132
36.0, -20288.365517659848, 21705.86844752651, -32919.38101284278, -31625.68439551406, -25462.928469530165, -25665.27881208406, -21530.161384363342, -654.7496503293098, -24832.475165423773, -1810.714818324425, -25799.366927071445, -30013.69893714177, -25886.046992069125, -7652.522045674568, -19909.99518752041, -32142.568486043037, 0.06, 0.9520000000000001, -0.164, 192.0, 0.0, 0.0, 0.0, 0.0, 0.0, 0.0, 0.0, 0.0, 0.0, 1.6689769551327646E9, 0.0, 2022-11-20 15:42:35.132
38.0, -20331.392625736313, 21554.055399186065, -32956.820184805416, -31658.49675637445, -25506.670833429198, -25707.076574215484, -21570.88626276091, -694.2451827818373, -24880.93374740288, -1844.55535942976, -25857.436759166332, -30062.582202265527, -25950.621181800507, -7709.697807991244, -19962.499435245925, -32193.865739567966, 0.054, 0.9540000000000001, -0.16, 192.0, 0.5, 88.0, 14.5, 104.0, 125.5, 0.0, 0.0, 0.0, 0.0, 1.6689769551327755E9, 0.0, 2022-11-20 15:42:35.132
40.0, -20285.280976925013, 21679.024002435686, -32907.48988479256, -31616.944863432036, -25457.631106094257, -25660.808463192996, -21525.266352327628, -644.7137170688769, -24837.34784571503, -1808.7702165568135, -25795.656537491865, -30009.429753950808, -25886.806951380608, -7650.622147395868, -19919.338216702727, -32147.463518078748, 0.054, 0.9540000000000001, -0.16, 192.0, 0.0, 0.0, 0.0, 0.0, 0.0, 0.0, 0.0, 0.0, 0.0, 1.6689769551327803E9, 0.0, 2022-11-20 15:42:35.132
42.0, -20340.802710152, 21579.134056464918, -32971.39352219028, -31676.445207172063, -25519.411327768725, -25721.493449389156, -21581.74921056619, -698.9390491174519, -24885.58291024958, -1844.6000629186706, -25861.3036109571, -30061.777539465136, -25953.079873690593, -7708.311999835015, -19968.199130082026, -32193.396352934404, 0.054, 0.9540000000000001, -0.16, 192.0, 0.0, 0.0, 0.0, 0.0, 0.0, 0.0, 0.0, 0.0, 0.0, 1.6689769551327853E9, 0.0, 2022-11-20 15:42:35.132
44.0, -20263.130398169804, 21653.028923634163, -32900.89612017824, -31609.4123255506, -25450.545603101924, -25655.444044523723, -21512.615264965923, -629.4698273503575, -24837.571363159583, -1814.9840015153889, -25799.992775916195, -30014.19067551979, -25889.109181059503, -7649.124580517362, -19926.84840283971, -32148.35758785696, 0.054, 0.9540000000000001, -0.16, 192.0, 0.0, 0.0, 0.0, 0.0, 0.0, 0.0, 0.0, 0.0, 0.0, 1.6689769551327903E9, 0.0, 2022-11-20 15:42:35.132
46.0, -20335.058311826982, 21624.17282154236, -32977.026161793015, -31685.765884609926, -25523.99343538206, -25729.160097737327, -21580.877492532432, -697.9108688725078, -24870.96486937581, -1831.5466441567714, -25849.747759073707, -30052.903896916378, -25941.412263084923, -7694.163345594806, -19962.56649047929, -32185.9979255197, 0.054, 0.9540000000000001, -0.16, 192.0, 0.0, 0.0, 0.0, 0.0, 0.0, 0.0, 0.0, 0.0, 0.0, 1.6689769551327953E9, 0.0, 2022-11-20 15:42:35.132
48.0, -20245.070188649916, 21632.71118792429, -32889.921413650685, -31593.743752687427, -25438.49801284051, -25635.193364047216, -21495.40442173534, -609.1520916404834, -24841.929953328367, -1817.26387944983, -25799.456334049268, -30018.0351755661, -25893.80304739512, -7652.387935207837, -19933.79979536531, -32152.60441930347, 0.048, 0.9580000000000001, -0.162, 192.0, 0.5, 64.0, 14.5, 120.0, 125.0, 120.0, 0.0, 0.0, 0.0, 1.6689769551328003E9, 0.0, 2022-11-20 15:42:35.132
50.0, -20330.25268676909, 21667.021115663185, -32968.24192622208, -31677.182814739088, -25522.361758036826, -25713.916208018807, -21577.03299248612, -687.3384937451475, -24850.423616221386, -1811.07244623571, -25823.97619771674, -30030.708614672258, -25923.150887864937, -7673.130354062361, -19948.66370542809, -32160.114605440453, 0.048, 0.9580000000000001, -0.162, 192.0, 0.0, 0.0, 0.0, 0.0, 0.0, 0.0, 0.0, 0.0, 0.0, 1.6689769551328068E9, 0.0, 2022-11-20 15:42:35.132
52.0, -20247.953563684652, 21589.348803680994, -32885.24989905953, -31589.228700307456, -25440.643780308223, -25627.370253487858, -21500.366509004416, -610.0238096742404, -24852.09999705553, -1826.428094676506, -25803.993738173693, -30028.249922782175, -25906.99057662375, -7657.864112599387, -19951.256507784907, -32159.622867062437, 0.048, 0.9580000000000001, -0.162, 192.0, 0.0, 0.0, 0.0, 0.0, 0.0, 0.0, 0.0, 0.0, 0.0, 1.6689769551328135E9, 0.0, 2022-11-20 15:42:35.132
54.0, -20333.560744948478, 21688.232921151273, -32967.12433899931, -31686.928175321602, -25528.866115673318, -25713.71504231871, -21583.06796348905, -689.8865926130525, -24836.34201721454, -1798.2201931739085, -25801.53504628361, -30020.963254089744, -25906.5658934791, -7651.583272407445, -19944.46157747049, -32149.9892652022, 0.048, 0.9580000000000001, -0.162, 192.0, 0.0, 0.0, 0.0, 0.0, 0.0, 0.0, 0.0, 0.0, 0.0, 1.6689769551328216E9, 0.0, 2022-11-20 15:42:35.132
56.0, -20260.761113257544, 21544.82412872602, -32903.64538474624, -31617.0119186654, -25453.98777174804, -25647.665637453276, -21513.889314399876, -623.0548766916844, -24865.10871232852, -1846.4329059640058, -25824.892619239406, -30057.910687674368, -25919.12757386298, -7678.114793075895, -19974.882301674166, -32185.37207667495, 0.048, 0.9580000000000001, -0.162, 192.0, 0.0, 0.0, 0.0, 0.0, 0.0, 0.0, 0.0, 0.0, 0.0, 1.6689769551328275E9, 0.0, 2022-11-20 15:42:35.132
58.0, -20339.97569560715, 21707.410717893927, -32984.46929269663, -31706.910634864646, -25531.63773198578, -25736.782042596584, -21592.32158569355, -703.2529357973261, -24847.003799319722, -1817.5321003832937, -25821.83043024903, -30042.666797955848, -25914.50076276073, -7673.242112784638, -19959.772522422376, -32171.98338174622, 0.053000000000000005, 0.9520000000000001, -0.162, 192.0, 0.5, 104.0, 14.5, 72.0, 125.0, 120.0, 0.0, 0.0, 0.0, 1.6689769551328342E9, 0.0, 2022-11-20 15:42:35.132
60.0, -20262.90688072525, 21514.20223882225, -32908.83098945987, -31618.978872177468, -25451.41732113568, -25664.496501028123, -21517.55500049055, -635.6165570755669, -24875.055238611134, -1856.200618290975, -25837.342540901012, -30067.097254645498, -25929.029396656682, -7692.866944416398, -19987.19811286904, -32201.62179489396, 0.053000000000000005, 0.9520000000000001, -0.162, 192.0, 0.0, 0.0, 0.0, 0.0, 0.0, 0.0, 0.0, 0.0, 0.0, 1.668976955132844E9, 0.0, 2022-11-20 15:42:35.132
62.0, -20334.097186815405, 21723.995712279764, -32966.8337663214, -31685.050628787358, -25509.218932297103, -25724.332120934978, -21571.959146494766, -689.8865926130525, -24826.037863020643, -1796.0967774506544, -25797.24351134819, -30019.868018611436, -25889.153884548414, -7648.968118306175, -19933.933905832044, -32159.488756595703, 0.053000000000000005, 0.9520000000000001, -0.162, 192.0, 0.0, 0.0, 0.0, 0.0, 0.0, 0.0, 0.0, 0.0, 0.0, 1.6689769551328557E9, 0.0, 2022-11-20 15:42:35.132
64.0, -20276.139113442794, 21486.150799530842, -32914.307166851424, -31614.620282008684, -25451.394969391225, -25661.92605041576, -21513.7775556776, -634.8342460196312, -24885.73937246077, -1862.7496794163799, -25848.02667475065, -30078.0496094286, -25940.071158417602, -7695.236229328661, -19983.6665372451, -32207.99204206372, 0.053000000000000005, 0.9520000000000001, -0.162, 192.0, 0.0, 0.0, 0.0, 0.0, 0.0, 0.0, 0.0, 0.0, 0.0, 1.6689769551328633E9, 0.0, 2022-11-20 15:42:35.132
66.0, -20320.328512230935, 21747.241526513284, -32953.534478370486, -31672.08661700328, -25502.356946749325, -25706.428373626277, -21557.855195743465, -674.4415371944353, -24814.81728730408, -1784.8091465007242, -25781.91021465185, -30009.809733606548, -25879.78850362164, -7631.779626820044, -19919.40527193609, -32137.673454007323, 0.053000000000000005, 0.9520000000000001, -0.162, 192.0, 0.0, 0.0, 0.0, 0.0, 0.0, 0.0, 0.0, 0.0, 0.0, 1.6689769551328702E9, 0.0, 2022-11-20 15:42:35.132
68.0, -20292.478238639622, 21468.895252811344, -32919.73864075406, -31629.17126764909, -25470.863338811796, -25671.80552146501, -21527.188602350787, -640.869217022564, -24890.634404496483, -1871.3551010316733, -25851.87117479696, -30083.52578682015, -25946.731978265285, -7706.546212023046, -19992.76369723841, -32202.18058850534, 0.05550000000000001, 0.9500000000000001, -0.16, 192.0, 0.5, 104.0, 14.5, 80.0, 125.5, 8.0, 0.0, 0.0, 0.0, 1.6689769551328764E9, 0.0, 2022-11-20 15:42:35.132
70.0, -20330.230335024637, 21728.801337337656, -32950.89697252476, -31676.55696589434, -25505.933225862173, -25710.138763205858, -21562.50435859017, -675.7155866283878, -24826.507249654205, -1812.88293753659, -25796.05886889206, -30027.981701848712, -25890.49498921573, -7650.555092162502, -19936.347894233215, -32151.01744544714, 0.05550000000000001, 0.9500000000000001, -0.16, 192.0, 0.0, 0.0, 0.0, 0.0, 0.0, 0.0, 0.0, 0.0, 0.0, 1.6689769551328855E9, 0.0, 2022-11-20 15:42:35.132
72.0, -20296.21097996366, 21463.68729635326, -32922.44320183316, -31626.578465292274, -25467.309411443402, -25671.827873209462, -21525.467518027726, -643.8196472906646, -24893.987166164778, -1875.043138866799, -25864.16463424738, -30093.986403225234, -25952.36461786802, -7707.127357378884, -19994.373022839194, -32214.33993748903, 0.05550000000000001, 0.9500000000000001, -0.16, 192.0, 0.0, 0.0, 0.0, 0.0, 0.0, 0.0, 0.0, 0.0, 0.0, 1.6689769551328917E9, 0.0, 2022-11-20 15:42:35.132
74.0, -20311.857201082374, 21737.898497330963, -32936.88242875128, -31654.65225632814, -25474.216100480095, -25688.971661206684, -21533.067111142533, -653.4308974064467, -24813.990272759234, -1794.8450797611572, -25781.284365807103, -30007.21693124973, -25865.371628447967, -7624.090626727418, -19909.279931697838, -32137.382881329406, 0.05550000000000001, 0.9500000000000001, -0.16, 192.0, 0.0, 0.0, 0.0, 0.0, 0.0, 0.0, 0.0, 0.0, 0.0, 1.6689769551328988E9, 0.0, 2022-11-20 15:42:35.132
76.0, -20300.748384088085, 21471.219834234696, -32945.8231265334, -31646.35975913522, -25472.89734755723, -25685.529492560567, -21532.195393108774, -655.1743334739606, -24888.198064350854, -1870.3716242756398, -25864.54461390312, -30088.018487455665, -25950.487071333777, -7708.870793446397, -19992.160200138118, -32219.48083871375, 0.05550000000000001, 0.9500000000000001, -0.16, 192.0, 0.0, 0.0, 0.0, 0.0, 0.0, 0.0, 0.0, 0.0, 0.0, 1.6689769551329055E9, 0.0, 2022-11-20 15:42:35.132
78.0, -20299.67550035423, 21717.24548545426, -32944.593780588366, -31660.463709886517, -25477.300641214926, -25687.809370495008, -21533.35768382045, -654.5931881181226, -24811.039842491133, -1804.6351438325817, -25780.993793129182, -30013.497771441675, -25867.986782549237, -7637.434618167236, -19926.62488539516, -32149.11754716844, 0.05475000000000001, 0.9500000000000001, -0.161, 192.0, 0.5, 88.0, 14.5, 88.0, 125.0, 120.0, 0.0, 0.0, 0.0, 1.6689769551329129E9, 0.0, 2022-11-20 15:42:35.132
80.0, -20311.499573171088, 21481.747505873147, -32965.33619944289, -31668.331523934787, -25495.830237368376, -25701.734507290665, -21549.272125872627, -667.5124964132901, -24887.549863761647, -1877.3453685456955, -25863.15880574689, -30093.785237525135, -25953.348094624056, -7724.628773287389, -20001.547932809346, -32221.000757336707, 0.05475000000000001, 0.9500000000000001, -0.161, 192.0, 0.0, 0.0, 0.0, 0.0, 0.0, 0.0, 0.0, 0.0, 0.0, 1.6689769551329198E9, 0.0, 2022-11-20 15:42:35.132
82.0, -20288.901959526775, 21704.929674259387, -32930.0204432035, -31650.964218493013, -25467.84585331033, -25677.54991979002, -21526.78627095059, -642.6350048345333, -24811.777450058158, -1809.753693312847, -25776.970479127227, -30015.352966231465, -25866.466863926278, -7638.708667601189, -19926.826051095253, -32140.914456953346, 0.05475000000000001, 0.9500000000000001, -0.161, 192.0, 0.0, 0.0, 0.0, 0.0, 0.0, 0.0, 0.0, 0.0, 0.0, 1.6689769551329265E9, 0.0, 2022-11-20 15:42:35.132
84.0, -20330.856183869386, 21496.678471169293, -32967.61607737733, -31681.049666529856, -25508.43662124117, -25719.168867965804, -21564.940698735798, -683.3598832321028, -24885.560558505127, -1869.0975748416872, -25863.605840636, -30091.415952612875, -25950.71058877833, -7719.487872062668, -19996.25056937344, -32215.36811773397, 0.05475000000000001, 0.9500000000000001, -0.161, 192.0, 0.0, 0.0, 0.0, 0.0, 0.0, 0.0, 0.0, 0.0, 0.0, 1.6689769551329327E9, 0.0, 2022-11-20 15:42:35.132
86.0, -20289.39369790479, 21664.540072028645, -32916.18471338567, -31640.056567198822, -25453.89836477022, -25674.286565099548, -21515.744509189666, -635.0130599752737, -24826.753118843215, -1820.460178906939, -25791.454409534268, -30025.053623325068, -25874.759361119195, -7643.044906025519, -19931.13993777513, -32157.45474785027, 0.05475000000000001, 0.9500000000000001, -0.161, 192.0, 0.0, 0.0, 0.0, 0.0, 0.0, 0.0, 0.0, 0.0, 0.0, 1.6689769551329396E9, 0.0, 2022-11-20 15:42:35.132
88.0, -20353.856128913896, 21502.15464856084, -32977.98728680459, -31697.32173649332, -25521.13241209178, -25738.123147263905, -21576.98828899721, -697.8885171280524, -24893.0260411532, -1864.6719294395364, -25869.573756405563, -30089.471350845262, -25950.88940273397, -7714.86106096042, -19988.986252425464, -32225.560513205593, 0.05437500000000001, 0.9550000000000001, -0.1605, 192.0, 0.5, 88.0, 15.0, 0.0, 125.5, 0.0, 0.0, 0.0, 0.0, 1.6689769551329455E9, 0.0, 2022-11-20 15:42:35.132
90.0, -20294.40048866278, 21618.562533684082, -32920.3197861099, -31642.78348002237, -25464.940126531143, -25683.048448926027, -21523.54526800457, -644.9819380023406, -24843.9639620738, -1831.3454784566736, -25805.334842841014, -30038.352911275975, -25882.761285634195, -7658.601720166412, -19940.37120823517, -32178.823015549544, 0.05437500000000001, 0.9550000000000001, -0.1605, 192.0, 0.0, 0.0, 0.0, 0.0, 0.0, 0.0, 0.0, 0.0, 0.0, 1.6689769551329522E9, 0.0, 2022-11-20 15:42:35.132
92.0, -20350.346905034414, 21543.21480312524, -32976.892051326286, -31696.874701604214, -25530.833069185384, -25739.91128682033, -21588.36532692496, -704.9293166314742, -24888.06395388412, -1869.365795775151, -25867.226823237757, -30090.544234579116, -25952.38696961248, -7721.544232552556, -19990.86379895971, -32225.38169924995, 0.05437500000000001, 0.9550000000000001, -0.1605, 192.0, 0.0, 0.0, 0.0, 0.0, 0.0, 0.0, 0.0, 0.0, 0.0, 1.6689769551329591E9, 0.0, 2022-11-20 15:42:35.132
94.0, -20260.649354535264, 21610.56060916908, -32888.28973630544, -31608.674717983573, -25448.42218737867, -25653.231221822647, -21510.603607964946, -625.5359203262235, -24834.375063702475, -1830.1608360005423, -25791.05207813407, -30029.680434427315, -25880.324945488566, -7655.248958498116, -19939.298324501317, -32167.155404943875, 0.05437500000000001, 0.9550000000000001, -0.1605, 192.0, 0.0, 0.0, 0.0, 0.0, 0.0, 0.0, 0.0, 0.0, 0.0, 1.668976955132966E9, 0.0, 2022-11-20 15:42:35.132
96.0, -20335.058311826982, 21602.312815465073, -32965.00092327606, -31681.921384563615, -25527.368548794813, -25728.37778668139, -21587.78418156912, -698.8496421396306, -24856.34682850204, -1832.1948447459752, -25824.91497098386, -30046.17602183533, -25923.46381228731, -7687.211953069205, -19965.069885858284, -32183.494530140702, 0.05437500000000001, 0.9550000000000001, -0.1605, 192.0, 0.0, 0.0, 0.0, 0.0, 0.0, 0.0, 0.0, 0.0, 0.0, 1.6689769551329727E9, 0.0, 2022-11-20 15:42:35.132
98.0, -20251.842767219874, 21586.35366992398, -32895.866977675796, -31603.69027897004, -25448.668056567676, -25654.013532878584, -21514.179887077797, -628.3075366386815, -24847.517889442195, -1831.2560714788524, -25795.455371791766, -30025.724175658725, -25899.189817808845, -7662.490923701635, -19959.32548753327, -32173.07861722453, 0.0501875, 0.9565000000000001, -0.15725, 192.0, 0.5, 56.0, 14.5, 120.0, 125.5, 24.0, 0.0, 0.0, 0.0, 1.6689769551329813E9, 0.0, 2022-11-20 15:42:35.132
100.0, -20325.804689622484, 21641.204850817307, -32974.88039432531, -31680.22265198501, -25528.5755429954, -25726.14261223586, -21588.32062343605, -701.8000724077311, -24842.667560895392, -1815.6992573379587, -25809.447563820788, -30029.680434427315, -25917.764117451206, -7674.493810474135, -19967.550929492823, -32185.059152252576, 0.0501875, 0.9565000000000001, -0.15725, 192.0, 0.0, 0.0, 0.0, 0.0, 0.0, 0.0, 0.0, 0.0, 0.0, 1.6689769551329885E9, 0.0, 2022-11-20 15:42:35.132
102.0, -20248.19943287366, 21554.74830326418, -32901.857245189814, -31596.44831376652, -25449.137443201238, -25647.37506477536, -21511.20710506524, -626.5417488267123, -24848.076683053576, -1830.294946467274, -25799.836313705007, -30030.529800716617, -25902.45317249932, -7659.831066111454, -19964.824016669278, -32186.020277264153, 0.0501875, 0.9565000000000001, -0.15725, 192.0, 0.0, 0.0, 0.0, 0.0, 0.0, 0.0, 0.0, 0.0, 0.0, 1.6689769551329968E9, 0.0, 2022-11-20 15:42:35.132
104.0, -20332.800785637, 21670.709153498312, -32981.45180719517, -31688.157521266643, -25535.303418076448, -25735.28447571808, -21591.852199059987, -701.643610196544, -24833.302179968618, -1807.6749810785034, -25804.19490387379, -30025.143030302886, -25909.583378980566, -7660.591025422934, -19958.18554856605, -32173.03391373562, 0.0501875, 0.9565000000000001, -0.15725, 192.0, 0.0, 0.0, 0.0, 0.0, 0.0, 0.0, 0.0, 0.0, 0.0, 1.6689769551330035E9, 0.0, 2022-11-20 15:42:35.133
106.0, -20256.5813370444, 21517.644407468368, -32909.836817960364, -31611.982776162957, -25464.22487070857, -25666.84343419593, -21521.7794801926, -635.8847780090306, -24862.426502993883, -1852.400821733573, -25819.01411044766, -30051.249867826686, -25925.98955941076, -7686.7872699245545, -19983.353612822728, -32198.537254159124, 0.0501875, 0.9565000000000001, -0.15725, 192.0, 0.0, 0.0, 0.0, 0.0, 0.0, 0.0, 0.0, 0.0, 0.0, 1.6689769551330101E9, 0.0, 2022-11-20 15:42:35.133
108.0, -20328.911582101773, 21700.81695327961, -32976.08738852589, -31692.04672480187, -25530.363682551826, -25743.733435122187, -21592.098068248997, -707.5221189882898, -24827.848354321522, -1813.0841032366877, -25797.064697392547, -30018.28104475511, -25907.54937023513, -7666.961272592697, -19951.27885952936, -32170.038779978608, 0.05109375000000001, 0.9552500000000002, -0.15862500000000002, 192.0, 0.5, 80.0, 14.5, 104.0, 125.5, 0.0, 0.0, 0.0, 0.0, 1.6689769551330168E9, 0.0, 2022-11-20 15:42:35.133
110.0, -20268.5842238169, 21488.430677465283, -32913.27898660648, -31612.653328496617, -25468.762274833, -25676.18646337825, -21528.149727362365, -646.3006909252038, -24873.557671732626, -1866.7282899294246, -25833.699206554797, -30060.123510375444, -25940.249972373247, -7705.115700377906, -19987.6674995026, -32211.0542310541, 0.05109375000000001, 0.9552500000000002, -0.15862500000000002, 192.0, 0.0, 0.0, 0.0, 0.0, 0.0, 0.0, 0.0, 0.0, 0.0, 1.6689769551330235E9, 0.0, 2022-11-20 15:42:35.133
112.0, -20328.26338151257, 21714.83149705309, -32962.0281412635, -31678.568622895316, -25522.42881327019, -25728.37778668139, -21580.810437299067, -696.3015432717256, -24823.28859845264, -1806.7138560669252, -25792.840217690497, -30012.246073752176, -25892.73016366126, -7653.349060219415, -19936.66081865559, -32156.27010539414, 0.05109375000000001, 0.9552500000000002, -0.15862500000000002, 192.0, 0.0, 0.0, 0.0, 0.0, 0.0, 0.0, 0.0, 0.0, 0.0, 1.668976955133035E9, 0.0, 2022-11-20 15:42:35.133
114.0, -20261.25285163556, 21474.97492730319, -32902.97483241258, -31605.366659804185, -25460.84975729582, -25660.31672481498, -21520.483079014193, -636.421219875958, -24876.955136889832, -1866.0130341068548, -25835.487346111222, -30065.353818577987, -25936.405472326933, -7698.90191541933, -19986.102877390727, -32204.594576906515, 0.05109375000000001, 0.9552500000000002, -0.15862500000000002, 192.0, 0.0, 0.0, 0.0, 0.0, 0.0, 0.0, 0.0, 0.0, 0.0, 1.6689769551330433E9, 0.0, 2022-11-20 15:42:35.133
116.0, -20314.964093561663, 21726.14147974747, -32949.22059169061, -31674.254736215444, -25510.62709219779, -25711.815144040007, -21570.08159996052, -684.321008243681, -24800.57922608605, -1788.564239569216, -25766.979249355707, -29997.002184033656, -25874.982878563747, -7630.483225641636, -19919.27116146936, -32138.366358085437, 0.05109375000000001, 0.9552500000000002, -0.15862500000000002, 192.0, 0.0, 0.0, 0.0, 0.0, 0.0, 0.0, 0.0, 0.0, 0.0, 1.6689769551330507E9, 0.0, 2022-11-20 15:42:35.133
118.0, -20268.941851728185, 21470.795151090046, -32915.223588374094, -31624.566808291296, -25468.047019010428, -25667.290469085037, -21527.859154684444, -647.775906059254, -24878.922090401902, -1868.0470428522879, -25842.416386892368, -30074.719199504758, -25950.28590563368, -7703.1040433769285, -19996.585845540267, -32224.465277727282, 0.049546875000000004, 0.9556250000000002, -0.15731250000000002, 192.0, 0.5, 64.0, 14.5, 112.0, 125.5, 16.0, 0.0, 0.0, 0.0, 1.668976955133057E9, 0.0, 2022-11-20 15:42:35.133
120.0, -20305.06227076796, 21736.937372319386, -32945.19727768866, -31667.437454156574, -25490.28700474346, -25699.11935318939, -21552.155500907364, -671.289941226237, -24801.361537141984, -1786.3737686125958, -25768.655630189853, -29996.26457646663, -25872.63594539594, -7626.884594784331, -19917.32655970175, -32151.21861114724, 0.049546875000000004, 0.9556250000000002, -0.15731250000000002, 192.0, 0.0, 0.0, 0.0, 0.0, 0.0, 0.0, 0.0, 0.0, 0.0, 1.6689769556133616E9, 0.0, 2022-11-20 15:42:35.613
122.0, -20284.833942035908, 21465.34132544295, -32929.03696644747, -31631.58525605026, -25477.725324359577, -25678.287527357046, -21535.749320477167, -654.3249671846589, -24883.92888115989, -1870.4833829979161, -25850.530070129644, -30076.753208250193, -25949.99533295576, -7707.462633545713, -19989.835618714766, -32215.882207856444, 0.049546875000000004, 0.9556250000000002, -0.15731250000000002, 192.0, 0.0, 0.0, 0.0, 0.0, 0.0, 0.0, 0.0, 0.0, 0.0, 1.6689769556134653E9, 0.0, 2022-11-20 15:42:35.613
124.0, -20312.34893946039, 21719.748880833256, -32954.89793478226, -31671.661933858628, -25504.502714217033, -25714.98909175266, -21562.12437893443, -679.3589209746028, -24817.253627449707, -1802.6681903205147, -25778.758618683652, -30007.529855672106, -25879.65439315491, -7639.446275168214, -19928.256562740393, -32147.821145990034, 0.049546875000000004, 0.9556250000000002, -0.15731250000000002, 192.0, 0.0, 0.0, 0.0, 0.0, 0.0, 0.0, 0.0, 0.0, 0.0, 1.6689769556135192E9, 0.0, 2022-11-20 15:42:35.613
126.0, -20315.947570317694, 21454.67954333777, -32960.35176042936, -31666.811605311825, -25507.81077239642, -25718.05128074304, -21562.571413823534, -681.3482262311252, -24901.20677962384, -1888.744758217902, -25864.6563726254, -30093.986403225234, -25972.816464044627, -7735.603479814945, -20011.941493981063, -32228.04155684013, 0.049546875000000004, 0.9556250000000002, -0.15731250000000002, 192.0, 0.0, 0.0, 0.0, 0.0, 0.0, 0.0, 0.0, 0.0, 0.0, 1.668976955613557E9, 0.0, 2022-11-20 15:42:35.613
128.0, -20292.85821829536, 21706.024909737698, -32929.79692575895, -31661.290724431365, -25481.10043777233, -25699.18640842276, -21541.11373914644, -659.0411852647287, -24826.283732209653, -1827.0539435212545, -25783.318374552535, -30022.483172712706, -25895.88175962946, -7663.653214413312, -19942.18169953605, -32160.986323474208, 0.049546875000000004, 0.9556250000000002, -0.15731250000000002, 192.0, 0.0, 0.0, 0.0, 0.0, 0.0, 0.0, 0.0, 0.0, 0.0, 1.6689769556135964E9, 0.0, 2022-11-20 15:42:35.613
130.0, -20297.619139864342, 21485.30143324154, -32932.38972811577, -31651.008921981924, -25486.554263419424, -25696.191274665747, -21544.9358874483, -660.0693655096728, -24867.232128051775, -1867.912932385556, -25836.180250189336, -30072.484025059228, -25949.5259463222, -7718.325581350992, -19979.91144417661, -32208.059097297086, 0.052000000000000005, 0.9580000000000001, -0.162, 192.0, 0.5, 80.0, 14.5, 120.0, 125.0, 120.0, 0.0, 0.0, 0.0, 1.668976955613604E9, 0.0, 2022-11-20 15:42:35.613
132.0, -20277.815494276943, 21693.619691565, -32903.690088235155, -31632.21110489501, -25459.106321228304, -25671.090265642437, -21525.60162849446, -638.2987664102038, -24793.71724053827, -1802.8917077650676, -25750.506013692146, -29990.14019848588, -25864.701076114306, -7632.114902986873, -19904.02727175084, -32131.50437253766, 0.052000000000000005, 0.9580000000000001, -0.162, 192.0, 0.0, 0.0, 0.0, 0.0, 0.0, 0.0, 0.0, 0.0, 0.0, 1.6689769556136112E9, 0.0, 2022-11-20 15:42:35.613
134.0, -20320.26145699757, 21505.19448580676, -32954.38384465979, -31661.98362850948, -25512.34817652085, -25710.42933588378, -21570.461579616258, -683.9633803323961, -24879.21266307982, -1869.65636845307, -25847.53493637263, -30073.1992808818, -25960.56770808312, -7717.833842972976, -19984.270034345394, -32211.255396754193, 0.052000000000000005, 0.9580000000000001, -0.162, 192.0, 0.0, 0.0, 0.0, 0.0, 0.0, 0.0, 0.0, 0.0, 0.0, 1.6689769556136255E9, 0.0, 2022-11-20 15:42:35.613
136.0, -20272.696944796677, 21670.351525587026, -32902.348983567834, -31616.497828542928, -25464.60485036431, -25665.479977784154, -21525.713387216736, -642.4561908788909, -24818.751194328215, -1811.1395014690759, -25770.734342424195, -30000.1314282574, -25884.37061123498, -7637.792246078521, -19919.494678913914, -32144.46838432174, 0.052000000000000005, 0.9580000000000001, -0.162, 192.0, 0.0, 0.0, 0.0, 0.0, 0.0, 0.0, 0.0, 0.0, 0.0, 1.668976955613633E9, 0.0, 2022-11-20 15:42:35.613
138.0, -20300.569570132444, 21557.899899232376, -32927.42764084669, -31639.564828820807, -25492.656289655723, -25696.66066129931, -21550.143843906386, -667.2889789687371, -24864.572270461595, -1846.6564234085588, -25831.464032109267, -30050.914591659857, -25947.134309665482, -7700.354778808925, -19960.7112956895, -32192.167006989363, 0.052000000000000005, 0.9580000000000001, -0.162, 192.0, 0.0, 0.0, 0.0, 0.0, 0.0, 0.0, 0.0, 0.0, 0.0, 1.66897695561364E9, 0.0, 2022-11-20 15:42:35.613
140.0, -20245.092540394373, 21655.129987612963, -32873.26936403148, -31597.945880645024, -25438.967399474073, -25651.063102610482, -21498.131334558886, -615.8576149770755, -24787.57051081306, -1795.5156320948163, -25739.06192053103, -29977.690276824273, -25856.229764965745, -7625.968173261664, -19884.134219185617, -32121.69195672178, 0.05, 0.9520000000000001, -0.164, 192.0, 0.5, 72.0, 14.5, 96.0, 125.0, 112.0, 0.0, 0.0, 0.0, 1.6689769556136472E9, 0.0, 2022-11-20 15:42:35.613
142.0, -20321.624913409345, 21573.21084418426, -32954.4285481487, -31675.17115773811, -25515.61153121132, -25723.706272090232, -21570.953317994277, -686.9808658338626, -24847.473185953284, -1840.979080316911, -25819.058813936572, -30046.310132302064, -25937.277190360688, -7702.657008487822, -19954.922193875576, -32192.07760001154, 0.05, 0.9520000000000001, -0.164, 192.0, 0.0, 0.0, 0.0, 0.0, 0.0, 0.0, 0.0, 0.0, 0.0, 1.6689769556136544E9, 0.0, 2022-11-20 15:42:35.613
144.0, -20248.422950318214, 21607.297254478606, -32881.45010250212, -31605.947805160024, -25433.491222082524, -25649.900811898806, -21499.092459570464, -617.8916237225085, -24818.885304794945, -1815.8557195491458, -25771.583708713497, -30008.42392545032, -25884.16944553488, -7654.243129997627, -19918.37709169115, -32152.336198370005, 0.05, 0.9520000000000001, -0.164, 192.0, 0.0, 0.0, 0.0, 0.0, 0.0, 0.0, 0.0, 0.0, 0.0, 1.6689769556136615E9, 0.0, 2022-11-20 15:42:35.613
146.0, -20339.819233395963, 21593.41682117186, -32973.71810361363, -31694.773637625414, -25524.28400805998, -25731.99876928315, -21583.26912918915, -702.1129968301054, -24846.601467919525, -1829.333821455696, -25820.534029070623, -30041.75037643318, -25928.403547811933, -7691.749357193632, -19945.109778059697, -32180.18647196132, 0.05, 0.9520000000000001, -0.164, 192.0, 0.0, 0.0, 0.0, 0.0, 0.0, 0.0, 0.0, 0.0, 0.0, 1.668976955613669E9, 0.0, 2022-11-20 15:42:35.613
148.0, -20260.224671390613, 21557.139939920897, -32895.95638465362, -31609.479380783963, -25441.336684386337, -25650.325495043457, -21508.05550909704, -627.7487430272988, -24843.44987195133, -1838.587443660193, -25803.658462006864, -30034.32959727402, -25905.113030089502, -7671.1186970613835, -19939.343027990228, -32175.179681203328, 0.05, 0.9520000000000001, -0.164, 192.0, 0.0, 0.0, 0.0, 0.0, 0.0, 0.0, 0.0, 0.0, 0.0, 1.668976955613676E9, 0.0, 2022-11-20 15:42:35.613
150.0, -20350.056332356493, 21625.357463998494, -32978.16610076024, -31696.11474229273, -25527.994397639563, -25738.458423430733, -21593.640338616413, -715.4569882699237, -24846.86968885299, -1830.719629611925, -25820.042290692603, -30039.023463609632, -25925.47546928829, -7689.603589725923, -19946.920269360577, -32188.45661740978, 0.048, 0.9480000000000001, -0.162, 192.0, 0.5, 64.0, 14.5, 80.0, 125.0, 120.0, 0.0, 0.0, 0.0, 1.6689769556136835E9, 0.0, 2022-11-20 15:42:35.613
152.0, -20258.660049278744, 21532.016579153133, -32888.53560549446, -31600.091648112735, -25445.427053621657, -25648.067968853473, -21511.564732976527, -633.7390105413211, -24856.34682850204, -1851.909083355556, -25811.16864814385, -30044.544344490096, -25914.009024382714, -7682.831011155965, -19955.458635742503, -32198.313736714572, 0.048, 0.9480000000000001, -0.162, 192.0, 0.0, 0.0, 0.0, 0.0, 0.0, 0.0, 0.0, 0.0, 0.0, 1.6689769556136909E9, 0.0, 2022-11-20 15:42:35.613
154.0, -20325.759986133577, 21674.28543261116, -32957.62484760581, -31678.546271150863, -25519.500734746547, -25720.33115867748, -21583.8949780339, -702.1129968301054, -24826.909581054402, -1805.4845101218832, -25797.690546237296, -30017.94576858828, -25900.061535842604, -7663.7202696466775, -19935.073844799263, -32175.045570736598, 0.048, 0.9480000000000001, -0.162, 192.0, 0.0, 0.0, 0.0, 0.0, 0.0, 0.0, 0.0, 0.0, 0.0, 1.668976955613698E9, 0.0, 2022-11-20 15:42:35.613
156.0, -20257.184834144693, 21502.78049740559, -32894.90585266422, -31605.456066782008, -25451.171451946673, -25653.99118113413, -21521.19833483676, -641.2268449338491, -24852.90465985592, -1844.5777111742154, -25811.503924310677, -30040.766899677146, -25914.634873227464, -7680.305264032515, -19964.354630035716, -32199.967765804264, 0.048, 0.9480000000000001, -0.162, 192.0, 0.0, 0.0, 0.0, 0.0, 0.0, 0.0, 0.0, 0.0, 0.0, 1.6689769556137052E9, 0.0, 2022-11-20 15:42:35.613
158.0, -20337.002913594595, 21683.650813537934, -32963.41394941973, -31687.84459684427, -25524.5745807379, -25729.51772564861, -21589.70643159228, -705.5328137317674, -24826.57430488757, -1811.9218125250118, -25796.14827586988, -30018.0351755661, -25899.256873042214, -7661.641557412334, -19937.152557033605, -32173.70446606928, 0.048, 0.9480000000000001, -0.162, 192.0, 0.0, 0.0, 0.0, 0.0, 0.0, 0.0, 0.0, 0.0, 0.0, 1.6689769556137123E9, 0.0, 2022-11-20 15:42:35.613
160.0, -20280.274186167026, 21459.73103758467, -32918.26342562001, -31624.097421657734, -25472.60677487931, -25674.84535871093, -21539.79498622358, -658.0130050197846, -24876.418695022905, -1878.1947348349972, -25840.40472989139, -30070.070036658057, -25937.254838616234, -7707.2167643567045, -19988.069830902798, -32221.783068392644, 0.052000000000000005, 0.9460000000000001, -0.156, 192.0, 0.5, 80.0, 14.5, 72.0, 125.5, 16.0, 0.0, 0.0, 0.0, 1.6689769556137197E9, 0.0, 2022-11-20 15:42:35.613
162.0, -20333.82896588194, 21695.564293332613, -32971.6840948682, -31680.26735547392, -25531.19069709667, -25731.931714049784, -21594.847332817, -711.2772120567813, -24823.936799041847, -1817.8226730612128, -25798.58461601551, -30017.65519591036, -25902.07319284358, -7666.178961536761, -19950.8094728958, -32174.8444050365, 0.052000000000000005, 0.9460000000000001, -0.156, 192.0, 0.0, 0.0, 0.0, 0.0, 0.0, 0.0, 0.0, 0.0, 0.0, 1.668976955613727E9, 0.0, 2022-11-20 15:42:35.613
164.0, -20266.237290649093, 21457.67467709478, -32909.009803415516, -31604.271424325878, -25475.646612125234, -25672.27490809857, -21538.185660622796, -657.4989148973126, -24875.569328733603, -1876.4736505119386, -25839.55536360209, -30064.1468243774, -25949.771815511205, -7712.156499881327, -20000.58680779777, -32221.112516058987, 0.052000000000000005, 0.9460000000000001, -0.156, 192.0, 0.0, 0.0, 0.0, 0.0, 0.0, 0.0, 0.0, 0.0, 0.0, 1.6689769556137342E9, 0.0, 2022-11-20 15:42:35.613
166.0, -20314.67352088374, 21722.475793656802, -32943.83382127689, -31664.867003544216, -25519.813659168918, -25717.71600457621, -21583.626757100435, -700.8612991406083, -24803.082621465044, -1794.1968791719532, -25763.760598154142, -29989.08966649648, -25883.007154823204, -7639.222757723661, -19921.774556848355, -32143.864887221443, 0.052000000000000005, 0.9460000000000001, -0.156, 192.0, 0.0, 0.0, 0.0, 0.0, 0.0, 0.0, 0.0, 0.0, 0.0, 1.668976955613743E9, 0.0, 2022-11-20 15:42:35.613
168.0, -20274.59684307538, 21460.289831196053, -32909.65800400472, -31614.0614883973, -25472.67383011268, -25668.542166774532, -21539.638524012393, -660.7175660988768, -24890.9249771744, -1877.814755179257, -25843.422215392857, -30071.56760353656, -25960.79122552767, -7717.543270295057, -19991.37788908218, -32213.42351596636, 0.052000000000000005, 0.9460000000000001, -0.156, 192.0, 0.0, 0.0, 0.0, 0.0, 0.0, 0.0, 0.0, 0.0, 0.0, 1.6689769556137505E9, 0.0, 2022-11-20 15:42:35.613
170.0, -20304.34701494539, 21730.276552471703, -32934.64725430575, -31655.725140061993, -25500.077068814884, -25694.22432115368, -21564.98540222471, -683.0916622986391, -24807.15063895591, -1792.0734634486992, -25768.588574956488, -29993.40355317635, -25876.97218382027, -7634.126559987851, -19906.620074107657, -32129.090384136485, 0.054, 0.9480000000000001, -0.158, 192.0, 0.5, 88.0, 14.5, 80.0, 125.5, 8.0, 0.0, 0.0, 0.0, 1.6689769556137574E9, 0.0, 2022-11-20 15:42:35.613
172.0, -20280.698869311676, 21462.63676436386, -32916.542341296954, -31622.53279954586, -25478.03824878195, -25674.197158121726, -21544.175928136818, -665.1208597565723, -24869.891985641956, -1856.781763646813, -25838.862459523974, -30058.670646985847, -25939.780585739685, -7702.14291836535, -19968.53440624886, -32190.6470883664, 0.054, 0.9480000000000001, -0.158, 192.0, 0.0, 0.0, 0.0, 0.0, 0.0, 0.0, 0.0, 0.0, 0.0, 1.6689769556137648E9, 0.0, 2022-11-20 15:42:35.613
174.0, -20294.132267729317, 21722.29697970116, -32920.72211751009, -31642.224686410987, -25485.593138407843, -25692.816161252995, -21556.78231200961, -676.5873046621448, -24799.796915030114, -1793.0345884602773, -25765.168758054824, -29987.927375784802, -25865.371628447967, -7635.55707163299, -19901.9485595165, -32123.658910233848, 0.054, 0.9480000000000001, -0.158, 192.0, 0.0, 0.0, 0.0, 0.0, 0.0, 0.0, 0.0, 0.0, 0.0, 1.668976955613772E9, 0.0, 2022-11-20 15:42:35.613
176.0, -20287.11381997035, 21472.024497035087, -32920.34213785436, -31624.991491435947, -25485.123751774285, -25691.497408330135, -21553.965992208243, -676.6543598955107, -24868.10384608553, -1860.872132882134, -25836.984912989727, -30058.111853374467, -25941.501670062742, -7711.6200580144005, -19970.076676616274, -32189.864777310468, 0.054, 0.9480000000000001, -0.158, 192.0, 0.0, 0.0, 0.0, 0.0, 0.0, 0.0, 0.0, 0.0, 0.0, 1.6689769556137793E9, 0.0, 2022-11-20 15:42:35.613
178.0, -20280.7882762895, 21708.595360350057, -32912.429620317176, -31629.35008160473, -25479.17818774917, -25687.518797817087, -21548.35570434996, -669.0771185251616, -24796.57826382855, -1801.4388443754726, -25755.378693983403, -29985.669849594815, -25867.91972731587, -7638.216929223172, -19902.440297894515, -32120.753183454657, 0.054, 0.9480000000000001, -0.158, 192.0, 0.0, 0.0, 0.0, 0.0, 0.0, 0.0, 0.0, 0.0, 0.0, 1.6689769556137865E9, 0.0, 2022-11-20 15:42:35.613
180.0, -20296.322738685936, 21490.755258888636, -32926.019480946, -31634.088651429258, -25492.030440810973, -25698.828780511474, -21560.06801844454, -683.6951593989324, -24872.73065718778, -1864.1131358281536, -25835.420290877857, -30062.112815631965, -25954.577440569097, -7716.872717961397, -19972.825941184277, -32191.675268611347, 0.054, 0.9460000000000001, -0.158, 192.0, 0.5, 88.0, 14.5, 72.0, 125.5, 8.0, 0.0, 0.0, 0.0, 1.6689769556137936E9, 0.0, 2022-11-20 15:42:35.613
182.0, -20261.498720824566, 21697.218322422304, -32879.438445501146, -31608.473552283474, -25451.7078938136, -25660.808463192996, -21521.35479704795, -644.4454961354132, -24788.777505013648, -1792.1628704265204, -25739.66541763132, -29976.79620704606, -25856.386227176932, -7626.303449428493, -19888.157533187572, -32112.63950021738, 0.054, 0.9460000000000001, -0.158, 192.0, 0.0, 0.0, 0.0, 0.0, 0.0, 0.0, 0.0, 0.0, 0.0, 1.6689769556138008E9, 0.0, 2022-11-20 15:42:35.613
184.0, -20314.941741817205, 21513.531686488594, -32934.98253047258, -31659.16730870811, -25502.71457466061, -25711.03283298407, -21572.36147789496, -696.0333223382619, -24864.080532083575, -1854.0548508232655, -25833.855668765984, -30060.101158630987, -25939.914696206415, -7715.1963371272495, -19960.5101299894, -32190.445922666306, 0.054, 0.9460000000000001, -0.158, 192.0, 0.0, 0.0, 0.0, 0.0, 0.0, 0.0, 0.0, 0.0, 0.0, 1.6689769556138082E9, 0.0, 2022-11-20 15:42:35.613
186.0, -20263.86800573683, 21662.19313886084, -32887.64153571624, -31612.1615901186, -25448.51159435649, -25657.947439902717, -21521.578314492504, -645.3395659136255, -24805.563665099584, -1806.3562281556403, -25760.363132996936, -29994.968175288224, -25863.382323191443, -7641.659097869289, -19896.74060305841, -32127.861038191444, 0.054, 0.9460000000000001, -0.158, 192.0, 0.0, 0.0, 0.0, 0.0, 0.0, 0.0, 0.0, 0.0, 0.0, 1.6689769556138153E9, 0.0, 2022-11-20 15:42:35.613
188.0, -20331.16910829176, 21537.112776888942, -32967.303152954955, -31679.03800952888, -25519.545438235455, -25728.847173314953, -21589.058231003077, -712.707723701921, -24874.31763104411, -1856.3570805021623, -25847.78080556164, -30064.213879610765, -25951.716417278818, -7716.179813883283, -19966.29923180333, -32195.65387912439, 0.054, 0.9460000000000001, -0.158, 192.0, 0.0, 0.0, 0.0, 0.0, 0.0, 0.0, 0.0, 0.0, 0.0, 1.6689769556138227E9, 0.0, 2022-11-20 15:42:35.613
190.0, -20255.888432966287, 21626.452699476802, -32901.20904460061, -31610.2616918399, -25450.36678914628, -25658.41682653628, -21520.952465647755, -645.4736763803573, -24828.67536886637, -1827.9703650439221, -25787.5875577435, -30017.90106509937, -25891.836093883052, -7660.166342278283, -19923.89797257161, -32154.437262348805, 0.046, 0.9500000000000001, -0.156, 192.0, 0.5, 56.0, 14.5, 88.0, 125.5, 16.0, 0.0, 0.0, 0.0, 1.6689769556138525E9, 0.0, 2022-11-20 15:42:35.613
192.0, -20314.293541228002, 21588.633547858426, -32960.3294086849, -31665.291686688866, -25505.307377017427, -25712.597455095944, -21575.6918878188, -698.8719938840859, -24844.00866556271, -1830.9207953120226, -25819.863476736962, -30039.51520198765, -25928.56001002312, -7689.9612176372075, -19944.66274317059, -32173.682114324823, 0.046, 0.9500000000000001, -0.156, 192.0, 0.0, 0.0, 0.0, 0.0, 0.0, 0.0, 0.0, 0.0, 0.0, 1.6689769556138618E9, 0.0, 2022-11-20 15:42:35.613
194.0, -20256.827206233407, 21588.47708564724, -32902.86307369031, -31603.82438943677, -25452.177280447162, -25654.12529160086, -21518.605532479945, -641.6068245895892, -24823.936799041847, -1831.367830201129, -25785.799418187074, -30018.929245344312, -25896.753477663216, -7663.452048713214, -19930.08940578573, -32160.002846718176, 0.046, 0.9500000000000001, -0.156, 192.0, 0.0, 0.0, 0.0, 0.0, 0.0, 0.0, 0.0, 0.0, 0.0, 1.6689769556138694E9, 0.0, 2022-11-20 15:42:35.613
196.0, -20331.191460036214, 21616.081490049542, -32964.82210932042, -31665.98459076698, -25518.561961479423, -25715.927865019785, -21582.352707666483, -702.4929764858457, -24841.326456228075, -1832.3513069571625, -25816.756584257673, -30034.441355996296, -25931.152812379936, -7688.128374591873, -19946.003847837907, -32168.585916589014, 0.046, 0.9500000000000001, -0.156, 192.0, 0.0, 0.0, 0.0, 0.0, 0.0, 0.0, 0.0, 0.0, 0.0, 1.6689769556138768E9, 0.0, 2022-11-20 15:42:35.613
198.0, -20259.01767719003, 21561.36441962295, -32882.858262402806, -31587.239395050932, -25443.616562320778, -25642.524736228555, -21510.380090520393, -631.6826500514329, -24837.258438737208, -1837.2463389928746, -25792.616700245944, -30020.76208838965, -25904.040146355648, -7662.9603103351965, -19929.776481363355, -32151.151555913875, 0.046, 0.9500000000000001, -0.156, 192.0, 0.0, 0.0, 0.0, 0.0, 0.0, 0.0, 0.0, 0.0, 0.0, 1.668976955613886E9, 0.0, 2022-11-20 15:42:35.613
200.0, -20354.5043295031, 21630.56542045658, -32968.5324989, -31683.776579353405, -25535.39282505427, -25732.870487316908, -21600.36821369746, -717.222776081893, -24845.662694652405, -1835.949937814467, -25818.20944764727, -30035.670701941337, -25928.001216411736, -7686.720214691189, -19942.09229255823, -32163.333256642018, 0.046, 0.9500000000000001, -0.157, 192.0, 0.5, 56.0, 14.5, 88.0, 125.5, 8.0, 0.0, 0.0, 0.0, 1.6689769556138935E9, 0.0, 2022-11-20 15:42:35.613
202.0, -20266.95254647166, 21522.047701126063, -32893.65415497472, -31595.44248526603, -25456.312353171394, -25650.727826443654, -21525.646331983367, -644.1996269464048, -24855.40805523492, -1859.0616415812544, -25817.91887496935, -30042.28681830011, -25921.340396564057, -7688.821278669987, -19953.603440952713, -32174.17385270284, 0.046, 0.9500000000000001, -0.157, 192.0, 0.0, 0.0, 0.0, 0.0, 0.0, 0.0, 0.0, 0.0, 0.0, 1.668976955613901E9, 0.0, 2022-11-20 15:42:35.613
204.0, -20335.68416067173, 21678.822836735588, -32964.39742617577, -31672.444244914564, -25524.105194104337, -25718.453612143232, -21591.203998470784, -708.0362091107618, -24828.340092699542, -1819.9684405289222, -25807.994700431194, -30020.471515711728, -25913.27141681569, -7670.694013916733, -19932.771615120368, -32152.671474536834, 0.046, 0.9500000000000001, -0.157, 192.0, 0.0, 0.0, 0.0, 0.0, 0.0, 0.0, 0.0, 0.0, 0.0, 1.6689769556139083E9, 0.0, 2022-11-20 15:42:35.613
206.0, -20270.640584306788, 21494.91268335732, -32909.3674313268, -31610.619319751182, -25468.494053899536, -25661.32255331547, -21537.31394258904, -657.8788945530528, -24857.978505847277, -1856.8935223690896, -25820.511677326165, -30047.003036380178, -25932.22569611379, -7688.776575181077, -19962.454731757014, -32183.740399329712, 0.046, 0.9500000000000001, -0.157, 192.0, 0.0, 0.0, 0.0, 0.0, 0.0, 0.0, 0.0, 0.0, 0.0, 1.6689769556139262E9, 0.0, 2022-11-20 15:42:35.613
208.0, -20349.564593978477, 21690.088115941064, -32973.22636523561, -31695.444189959075, -25543.752377480552, -25742.839365343974, -21609.197152757308, -728.5998140096443, -24828.697720610824, -1823.3212021972183, -25804.664290507353, -30026.484134970207, -25918.725242462784, -7676.796040153032, -19944.998019337418, -32171.446939879293, 0.046, 0.9500000000000001, -0.157, 192.0, 0.0, 0.0, 0.0, 0.0, 0.0, 0.0, 0.0, 0.0, 0.0, 1.6689769556139336E9, 0.0, 2022-11-20 15:42:35.613
210.0, -20277.994308232584, 21475.421962192293, -32899.644422488745, -31608.384145305652, -25467.33176318786, -25663.42361729427, -21529.960218663244, -652.1344962280389, -24877.06689561211, -1876.361891789662, -25836.739043800717, -30066.270240100654, -25948.542469566164, -7712.938810937263, -19975.306984818817, -32204.639280395426, 0.045, 0.9510000000000001, -0.1615, 192.0, 0.5, 48.0, 14.5, 96.0, 125.0, 104.0, 0.0, 0.0, 0.0, 1.6689769556139412E9, 0.0, 2022-11-20 15:42:35.613
212.0, -20334.901849615795, 21723.459270412837, -32949.64527483526, -31674.79117808237, -25517.71259519012, -25718.744184821153, -21578.17293145334, -699.0284560952731, -24816.20309546031, -1813.687600336981, -25786.514674009642, -30005.719364371227, -25893.959509606306, -7662.557978935001, -19910.822202065254, -32142.009692431653, 0.045, 0.9510000000000001, -0.1615, 192.0, 0.0, 0.0, 0.0, 0.0, 0.0, 0.0, 0.0, 0.0, 0.0, 1.6689769556139493E9, 0.0, 2022-11-20 15:42:35.613
214.0, -20277.50256985457, 21474.997279047642, -32904.33828882436, -31610.954595918014, -25463.33080093036, -25661.74723646012, -21524.7299104607, -647.3735746590585, -24877.96096539032, -1879.7593569468686, -25844.159822959882, -30066.270240100654, -25952.409321356932, -7724.29349712056, -19971.23896732795, -32200.817132093565, 0.045, 0.9510000000000001, -0.1615, 192.0, 0.0, 0.0, 0.0, 0.0, 0.0, 0.0, 0.0, 0.0, 0.0, 1.6689769556139567E9, 0.0, 2022-11-20 15:42:35.613
216.0, -20313.243009238602, 21745.743959634776, -32931.920341482204, -31656.485099373473, -25497.394859480246, -25697.666489799798, -21559.911556233354, -678.8001273632202, -24798.29934815161, -1798.399007129551, -25765.504034221656, -29987.301526940053, -25878.447398954322, -7651.270347985072, -19898.193466448007, -32129.805639959057, 0.045, 0.9510000000000001, -0.1615, 192.0, 0.0, 0.0, 0.0, 0.0, 0.0, 0.0, 0.0, 0.0, 0.0, 1.668976955613964E9, 0.0, 2022-11-20 15:42:35.613
218.0, -20293.752288073574, 21456.512386383103, -32927.02530944649, -31626.377299592175, -25483.80499885142, -25679.22630062417, -21544.64531477038, -667.2442754798265, -24875.74814268925, -1872.718557443447, -25838.50483161269, -30062.269277843152, -25955.538565580675, -7720.2478313741485, -19977.072772630785, -32199.408972192883, 0.045, 0.9510000000000001, -0.1615, 192.0, 0.0, 0.0, 0.0, 0.0, 0.0, 0.0, 0.0, 0.0, 0.0, 1.6689769556139717E9, 0.0, 2022-11-20 15:42:35.613
220.0, -20315.232314495126, 21732.556430406148, -32943.677359065696, -31649.779576036883, -25510.537685219966, -25694.13491417586, -21565.566547580547, -683.8292698656643, -24805.8542377775, -1802.8023007872464, -25769.52734822361, -29992.196558975764, -25892.59605319453, -7646.84470258292, -19916.56660039027, -32132.398442315873, 0.0455, 0.9505000000000001, -0.16075, 192.0, 0.5, 56.0, 14.5, 88.0, 125.5, 0.0, 0.0, 0.0, 0.0, 1.668976955613979E9, 0.0, 2022-11-20 15:42:35.613
222.0, -20313.35476796088, 21454.076046237475, -32944.3255596549, -31635.809735752315, -25504.212141539116, -25687.295280372535, -21558.615155054948, -679.1577552745051, -24885.8734829275, -1877.4794790124274, -25856.40857892139, -30072.90870820388, -25969.776626798706, -7724.047627931551, -19989.612101270213, -32203.18641700583, 0.0455, 0.9505000000000001, -0.16075, 192.0, 0.0, 0.0, 0.0, 0.0, 0.0, 0.0, 0.0, 0.0, 0.0, 1.6689769556139865E9, 0.0, 2022-11-20 15:42:35.613
224.0, -20305.129326001326, 21725.403872180446, -32937.12829794029, -31644.571619578794, -25499.071240314395, -25688.74814376213, -21557.184643409808, -677.5260779292677, -24813.833810548047, -1811.854757291646, -25781.597290229474, -30001.114905013434, -25894.40654449541, -7651.873845085364, -19918.064167268774, -32133.53838128309, 0.0455, 0.9505000000000001, -0.16075, 192.0, 0.0, 0.0, 0.0, 0.0, 0.0, 0.0, 0.0, 0.0, 0.0, 1.668976955613994E9, 0.0, 2022-11-20 15:42:35.613
226.0, -20304.324663200936, 21484.83204660798, -32942.626827076296, -31634.848610740737, -25503.00514733853, -25693.777286264576, -21561.54323357859, -684.7009878994213, -24879.413828779918, -1871.5786184762262, -25853.525203886653, -30068.214841868266, -25970.91656576593, -7722.840633730964, -19986.549912279836, -32202.649975138902, 0.0455, 0.9505000000000001, -0.16075, 192.0, 0.0, 0.0, 0.0, 0.0, 0.0, 0.0, 0.0, 0.0, 0.0, 1.6689769556140013E9, 0.0, 2022-11-20 15:42:35.614
228.0, -20290.913616527752, 21710.62936909549, -32911.84847496134, -31630.31120661631, -25483.916757573697, -25684.009573937605, -21547.37222759393, -672.1616592599939, -24802.613234831482, -1808.1667194565202, -25760.363132996936, -29987.726210084704, -25884.97410833527, -7643.7601618480885, -19905.21191420697, -32129.35860506995, 0.0455, 0.9505000000000001, -0.16075, 192.0, 0.0, 0.0, 0.0, 0.0, 0.0, 0.0, 0.0, 0.0, 0.0, 1.668976955614009E9, 0.0, 2022-11-20 15:42:35.614
230.0, -20323.278942499037, 21484.80969486352, -32940.14578344176, -31660.620172097704, -25512.86226664332, -25716.553713864534, -21580.050477987585, -704.7281509313764, -24881.090209614063, -1889.4823657849272, -25844.74096831572, -30074.965068693768, -25973.665830333928, -7739.157407183338, -19979.464409287502, -32204.818094351067, 0.04675, 0.94825, -0.159375, 192.0, 0.5, 64.0, 14.5, 72.0, 125.5, 8.0, 0.0, 0.0, 0.0, 1.668976955614018E9, 0.0, 2022-11-20 15:42:35.614
232.0, -20268.07013369443, 21691.38451711947, -32894.19059684165, -31620.54349428934, -25462.034399751952, -25663.93770741674, -21529.02144539612, -653.162676472983, -24807.843543034025, -1827.2104057324418, -25760.519595208123, -30003.595948647973, -25886.136399046947, -7661.507446945602, -19903.669643839556, -32132.9348841828, 0.04675, 0.94825, -0.159375, 192.0, 0.0, 0.0, 0.0, 0.0, 0.0, 0.0, 0.0, 0.0, 0.0, 1.668976955614025E9, 0.0, 2022-11-20 15:42:35.614
234.0, -20321.200230264694, 21522.159459848343, -32956.887240038785, -31672.60070712575, -25515.61153121132, -25715.123202219394, -21579.536387865115, -705.1975375649379, -24866.29335478465, -1869.0528713527765, -25842.528145614644, -30069.08655990202, -25956.94672548136, -7728.048590189051, -19962.834711412754, -32194.402181434893, 0.04675, 0.94825, -0.159375, 192.0, 0.0, 0.0, 0.0, 0.0, 0.0, 0.0, 0.0, 0.0, 0.0, 1.6689769556140325E9, 0.0, 2022-11-20 15:42:35.614
236.0, -20272.09344769638, 21653.118330611986, -32904.36064056881, -31623.78449723536, -25466.370638176282, -25665.569384761977, -21530.586067507993, -655.3084439406924, -24814.571418115072, -1828.752676099858, -25777.19399657178, -30010.32382372902, -25887.991593836738, -7663.854380113409, -19910.196353220505, -32140.51212555315, 0.04675, 0.94825, -0.159375, 192.0, 0.0, 0.0, 0.0, 0.0, 0.0, 0.0, 0.0, 0.0, 0.0, 1.66897695561404E9, 0.0, 2022-11-20 15:42:35.614
238.0, -20336.01943683856, 21554.837710242, -32971.54998440146, -31676.04287577187, -25534.364644809324, -25730.076519259994, -21596.814286329067, -721.0672761282059, -24864.415808250407, -1864.7613364173576, -25843.958657259784, -30062.738664476714, -25959.271306904713, -7725.38873259887, -19967.95326089302, -32192.971669789753, 0.04675, 0.94825, -0.159375, 192.0, 0.0, 0.0, 0.0, 0.0, 0.0, 0.0, 0.0, 0.0, 0.0, 1.6689769556140475E9, 0.0, 2022-11-20 15:42:35.614
240.0, -20253.25092712056, 21636.823908904065, -32888.84852991683, -31591.3074125418, -25450.79147229093, -25655.086416612437, -21518.627884224403, -648.580568859645, -24815.756060571202, -1835.7040686254584, -25778.66921170583, -30009.85443709546, -25894.428896239868, -7669.285854016049, -19922.75803360439, -32147.776442501123, 0.048375, 0.949125, -0.15868749999999998, 192.0, 0.5, 72.0, 14.5, 88.0, 125.5, 8.0, 0.0, 0.0, 0.0, 1.6689769560943236E9, 0.0, 2022-11-20 15:42:36.094
242.0, -20326.184669278227, 21605.12913526644, -32965.135033742794, -31668.89031754617, -25524.976912138096, -25730.411795426822, -21594.668518861356, -722.4977877733455, -24841.728787628268, -1850.0315368213103, -25819.036462192114, -30039.291684543095, -25937.210135127323, -7707.95437192373, -19950.42949324006, -32179.962954516766, 0.048375, 0.949125, -0.15868749999999998, 192.0, 0.0, 0.0, 0.0, 0.0, 0.0, 0.0, 0.0, 0.0, 0.0, 1.668976956094402E9, 0.0, 2022-11-20 15:42:36.094
244.0, -20250.412255574734, 21608.347786468006, -32879.93018387916, -31595.64365096613, -25450.90323101321, -25652.918297400272, -21517.800869679555, -645.2725106802596, -24821.455755407307, -1844.0189175628327, -25778.825673917017, -30014.213027264243, -25894.65241368442, -7680.349967521426, -19927.071920284263, -32161.768634530144, 0.048375, 0.949125, -0.15868749999999998, 192.0, 0.0, 0.0, 0.0, 0.0, 0.0, 0.0, 0.0, 0.0, 0.0, 1.6689769560944502E9, 0.0, 2022-11-20 15:42:36.094
246.0, -20340.93682061873, 21634.56638271408, -32956.66372259423, -31684.89416657617, -25528.039101128474, -25730.61296112692, -21596.054327017588, -717.6698109709992, -24837.459604437307, -1845.8964640970785, -25809.693433009797, -30034.75428041867, -25923.84379194305, -7707.440281801258, -19940.57237393527, -32173.07861722453, 0.048375, 0.949125, -0.15868749999999998, 192.0, 0.0, 0.0, 0.0, 0.0, 0.0, 0.0, 0.0, 0.0, 0.0, 1.668976956094493E9, 0.0, 2022-11-20 15:42:36.094
248.0, -20255.977839944106, 21567.01941097014, -32873.15760530921, -31599.06346786779, -25440.867297752775, -25649.07379735396, -21513.21876206622, -637.7846762877317, -24840.34297947204, -1860.1792288040197, -25799.657499749363, -30037.838821153502, -25908.085812102057, -7693.783365939065, -19940.505318701904, -32179.046532994096, 0.048375, 0.949125, -0.15868749999999998, 192.0, 0.0, 0.0, 0.0, 0.0, 0.0, 0.0, 0.0, 0.0, 0.0, 1.6689769560945008E9, 0.0, 2022-11-20 15:42:36.094
250.0, -20344.200175309204, 21659.600336504023, -32958.67537959521, -31690.97384106801, -25523.904028404242, -25735.99973154065, -21591.405164170883, -715.1440638475494, -24828.094223510532, -1834.6982401249695, -25804.15020038488, -30031.55798096156, -25912.042070870648, -7690.452956015224, -19928.368321462673, -32171.469291623747, 0.0491875, 0.9495625000000001, -0.15834375, 192.0, 0.5, 72.0, 14.5, 88.0, 125.5, 8.0, 0.0, 0.0, 0.0, 1.6689769560945077E9, 0.0, 2022-11-20 15:42:36.094
252.0, -20253.921479454217, 21535.861079199443, -32877.337381522346, -31597.29768005582, -25439.257972151994, -25652.22539332216, -21504.83685789548, -631.4144291179692, -24854.58104069007, -1867.0635660962544, -25814.342595856502, -30047.740643947203, -25918.74759420724, -7698.90191541933, -19950.22832753996, -32191.429399422337, 0.0491875, 0.9495625000000001, -0.15834375, 192.0, 0.0, 0.0, 0.0, 0.0, 0.0, 0.0, 0.0, 0.0, 0.0, 1.668976956094515E9, 0.0, 2022-11-20 15:42:36.094
254.0, -20320.619084908856, 21712.81984005211, -32943.811469532426, -31673.11479724822, -25503.09455431635, -25719.32533017699, -21564.448960357782, -685.5727059331782, -24809.81049654609, -1812.7041235809475, -25785.642955975887, -30005.27232948212, -25888.4609804703, -7668.458839471203, -19908.18469621953, -32151.442128591792, 0.0491875, 0.9495625000000001, -0.15834375, 192.0, 0.0, 0.0, 0.0, 0.0, 0.0, 0.0, 0.0, 0.0, 0.0, 1.668976956094523E9, 0.0, 2022-11-20 15:42:36.094
0.0, -20251.48513930859, 21513.44227951077, -32885.093436848336, -31598.884653912148, -25447.215193178083, -25651.778358433054, -21503.674567183803, -622.876062736042, -24850.893002854944, -1865.3201300287403, -25817.024805191137, -30049.99817013719, -25916.355957550524, -7701.271200331593, -19955.123359575675, -32191.161178488874, 0.0491875, 0.9495625000000001, -0.15834375, 192.0, 0.0, 0.0, 0.0, 0.0, 0.0, 0.0, 0.0, 0.0, 0.0, 1.6689769560945303E9, 0.0, 2022-11-20 15:42:36.094
2.0, -20320.21675350866, 21725.225058224805, -32954.49560338206, -31676.22168972751, -25513.37635676579, -25720.264103444115, -21568.807550526566, -683.6951593989324, -24798.38875512943, -1807.2279461893972, -25774.981173870707, -30004.55707365955, -25877.240404753735, -7653.818446852976, -19915.56077188978, -32143.820183732532, 0.0491875, 0.9495625000000001, -0.15834375, 192.0, 0.0, 0.0, 0.0, 0.0, 0.0, 0.0, 0.0, 0.0, 0.0, 1.6689769560945375E9, 0.0, 2022-11-20 15:42:36.094
4.0, -20274.708601797654, 21479.73584887217, -32911.04381216095, -31618.509485543906, -25466.52710038747, -25670.37500981987, -21523.6793784713, -640.8021617891982, -24867.947383874343, -1877.166554590053, -25832.223991420746, -30068.460711057272, -25936.293713604657, -7712.2012033702385, -19978.01154589791, -32201.465332682772, 0.048593750000000005, 0.94978125, -0.15717187500000002, 192.0, 0.5, 64.0, 14.5, 88.0, 125.5, 16.0, 0.0, 0.0, 0.0, 1.6689769560945432E9, 0.0, 2022-11-20 15:42:36.094
6.0, -20320.060291297472, 21731.43884318338, -32943.00680673204, -31670.03025651339, -25503.65334792773, -25713.42446964079, -21563.756056279668, -677.7048918849101, -24815.15256347091, -1815.3863329155843, -25780.412647773344, -30011.173190018322, -25886.471675213776, -7660.121638789373, -19918.13122250214, -32143.663721521345, 0.048593750000000005, 0.94978125, -0.15717187500000002, 192.0, 0.0, 0.0, 0.0, 0.0, 0.0, 0.0, 0.0, 0.0, 0.0, 1.6689769560945652E9, 0.0, 2022-11-20 15:42:36.094
8.0, -20274.14980818627, 21466.414209176804, -32897.386896298754, -31612.899197685627, -25457.161719460695, -25666.46345454019, -21519.857230169444, -634.8789495085418, -24876.888081656467, -1882.843897681701, -25838.169555445857, -30074.33921984902, -25937.925390949895, -7715.509261549624, -19974.05528712932, -32197.978460547743, 0.048593750000000005, 0.94978125, -0.15717187500000002, 192.0, 0.0, 0.0, 0.0, 0.0, 0.0, 0.0, 0.0, 0.0, 0.0, 1.6689769560945709E9, 0.0, 2022-11-20 15:42:36.094
10.0, -20324.508288444078, 21731.01416003873, -32932.210914160125, -31667.057474500834, -25486.867187841795, -25703.142667191347, -21554.100102674976, -666.6631301239885, -24798.29934815161, -1804.0316467322884, -25763.380618498402, -30004.1323905149, -25862.73412260224, -7639.178054234751, -19898.752260059387, -32118.652119475857, 0.048593750000000005, 0.94978125, -0.15717187500000002, 192.0, 0.0, 0.0, 0.0, 0.0, 0.0, 0.0, 0.0, 0.0, 0.0, 1.6689769560945766E9, 0.0, 2022-11-20 15:42:36.094
12.0, -20305.419898679247, 21452.936107270256, -32914.77655348498, -31626.556113547816, -25465.767141075987, -25668.899794685818, -21528.239134340183, -640.9586240003854, -24894.389497564975, -1891.6951884860027, -25859.224898722758, -30096.847426515513, -25948.45306258834, -7722.214784886216, -19984.828827956775, -32193.41870467886, 0.048593750000000005, 0.94978125, -0.15717187500000002, 192.0, 0.0, 0.0, 0.0, 0.0, 0.0, 0.0, 0.0, 0.0, 0.0, 1.6689769560945823E9, 0.0, 2022-11-20 15:42:36.094
14.0, -20321.133175031326, 21720.62059886701, -32927.382937357776, -31649.98074173698, -25476.13835050325, -25684.389553593344, -21539.25854435665, -650.7710398162651, -24811.9562640138, -1812.3911991585733, -25778.15512158336, -30013.78834411959, -25866.153939503904, -7640.474455413158, -19902.55205661679, -32113.891197906876, 0.048593750000000005, 0.94978125, -0.15717187500000002, 192.0, 0.0, 0.0, 0.0, 0.0, 0.0, 0.0, 0.0, 0.0, 0.0, 1.668976956094588E9, 0.0, 2022-11-20 15:42:36.094
16.0, -20313.332416216424, 21446.43174963376, -32929.99809145905, -31634.781555507372, -25472.65147836822, -25681.305012858513, -21535.816375710532, -650.2569496937931, -24895.01534640972, -1888.23066809543, -25863.53878540263, -30093.695830547316, -25950.95645796734, -7723.108854664428, -19978.90561567612, -32186.55671913108, 0.05, 0.9460000000000001, -0.158, 192.0, 0.5, 72.0, 14.5, 72.0, 125.5, 8.0, 0.0, 0.0, 0.0, 1.6689769560945938E9, 0.0, 2022-11-20 15:42:36.094
18.0, -20274.73095354211, 21728.331950704094, -32891.530739251466, -31618.174209377077, -25437.760405273486, -25654.862899167885, -21503.048718339054, -621.6914202799106, -24794.834827761035, -1801.9305827534895, -25757.05507481755, -29997.806846834046, -25846.573811361053, -7627.935126773731, -19884.916530241553, -32098.915529121823, 0.05, 0.9460000000000001, -0.158, 192.0, 0.0, 0.0, 0.0, 0.0, 0.0, 0.0, 0.0, 0.0, 0.0, 1.6689769560945995E9, 0.0, 2022-11-20 15:42:36.094
20.0, -20295.853352052374, 21477.791247104557, -32925.79596350145, -31638.067261942302, -25473.545548146434, -25685.283623371557, -21536.64339025538, -656.6048451191002, -24861.554784960128, -1866.683586440514, -25829.63118906393, -30070.00298142469, -25928.56001002312, -7708.446110301747, -19962.298269545827, -32173.726817813735, 0.05, 0.9460000000000001, -0.158, 192.0, 0.0, 0.0, 0.0, 0.0, 0.0, 0.0, 0.0, 0.0, 0.0, 1.6689769560946052E9, 0.0, 2022-11-20 15:42:36.094
22.0, -20284.141037957794, 21694.603168321035, -32905.45587604712, -31630.40061359413, -25458.502824128012, -25677.214643623192, -21525.7804424501, -646.6359670920333, -24801.115667952978, -1813.8887660370788, -25751.467138703723, -30000.019669535122, -25865.371628447967, -7640.362696690881, -19905.949521773997, -32120.283796821095, 0.05, 0.9460000000000001, -0.158, 192.0, 0.0, 0.0, 0.0, 0.0, 0.0, 0.0, 0.0, 0.0, 0.0, 1.668976956094611E9, 0.0, 2022-11-20 15:42:36.094
24.0, -20312.103070271383, 21489.660023410324, -32936.30128339545, -31648.103195202733, -25487.38127796427, -25700.259292156614, -21549.920326461834, -672.0275487932621, -24880.26319506922, -1879.200563335486, -25840.136508957927, -30078.027257684145, -25950.3753126115, -7727.892127977864, -19979.017374398398, -32200.928890815845, 0.05, 0.9460000000000001, -0.158, 192.0, 0.0, 0.0, 0.0, 0.0, 0.0, 0.0, 0.0, 0.0, 0.0, 1.668976956094617E9, 0.0, 2022-11-20 15:42:36.094
26.0, -20269.277127895013, 21674.039563422153, -32890.10022760632, -31607.423020294074, -25433.446518593613, -25647.844451408917, -21496.745526402658, -618.1821964004274, -24806.23421743324, -1811.4077224025398, -25754.99871432766, -29997.024535778113, -25859.537823145132, -7635.9594030331855, -19900.629806593635, -32121.423735788318, 0.05, 0.9520000000000001, -0.16, 192.0, 0.5, 72.0, 14.5, 96.0, 125.5, 0.0, 0.0, 0.0, 0.0, 1.6689769560946224E9, 0.0, 2022-11-20 15:42:36.094
28.0, -20334.723035660154, 21511.251808554152, -32955.65789409374, -31659.659047086127, -25497.596025180344, -25704.349661391934, -21554.74830326418, -676.7214151288766, -24872.8200641656, -1866.393013762595, -25838.907163012882, -30068.974801179746, -25939.400606083946, -7708.848441701943, -19965.405162025116, -32182.26518419566, 0.05, 0.9520000000000001, -0.16, 192.0, 0.0, 0.0, 0.0, 0.0, 0.0, 0.0, 0.0, 0.0, 0.0, 1.668976956094628E9, 0.0, 2022-11-20 15:42:36.094
30.0, -20270.26060465105, 21635.438100747837, -32897.051620131926, -31602.81856093628, -25444.823556521365, -25653.857070667396, -21507.58612246348, -630.453304106391, -24826.37313918747, -1827.0986470101652, -25776.031705860103, -30015.084745298, -25878.089771043036, -7649.2810427285485, -19922.802737093298, -32135.058299906053, 0.05, 0.9520000000000001, -0.16, 192.0, 0.0, 0.0, 0.0, 0.0, 0.0, 0.0, 0.0, 0.0, 0.0, 1.6689769560946352E9, 0.0, 2022-11-20 15:42:36.094
32.0, -20330.275038513548, 21542.96893393623, -32966.85611806585, -31670.767864080415, -25516.036214355972, -25726.343777935956, -21578.955242509277, -701.353037518625, -24865.24282279525, -1860.1792288040197, -25830.12292744195, -30059.788234208612, -25944.876783475494, -7712.178851625783, -19980.87256918819, -32194.402181434893, 0.05, 0.9520000000000001, -0.16, 192.0, 0.0, 0.0, 0.0, 0.0, 0.0, 0.0, 0.0, 0.0, 0.0, 1.6689769560946407E9, 0.0, 2022-11-20 15:42:36.094
34.0, -20262.750418514064, 21597.28367296263, -32896.58223349837, -31610.64167149564, -25448.109262956295, -25666.731675473653, -21517.264427812628, -639.4163536329692, -24820.137002484444, -1834.5417779137824, -25764.945240610272, -30013.52012318613, -25883.856521112506, -7661.395688223325, -19938.27014425637, -32159.131128684417, 0.05, 0.9520000000000001, -0.16, 192.0, 0.0, 0.0, 0.0, 0.0, 0.0, 0.0, 0.0, 0.0, 0.0, 1.6689769560946465E9, 0.0, 2022-11-20 15:42:36.094
36.0, -20330.967942591662, 21583.716164078258, -32950.606399846845, -31672.801872825847, -25511.14118232026, -25727.23784771417, -21575.46837037425, -696.6368194385552, -24857.598526191538, -1852.713746155947, -25817.87417148044, -30053.03800738311, -25934.930257192882, -7714.168156882305, -19977.81038019781, -32205.89097808492, 0.048, 0.9560000000000001, -0.158, 192.0, 0.5, 64.0, 14.5, 112.0, 125.5, 8.0, 0.0, 0.0, 0.0, 1.668976956094652E9, 0.0, 2022-11-20 15:42:36.094
38.0, -20249.831110218896, 21573.747286051188, -32856.21498301208, -31586.34532527272, -25423.656454522188, -25636.199192547705, -21492.029308322588, -612.2366323753157, -24826.976636287767, -1833.3124319687406, -25769.23677554569, -30015.956463331757, -25880.392000721935, -7662.80384812401, -19936.88433610014, -32162.573297330535, 0.048, 0.9560000000000001, -0.158, 192.0, 0.0, 0.0, 0.0, 0.0, 0.0, 0.0, 0.0, 0.0, 0.0, 1.668976956094659E9, 0.0, 2022-11-20 15:42:36.094
40.0, -20340.17686130725, 21613.868667348466, -32949.84644053536, -31683.37424795321, -25510.22476079759, -25723.728623834686, -21579.42462914284, -697.4414822389463, -24835.58205790306, -1828.8644348221344, -25797.288214837103, -30033.88256238491, -25905.783582423162, -7684.239171056649, -19946.450882727015, -32166.41779737685, 0.048, 0.9560000000000001, -0.158, 192.0, 0.0, 0.0, 0.0, 0.0, 0.0, 0.0, 0.0, 0.0, 0.0, 1.668976956094665E9, 0.0, 2022-11-20 15:42:36.094
42.0, -20261.029334191007, 21528.932038418297, -32880.98071586856, -31603.667927225582, -25430.607847047788, -25650.861936910384, -21503.49575322816, -628.9557372278855, -24840.119462027487, -1852.6019874336705, -25790.42622928932, -30040.923361888334, -25895.390021251445, -7680.595836710434, -19947.970801349977, -32167.065997966052, 0.048, 0.9560000000000001, -0.158, 192.0, 0.0, 0.0, 0.0, 0.0, 0.0, 0.0, 0.0, 0.0, 0.0, 1.6689769560946708E9, 0.0, 2022-11-20 15:42:36.094
44.0, -20335.17007054926, 21652.067798622586, -32955.702597582655, -31681.78727409688, -25504.05567932793, -25726.969626780705, -21574.753114551677, -699.8331188956641, -24830.798784589624, -1833.6924116244809, -25797.332918326014, -30035.581294963515, -25902.252006799223, -7684.9097233903085, -19938.426606467558, -32163.780291531122, 0.048, 0.9560000000000001, -0.158, 192.0, 0.0, 0.0, 0.0, 0.0, 0.0, 0.0, 0.0, 0.0, 0.0, 1.6689769560946765E9, 0.0, 2022-11-20 15:42:36.094
46.0, -20269.29947963947, 21497.706651414235, -32894.8611491753, -31596.850645166716, -25443.348341387315, -25651.532489244044, -21511.855305654444, -634.7001355528994, -24853.44110172285, -1865.6554061955699, -25805.267787607645, -30048.90293465888, -25909.493972002743, -7691.458784515713, -19960.89010964514, -32180.70056208379, 0.048, 0.96, -0.156, 192.0, 0.5, 64.0, 15.0, 0.0, 125.5, 16.0, 0.0, 0.0, 0.0, 1.668976956094682E9, 0.0, 2022-11-20 15:42:36.094
48.0, -20342.613201452878, 21670.373877331484, -32959.79296681797, -31668.59974486825, -25506.33555726237, -25714.60911209692, -21573.300251162083, -694.1781275484715, -24832.72103461278, -1822.5612428857378, -25797.690546237296, -30027.80288789307, -25901.961434121306, -7668.794115638032, -19940.61707742418, -32152.090329181, 0.048, 0.96, -0.156, 192.0, 0.0, 0.0, 0.0, 0.0, 0.0, 0.0, 0.0, 0.0, 0.0, 1.668976956094688E9, 0.0, 2022-11-20 15:42:36.094
50.0, -20265.879662737807, 21476.67365988179, -32891.82131192939, -31590.748618930415, -25438.74388202952, -25644.849317651908, -21506.759107918635, -632.3755541295474, -24866.04748559564, -1862.8614381386565, -25818.611779047464, -30060.056455142076, -25919.373443051987, -7687.971912380685, -19968.556757993312, -32179.337105672017, 0.048, 0.96, -0.156, 192.0, 0.0, 0.0, 0.0, 0.0, 0.0, 0.0, 0.0, 0.0, 0.0, 1.6689769560946937E9, 0.0, 2022-11-20 15:42:36.094
52.0, -20326.274076256046, 21700.48167711278, -32945.778423044496, -31667.772730323402, -25497.99835658054, -25708.484734116166, -21565.320678391538, -689.2830955127592, -24813.543237870126, -1800.2765536637967, -25772.38837151389, -30011.821390607525, -25879.699096643817, -7642.5308159030465, -19918.51120215788, -32131.437317304295, 0.048, 0.96, -0.156, 192.0, 0.0, 0.0, 0.0, 0.0, 0.0, 0.0, 0.0, 0.0, 0.0, 1.6689769560946994E9, 0.0, 2022-11-20 15:42:36.094
54.0, -20276.20616867616, 21451.930278769767, -32898.19155909915, -31615.73786923145, -25446.052902466407, -25665.010591150596, -21518.337311546482, -648.6029206041003, -24868.90850888592, -1875.5795807337263, -25821.338691871013, -30073.825129726545, -25928.783527467673, -7705.9874184116625, -19972.557720250814, -32194.17866399034, 0.048, 0.96, -0.156, 192.0, 0.0, 0.0, 0.0, 0.0, 0.0, 0.0, 0.0, 0.0, 0.0, 1.668976956094705E9, 0.0, 2022-11-20 15:42:36.094
56.0, -20331.236163525125, 21708.81887779461, -32944.88435326629, -31679.373285695707, -25494.399725723237, -25713.022138240594, -21566.572376081036, -688.8584123681084, -24820.405223417907, -1820.5495858847603, -25778.15512158336, -30023.086669813, -25885.063515313093, -7657.975871321663, -19917.460670168482, -32143.820183732532, 0.048, 0.9480000000000001, -0.158, 192.0, 0.5, 64.0, 14.5, 80.0, 125.5, 8.0, 0.0, 0.0, 0.0, 1.6689769560947108E9, 0.0, 2022-11-20 15:42:36.094
58.0, -20287.314985670448, 21445.515328111094, -32910.328556338376, -31628.344253104242, -25452.825481036365, -25666.239937095637, -21526.36158780594, -649.3181764266702, -24884.130046859987, -1885.7719762053462, -25842.103462469993, -30084.799836254104, -25942.105167163038, -7719.1302441513835, -19976.737496463957, -32199.52073091516, 0.048, 0.9480000000000001, -0.158, 192.0, 0.0, 0.0, 0.0, 0.0, 0.0, 0.0, 0.0, 0.0, 0.0, 1.6689769560947163E9, 0.0, 2022-11-20 15:42:36.094
60.0, -20327.436366967722, 21705.711985315324, -32934.98253047258, -31672.868928059215, -25480.27342322748, -25703.723812547185, -21556.15646316486, -677.6601883959995, -24809.430516890352, -1815.3192776822184, -25773.99769711467, -30012.849570852468, -25872.680648884852, -7649.795132851021, -19909.637559609124, -32134.052471405565, 0.048, 0.9480000000000001, -0.158, 192.0, 0.0, 0.0, 0.0, 0.0, 0.0, 0.0, 0.0, 0.0, 0.0, 1.668976956094722E9, 0.0, 2022-11-20 15:42:36.094
62.0, -20308.97382604764, 21429.980865714653, -32921.862056477315, -31637.709634031016, -25458.391065405736, -25673.481902299154, -21530.854288441456, -652.1568479724941, -24892.60135800855, -1889.4823657849272, -25851.133567229936, -30087.34793512201, -25945.882611975983, -7723.041799431062, -19976.29046157485, -32201.17476000485, 0.048, 0.9480000000000001, -0.158, 192.0, 0.0, 0.0, 0.0, 0.0, 0.0, 0.0, 0.0, 0.0, 0.0, 1.6689769560947275E9, 0.0, 2022-11-20 15:42:36.094
64.0, -20318.36155871887, 21698.492371856257, -32933.59672231635, -31658.384997652174, -25461.922641029676, -25678.399286079322, -21533.55884952055, -653.6991183399103, -24819.600560617517, -1820.2366614623859, -25778.266880305637, -30017.90106509937, -25868.657334882897, -7643.089609514429, -19904.519010128857, -32125.35764281245, 0.048, 0.9480000000000001, -0.158, 192.0, 0.0, 0.0, 0.0, 0.0, 0.0, 0.0, 0.0, 0.0, 0.0, 1.6689769560947344E9, 0.0, 2022-11-20 15:42:36.094
66.0, -20310.82902083743, 21438.854508263412, -32936.56950432891, -31639.16249742061, -25463.17433871917, -25671.559652276, -21531.45778554175, -653.6767665954551, -24888.332174817584, -1886.5319355168267, -25856.654448110396, -30092.62294681346, -25945.56968755361, -7714.414026071314, -19976.849255186233, -32193.262242467674, 0.046, 0.9480000000000001, -0.158, 192.0, 0.5, 56.0, 14.5, 80.0, 125.5, 8.0, 0.0, 0.0, 0.0, 1.66897695609474E9, 0.0, 2022-11-20 15:42:36.094
68.0, -20299.094354998393, 21690.62455780799, -32921.63853903276, -31636.659102041616, -25453.965420003584, -25672.744294732132, -21524.59579999397, -646.7030223253993, -24809.564627357082, -1810.9383357689783, -25768.320354023024, -30008.155704516856, -25864.142282502926, -7634.618298365867, -19898.975777503943, -32117.847456675467, 0.046, 0.9480000000000001, -0.158, 192.0, 0.0, 0.0, 0.0, 0.0, 0.0, 0.0, 0.0, 0.0, 0.0, 1.6689769560947459E9, 0.0, 2022-11-20 15:42:36.094
70.0, -20312.97478830514, 21458.97107827319, -32928.05348969144, -31639.341311376254, -25469.835158566853, -25687.317632116992, -21541.247849613173, -663.6009411336114, -24878.25153806824, -1881.6145517366592, -25839.264790924168, -30077.66962977286, -25943.245106130256, -7722.86298547542, -19970.970746394487, -32192.99402153421, 0.046, 0.9480000000000001, -0.158, 192.0, 0.0, 0.0, 0.0, 0.0, 0.0, 0.0, 0.0, 0.0, 0.0, 1.6689769560947528E9, 0.0, 2022-11-20 15:42:36.094
72.0, -20286.2868054255, 21667.043467407642, -32883.88644264775, -31616.676642498573, -25430.786661003433, -25653.477091011657, -21505.999148607156, -628.3075366386815, -24798.567569085073, -1817.0627137497324, -25745.096891533958, -29997.404515433853, -25848.004323006193, -7638.552205390001, -19888.023422720842, -32114.02530837361, 0.046, 0.9480000000000001, -0.158, 192.0, 0.0, 0.0, 0.0, 0.0, 0.0, 0.0, 0.0, 0.0, 0.0, 1.6689769560947585E9, 0.0, 2022-11-20 15:42:36.094
74.0, -20336.01943683856, 21470.124598756385, -32931.96504497112, -31651.83593652677, -25476.47362667008, -25694.246672898134, -21549.40623633936, -670.9546650594074, -24873.781189177178, -1878.4182522795502, -25834.347407144, -30074.495682060206, -25926.995387911247, -7710.301305091537, -19952.195281052027, -32177.57131786005, 0.046, 0.9480000000000001, -0.158, 192.0, 0.0, 0.0, 0.0, 0.0, 0.0, 0.0, 0.0, 0.0, 0.0, 1.6689769560947645E9, 0.0, 2022-11-20 15:42:36.094
76.0, -20294.646357851787, 21627.816155888577, -32894.36941079729, -31615.894331442636, -25435.636989550232, -25654.5052712566, -21513.285817299584, -633.9178244969636, -24827.893057810434, -1842.0743157952209, -25779.96561288424, -30027.914646615347, -25868.54557616062, -7653.572577663967, -19909.056414253286, -32135.147706883876, 0.052000000000000005, 0.9480000000000001, -0.162, 192.0, 0.5, 80.0, 14.5, 80.0, 125.0, 120.0, 0.0, 0.0, 0.0, 1.66897695609477E9, 0.0, 2022-11-20 15:42:36.094
78.0, -20341.853242141395, 21502.512276472127, -32954.74147257108, -31658.966143008012, -25493.103324544827, -25702.919149746795, -21565.27597490263, -683.9633803323961, -24879.659697968924, -1875.8701534116453, -25841.567020603066, -30075.99324893871, -25940.65230377344, -7707.932020179274, -19965.159292836106, -32183.829806307534, 0.052000000000000005, 0.9480000000000001, -0.162, 192.0, 0.0, 0.0, 0.0, 0.0, 0.0, 0.0, 0.0, 0.0, 0.0, 1.6689769560947757E9, 0.0, 2022-11-20 15:42:36.094
80.0, -20263.085694680893, 21625.133946553942, -32883.93114613666, -31587.61937470667, -25424.70698651159, -25631.17005004526, -21496.007918835632, -613.2424608758046, -24819.354691428507, -1827.7468475993692, -25762.10656906445, -30005.920530071326, -25872.926518073862, -7638.641612367823, -19909.12346948665, -32126.16230561284, 0.052000000000000005, 0.9480000000000001, -0.162, 192.0, 0.0, 0.0, 0.0, 0.0, 0.0, 0.0, 0.0, 0.0, 0.0, 1.6689769560947816E9, 0.0, 2022-11-20 15:42:36.094
82.0, -20337.382893250335, 21548.55687005006, -32953.75799581504, -31665.202279711044, -25499.920606603697, -25710.965777750705, -21571.154483694376, -689.9536478464184, -24861.0183430932, -1852.043193822288, -25814.610816789966, -30045.728986946226, -25931.24221935776, -7695.102118861929, -19959.012563110897, -32176.341971915004, 0.052000000000000005, 0.9480000000000001, -0.162, 192.0, 0.0, 0.0, 0.0, 0.0, 0.0, 0.0, 0.0, 0.0, 0.0, 1.6689769560947874E9, 0.0, 2022-11-20 15:42:36.094
84.0, -20262.25868013605, 21585.258434445674, -32874.945744865625, -31595.710706199494, -25420.303692853893, -25638.657884437787, -21496.320843258007, -620.2162051458604, -24830.9105433119, -1835.1229232696205, -25762.151272553358, -30008.669794639325, -25879.542634432633, -7654.220778253171, -19926.736644117434, -32151.285666380605, 0.052000000000000005, 0.9480000000000001, -0.162, 192.0, 0.0, 0.0, 0.0, 0.0, 0.0, 0.0, 0.0, 0.0, 0.0, 1.668976956094793E9, 0.0, 2022-11-20 15:42:36.094
86.0, -20341.83089039694, 21579.111704720464, -32942.51506835402, -31664.419968655107, -25487.917719831195, -25706.853056770928, -21562.59376556799, -681.7729093757761, -24852.54703194464, -1841.2249495059193, -25805.62541551893, -30041.973893877734, -25915.953626150327, -7684.529743734568, -19941.444091969024, -32168.250640422186, 0.048, 0.9480000000000001, -0.164, 192.0, 0.5, 64.0, 14.5, 80.0, 125.0, 112.0, 0.0, 0.0, 0.0, 1.6689769560947988E9, 0.0, 2022-11-20 15:42:36.094
88.0, -20270.461770351147, 21539.951448434764, -32872.62116344227, -31589.228700307456, -25423.097660910807, -25636.757986159086, -21496.611415935924, -616.4387603329135, -24839.895944582935, -1845.6952983969807, -25778.66921170583, -30029.076937327023, -25884.951756590817, -7660.591025422934, -19921.215763236974, -32146.412986089348, 0.048, 0.9480000000000001, -0.164, 192.0, 0.0, 0.0, 0.0, 0.0, 0.0, 0.0, 0.0, 0.0, 0.0, 1.6689769560948043E9, 0.0, 2022-11-20 15:42:36.094
90.0, -20353.766721936074, 21603.98919629922, -32959.01065576204, -31673.450073415053, -25509.19658055265, -25717.64894934284, -21577.16710295285, -693.8875548705524, -24851.027113321677, -1845.2259117634192, -25807.368851586445, -30043.85144041198, -25920.2675128302, -7684.641502456845, -19935.006789565898, -32153.342026870494, 0.048, 0.9480000000000001, -0.164, 192.0, 0.0, 0.0, 0.0, 0.0, 0.0, 0.0, 0.0, 0.0, 0.0, 1.6689769560948102E9, 0.0, 2022-11-20 15:42:36.094
92.0, -20259.218842890125, 21524.953427905253, -32871.391817497235, -31573.314258255275, -25425.73516675653, -25629.113689555372, -21494.35388974594, -614.7176760098548, -24853.575212189582, -1856.6700049245364, -25790.80620894506, -30034.977797863223, -25910.23157956977, -7672.526856962068, -19934.291533743326, -32151.531535569615, 0.048, 0.9480000000000001, -0.164, 192.0, 0.0, 0.0, 0.0, 0.0, 0.0, 0.0, 0.0, 0.0, 0.0, 1.668976956094816E9, 0.0, 2022-11-20 15:42:36.094
94.0, -20350.5033672456, 21641.115443839484, -32946.76189980053, -31671.013733269425, -25515.924455633696, -25724.84621105745, -21581.41393439936, -702.001238107829, -24832.229296234764, -1830.3843534450953, -25780.90438615136, -30015.46472495374, -25910.432745269867, -7670.13522030535, -19921.931019059542, -32142.724948254225, 0.048, 0.9480000000000001, -0.164, 192.0, 0.0, 0.0, 0.0, 0.0, 0.0, 0.0, 0.0, 0.0, 0.0, 1.6689769560948217E9, 0.0, 2022-11-20 15:42:36.094
96.0, -20271.400543618267, 21479.624090149893, -32860.5065179475, -31583.77487466036, -25428.618541791267, -25648.537355487035, -21501.037061338076, -629.1121994390726, -24865.68985768436, -1875.2219528224414, -25797.24351134819, -30047.04773986909, -25920.155754107924, -7699.147784608339, -19943.120472803173, -32177.772483560144, 0.049, 0.9470000000000001, -0.168, 192.0, 0.5, 72.0, 14.5, 72.0, 125.0, 80.0, 0.0, 0.0, 0.0, 1.6689769560948274E9, 0.0, 2022-11-20 15:42:36.094
98.0, -20330.900887358297, 21680.879197225477, -32924.588969300865, -31651.858288271225, -25487.649498897732, -25710.22817018368, -21559.062189944052, -685.5950576776336, -24816.784240816145, -1820.4378271624837, -25763.49237722068, -30002.679527125303, -25883.431837967855, -7665.195484780727, -19896.80765829178, -32133.046642905076, 0.049, 0.9470000000000001, -0.168, 192.0, 0.0, 0.0, 0.0, 0.0, 0.0, 0.0, 0.0, 0.0, 0.0, 1.6689769560948331E9, 0.0, 2022-11-20 15:42:36.094
100.0, -20271.266433151537, 21463.508482397614, -32871.950611108616, -31578.00812459089, -25430.831364492344, -25648.15737583129, -21502.177000305295, -630.4309523619357, -24857.48676746926, -1868.427022508028, -25799.3892788159, -30042.197411322286, -25917.36178605101, -7693.269275816593, -19936.549059933313, -32170.41875963435, 0.049, 0.9470000000000001, -0.168, 192.0, 0.0, 0.0, 0.0, 0.0, 0.0, 0.0, 0.0, 0.0, 0.0, 1.6689769560948389E9, 0.0, 2022-11-20 15:42:36.094
102.0, -20332.64432342581, 21698.738241045266, -32930.31101588142, -31647.902029502635, -25487.448333197633, -25704.215550925204, -21561.54323357859, -685.0586158107062, -24809.34110991253, -1807.8984985230566, -25764.654667932355, -29996.622204377916, -25880.302593744113, -7649.057525283996, -19894.7960012908, -32123.815372445035, 0.049, 0.9470000000000001, -0.168, 192.0, 0.0, 0.0, 0.0, 0.0, 0.0, 0.0, 0.0, 0.0, 0.0, 1.6689769560948462E9, 0.0, 2022-11-20 15:42:36.094
104.0, -20271.825226762918, 21457.317049183494, -32892.916547407694, -31594.503711998907, -25440.97905647505, -25654.684085212244, -21516.16919233432, -637.6282140765446, -24860.817177393103, -1870.841010909201, -25814.43200283432, -30053.552097505584, -25932.337454836066, -7702.589953254456, -19952.5082054744, -32178.018352749154, 0.049, 0.9470000000000001, -0.168, 192.0, 0.0, 0.0, 0.0, 0.0, 0.0, 0.0, 0.0, 0.0, 0.0, 1.6689769565744026E9, 0.0, 2022-11-20 15:42:36.574
106.0, -20313.19830574969, 21722.72166284581, -32928.83580074737, -31656.775672051393, -25487.29187098645, -25705.2660829146, -21561.11855043394, -684.030435565762, -24794.454848105295, -1799.2930769077632, -25746.393292712368, -29984.17228271631, -25870.445474439322, -7642.8213885809655, -19893.87957976813, -32121.44608753277, 0.0485, 0.9485000000000001, -0.167, 192.0, 0.5, 64.0, 14.5, 88.0, 125.0, 104.0, 0.0, 0.0, 0.0, 1.668976956574458E9, 0.0, 2022-11-20 15:42:36.574
108.0, -20300.50251489908, 21429.600886058914, -32917.01172793051, -31642.11292768871, -25475.177225491672, -25698.605263066922, -21552.02139044063, -680.6553221530106, -24880.64317472496, -1893.7068454869802, -25828.670064052352, -30073.691019259815, -25951.09056843407, -7735.491721092668, -19974.994060396442, -32212.551797932603, 0.0485, 0.9485000000000001, -0.167, 192.0, 0.0, 0.0, 0.0, 0.0, 0.0, 0.0, 0.0, 0.0, 0.0, 1.6689769565745006E9, 0.0, 2022-11-20 15:42:36.574
110.0, -20309.867895825853, 21721.58172387859, -32915.24594011855, -31652.953523749537, -25475.33368770286, -25698.605263066922, -21550.79204449559, -676.9225808289744, -24804.602540088006, -1820.6166411181262, -25756.92096435082, -30002.724230614214, -25877.106294287005, -7663.541455691035, -19902.306187427785, -32140.020387175133, 0.0485, 0.9485000000000001, -0.167, 192.0, 0.0, 0.0, 0.0, 0.0, 0.0, 0.0, 0.0, 0.0, 0.0, 1.6689769565745327E9, 0.0, 2022-11-20 15:42:36.574
112.0, -20284.364555402346, 21461.899156796833, -32905.634690002764, -31614.0614883973, -25458.055789238908, -25668.631573752355, -21529.289666329583, -654.03439450674, -24869.556709475128, -1876.3171883007515, -25823.86443899446, -30059.743530719705, -25941.680484018387, -7717.543270295057, -19962.52178699038, -32192.792855834112, 0.0485, 0.9485000000000001, -0.167, 192.0, 0.0, 0.0, 0.0, 0.0, 0.0, 0.0, 0.0, 0.0, 0.0, 1.6689769565745711E9, 0.0, 2022-11-20 15:42:36.574
114.0, -20307.856238824876, 21719.257142455237, -32923.09140242236, -31643.54343933385, -25479.200539493628, -25689.373992606877, -21550.993210195687, -671.8263830931644, -24791.81734225957, -1801.0365129752772, -25743.95695256674, -29980.50659662564, -25863.762302847186, -7633.433655909736, -19888.246940165394, -32112.77361068411, 0.0485, 0.9485000000000001, -0.167, 192.0, 0.0, 0.0, 0.0, 0.0, 0.0, 0.0, 0.0, 0.0, 0.0, 1.668976956574712E9, 0.0, 2022-11-20 15:42:36.574
116.0, -20303.274131211536, 21463.888462053357, -32917.525818052985, -31627.897218215137, -25473.90317605772, -25683.98722219315, -21546.656971771357, -670.7534993593097, -24889.583872507083, -1890.5105460298714, -25846.30559042759, -30079.636583284926, -25968.81550178713, -7729.635564045378, -19978.86091218721, -32203.879321083943, 0.04925, 0.94825, -0.1685, 192.0, 0.5, 72.0, 14.5, 80.0, 125.0, 88.0, 0.0, 0.0, 0.0, 1.6689769565747187E9, 0.0, 2022-11-20 15:42:36.574
118.0, -20285.146866458283, 21720.508840144736, -32884.78051242596, -31615.961386676, -25451.529079857955, -25670.687934242244, -21529.31201807404, -653.4308974064467, -24794.119571938467, -1798.0860827071767, -25742.392330454866, -29982.49590188216, -25857.995552777717, -7630.058542496985, -19878.74744877189, -32111.92424439481, 0.04925, 0.94825, -0.1685, 192.0, 0.0, 0.0, 0.0, 0.0, 0.0, 0.0, 0.0, 0.0, 0.0, 1.668976956574724E9, 0.0, 2022-11-20 15:42:36.574
120.0, -20323.345997732402, 21481.501636684137, -32930.69099553717, -31643.45403235603, -25485.637841896754, -25705.4672486147, -21562.817283012544, -690.0430548242397, -24879.324421802095, -1872.1597638320643, -25836.87315426745, -30066.85138545649, -25949.637705044475, -7716.358627838926, -19957.00090610992, -32193.731629101236, 0.04925, 0.94825, -0.1685, 192.0, 0.0, 0.0, 0.0, 0.0, 0.0, 0.0, 0.0, 0.0, 0.0, 1.6689769565747297E9, 0.0, 2022-11-20 15:42:36.574
