%OpenBCI Raw EEG Data
%Number of channels = 16
%Sample Rate = 125 Hz
%Board = OpenBCI_GUI$BoardCytonSerialDaisy
Sample Index, EXG Channel 0, EXG Channel 1, EXG Channel 2, EXG Channel 3, EXG Channel 4, EXG Channel 5, EXG Channel 6, EXG Channel 7, EXG Channel 8, EXG Channel 9, EXG Channel 10, EXG Channel 11, EXG Channel 12, EXG Channel 13, EXG Channel 14, EXG Channel 15, Accel Channel 0, Accel Channel 1, Accel Channel 2, Other, Other, Other, Other, Other, Other, Other, Analog Channel 0, Analog Channel 1, Analog Channel 2, Timestamp, Other, Timestamp (Formatted)
60.0, -25975.632783846, -2743.0731347886485, -46214.064504392685, -46216.38908581604, -34710.694516979995, -37655.7380146668, -34343.92474221286, -16953.865224583773, -35315.84564636298, -10681.339881579863, -39100.95710765805, -42906.6768773409, -36108.460856492624, -22035.51197475338, -33668.23150732893, -44561.64474030075, 0.0, 0.0, 0.0, 192.0, 0.0, 0.0, 0.0, 0.0, 0.0, 0.0, 0.0, 0.0, 0.0, 1.6689763638666666E9, 0.0, 2022-11-20 15:32:43.866
62.0, -26056.277877840745, -2736.4570184298777, -46306.01958108182, -46323.00690686786, -34804.43773322555, -37758.600742650124, -34439.43374627039, -17052.123493209303, -35299.03713453259, -10664.665480216203, -39097.35847680074, -42899.658429581934, -36103.76699015701, -22037.478928265446, -33657.05563510128, -44557.30850187642, 0.0, 0.0, 0.0, 192.0, 0.0, 0.0, 0.0, 0.0, 0.0, 0.0, 0.0, 0.0, 0.0, 1.6689763638666763E9, 0.0, 2022-11-20 15:32:43.866
64.0, -25958.51134759323, -2732.2325387278247, -46187.6000389576, -46193.56795472717, -34681.6372491881, -37637.27547374672, -34321.26007333518, -16931.669942339653, -35311.10707653846, -10684.804401970436, -39097.246718078466, -42908.53207213069, -36104.75046691304, -22046.285515580836, -33664.96815263846, -44568.64083631526, 0.0, 0.0, 0.0, 192.0, 0.0, 0.0, 0.0, 0.0, 0.0, 0.0, 0.0, 0.0, 0.0, 1.6689763638666854E9, 0.0, 2022-11-20 15:32:43.866
66.0, -26037.994150876304, -2707.422102382434, -46285.54538316076, -46299.3811129786, -34781.21427073649, -37739.42294590747, -34414.37744073599, -17029.190603398158, -35268.325837651, -10630.19909026612, -39055.068976291295, -42858.553571528624, -36063.39973967073, -22003.191352271006, -33612.46390491294, -44519.71286770259, 0.0, 0.0, 0.0, 192.0, 0.0, 0.0, 0.0, 0.0, 0.0, 0.0, 0.0, 0.0, 0.0, 1.6689763638666945E9, 0.0, 2022-11-20 15:32:43.866
68.0, -25987.255690962756, -2764.9107891214835, -46215.91969918248, -46212.79045495873, -34710.82862744673, -37658.66609319045, -34341.60016078951, -16948.366695447767, -35329.882541880914, -10697.12021316531, -39108.53434902839, -42917.36101119054, -36119.793190931465, -22056.053227907807, -33667.940934651015, -44571.52421134999, 0.007, 0.481, -0.047, 192.0, 0.0, 56.0, 15.0, 8.0, 126.5, 8.0, 0.0, 0.0, 0.0, 1.6689763638667033E9, 0.0, 2022-11-20 15:32:43.866
70.0, -26040.92222939995, -2706.416273881945, -46291.58035416369, -46305.12551130361, -34793.820654609284, -37740.45112615242, -34421.15001930595, -17029.32471386489, -35278.07119823351, -10635.787026379947, -39061.796851372346, -42869.64003677846, -36074.977943298574, -22006.432355217024, -33621.3375474617, -44520.517530502984, 0.007, 0.481, -0.047, 192.0, 0.0, 0.0, 0.0, 0.0, 0.0, 0.0, 0.0, 0.0, 0.0, 1.668976363866711E9, 0.0, 2022-11-20 15:32:43.866
72.0, -26007.14874352798, -2785.3626352980896, -46233.10819066861, -46231.02947843426, -34727.95006369949, -37670.087834607104, -34361.49321335473, -16961.308355487392, -35349.820297935046, -10714.085187206887, -39132.1377911732, -42944.92071210393, -36144.11188889884, -22074.38165836116, -33697.73581000994, -44591.55137438195, 0.007, 0.481, -0.047, 192.0, 0.0, 0.0, 0.0, 0.0, 0.0, 0.0, 0.0, 0.0, 0.0, 1.6689763638667176E9, 0.0, 2022-11-20 15:32:43.866
74.0, -26015.2400750208, -2674.38622407749, -46263.95359801693, -46282.34908370365, -34763.26581993888, -37714.32193688416, -34396.83132133858, -17000.736832706552, -35260.50272709164, -10624.588802407838, -39045.18950524205, -42857.01130116121, -36057.90121053472, -21992.238997487904, -33613.42502992452, -44508.31347803038, 0.007, 0.481, -0.047, 192.0, 0.0, 0.0, 0.0, 0.0, 0.0, 0.0, 0.0, 0.0, 0.0, 1.668976363866724E9, 0.0, 2022-11-20 15:32:43.866
76.0, -26004.712403382353, -2783.798013186218, -46232.99643194633, -46234.78457150276, -34726.094868909706, -37673.35118929758, -34362.16376568839, -16963.588233421833, -35340.56667573055, -10705.50211733605, -39124.493494569484, -42939.55629343466, -36134.38888006078, -22074.73928627244, -33692.46079831848, -44595.30646745044, 0.007, 0.481, -0.047, 192.0, 0.0, 0.0, 0.0, 0.0, 0.0, 0.0, 0.0, 0.0, 0.0, 1.668976363866731E9, 0.0, 2022-11-20 15:32:43.866
78.0, -25989.80378983066, -2656.638938979976, -46247.03332746426, -46261.5172578713, -34753.11812795617, -37699.256861121285, -34380.603954864026, -16984.330652276356, -35242.33075884947, -10605.880392298746, -39023.0612782313, -42838.41464977439, -36034.588341067836, -21972.68122108951, -33599.701058828956, -44495.37181799076, 0.0115, 0.7255, -0.0695, 192.0, 0.0, 64.0, 15.0, 40.0, 126.5, 16.0, 0.0, 0.0, 0.0, 1.6689763638667395E9, 0.0, 2022-11-20 15:32:43.866
80.0, -26011.708499396864, -2786.815498687685, -46239.88076923857, -46233.711687768904, -34745.026796463346, -37685.51053828127, -34374.770149561184, -16973.17713179316, -35343.740623443206, -10711.246515661063, -39126.996889948474, -42937.11995328903, -36137.74164172907, -22069.866605981184, -33703.457856590496, -44593.89830754975, 0.0115, 0.7255, -0.0695, 192.0, 0.0, 0.0, 0.0, 0.0, 0.0, 0.0, 0.0, 0.0, 0.0, 1.6689763638667483E9, 0.0, 2022-11-20 15:32:43.866
82.0, -25978.583214114096, -2652.4815145112893, -46226.69324000993, -46243.45704835142, -34740.98113071694, -37687.11986388205, -34365.60593433451, -16969.3549834913, -35236.09462214645, -10604.271066697964, -39013.8076560268, -42824.780085656654, -36030.117992176776, -21956.58796508169, -33592.995535492366, -44484.642980652214, 0.0115, 0.7255, -0.0695, 192.0, 0.0, 0.0, 0.0, 0.0, 0.0, 0.0, 0.0, 0.0, 0.0, 1.6689763638667555E9, 0.0, 2022-11-20 15:32:43.866
84.0, -26022.10206056858, -2797.186708114947, -46243.367641373596, -46246.161609430506, -34745.49618309691, -37691.634916262024, -34374.300762927625, -16974.138256804737, -35349.954408401776, -10714.286352906985, -39131.40018360617, -42938.885741100996, -36144.31305459893, -22067.8102454913, -33697.46758907647, -44591.52902263749, 0.0115, 0.7255, -0.0695, 192.0, 0.0, 0.0, 0.0, 0.0, 0.0, 0.0, 0.0, 0.0, 0.0, 1.6689763638667612E9, 0.0, 2022-11-20 15:32:43.866
86.0, -25974.783417556697, -2670.944055431373, -46215.96440267139, -46238.29379538224, -34718.4952757949, -37671.60775323007, -34347.03163469215, -16951.607698393786, -35242.77779373858, -10608.897877800213, -39018.43446712905, -42830.36802177048, -36020.93142520564, -21946.10499693215, -33580.635020808586, -44481.714902128566, 0.0115, 0.7255, -0.0695, 192.0, 0.0, 0.0, 0.0, 0.0, 0.0, 0.0, 0.0, 0.0, 0.0, 1.6689763638667667E9, 0.0, 2022-11-20 15:32:43.866
88.0, -26044.25263932379, -2819.8960804815392, -46274.7718423333, -46283.421967437505, -34767.26678219638, -37722.7038410549, -34401.704001629834, -17003.821373441384, -35349.35091130149, -10712.520565095016, -39138.08335519831, -42949.234598783805, -36135.931150428194, -22062.378771588657, -33693.39957158561, -44600.693237864165, 0.01375, 0.84775, -0.07675000000000001, 192.0, 0.0, 64.0, 15.0, 40.0, 126.5, 48.0, 0.0, 0.0, 0.0, 1.6689763638667724E9, 0.0, 2022-11-20 15:32:43.866
90.0, -25953.973943468805, -2666.741927473775, -46200.83227167514, -46217.59608001663, -34697.439932518, -37650.57476169762, -34330.06666065057, -16934.665076096666, -35253.59603805495, -10610.842479567824, -39033.58894986975, -42846.28246382266, -36030.252102643506, -21953.72694179141, -33600.12574197361, -44507.173539063166, 0.01375, 0.84775, -0.07675000000000001, 192.0, 0.0, 0.0, 0.0, 0.0, 0.0, 0.0, 0.0, 0.0, 0.0, 1.668976363866778E9, 0.0, 2022-11-20 15:32:43.866
92.0, -26061.150558132, -2825.595775317642, -46289.52399367381, -46294.64254315407, -34784.63408763815, -37727.73298355735, -34417.17140879291, -17015.377225324777, -35349.529725257125, -10688.961826439123, -39134.8870557412, -42937.99167132279, -36123.213007833125, -22040.20584108899, -33685.91173719308, -44585.71756907911, 0.01375, 0.84775, -0.07675000000000001, 192.0, 0.0, 0.0, 0.0, 0.0, 0.0, 0.0, 0.0, 0.0, 0.0, 1.6689763638667884E9, 0.0, 2022-11-20 15:32:43.866
94.0, -25960.321838894113, -2693.2063929088586, -46201.413417030984, -46219.76419922879, -34696.88113890662, -37645.29975000617, -34331.07248915106, -16930.060616738872, -35281.84864304646, -10630.57906992186, -39059.136993782166, -42869.79649898964, -36046.34535865133, -21960.030133727807, -33619.616463138635, -44507.24059429653, 0.01375, 0.84775, -0.07675000000000001, 192.0, 0.0, 0.0, 0.0, 0.0, 0.0, 0.0, 0.0, 0.0, 0.0, 1.668976363866794E9, 0.0, 2022-11-20 15:32:43.866
96.0, -26039.022331121247, -2794.035112146749, -46278.81750807971, -46292.38501696409, -34771.62537236516, -37720.2004456759, -34407.2695859992, -17002.614379240797, -35330.46368723675, -10675.617834999304, -39120.872511967726, -42927.21813049533, -36104.973984357595, -22024.179640314538, -33676.0993213772, -44563.499935090535, 0.01375, 0.84775, -0.07675000000000001, 192.0, 0.0, 0.0, 0.0, 0.0, 0.0, 0.0, 0.0, 0.0, 0.0, 1.6689763638668E9, 0.0, 2022-11-20 15:32:43.866
98.0, -25943.80389974164, -2698.3919976224897, -46194.59613497212, -46211.1587776135, -34689.12508358063, -37642.93046509391, -34326.04334664862, -16924.092700969304, -35269.95751499623, -10628.38859896524, -39047.11175526521, -42864.09680415354, -36037.650530058214, -21959.784264538797, -33625.09264053019, -44511.37566702076, 0.015875, 0.906875, -0.082375, 192.0, 0.0, 72.0, 15.0, 24.0, 126.5, 32.0, 0.0, 0.0, 0.0, 1.6689763638668056E9, 0.0, 2022-11-20 15:32:43.866
100.0, -26031.19922056189, -2780.4005480290116, -46282.997284292855, -46287.24411573936, -34777.258011967904, -37725.52016085627, -34411.85169361254, -17007.59881825433, -35316.382088229904, -10668.577035495882, -39103.30404082585, -42914.49998790026, -36097.19557728715, -22011.46149771947, -33674.53469926533, -44560.39304261125, 0.015875, 0.906875, -0.082375, 192.0, 0.0, 0.0, 0.0, 0.0, 0.0, 0.0, 0.0, 0.0, 0.0, 1.6689763638668113E9, 0.0, 2022-11-20 15:32:43.866
102.0, -25943.043940430158, -2717.748608320786, -46193.165623326975, -46196.56308848418, -34692.746066182386, -37635.17440976792, -34325.1045733815, -16918.571820088844, -35270.13632895188, -10629.528537932461, -39048.721080865995, -42864.923818698386, -36048.64758833022, -21952.229374912906, -33633.675710401025, -44507.59822220782, 0.015875, 0.906875, -0.082375, 192.0, 0.0, 0.0, 0.0, 0.0, 0.0, 0.0, 0.0, 0.0, 0.0, 1.6689763638668172E9, 0.0, 2022-11-20 15:32:43.866
104.0, -26038.619999721053, -2777.472469505366, -46292.16149951953, -46303.38207523609, -34791.00433480791, -37735.690204583436, -34422.84875188455, -17014.013768913006, -35309.967137571235, -10653.042573099443, -39100.46536928003, -42906.11808372952, -36099.22958603258, -22000.77736386983, -33672.5006905199, -44550.088888417355, 0.015875, 0.906875, -0.082375, 192.0, 0.0, 0.0, 0.0, 0.0, 0.0, 0.0, 0.0, 0.0, 0.0, 1.6689763638668237E9, 0.0, 2022-11-20 15:32:43.866
106.0, -25933.745614736752, -2725.7728845802408, -46184.33668426713, -46197.81478617368, -34676.87632761912, -37623.99853754026, -34312.05115461959, -16901.45038383608, -35289.60469837245, -10643.34191600584, -39064.724929895994, -42886.71676954231, -36062.751539081524, -21966.48978787539, -33649.411338497564, -44527.87125442878, 0.015875, 0.906875, -0.082375, 192.0, 0.0, 0.0, 0.0, 0.0, 0.0, 0.0, 0.0, 0.0, 0.0, 1.6689763638668303E9, 0.0, 2022-11-20 15:32:43.866
108.0, -26029.63459845002, -2761.9156553644725, -46293.748473375854, -46314.44618874147, -34782.24245098144, -37736.36075691709, -34414.60095818054, -17009.31990257739, -35284.64261110337, -10637.619869425282, -39074.82791838979, -42896.730351058286, -36065.85843156081, -21979.45379965947, -33648.5396204638, -44533.41448705369, 0.017937500000000002, 0.9324375, -0.0831875, 192.0, 0.0, 80.0, 14.5, 120.0, 126.5, 48.0, 0.0, 0.0, 0.0, 1.668976363866865E9, 0.0, 2022-11-20 15:32:43.866
110.0, -25955.203289413847, -2766.8106874001846, -46205.63789673304, -46215.539719526736, -34687.58281321321, -37645.143287794985, -34322.489419280224, -16914.72732004253, -35315.80094287407, -10676.690718733158, -39094.74332269947, -42921.31726995913, -36084.633896903266, -22004.174829027037, -33668.991466640415, -44558.11316467681, 0.017937500000000002, 0.9324375, -0.0831875, 192.0, 0.0, 0.0, 0.0, 0.0, 0.0, 0.0, 0.0, 0.0, 0.0, 1.6689763638668716E9, 0.0, 2022-11-20 15:32:43.866
112.0, -26030.707482183872, -2756.0371465727267, -46295.29074374327, -46315.67553468651, -34783.09181727074, -37739.62411160757, -34413.48337095778, -17006.950617665127, -35288.82238731651, -10635.518805446483, -39074.49264222296, -42890.13658644397, -36066.037245516454, -21982.270119460838, -33635.687367402, -44522.752704948514, 0.017937500000000002, 0.9324375, -0.0831875, 192.0, 0.0, 0.0, 0.0, 0.0, 0.0, 0.0, 0.0, 0.0, 0.0, 1.668976363866878E9, 0.0, 2022-11-20 15:32:43.866
114.0, -25953.482205090786, -2775.773736926763, -46197.12188209556, -46205.07910312165, -34687.18048181301, -37638.30365399166, -34321.349480313, -16907.127726927727, -35314.61630041794, -10670.454582030128, -39093.245755820964, -42917.91980480192, -36091.00414407303, -22001.73848888141, -33666.21985032795, -44549.306577361414, 0.017937500000000002, 0.9324375, -0.0831875, 192.0, 0.0, 0.0, 0.0, 0.0, 0.0, 0.0, 0.0, 0.0, 0.0, 1.6689763638668847E9, 0.0, 2022-11-20 15:32:43.866
116.0, -26023.48786872481, -2746.515303434766, -46290.37335996311, -46312.859214885146, -34786.93631731705, -37741.658120353, -34419.741859405265, -17012.158574123212, -35270.0245702296, -10621.101930272811, -39055.292493735855, -42876.7702432597, -36056.873030289775, -21965.21573844144, -33629.16065802106, -44512.403847265705, 0.017937500000000002, 0.9324375, -0.0831875, 192.0, 0.0, 0.0, 0.0, 0.0, 0.0, 0.0, 0.0, 0.0, 0.0, 1.6689763638668916E9, 0.0, 2022-11-20 15:32:43.866
118.0, -25960.321838894113, -2797.253763348313, -46203.76035019879, -46215.271498593276, -34695.85295866167, -37648.987787841295, -34331.67598625136, -16922.30456141288, -35325.12162031193, -10690.615855528815, -39106.61209900524, -42935.84590385508, -36105.71159192462, -22016.69180592201, -33687.56576628277, -44571.70302530564, 0.01896875, 0.94721875, -0.08459375, 192.0, 0.0, 80.0, 15.0, 8.0, 126.5, 40.0, 0.0, 0.0, 0.0, 1.6689763638668983E9, 0.0, 2022-11-20 15:32:43.866
120.0, -25996.419906189432, -2720.5649281221545, -46260.62318809309, -46291.26742974132, -34760.963590259984, -37723.79907653321, -34395.199643993335, -16990.6114924683, -35252.81372699901, -10608.674360355659, -39039.78038308387, -42864.40972857591, -36034.364823623284, -21949.01072371134, -33613.067402013236, -44506.14535881822, 0.01896875, 0.94721875, -0.08459375, 192.0, 0.0, 0.0, 0.0, 0.0, 0.0, 0.0, 0.0, 0.0, 0.0, 1.6689763638669052E9, 0.0, 2022-11-20 15:32:43.866
122.0, -25968.033190731192, -2799.511289538299, -46211.069370635676, -46220.926489940466, -34701.619708731145, -37663.44936650388, -34339.40968983289, -16930.060616738872, -35319.42192547583, -10679.104707134331, -39100.04068613538, -42924.04418278267, -36095.76506564201, -22011.64031167511, -33675.42876904354, -44573.8711445178, 0.01896875, 0.94721875, -0.08459375, 192.0, 0.0, 0.0, 0.0, 0.0, 0.0, 0.0, 0.0, 0.0, 0.0, 1.668976363866912E9, 0.0, 2022-11-20 15:32:43.866
124.0, -25996.509313167255, -2711.9818582513167, -46266.836973051664, -46292.45207219745, -34766.21625020698, -37729.319957413674, -34399.13355101747, -16991.997300624527, -35251.49497407615, -10603.041720752923, -39036.1146969932, -42854.351443571024, -36033.78367826744, -21946.999066710363, -33615.928425303515, -44511.062742598384, 0.01896875, 0.94721875, -0.08459375, 192.0, 0.0, 0.0, 0.0, 0.0, 0.0, 0.0, 0.0, 0.0, 0.0, 1.6689763638669217E9, 0.0, 2022-11-20 15:32:43.866
126.0, -25985.512254895242, -2817.3032781247234, -46228.92841445547, -46231.07418192318, -34722.58564503022, -37673.88763116451, -34357.313437141594, -16941.370599433256, -35342.690091453806, -10695.26501837552, -39129.813209749846, -42949.1898952949, -36123.90591191124, -22035.51197475338, -33712.465609605984, -44595.84290931737, 0.01896875, 0.94721875, -0.08459375, 192.0, 0.0, 0.0, 0.0, 0.0, 0.0, 0.0, 0.0, 0.0, 0.0, 1.6689763638669283E9, 0.0, 2022-11-20 15:32:43.866
128.0, -25962.691123806373, -2690.5018318297666, -46227.43084757696, -46253.82825777868, -34729.581741044734, -37685.4434830479, -34366.43294887936, -16954.915756573173, -35231.22194185519, -10591.687034569626, -39017.29452816183, -42839.21931257479, -36009.196759366605, -21918.58999950767, -33600.50572162935, -44475.47876542554, 0.01896875, 0.94721875, -0.08459375, 192.0, 0.0, 0.0, 0.0, 0.0, 0.0, 0.0, 0.0, 0.0, 0.0, 1.6689763638669353E9, 0.0, 2022-11-20 15:32:43.866
130.0, -25997.649252134473, -2832.5248160987876, -46241.5124465838, -46246.7651065308, -34738.56714231576, -37683.00714290227, -34376.960620517806, -16957.575614163354, -35330.26252153665, -10693.745099752558, -39119.9337387006, -42945.50185745977, -36109.66785069321, -22022.5479629693, -33699.85922573319, -44574.38523464027, 0.018000000000000002, 0.962, -0.084, 192.0, 0.0, 72.0, 15.0, 8.0, 126.5, 48.0, 0.0, 0.0, 0.0, 1.6689763638669422E9, 0.0, 2022-11-20 15:32:43.866
132.0, -25974.224623945312, -2702.7282360468193, -46236.639766292545, -46254.476458367884, -34737.404851604086, -37680.90607892348, -34369.60689659201, -16953.462893183576, -35242.48722106066, -10609.34491268932, -39026.72696432197, -42851.848048192034, -36019.94794844961, -21928.313008345725, -33611.525131645816, -44479.88205908323, 0.018000000000000002, 0.962, -0.084, 192.0, 0.0, 0.0, 0.0, 0.0, 0.0, 0.0, 0.0, 0.0, 0.0, 1.6689763638669488E9, 0.0, 2022-11-20 15:32:43.866
134.0, -26016.000034332283, -2831.5636910872095, -46253.62709207858, -46252.91183625601, -34744.02096796286, -37686.47166329285, -34377.27354494018, -16958.268518241468, -35347.719233956246, -10698.01428294352, -39136.04934645288, -42948.20641853886, -36124.48705726708, -22030.259314806382, -33706.38593511414, -44577.20155444164, 0.018000000000000002, 0.962, -0.084, 192.0, 0.0, 0.0, 0.0, 0.0, 0.0, 0.0, 0.0, 0.0, 0.0, 1.6689763638669555E9, 0.0, 2022-11-20 15:32:43.866
136.0, -25964.90394650745, -2704.672837814431, -46226.156798143005, -46241.62420530608, -34719.724621739944, -37670.84779391859, -34353.1560126729, -16937.660209853675, -35253.059596188024, -10598.124336972754, -39034.103039992224, -42849.121135368485, -36021.93725370613, -21928.044787412262, -33607.390058921585, -44480.731425372534, 0.018000000000000002, 0.962, -0.084, 192.0, 0.0, 0.0, 0.0, 0.0, 0.0, 0.0, 0.0, 0.0, 0.0, 1.6689763638669624E9, 0.0, 2022-11-20 15:32:43.866
138.0, -26000.085592280102, -2811.2683071217907, -46245.87103675259, -46253.47062986739, -34737.404851604086, -37689.42209356095, -34371.23857393725, -16952.36765770527, -35332.52004772664, -10682.92685543619, -39124.80641899186, -42940.18214227941, -36106.76212391402, -22022.771480413852, -33691.9020047071, -44568.99846422654, 0.018000000000000002, 0.962, -0.084, 192.0, 0.0, 0.0, 0.0, 0.0, 0.0, 0.0, 0.0, 0.0, 0.0, 1.668976363866969E9, 0.0, 2022-11-20 15:32:43.866
140.0, -25936.673693260396, -2692.1782126639146, -46200.74286469733, -46227.43084757696, -34701.753819197875, -37657.660264689956, -34332.5030007962, -16918.080081710825, -35235.021738412586, -10594.056319481888, -39016.04283047233, -42842.72853645427, -36006.201625609596, -21919.39466230806, -33596.70592507195, -44476.261076481474, 0.018000000000000002, 0.9560000000000001, -0.09, 192.0, 0.0, 72.0, 14.5, 112.0, 126.5, 24.0, 0.0, 0.0, 0.0, 1.6689763638669758E9, 0.0, 2022-11-20 15:32:43.866
142.0, -26028.069976338145, -2830.0214207197932, -46279.577467391195, -46298.665857156026, -34773.52527064386, -37730.996338247816, -34407.24723425475, -16990.45503025711, -35330.35192851447, -10688.715957250113, -39119.4867038115, -42944.51838070374, -36113.087667594875, -22027.107718838182, -33694.58421404174, -44577.96151375312, 0.018000000000000002, 0.9560000000000001, -0.09, 192.0, 0.0, 0.0, 0.0, 0.0, 0.0, 0.0, 0.0, 0.0, 0.0, 1.6689763638669825E9, 0.0, 2022-11-20 15:32:43.866
144.0, -25933.41033856992, -2702.504718602266, -46190.773986670254, -46210.62233574657, -34683.9841823559, -37644.29392150568, -34318.287291322624, -16907.217133905546, -35255.160660166825, -10617.950334304613, -39034.728888836966, -42862.53218204167, -36028.59807355381, -21941.63464804109, -33616.777791592816, -44504.8042541509, 0.018000000000000002, 0.9560000000000001, -0.09, 192.0, 0.0, 0.0, 0.0, 0.0, 0.0, 0.0, 0.0, 0.0, 0.0, 1.6689763638669891E9, 0.0, 2022-11-20 15:32:43.866
146.0, -26014.23424652031, -2800.874745950073, -46266.144068973554, -46277.02936852329, -34753.408700634085, -37712.57850081665, -34387.71180960081, -16976.686355672642, -35318.505503953165, -10669.225236085085, -39106.813264705335, -42923.68655487139, -36098.08964706536, -22002.96783482645, -33670.869013174655, -44564.215190913106, 0.018000000000000002, 0.9560000000000001, -0.09, 192.0, 0.0, 0.0, 0.0, 0.0, 0.0, 0.0, 0.0, 0.0, 0.0, 1.668976363866996E9, 0.0, 2022-11-20 15:32:43.866
148.0, -25917.786469195664, -2706.3715703930343, -46177.20647778588, -46191.73511168184, -34666.81804261423, -37626.63604338599, -34302.93164288183, -16891.213284875546, -35246.26466587361, -10605.254543453997, -39024.82706604327, -42848.428231290374, -36015.87993095874, -21921.071043142205, -33601.310384429744, -44488.219259765065, 0.018000000000000002, 0.9560000000000001, -0.09, 192.0, 0.0, 0.0, 0.0, 0.0, 0.0, 0.0, 0.0, 0.0, 0.0, 1.6689763638670027E9, 0.0, 2022-11-20 15:32:43.867
150.0, -26033.00971186277, -2809.5248710542764, -46279.68922611347, -46301.392769979575, -34774.5087473999, -37738.73004182935, -34411.85169361254, -17000.133335606257, -35310.92826258281, -10664.084334860365, -39098.2301948345, -42918.81387458013, -36089.90890859472, -22000.486791191914, -33670.04199862981, -44553.19578089664, 0.016, 0.9580000000000001, -0.09, 192.0, 0.0, 64.0, 14.5, 120.0, 126.5, 24.0, 0.0, 0.0, 0.0, 1.6689763638670096E9, 0.0, 2022-11-20 15:32:43.867
152.0, -25950.5764783116, -2754.941911094417, -46194.19380357192, -46213.639821248034, -34685.97348761243, -37651.513534964746, -34326.28921583763, -16912.894476997197, -35281.53571862409, -10649.890977131245, -39057.035929803365, -42888.616667821014, -36051.24039068704, -21966.378029153115, -33647.01970184084, -44526.19487359463, 0.016, 0.9580000000000001, -0.09, 192.0, 0.0, 0.0, 0.0, 0.0, 0.0, 0.0, 0.0, 0.0, 0.0, 1.6689763638670163E9, 0.0, 2022-11-20 15:32:43.867
154.0, -26047.426587036443, -2810.1954233879355, -46302.39859848006, -46320.481159744406, -34790.62435515218, -37754.77859434827, -34428.414336253925, -17016.13718463626, -35321.925320854825, -10682.546875780448, -39110.18837811809, -42932.940177075885, -36098.62608893229, -22013.428451231535, -33687.632821516134, -44566.49506884755, 0.016, 0.9580000000000001, -0.09, 192.0, 0.0, 0.0, 0.0, 0.0, 0.0, 0.0, 0.0, 0.0, 0.0, 1.6689763638670228E9, 0.0, 2022-11-20 15:32:43.867
156.0, -25973.08468497809, -2786.50257426531, -46226.82735047667, -46238.182036659964, -34716.95300542748, -37679.87789867853, -34357.02286446367, -16944.321029701357, -35317.67848940832, -10679.685852490169, -39095.59268898877, -42920.40084843646, -36083.449254447136, -21995.368241711647, -33679.16151036758, -44559.5660280664, 0.016, 0.9580000000000001, -0.09, 192.0, 0.0, 0.0, 0.0, 0.0, 0.0, 0.0, 0.0, 0.0, 0.0, 1.668976363867031E9, 0.0, 2022-11-20 15:32:43.867
158.0, -26022.43733673541, -2768.7776409122516, -46291.91563033052, -46307.51714796032, -34787.58451790625, -37751.24701872433, -34422.893455373465, -17012.80677471242, -35315.39861147387, -10663.659651715714, -39106.053305393856, -42920.26673796973, -36098.20140578764, -22007.527590695336, -33678.24508884491, -44564.14813567974, 0.016, 0.9580000000000001, -0.09, 192.0, 0.0, 0.0, 0.0, 0.0, 0.0, 0.0, 0.0, 0.0, 0.0, 1.668976363867038E9, 0.0, 2022-11-20 15:32:43.867
160.0, -25934.304408348133, -2760.9098268639837, -46187.71179767988, -46186.48245173484, -34679.84910963167, -37640.44942145937, -34316.87913142194, -16904.087889681803, -35302.769875856626, -10659.971613880589, -39080.594668459256, -42900.865423782525, -36075.08970202085, -21983.47711366142, -33661.95066713699, -44544.52330404798, 0.018000000000000002, 0.96, -0.088, 192.0, 0.0, 72.0, 15.0, 0.0, 126.5, 32.0, 0.0, 0.0, 0.0, 1.6689763638670447E9, 0.0, 2022-11-20 15:32:43.867
162.0, -25994.654118377464, -2735.9876317963162, -46269.16155447502, -46276.8729063121, -34764.58457286174, -37726.01189923428, -34397.5689289056, -16988.35396627831, -35259.74276778016, -10614.597572636316, -39044.1166215082, -42858.33005408407, -36045.6077510843, -21953.458720857947, -33625.87495158613, -44508.78286466395, 0.018000000000000002, 0.96, -0.088, 192.0, 0.0, 0.0, 0.0, 0.0, 0.0, 0.0, 0.0, 0.0, 0.0, 1.6689763638670516E9, 0.0, 2022-11-20 15:32:43.867
164.0, -25958.198423170856, -2800.1147866385922, -46205.21321358839, -46206.48726302234, -34698.758685440866, -37652.31819776514, -34334.089974652525, -16917.67775031063, -35308.11194278144, -10664.10668660482, -39079.7229504255, -42902.027714494194, -36084.209213758615, -21989.377974197625, -33675.339362065715, -44552.92755996318, 0.018000000000000002, 0.96, -0.088, 192.0, 0.0, 0.0, 0.0, 0.0, 0.0, 0.0, 0.0, 0.0, 0.0, 1.6689763638670583E9, 0.0, 2022-11-20 15:32:43.867
166.0, -26016.849400621584, -2753.578454682643, -46277.56581039022, -46306.86894737112, -34776.96743928998, -37733.05269873771, -34410.97997557878, -16996.5123530045, -35279.23348894519, -10633.261279256498, -39060.3663397272, -42882.00055146224, -36055.77779481147, -21962.82410178472, -33644.00221633938, -44519.64581246922, 0.018000000000000002, 0.96, -0.088, 192.0, 0.0, 0.0, 0.0, 0.0, 0.0, 0.0, 0.0, 0.0, 0.0, 1.6689763638670647E9, 0.0, 2022-11-20 15:32:43.867
168.0, -25958.399588870954, -2809.0107809318047, -46203.179204842956, -46218.06546665019, -34687.068723090735, -37644.852715117064, -34328.591445516526, -16911.128689185225, -35339.44908850778, -10705.256248147041, -39119.57611078931, -42948.76521215025, -36105.75629541353, -22018.859925134173, -33697.24407163192, -44572.99942648404, 0.018000000000000002, 0.96, -0.088, 192.0, 0.0, 0.0, 0.0, 0.0, 0.0, 0.0, 0.0, 0.0, 0.0, 1.6689763638670716E9, 0.0, 2022-11-20 15:32:43.867
170.0, -25987.792132829683, -2719.87202404404, -46262.29956892724, -46288.942848317965, -34743.10454644019, -37706.40941934698, -34382.03446650916, -16971.388992236734, -35250.57855255348, -10607.66853185517, -39042.708461607515, -42865.43790882086, -36021.24434962802, -21933.58802003718, -33609.625233367115, -44487.101672542296, 0.02, 0.96, -0.088, 192.0, 0.0, 80.0, 15.0, 0.0, 126.5, 32.0, 0.0, 0.0, 0.0, 1.6689763638670783E9, 0.0, 2022-11-20 15:32:43.867
172.0, -25966.42386513041, -2809.1001879096257, -46218.400742817015, -46226.804998732216, -34692.76841792684, -37656.7885466562, -34334.00056767471, -16919.82351777834, -35326.395669745885, -10676.266035588507, -39116.40216307666, -42936.91878758893, -36095.675658664186, -22001.35850922567, -33678.96034466748, -44564.975150224585, 0.02, 0.96, -0.088, 192.0, 0.0, 0.0, 0.0, 0.0, 0.0, 0.0, 0.0, 0.0, 0.0, 1.668976363867085E9, 0.0, 2022-11-20 15:32:43.867
174.0, -25973.107036722547, -2700.4260063679226, -46252.46480136691, -46279.01867377981, -34736.980168459435, -37707.147026914005, -34374.792501305645, -16967.58919567933, -35238.64272101435, -10592.71521481457, -39026.39168815514, -42847.33299581206, -36017.15398039269, -21925.116708888618, -33598.27054718382, -44490.63324816624, 0.02, 0.96, -0.088, 192.0, 0.0, 0.0, 0.0, 0.0, 0.0, 0.0, 0.0, 0.0, 0.0, 1.6689763638670917E9, 0.0, 2022-11-20 15:32:43.867
176.0, -25988.75325784126, -2832.1671881875027, -46238.316147126694, -46243.501751840326, -34722.6974037525, -37689.332686583126, -34366.03061747916, -16952.434712938633, -35344.88056241042, -10709.078396448898, -39130.10378242777, -42953.16850580794, -36130.11969686981, -22038.194184088014, -33711.683298550044, -44604.42597918821, 0.02, 0.96, -0.088, 192.0, 0.0, 0.0, 0.0, 0.0, 0.0, 0.0, 0.0, 0.0, 0.0, 1.6689763638670983E9, 0.0, 2022-11-20 15:32:43.867
178.0, -25960.277135405202, -2693.8769452425176, -46227.92258595498, -46247.63682456456, -34720.283415351325, -37695.85939596408, -34364.55540234511, -16956.5027304295, -35234.530000034574, -10596.67147358316, -39017.20512118401, -42837.38646952945, -36015.276433858446, -21924.46850829941, -33602.60678560815, -44490.297971999404, 0.02, 0.96, -0.088, 192.0, 0.0, 0.0, 0.0, 0.0, 0.0, 0.0, 0.0, 0.0, 0.0, 1.6689763638671052E9, 0.0, 2022-11-20 15:32:43.867
180.0, -26004.37712721552, -2844.9523860159384, -46244.753449529824, -46246.7651065308, -34732.42041259055, -37705.60475654659, -34381.54272813114, -16968.63972766873, -35343.159478087364, -10697.433137587685, -39124.627605036214, -42945.07717431512, -36120.217874076116, -22033.857945663687, -33707.14589442562, -44592.870127304814, 0.018000000000000002, 0.966, -0.084, 192.0, 0.0, 72.0, 15.0, 24.0, 126.5, 48.0, 0.0, 0.0, 0.0, 1.6689763638671117E9, 0.0, 2022-11-20 15:32:43.867
182.0, -12954.914624084786, -1317.9259083182703, -23092.213045622477, -23104.730022517448, -17341.10919727197, -18813.284494076313, -17154.40507583679, -8448.691183172607, -35239.916770448304, -10604.360473675784, -39019.37324039618, -42844.69548996633, -36013.398887324205, -21930.704645002443, -33603.344393175175, -44493.15899528968, 0.017, 0.962, -0.084, 192.0, 0.0, 64.0, 14.5, 120.0, 126.5, 48.0, 0.0, 0.0, 0.0, 1.668976364439433E9, 0.0, 2022-11-20 15:32:44.439
2.0, -25973.75523731175, -2755.523056450255, -46232.12471391258, -46251.1684001885, -34723.03267991933, -37669.70785495137, -34349.93736147134, -16938.21900346506, -35291.16932048432, -10615.62575288126, -39064.14378454015, -42882.760510773725, -36068.85356531782, -21952.87757550211, -33635.66501565755, -44511.86740539878, 0.017, 0.962, -0.084, 192.0, 0.0, 0.0, 0.0, 0.0, 0.0, 0.0, 0.0, 0.0, 0.0, 1.6689763644395497E9, 0.0, 2022-11-20 15:32:44.439
4.0, -25879.45322745481, -2671.033462409194, -46137.33096567762, -46161.292035733706, -34624.84146652716, -37575.361141605514, -34253.26606670214, -16844.073455819303, -35228.62913949837, -10566.764839501959, -38995.09924591771, -42826.72468742427, -35994.444608026104, -21888.32573751518, -33571.046122437256, -44453.73051807052, 0.017, 0.962, -0.084, 192.0, 0.0, 0.0, 0.0, 0.0, 0.0, 0.0, 0.0, 0.0, 0.0, 1.6689763644395833E9, 0.0, 2022-11-20 15:32:44.439
6.0, -25971.2294901883, -2740.25681498728, -46235.07514418068, -46255.39287989055, -34723.23384561943, -37673.4405962754, -34350.4067481049, -16940.096549999304, -35262.80495677054, -10590.792964791413, -39044.72011860849, -42867.941304199856, -36041.96441673808, -21936.29258111627, -33606.67480309901, -44495.17065229066, 0.017, 0.962, -0.084, 192.0, 0.0, 0.0, 0.0, 0.0, 0.0, 0.0, 0.0, 0.0, 0.0, 1.668976364439604E9, 0.0, 2022-11-20 15:32:44.439
8.0, -25891.143189804938, -2698.928439489417, -46154.38534669702, -46163.594265412605, -34645.0250917703, -37590.49327260176, -34274.96961056824, -16861.440761261078, -35248.03045368558, -10584.33331064383, -39014.99229848293, -42843.86847542149, -36020.08205891634, -21910.588074992665, -33599.99163150688, -44481.17846026164, 0.016, 0.9580000000000001, -0.094, 192.0, 0.0, 64.0, 14.5, 120.0, 126.5, 8.0, 0.0, 0.0, 0.0, 1.6689763644396129E9, 0.0, 2022-11-20 15:32:44.439
10.0, -25981.80186531566, -2736.8146463411626, -46246.74275478635, -46260.48907762636, -34744.98209297444, -37695.7476372418, -34374.010190249704, -16966.73982939003, -35266.29182890557, -10593.81045029288, -39041.74733659594, -42859.22412386228, -36051.26274243149, -21937.454871827947, -33618.3871171936, -44503.28433552794, 0.016, 0.9580000000000001, -0.094, 192.0, 0.0, 0.0, 0.0, 0.0, 0.0, 0.0, 0.0, 0.0, 0.0, 1.6689763644396217E9, 0.0, 2022-11-20 15:32:44.439
12.0, -25895.70294567382, -2719.2685269437466, -46140.61667211255, -46145.95873903736, -34637.38079516659, -37591.83437726908, -34273.51674717865, -16867.29691830837, -35260.70389279174, -10598.169040461666, -39025.72113582148, -42849.545818513136, -36037.18114342465, -21921.6745402425, -33605.82543680971, -44491.70613190009, 0.016, 0.9580000000000001, -0.094, 192.0, 0.0, 0.0, 0.0, 0.0, 0.0, 0.0, 0.0, 0.0, 0.0, 1.66897636443963E9, 0.0, 2022-11-20 15:32:44.439
14.0, -25968.05554247565, -2713.769997807741, -46229.7107255114, -46246.42983036397, -34730.565217800766, -37689.198576116396, -34366.812928535095, -16961.286003742935, -35251.33851186497, -10578.208932663076, -39022.90481602011, -42838.90638815241, -36032.30846313339, -21919.32760707469, -33594.15782620404, -44483.43598645163, 0.016, 0.9580000000000001, -0.094, 192.0, 0.0, 0.0, 0.0, 0.0, 0.0, 0.0, 0.0, 0.0, 0.0, 1.6689763644396415E9, 0.0, 2022-11-20 15:32:44.439
16.0, -25886.918710102884, -2726.219919469347, -46135.140494720996, -46135.36401216555, -34631.837562541674, -37580.01030445222, -34268.4876046762, -16857.484502492487, -35271.857413274935, -10604.204011464599, -39033.23132195846, -42857.32422558359, -36044.1101842058, -21932.403377581046, -33614.27439621382, -44499.03750408143, 0.016, 0.9580000000000001, -0.094, 192.0, 0.0, 0.0, 0.0, 0.0, 0.0, 0.0, 0.0, 0.0, 0.0, 1.6689763644396524E9, 0.0, 2022-11-20 15:32:44.439
18.0, -25960.299487149656, -2701.1412621904924, -46229.442504577935, -46240.79719076124, -34728.37474684414, -37676.61454398806, -34358.34161738653, -16949.238413481526, -35230.52903777707, -10548.905795682169, -39000.59777505371, -42817.381658241946, -36009.353221577796, -21890.896188127543, -33571.046122437256, -44452.54587561439, 0.018000000000000002, 0.9580000000000001, -0.088, 192.0, 0.0, 72.0, 14.5, 120.0, 126.5, 32.0, 0.0, 0.0, 0.0, 1.6689763644396603E9, 0.0, 2022-11-20 15:32:44.439
20.0, -25913.003195882226, -2755.3665942390676, -46163.884838090526, -46164.086003790624, -34657.89969657656, -37603.479636130294, -34289.36413399746, -16875.34354631228, -35286.36369542643, -10618.86675582728, -39053.70551987953, -42879.117176427506, -36062.952704781615, -21946.172052165515, -33630.747631877384, -44513.27556529946, 0.018000000000000002, 0.9580000000000001, -0.088, 192.0, 0.0, 0.0, 0.0, 0.0, 0.0, 0.0, 0.0, 0.0, 0.0, 1.6689763644396682E9, 0.0, 2022-11-20 15:32:44.439
22.0, -25959.070141204615, -2690.2336108963027, -46238.67377503798, -46258.7679933033, -34738.053052193296, -37688.282154593726, -34365.002437234216, -16955.809826351386, -35235.6699390018, -10556.080705652323, -39009.20319666901, -42828.19990255832, -36017.62336702626, -21904.866028412107, -33584.50187259935, -44470.606085134285, 0.018000000000000002, 0.9580000000000001, -0.088, 192.0, 0.0, 0.0, 0.0, 0.0, 0.0, 0.0, 0.0, 0.0, 0.0, 1.6689763644396765E9, 0.0, 2022-11-20 15:32:44.439
24.0, -25921.407451797422, -2769.381138012545, -46182.16856505496, -46187.62239070206, -34673.165938039536, -37619.19291248237, -34305.300927794095, -16890.028642419416, -35303.55218691256, -10638.938622348145, -39074.47029047851, -42897.49031036977, -36087.27140274899, -21973.82116005673, -33663.09060610421, -44543.33866159185, 0.018000000000000002, 0.9580000000000001, -0.088, 192.0, 0.0, 0.0, 0.0, 0.0, 0.0, 0.0, 0.0, 0.0, 0.0, 1.6689763644396863E9, 0.0, 2022-11-20 15:32:44.439
26.0, -25914.903094160927, -2647.385316775479, -46201.972210642365, -46226.179149887466, -34698.53516799631, -37647.64668317398, -34328.591445516526, -16916.62721832123, -35203.93046187526, -10538.556937999361, -38979.922411432555, -42800.41668420037, -35990.13072134623, -21876.23344376486, -33568.00628519133, -44444.812172032856, 0.018000000000000002, 0.9580000000000001, -0.088, 192.0, 0.0, 0.0, 0.0, 0.0, 0.0, 0.0, 0.0, 0.0, 0.0, 1.668976364439695E9, 0.0, 2022-11-20 15:32:44.439
28.0, -25912.600864482032, -2761.0439373307154, -46174.03253007323, -46177.6982161639, -34670.997818827374, -37611.30274668965, -34304.4962649937, -16886.787639473398, -35273.55614585354, -10609.121395244765, -39050.08453727776, -42870.89173446796, -36060.717530336085, -21947.691970788477, -33644.873934373136, -44515.980126378556, 0.022, 0.9560000000000001, -0.088, 192.0, 0.0, 88.0, 14.5, 112.0, 126.5, 32.0, 0.0, 0.0, 0.0, 1.6689763644397032E9, 0.0, 2022-11-20 15:32:44.439
30.0, -25929.521135034698, -2661.712784971331, -46211.695219480425, -46231.78943774575, -34717.98118567243, -37663.62818045952, -34350.58556206054, -16937.92843078714, -35204.623365953375, -10542.624955490226, -38981.95642017799, -42798.53913766613, -35995.11516035976, -21879.832074622165, -33577.058741695735, -44445.95211100008, 0.022, 0.9560000000000001, -0.088, 192.0, 0.0, 0.0, 0.0, 0.0, 0.0, 0.0, 0.0, 0.0, 0.0, 1.6689763644397113E9, 0.0, 2022-11-20 15:32:44.439
32.0, -25932.42686181389, -2774.544390981721, -46186.460099990385, -46184.11316682258, -34687.44870274648, -37630.10056377656, -34322.53412276913, -16904.62433154873, -35308.87190209293, -10645.130055562266, -39082.38280801568, -42899.70313307085, -36097.75437089853, -21979.118523492638, -33672.72420796445, -44545.2162081261, 0.022, 0.9560000000000001, -0.088, 192.0, 0.0, 0.0, 0.0, 0.0, 0.0, 0.0, 0.0, 0.0, 0.0, 1.6689763644397194E9, 0.0, 2022-11-20 15:32:44.439
34.0, -25896.418201496388, -2635.0248020916943, -46172.35614923909, -46181.18508829893, -34676.33988575219, -37623.0821160176, -34309.23483481823, -16894.454287821565, -35193.13456930334, -10526.151719826667, -38960.92342864555, -42779.22723045674, -35978.88779388521, -21854.552251643214, -33550.86249719411, -44423.779180500416, 0.022, 0.9560000000000001, -0.088, 192.0, 0.0, 0.0, 0.0, 0.0, 0.0, 0.0, 0.0, 0.0, 0.0, 1.6689763644397275E9, 0.0, 2022-11-20 15:32:44.439
36.0, -25935.533754293177, -2775.9749026268605, -46188.58351571364, -46173.67490216195, -34681.52549046582, -37621.45043867236, -34317.57203550006, -16895.19189538859, -35289.78351232809, -10609.255505711497, -39061.1710025276, -42869.79649898964, -36074.4638531761, -21945.032113198296, -33638.61544592565, -44509.609879208794, 0.022, 0.9560000000000001, -0.088, 192.0, 0.0, 0.0, 0.0, 0.0, 0.0, 0.0, 0.0, 0.0, 0.0, 1.668976364439736E9, 0.0, 2022-11-20 15:32:44.439
38.0, -25913.629044726975, -2666.317244329124, -46192.33860878213, -46193.299733793705, -34690.086208592205, -37632.73806962229, -34324.255207092196, -16906.5912850608, -35211.172427078774, -10533.863071663747, -38979.453024799, -42791.520689907156, -35989.348410290295, -21860.073132523674, -33559.8702502096, -44428.294232880384, 0.026000000000000002, 0.9580000000000001, -0.084, 192.0, 0.0, 104.0, 14.5, 120.0, 126.5, 48.0, 0.0, 0.0, 0.0, 1.6689763644397464E9, 0.0, 2022-11-20 15:32:44.439
40.0, -25963.540490095675, -2794.571554013676, -46220.90413819601, -46214.66800149298, -34717.60120601668, -37655.290979777696, -34353.98302721775, -16931.40172140619, -35313.811637617546, -10639.922099104178, -39091.703485453545, -42902.40769414994, -36101.062429077916, -21974.737581579397, -33668.969114895954, -44536.90135918872, 0.026000000000000002, 0.9580000000000001, -0.084, 192.0, 0.0, 0.0, 0.0, 0.0, 0.0, 0.0, 0.0, 0.0, 0.0, 1.6689763644397545E9, 0.0, 2022-11-20 15:32:44.439
42.0, -25880.727276888763, -2645.463066752323, -46156.397003697995, -46167.21524801436, -34654.52458316381, -37594.24836567025, -34289.18532004182, -16868.503912508957, -35198.27547052807, -10533.08076060781, -38968.81359443827, -42789.620791628455, -35983.02286660944, -21859.044952278728, -33561.72544499939, -44428.76361951395, 0.026000000000000002, 0.9580000000000001, -0.084, 192.0, 0.0, 0.0, 0.0, 0.0, 0.0, 0.0, 0.0, 0.0, 0.0, 1.668976364439763E9, 0.0, 2022-11-20 15:32:44.439
44.0, -25953.43750160188, -2773.180934569947, -46217.79724571673, -46219.20540561741, -34709.35341231268, -37645.81384012864, -34343.74592825722, -16919.91292475616, -35287.83891056048, -10613.10000575781, -39066.8706973637, -42883.74398752976, -36073.25685897552, -21949.63657255609, -33645.05274832878, -44514.0578763554, 0.026000000000000002, 0.9580000000000001, -0.084, 192.0, 0.0, 0.0, 0.0, 0.0, 0.0, 0.0, 0.0, 0.0, 0.0, 1.6689763644397712E9, 0.0, 2022-11-20 15:32:44.439
46.0, -25862.465901668776, -2641.3726975170016, -46140.728430834824, -46152.44074492941, -34638.05134750025, -37577.79748175114, -34269.67224713233, -16849.057894832837, -35202.67876418576, -10537.886385665703, -38971.76402470637, -42797.51095742118, -35979.08895958531, -21858.95554530091, -33559.95965718742, -44428.450695091575, 0.026000000000000002, 0.9580000000000001, -0.084, 192.0, 0.0, 0.0, 0.0, 0.0, 0.0, 0.0, 0.0, 0.0, 0.0, 1.6689763644397793E9, 0.0, 2022-11-20 15:32:44.439
48.0, -25944.98854219777, -2751.320928492657, -46219.451274806415, -46225.41919057598, -34714.337851326214, -37653.525191965724, -34345.46701258028, -16925.344398658803, -35268.03526497308, -10595.419775893663, -39047.84936283223, -42865.482612309774, -36059.15290822422, -21935.62202878261, -33627.01489055334, -44500.04333258192, 0.024, 0.96, -0.078, 192.0, 0.0, 96.0, 15.0, 0.0, 126.5, 72.0, 0.0, 0.0, 0.0, 1.6689763644397876E9, 0.0, 2022-11-20 15:32:44.439
50.0, -25857.146186488415, -2649.8663604100184, -46137.576834866624, -46149.0432797722, -34639.07952774519, -37577.417502095406, -34268.12997676492, -16849.057894832837, -35198.25311878361, -10539.428656033118, -38969.12651886064, -42794.0017335417, -35987.739084689514, -21869.773789617277, -33569.74972125885, -44444.05221272138, 0.024, 0.96, -0.078, 192.0, 0.0, 0.0, 0.0, 0.0, 0.0, 0.0, 0.0, 0.0, 0.0, 1.6689763644397957E9, 0.0, 2022-11-20 15:32:44.439
52.0, -25977.197405957868, -2769.1799723124473, -46258.05273748073, -46256.13048745757, -34755.46506112398, -37685.66700049245, -34380.42514090838, -16957.10622752979, -35262.8720120039, -10592.29053166992, -39041.032080773366, -42855.49138253825, -36060.717530336085, -21939.421825340014, -33635.17327727953, -44504.04429483942, 0.024, 0.96, -0.078, 192.0, 0.0, 0.0, 0.0, 0.0, 0.0, 0.0, 0.0, 0.0, 0.0, 1.6689763644398043E9, 0.0, 2022-11-20 15:32:44.439
54.0, -25888.50568395921, -2700.1130819455484, -46166.745861380805, -46166.544695680706, -34666.34865598067, -37598.76341805022, -34294.30386952208, -16869.934424154097, -35251.02558744259, -10587.708424056582, -39017.02630722836, -42838.72757419677, -36033.69427128962, -21912.107993615627, -33622.70100387347, -44487.19107952012, 0.024, 0.96, -0.078, 192.0, 0.0, 0.0, 0.0, 0.0, 0.0, 0.0, 0.0, 0.0, 0.0, 1.6689763644398124E9, 0.0, 2022-11-20 15:32:44.439
56.0, -25966.75914129724, -2746.716469134864, -46248.12856294258, -46251.72719379988, -34750.65943606609, -37689.6456110055, -34383.733199087765, -16962.31418398788, -35275.74661681016, -10607.400310921706, -39057.371205970194, -42870.176478645386, -36073.726245609076, -21952.788168524286, -33653.18878331051, -44519.891681658235, 0.024, 0.96, -0.078, 192.0, 0.0, 0.0, 0.0, 0.0, 0.0, 0.0, 0.0, 0.0, 0.0, 1.6689763644398203E9, 0.0, 2022-11-20 15:32:44.439
58.0, -25865.25986972569, -2683.997474193272, -46135.25225344327, -46137.15215172197, -34641.02412951281, -37586.984048722275, -34277.16008152486, -16859.09382809327, -35228.27151158709, -10561.13219989922, -39000.44131284253, -42818.83452163154, -36019.59032053832, -21899.121630087095, -33599.81281755124, -44475.59052414782, 0.021, 0.96, -0.078, 192.0, 0.0, 72.0, 15.0, 0.0, 126.5, 72.0, 0.0, 0.0, 0.0, 1.6689763644398277E9, 0.0, 2022-11-20 15:32:44.439
60.0, -25945.145004408958, -2708.651448327476, -46216.724361982866, -46221.28411785175, -34725.98311018743, -37674.06644512015, -34358.87805925346, -16943.002276778494, -35244.78945073956, -10568.195351147098, -39022.94951950902, -42834.12311483898, -36045.65245457321, -21925.51904028881, -33601.28803268528, -44487.436948709124, 0.021, 0.96, -0.078, 192.0, 0.0, 0.0, 0.0, 0.0, 0.0, 0.0, 0.0, 0.0, 0.0, 1.6689763644398353E9, 0.0, 2022-11-20 15:32:44.439
62.0, -25856.810910321583, -2685.204468393859, -46114.91216598894, -46108.1842909079, -34616.101934445134, -37561.63717050996, -34249.46627014474, -16830.975333568495, -35228.942063920746, -10566.049583679389, -38993.065237172275, -42811.65961166139, -36014.36001233578, -21898.406374264523, -33573.773035260805, -44457.32914892783, 0.021, 0.96, -0.078, 192.0, 0.0, 0.0, 0.0, 0.0, 0.0, 0.0, 0.0, 0.0, 0.0, 1.6689763644398425E9, 0.0, 2022-11-20 15:32:44.439
64.0, -25937.277190360688, -2688.065491684138, -46206.91194616699, -46212.656344492, -34708.90637742357, -37655.22392454433, -34339.767317744176, -16924.092700969304, -35214.50283700262, -10541.350906056274, -38994.58515579524, -42796.90746032089, -36007.40861981018, -21890.873836383085, -33560.85372696564, -44440.07360220833, 0.021, 0.96, -0.078, 192.0, 0.0, 0.0, 0.0, 0.0, 0.0, 0.0, 0.0, 0.0, 0.0, 1.668976364439851E9, 0.0, 2022-11-20 15:32:44.439
66.0, -25871.853634340005, -2712.96533500735, -46128.59143359559, -46121.95296549237, -34618.04653621275, -37560.31841758709, -34252.997845768674, -16833.702246392044, -35247.44930832974, -10581.360528631274, -39022.16720845309, -42832.24556830473, -36029.268625887475, -21913.76202270532, -33599.09756172867, -44476.77516660395, 0.021, 0.96, -0.078, 192.0, 0.0, 0.0, 0.0, 0.0, 0.0, 0.0, 0.0, 0.0, 0.0, 1.66897636443986E9, 0.0, 2022-11-20 15:32:44.439
68.0, -25943.870954975006, -2687.3949393504786, -46229.308394111205, -46242.3618128731, -34714.98605191542, -37662.488241492305, -34347.41161434789, -16931.379369661736, -35204.28808978654, -10533.237222818998, -38990.62889702665, -42800.70725687829, -35995.495140015504, -21880.212054277905, -33565.525241556796, -44448.097878467786, 0.018500000000000003, 0.961, -0.079, 192.0, 0.0, 64.0, 15.0, 8.0, 126.5, 64.0, 0.0, 0.0, 0.0, 1.668976364439868E9, 0.0, 2022-11-20 15:32:44.439
70.0, -25899.301576531125, -2752.706736648886, -46168.08696604812, -46170.299788749195, -34651.060062773235, -37591.387342379974, -34284.603212428476, -16864.122970595716, -35275.41134064333, -10614.441110425128, -39052.833801845765, -42875.63030429248, -36060.80693731391, -21948.76485452233, -33638.99542558139, -44520.159902591695, 0.018500000000000003, 0.961, -0.079, 192.0, 0.0, 0.0, 0.0, 0.0, 0.0, 0.0, 0.0, 0.0, 0.0, 1.6689763644398775E9, 0.0, 2022-11-20 15:32:44.439
72.0, -25935.198478126345, -2678.2754276127134, -46224.8603969646, -46246.25101640833, -34715.29897633779, -37660.76715716924, -34342.8071549901, -16927.087834726313, -35212.40177302382, -10546.000068902978, -38994.09341741722, -42815.9064431079, -36001.23953834052, -21893.62310095109, -33573.99655270536, -44458.98317801752, 0.018500000000000003, 0.961, -0.079, 192.0, 0.0, 0.0, 0.0, 0.0, 0.0, 0.0, 0.0, 0.0, 0.0, 1.6689763644398851E9, 0.0, 2022-11-20 15:32:44.439
74.0, -25898.340451519543, -2749.8233616141515, -46167.572875925645, -46167.25995150327, -34654.41282444153, -37591.163824935415, -34278.14355828089, -16858.020944359418, -35285.73784658168, -10619.693770372125, -39061.30511299433, -42881.53116482868, -36070.32878045187, -21959.82896802771, -33639.621274426136, -44526.038411383444, 0.018500000000000003, 0.961, -0.079, 192.0, 0.0, 0.0, 0.0, 0.0, 0.0, 0.0, 0.0, 0.0, 0.0, 1.6689763644398935E9, 0.0, 2022-11-20 15:32:44.439
76.0, -25919.596960496543, -2653.4649912673226, -46217.23845210534, -46226.782646987755, -34711.96856641395, -37652.564066954146, -34331.586579273535, -16918.01302647746, -35192.26285126959, -10524.631801203705, -38974.42388229655, -42784.07755900354, -35986.28622129992, -21872.94773732993, -33551.64480825005, -44433.770410271936, 0.018500000000000003, 0.961, -0.079, 192.0, 0.0, 0.0, 0.0, 0.0, 0.0, 0.0, 0.0, 0.0, 0.0, 1.6689763644399023E9, 0.0, 2022-11-20 15:32:44.439
78.0, -25887.4104484809, -2738.893358575506, -46151.926654806935, -46134.96168076536, -34648.51196390533, -37584.815929510114, -34275.70721813526, -16856.590432714278, -35284.1285209809, -10615.826918581357, -39056.92417108109, -42864.58854253156, -36073.39096944225, -21955.470377858925, -33640.62710292663, -44516.65067871221, 0.01625, 0.9615, -0.0805, 192.0, 0.0, 56.0, 15.0, 8.0, 126.5, 56.0, 0.0, 0.0, 0.0, 1.6689763644399111E9, 0.0, 2022-11-20 15:32:44.439
80.0, -25900.240349798245, -2639.3386887715687, -46184.69431217841, -46176.69238766342, -34690.73440918141, -37629.45236318736, -34317.14735235541, -16902.366805358746, -35176.9519063177, -10503.352940482253, -38948.42880349503, -42755.82495401203, -35966.79550013489, -21850.28306845225, -33535.97623538688, -44411.44101756108, 0.01625, 0.9615, -0.0805, 192.0, 0.0, 0.0, 0.0, 0.0, 0.0, 0.0, 0.0, 0.0, 0.0, 1.6689763644399197E9, 0.0, 2022-11-20 15:32:44.439
82.0, -25924.246123343244, -2776.734861938341, -46183.06263483318, -46152.17252399594, -34680.96669685444, -37612.420333912414, -34310.687698207825, -16888.933406941105, -35287.90596579385, -10621.660723884193, -39065.35077874074, -42874.49036532526, -36082.868109091294, -21962.935860506997, -33645.87976287362, -44521.076324114365, 0.01625, 0.9615, -0.0805, 192.0, 0.0, 0.0, 0.0, 0.0, 0.0, 0.0, 0.0, 0.0, 0.0, 1.6689763644399283E9, 0.0, 2022-11-20 15:32:44.439
84.0, -25901.514399232197, -2645.2842527966804, -46183.97905635584, -46173.33962599512, -34683.58185095571, -37614.387287424484, -34310.41947727436, -16892.844962220785, -35193.82747338146, -10522.195461058076, -38965.19261183651, -42774.1980879543, -35980.98885786401, -21853.099388253617, -33546.25803783632, -44417.27482286392, 0.01625, 0.9615, -0.0805, 192.0, 0.0, 0.0, 0.0, 0.0, 0.0, 0.0, 0.0, 0.0, 0.0, 1.6689763644399369E9, 0.0, 2022-11-20 15:32:44.439
86.0, -25938.707702005828, -2776.779565427252, -46203.223908331864, -46178.972265597855, -34692.70136269347, -37613.35910717954, -34318.711974467275, -16895.25895062196, -35303.21691074573, -10622.48773842904, -39080.952296370546, -42885.39801661945, -36095.00510633053, -21966.176863453016, -33649.90307687558, -44521.52335900347, 0.01625, 0.9615, -0.0805, 192.0, 0.0, 0.0, 0.0, 0.0, 0.0, 0.0, 0.0, 0.0, 0.0, 1.6689763644399452E9, 0.0, 2022-11-20 15:32:44.439
88.0, -25890.69615491583, -2645.172494074404, -46176.80414638569, -46178.79345164221, -34671.46720546093, -37599.23280468379, -34293.83448288852, -16875.075325378817, -35196.86731062738, -10526.352885526763, -38969.640608983114, -42781.75297758019, -35986.77795967793, -21864.69994362592, -33547.889715181554, -44411.61983151673, 0.017125, 0.95875, -0.08025, 192.0, 0.0, 72.0, 14.5, 112.0, 126.5, 64.0, 0.0, 0.0, 0.0, 1.668976364439954E9, 0.0, 2022-11-20 15:32:44.439
90.0, -25944.675617775396, -2771.9739403693607, -46208.275402578765, -46207.33662931164, -34702.06674362025, -37632.35808996655, -34328.45733504979, -16906.16660191615, -35280.105206978944, -10618.307962215897, -39059.96400832701, -42875.29502812565, -36078.53187066697, -21967.406209398057, -33635.57560867973, -44503.01611459447, 0.017125, 0.95875, -0.08025, 192.0, 0.0, 0.0, 0.0, 0.0, 0.0, 0.0, 0.0, 0.0, 0.0, 1.668976364439962E9, 0.0, 2022-11-20 15:32:44.439
92.0, -25858.956677789294, -2621.9490315853395, -46140.527265134726, -46160.08504153312, -34641.73938533537, -37581.06083644162, -34270.007523299166, -16852.321249523313, -35185.71379014418, -10527.716341938538, -38952.96620761946, -42777.03675950012, -35977.658447940164, -21872.031315807264, -33546.6156657476, -44418.41476183114, 0.017125, 0.95875, -0.08025, 192.0, 0.0, 0.0, 0.0, 0.0, 0.0, 0.0, 0.0, 0.0, 0.0, 1.6689763644399703E9, 0.0, 2022-11-20 15:32:44.439
94.0, -25949.50359457774, -2761.759193153285, -46219.71949573988, -46228.97311794438, -34715.36603157115, -37656.140346067, -34345.80228874711, -16927.423110893145, -35273.60084934245, -10609.188450478132, -39045.45772617552, -42863.739176242256, -36073.458024675616, -21967.29445067578, -33635.17327727953, -44514.48255950005, 0.017125, 0.95875, -0.08025, 192.0, 0.0, 0.0, 0.0, 0.0, 0.0, 0.0, 0.0, 0.0, 0.0, 1.6689763644399784E9, 0.0, 2022-11-20 15:32:44.439
96.0, -25864.20933773629, -2639.070467838105, -46146.0928495041, -46163.460154945875, -34645.29331270377, -37592.30376390264, -34275.90838383536, -16863.899453151163, -35201.24825254062, -10540.099208366777, -38966.17608859254, -42786.60330612699, -35990.60010797979, -21890.091525327152, -33566.35225610164, -44448.857837779266, 0.017125, 0.95875, -0.08025, 192.0, 0.0, 0.0, 0.0, 0.0, 0.0, 0.0, 0.0, 0.0, 0.0, 1.668976364440024E9, 0.0, 2022-11-20 15:32:44.440
98.0, -25959.472472604808, -2756.8194576286623, -46222.111132396596, -46237.22091164839, -34727.68184276603, -37677.59802074409, -34354.295951640124, -16945.528023901945, -35266.64945681685, -10605.09808124281, -39048.34110121025, -42861.1687256299, -36072.47454791958, -21973.06120074525, -33632.915751089546, -44523.89264391574, 0.0175625, 0.956375, -0.083125, 192.0, 0.0, 72.0, 14.5, 104.0, 126.5, 40.0, 0.0, 0.0, 0.0, 1.6689763644400325E9, 0.0, 2022-11-20 15:32:44.440
100.0, -25857.45911091079, -2648.5923109760656, -46118.39903812397, -46129.686669073904, -34631.94932126395, -37582.82662425359, -34254.71893009173, -16848.09676982126, -35200.287127529045, -10554.314917840353, -38963.73974844691, -42789.57608813955, -35994.8469394263, -21899.769830676298, -33559.93730544297, -44451.76356455846, 0.0175625, 0.956375, -0.083125, 192.0, 0.0, 0.0, 0.0, 0.0, 0.0, 0.0, 0.0, 0.0, 0.0, 1.6689763644400406E9, 0.0, 2022-11-20 15:32:44.440
102.0, -25959.316010393624, -2738.0439922862047, -46226.20150163192, -46223.072257408174, -34738.14245917111, -37682.493052779806, -34357.13462318595, -16946.57855589134, -35253.14900316585, -10581.874618753745, -39019.95438575201, -42832.15616132691, -36053.743786066036, -21952.452892357458, -33608.150018233064, -44499.14926280371, 0.0175625, 0.956375, -0.083125, 192.0, 0.0, 0.0, 0.0, 0.0, 0.0, 0.0, 0.0, 0.0, 0.0, 1.6689763644400525E9, 0.0, 2022-11-20 15:32:44.440
104.0, -25864.008172036192, -2666.5631135181325, -46139.1414569785, -46127.47384637283, -34650.76949009532, -37584.950039976844, -34267.39236919789, -16853.774112912906, -35228.60678775392, -10561.959214444067, -38990.24891737091, -42805.06584704707, -36024.015965940474, -21916.28776982877, -33589.9780499909, -44471.298989212395, 0.0175625, 0.956375, -0.083125, 192.0, 0.0, 0.0, 0.0, 0.0, 0.0, 0.0, 0.0, 0.0, 0.0, 1.668976364440061E9, 0.0, 2022-11-20 15:32:44.440
106.0, -25946.933143965383, -2714.6864193304086, -46225.307431853704, -46208.81184444569, -34731.325177112245, -37660.230715302314, -34348.573905059566, -16932.809881306875, -35240.25204661513, -10560.66281326566, -39019.23912992944, -42817.09108556403, -36045.048957472914, -21932.09045315867, -33603.0314687528, -44477.89275382671, 0.0175625, 0.956375, -0.083125, 192.0, 0.0, 0.0, 0.0, 0.0, 0.0, 0.0, 0.0, 0.0, 0.0, 1.6689763644400694E9, 0.0, 2022-11-20 15:32:44.440
108.0, -25877.843901854027, -2694.636904553998, -46141.98012852432, -46123.76345679325, -34643.99691152536, -37568.9685426913, -34266.23007848622, -16848.72261866601, -35228.71854647619, -10566.697784268592, -38997.692048274526, -42804.104722035496, -36019.09858216031, -21905.402470279038, -33584.45716911044, -44453.28348318142, 0.017781250000000002, 0.9561875, -0.08256250000000001, 192.0, 0.0, 72.0, 14.5, 112.0, 126.5, 56.0, 0.0, 0.0, 0.0, 1.6689763644400773E9, 0.0, 2022-11-20 15:32:44.440
110.0, -25961.86410926153, -2715.9828205088165, -46236.19273140344, -46235.455123836415, -34733.11331666867, -37660.655398446965, -34355.637056307445, -16940.20830872158, -35250.93618046477, -10582.723985043047, -39027.2634061889, -42833.65372820541, -36049.65341683071, -21939.66769452902, -33599.298727428766, -44474.91997181415, 0.017781250000000002, 0.9561875, -0.08256250000000001, 192.0, 0.0, 0.0, 0.0, 0.0, 0.0, 0.0, 0.0, 0.0, 0.0, 1.6689763644400852E9, 0.0, 2022-11-20 15:32:44.440
112.0, -25871.16073026189, -2695.8886022434954, -46131.18423595241, -46134.22407319833, -34626.51784736131, -37553.59054250605, -34254.406005669356, -16835.915069093116, -35242.50957280512, -10578.924188485646, -39006.141007678634, -42823.57309145607, -36030.877951488255, -21929.63176126859, -33587.49700635636, -44465.80046007639, 0.017781250000000002, 0.9561875, -0.08256250000000001, 192.0, 0.0, 0.0, 0.0, 0.0, 0.0, 0.0, 0.0, 0.0, 0.0, 1.6689763644400933E9, 0.0, 2022-11-20 15:32:44.440
114.0, -25941.47931831829, -2679.8176979801297, -46219.585385273145, -46237.556187815215, -34726.430145076534, -37659.44840424638, -34347.54572481462, -16933.323971429345, -35215.97805213667, -10556.70655449707, -38992.72996100545, -42808.440960459826, -36015.65641351419, -21922.81447920972, -33566.32990435718, -44452.143544214196, 0.017781250000000002, 0.9561875, -0.08256250000000001, 192.0, 0.0, 0.0, 0.0, 0.0, 0.0, 0.0, 0.0, 0.0, 0.0, 1.6689763644401007E9, 0.0, 2022-11-20 15:32:44.440
116.0, -25870.512529672687, -2703.7564162917633, -46126.80329403917, -46126.266852172244, -34645.29331270377, -37573.32713286008, -34267.191203497794, -16849.124950066205, -35250.8691252314, -10593.09519447031, -39015.72990604996, -42832.558492727105, -36043.75255629451, -21948.876613244607, -33601.1315704741, -44490.40973072168, 0.017781250000000002, 0.9561875, -0.08256250000000001, 192.0, 0.0, 0.0, 0.0, 0.0, 0.0, 0.0, 0.0, 0.0, 0.0, 1.6689763644401095E9, 0.0, 2022-11-20 15:32:44.440
118.0, -25908.443440013343, -2637.684659681876, -46182.03445458823, -46185.92365812346, -34713.51083678137, -37643.824534872125, -34332.72651824076, -16918.86239276676, -35183.67978139875, -10513.0312458314, -38956.56483847676, -42761.524648848135, -35986.062703855365, -21886.7164119144, -33547.95677041492, -44435.04445970589, 0.016890625, 0.95809375, -0.08228125, 192.0, 0.0, 64.0, 15.0, 0.0, 126.5, 56.0, 0.0, 0.0, 0.0, 1.6689763644401176E9, 0.0, 2022-11-20 15:32:44.440
120.0, -25868.858500582995, -2707.8244337826295, -46126.42331438343, -46115.917994489435, -34653.69756861896, -37582.40194110894, -34280.57989842652, -16862.08896185028, -35240.63202627087, -10575.861999495268, -39003.257632643894, -42814.67709716286, -36037.96345448059, -21934.660903771033, -33614.676727614016, -44492.08611155583, 0.016890625, 0.95809375, -0.08228125, 192.0, 0.0, 0.0, 0.0, 0.0, 0.0, 0.0, 0.0, 0.0, 0.0, 1.6689763649187398E9, 0.0, 2022-11-20 15:32:44.918
122.0, -25924.380233809978, -2655.744869201764, -46207.87307117857, -46231.118885412085, -34739.90824698308, -37685.488186536815, -34370.255097181216, -16962.44829445461, -35186.89843260031, -10518.999161600967, -38953.52500123084, -42769.32540766304, -35993.72935220353, -21890.449153238435, -33570.621439292605, -44451.67415758064, 0.016890625, 0.95809375, -0.08228125, 192.0, 0.0, 0.0, 0.0, 0.0, 0.0, 0.0, 0.0, 0.0, 0.0, 1.6689763649187791E9, 0.0, 2022-11-20 15:32:44.918
124.0, -25902.07319284358, -2748.5269604357436, -46153.91596006346, -46165.270646246754, -34677.85980437515, -37628.11125852004, -34314.97923314324, -16907.4406513501, -35272.773834797605, -10617.77152034897, -39040.808563328814, -42868.52244955569, -36076.81078634391, -21987.232206729914, -33652.80880365477, -44550.20064713963, 0.016890625, 0.95809375, -0.08228125, 192.0, 0.0, 0.0, 0.0, 0.0, 0.0, 0.0, 0.0, 0.0, 0.0, 1.6689763649188156E9, 0.0, 2022-11-20 15:32:44.918
126.0, -25902.341413777045, -2629.6380316779655, -46166.92467533644, -46189.07525409165, -34694.08717084971, -37639.5329999367, -34321.528294268646, -16915.19670667609, -35181.19873776421, -10514.528812709907, -38949.18876280651, -42764.56448609406, -35979.31247702986, -21891.164409061006, -33541.85474417862, -44440.20771267507, 0.016890625, 0.95809375, -0.08228125, 192.0, 0.0, 0.0, 0.0, 0.0, 0.0, 0.0, 0.0, 0.0, 0.0, 1.668976364918861E9, 0.0, 2022-11-20 15:32:44.918
128.0, -25900.59797770953, -2744.9953848118053, -46141.6895558464, -46138.157980222466, -34654.09990001916, -37584.10067368754, -34277.58476466951, -16862.75951418394, -35261.01681721411, -10597.923171272656, -39027.79984805582, -42840.940396897844, -36052.15681220971, -21963.382895396102, -33602.562082119235, -44496.265887768976, 0.016890625, 0.95809375, -0.08228125, 192.0, 0.0, 0.0, 0.0, 0.0, 0.0, 0.0, 0.0, 0.0, 0.0, 1.6689763649188955E9, 0.0, 2022-11-20 15:32:44.918
130.0, -25888.371573492477, -2623.781874630675, -46164.42127995745, -46171.149155038496, -34681.2349177879, -37607.63706059898, -34297.88014863493, -16884.641872005686, -35171.408673692786, -10515.467585977029, -38942.25972202537, -42755.98141622322, -35968.04719782439, -21877.19456877644, -33512.037517075245, -44398.61111624374, 0.018000000000000002, 0.962, -0.082, 192.0, 0.0, 72.0, 15.0, 8.0, 126.5, 56.0, 0.0, 0.0, 0.0, 1.668976364918928E9, 0.0, 2022-11-20 15:32:44.918
132.0, -25885.17527403537, -2727.1139892475594, -46144.46117215886, -46130.44662838538, -34656.71505412043, -37575.89758347244, -34277.94239258079, -16859.47380774901, -35249.72918626418, -10590.569447346861, -39017.450990373014, -42833.34080378304, -36050.61454184229, -21951.648229557068, -33593.64373608157, -44471.41074793467, 0.018000000000000002, 0.962, -0.082, 192.0, 0.0, 0.0, 0.0, 0.0, 0.0, 0.0, 0.0, 0.0, 0.0, 1.6689763649189503E9, 0.0, 2022-11-20 15:32:44.918
134.0, -25870.5572331616, -2608.426226189879, -46160.867352589055, -46165.09183229111, -34675.02113282933, -37604.26194718623, -34300.674116691844, -16889.20162787457, -35163.58556313343, -10501.207173014544, -38926.52409392883, -42742.21274163875, -35964.91795360064, -21864.431722692458, -33520.352366012616, -44396.51005226494, 0.018000000000000002, 0.962, -0.082, 192.0, 0.0, 0.0, 0.0, 0.0, 0.0, 0.0, 0.0, 0.0, 0.0, 1.6689763649189637E9, 0.0, 2022-11-20 15:32:44.918
136.0, -25911.88560865946, -2741.4414574434113, -46182.72735866634, -46170.27743700474, -34683.47009223343, -37615.12489499151, -34312.47583776424, -16895.147191899683, -35262.69319804826, -10592.201124692097, -39031.443182402036, -42840.91804515339, -36069.747635096035, -21966.288622175292, -33627.57368416473, -44504.8042541509, 0.018000000000000002, 0.962, -0.082, 192.0, 0.0, 0.0, 0.0, 0.0, 0.0, 0.0, 0.0, 0.0, 0.0, 1.6689763649189696E9, 0.0, 2022-11-20 15:32:44.918
138.0, -25865.03635228114, -2610.32612446858, -46142.7400878358, -46156.8440385871, -34648.22139122742, -37595.38830463747, -34276.64599140239, -16868.05687761985, -35170.849880081405, -10506.75040563946, -38932.69317539849, -42745.20787539576, -35963.97918033352, -21868.23151924986, -33527.52727598277, -44410.56929952733, 0.018000000000000002, 0.962, -0.082, 192.0, 0.0, 0.0, 0.0, 0.0, 0.0, 0.0, 0.0, 0.0, 0.0, 1.6689763649189758E9, 0.0, 2022-11-20 15:32:44.918
140.0, -25925.296655332644, -2741.3296987211347, -46179.57576269815, -46186.19187905692, -34681.77135965483, -37634.235636500794, -34313.347555798005, -16904.087889681803, -35269.95751499623, -10600.024235251456, -39039.15453423912, -42853.41267030391, -36066.26076296101, -21978.20210196997, -33619.057669527254, -44512.73912343253, 0.016, 0.966, -0.082, 192.0, 0.0, 64.0, 15.0, 24.0, 126.5, 56.0, 0.0, 0.0, 0.0, 1.6689763649189827E9, 0.0, 2022-11-20 15:32:44.918
142.0, -25863.807006336094, -2621.5243484406888, -46124.81398878265, -46151.926654806935, -34631.88226603058, -37596.52824360469, -34265.91715406384, -16863.273604306414, -35168.23472598013, -10514.349998754264, -38932.246140509385, -42757.07665170153, -35960.604066920765, -21878.558025188213, -33510.02586007427, -44417.118360652734, 0.016, 0.966, -0.082, 192.0, 0.0, 0.0, 0.0, 0.0, 0.0, 0.0, 0.0, 0.0, 0.0, 1.6689763649189897E9, 0.0, 2022-11-20 15:32:44.918
144.0, -25931.756309480228, -2732.746628850297, -46179.866335376064, -46198.44063501843, -34690.60029871468, -37645.97030233983, -34325.305739081596, -16918.147136944193, -35253.685445032774, -10595.866810782769, -39023.48596137595, -42846.684795222856, -36055.44251864464, -21970.066066988238, -33585.59710807766, -44503.57490820586, 0.016, 0.966, -0.082, 192.0, 0.0, 0.0, 0.0, 0.0, 0.0, 0.0, 0.0, 0.0, 0.0, 1.668976364918996E9, 0.0, 2022-11-20 15:32:44.918
146.0, -25835.68851181132, -2600.625467374977, -46095.086168657086, -46115.783884022705, -34612.90563498803, -37560.11725188699, -34241.84432528548, -16834.417502214612, -35166.223068979154, -10521.390798257686, -38928.60280616317, -42754.34973887799, -35966.348465245785, -21877.84276936564, -33510.00350832981, -44420.202901387565, 0.016, 0.966, -0.082, 192.0, 0.0, 0.0, 0.0, 0.0, 0.0, 0.0, 0.0, 0.0, 0.0, 1.668976364919001E9, 0.0, 2022-11-20 15:32:44.919
148.0, -25932.40451006943, -2714.1052739745705, -46184.44844298941, -46189.7011029364, -34698.959851140964, -37638.59422666958, -34325.015166403675, -16915.509631098466, -35227.57860750897, -10553.152627128677, -38994.07106567277, -42802.51774817917, -36030.74384102152, -21939.466528828925, -33564.184136889475, -44464.459355409075, 0.016, 0.966, -0.082, 192.0, 0.0, 0.0, 0.0, 0.0, 0.0, 0.0, 0.0, 0.0, 0.0, 1.668976364919006E9, 0.0, 2022-11-20 15:32:44.919
150.0, -25859.940154545326, -2642.3785260174905, -46118.26492765724, -46109.72656127531, -34624.28267291578, -37556.33980707405, -34251.612037612445, -16838.932554594583, -35192.642830925324, -10531.985525129501, -38953.68146344202, -42766.88906751741, -35981.5923549643, -21889.845656138143, -33533.718709196895, -44419.19707288707, 0.018000000000000002, 0.966, -0.08600000000000001, 192.0, 0.0, 72.0, 15.0, 24.0, 126.5, 40.0, 0.0, 0.0, 0.0, 1.668976364919011E9, 0.0, 2022-11-20 15:32:44.919
152.0, -25965.887423263484, -2732.6125183835647, -46223.11696089709, -46207.67190547847, -34722.92092119705, -37647.40081398497, -34344.84116373553, -16929.859451038774, -35247.73988100766, -10578.164229174165, -39030.39265041264, -42834.21252181679, -36046.32300690687, -21947.66961904402, -33596.25889018284, -44470.82960257884, 0.018000000000000002, 0.966, -0.08600000000000001, 192.0, 0.0, 0.0, 0.0, 0.0, 0.0, 0.0, 0.0, 0.0, 0.0, 1.6689763649190164E9, 0.0, 2022-11-20 15:32:44.919
154.0, -25860.610706878986, -2655.2084273348364, -46109.346581619575, -46108.161939163445, -34616.05723095623, -37541.83352492256, -34235.20585718225, -16820.4700136745, -35207.685554943746, -10548.861092193258, -38980.414149810575, -42797.55566091009, -35998.46792202806, -21898.85340915363, -33558.93147694248, -44434.15038992767, 0.018000000000000002, 0.966, -0.08600000000000001, 192.0, 0.0, 0.0, 0.0, 0.0, 0.0, 0.0, 0.0, 0.0, 0.0, 1.6689763649190211E9, 0.0, 2022-11-20 15:32:44.919
156.0, -25964.814539529627, -2712.2724309292357, -46218.825425961666, -46234.09166742464, -34730.54286605631, -37661.32595078063, -34346.674006780864, -16937.436692409123, -35235.20055236823, -10568.932958714124, -39015.34992639422, -42830.36802177048, -36036.93527423564, -21945.92618297651, -33585.06066621073, -44472.95301830209, 0.018000000000000002, 0.966, -0.08600000000000001, 192.0, 0.0, 0.0, 0.0, 0.0, 0.0, 0.0, 0.0, 0.0, 0.0, 1.6689763649190264E9, 0.0, 2022-11-20 15:32:44.919
158.0, -25861.147148745913, -2661.355157060046, -46115.426256111416, -46126.199796938876, -34624.95322524944, -37554.752833217724, -34242.9842642527, -16833.56813592531, -35220.1131248609, -10559.455819065073, -38984.683333001536, -42804.104722035496, -36008.59326226631, -21925.6755025, -33565.50288981234, -44463.252361208484, 0.018000000000000002, 0.966, -0.08600000000000001, 192.0, 0.0, 0.0, 0.0, 0.0, 0.0, 0.0, 0.0, 0.0, 0.0, 1.6689763649190495E9, 0.0, 2022-11-20 15:32:44.919
160.0, -25951.582306812088, -2680.778822991708, -46220.010068417796, -46237.57853955967, -34734.700290525, -37662.24237230329, -34346.56224805859, -16940.945916288605, -35221.34247080594, -10550.13514162721, -39000.19544365352, -42805.26701274717, -36022.049012428404, -21938.05836892824, -33569.995590447856, -44472.17070724615, 0.014, 0.968, -0.08600000000000001, 192.0, 0.0, 56.0, 15.0, 32.0, 126.5, 40.0, 0.0, 0.0, 0.0, 1.6689763649190547E9, 0.0, 2022-11-20 15:32:44.919
162.0, -25866.08688427054, -2680.3988433359677, -46121.50593060326, -46123.36112539305, -34632.195190452956, -37549.96955990429, -34244.70534857576, -16833.09874929175, -35231.57956976647, -10563.680298767125, -39000.03898144233, -42813.671268662365, -36022.31723336187, -21933.833889226185, -33584.79244527727, -44475.143489258706, 0.014, 0.968, -0.08600000000000001, 192.0, 0.0, 0.0, 0.0, 0.0, 0.0, 0.0, 0.0, 0.0, 0.0, 1.6689763649190595E9, 0.0, 2022-11-20 15:32:44.919
164.0, -25951.604658556542, -2672.3075118431466, -46220.837082962644, -46231.94589995693, -34731.77221200135, -37648.74191865229, -34341.46605032278, -16928.607753349275, -35209.13841833334, -10533.348981541274, -38986.73969349143, -42797.01921904316, -36007.56508202137, -21913.717319216412, -33565.05585492323, -44447.36027090076, 0.014, 0.968, -0.08600000000000001, 192.0, 0.0, 0.0, 0.0, 0.0, 0.0, 0.0, 0.0, 0.0, 0.0, 1.6689763649190648E9, 0.0, 2022-11-20 15:32:44.919
166.0, -25889.533864204153, -2709.5008146167775, -46140.169637223444, -46135.40871565446, -34649.875420317105, -37566.59925777904, -34262.31852320654, -16845.548670953354, -35259.631009057885, -10591.172944447153, -39025.6093770992, -42841.94622539833, -36047.68646331864, -21952.788168524286, -33613.894416558076, -44487.21343126457, 0.014, 0.968, -0.08600000000000001, 192.0, 0.0, 0.0, 0.0, 0.0, 0.0, 0.0, 0.0, 0.0, 0.0, 1.6689763649190717E9, 0.0, 2022-11-20 15:32:44.919
168.0, -25934.997312426247, -2651.8556656665405, -46209.19182410143, -46218.98188817286, -34726.921883454546, -37656.542677467194, -34337.46508806528, -16927.132538215224, -35206.81383690999, -10534.89125190869, -38980.39179806612, -42785.86569855997, -36010.98489892303, -21910.923351159498, -33564.89939271205, -44439.02307021893, 0.014, 0.968, -0.08600000000000001, 192.0, 0.0, 0.0, 0.0, 0.0, 0.0, 0.0, 0.0, 0.0, 0.0, 1.6689763649190767E9, 0.0, 2022-11-20 15:32:44.919
170.0, -25873.239442496237, -2704.5387273476995, -46127.31738416164, -46125.30572716066, -34644.13102199209, -37580.50204283024, -34261.22328772823, -16851.85186288975, -35250.51149732012, -10585.696767055604, -39014.947594994024, -42826.121190323975, -36049.29578891943, -21957.996124982372, -33613.827361324715, -44491.572021433356, 0.014, 0.97, -0.088, 192.0, 0.0, 56.0, 15.0, 40.0, 126.5, 32.0, 0.0, 0.0, 0.0, 1.6689763649190817E9, 0.0, 2022-11-20 15:32:44.919
172.0, -25922.949722164838, -2637.058810837127, -46191.6010012151, -46210.89055668003, -34714.62842400413, -37662.28707579221, -34330.15606762839, -16927.82544229334, -35175.40963595029, -10508.516193451429, -38941.9915010919, -42754.01446271115, -35973.63513393821, -21884.727106657876, -33536.31151155371, -44418.70533450906, 0.014, 0.97, -0.088, 192.0, 0.0, 0.0, 0.0, 0.0, 0.0, 0.0, 0.0, 0.0, 0.0, 1.6689763649190867E9, 0.0, 2022-11-20 15:32:44.919
174.0, -25904.68834694485, -2736.702887618886, -46148.95387279438, -46150.250273972786, -34660.3807402111, -37608.642889099465, -34283.59738392799, -16878.562197513842, -35279.85933778994, -10613.569392391371, -39045.92711280908, -42860.27465585168, -36066.79720482793, -21976.570424624733, -33626.85842834216, -44516.29305080093, 0.014, 0.97, -0.088, 192.0, 0.0, 0.0, 0.0, 0.0, 0.0, 0.0, 0.0, 0.0, 0.0, 1.6689763649190917E9, 0.0, 2022-11-20 15:32:44.919
176.0, -25909.113992347004, -2629.459217722323, -46184.359036011585, -46198.73120769635, -34692.41079001556, -37637.29782549117, -34311.805285430586, -16907.82063100584, -35183.27744999855, -10515.579344699305, -38953.54735297529, -42769.32540766304, -35973.16574730465, -21878.401562977026, -33530.768278928794, -44420.09114266529, 0.014, 0.97, -0.088, 192.0, 0.0, 0.0, 0.0, 0.0, 0.0, 0.0, 0.0, 0.0, 0.0, 1.6689763649190967E9, 0.0, 2022-11-20 15:32:44.919
178.0, -25910.924483647883, -2751.991480826316, -46163.12487877904, -46159.57095141065, -34660.33603672219, -37591.521452846704, -34283.10564554997, -16870.29205206538, -35278.60764010044, -10608.38378767774, -39046.44120293155, -42862.08514715256, -36060.89634429173, -21964.29931691877, -33622.566893406736, -44504.491329728524, 0.014, 0.97, -0.088, 192.0, 0.0, 0.0, 0.0, 0.0, 0.0, 0.0, 0.0, 0.0, 0.0, 1.6689763649191017E9, 0.0, 2022-11-20 15:32:44.919
180.0, -25897.379326507966, -2636.4329619923788, -46183.84494588911, -46204.76617869928, -34684.23005154491, -37618.20943572634, -34304.22804406024, -16893.24729362098, -35184.1044645434, -10513.500632464962, -38946.5959604497, -42766.71025356177, -35958.368892475235, -21857.614440633588, -33527.6613864495, -44408.02120065942, 0.012, 0.9580000000000001, -0.08600000000000001, 192.0, 0.0, 48.0, 14.5, 120.0, 126.5, 40.0, 0.0, 0.0, 0.0, 1.6689763649191067E9, 0.0, 2022-11-20 15:32:44.919
182.0, -25919.149925607435, -2765.447230988411, -46186.01306510127, -46187.84590814661, -34677.74804565287, -37607.63706059898, -34301.85875914797, -16885.848866206274, -35286.09547449297, -10615.446938925617, -39059.15934552662, -42875.116214170004, -36069.881745562765, -21963.494654118378, -33638.41428022555, -44521.702172959114, 0.012, 0.9580000000000001, -0.08600000000000001, 192.0, 0.0, 0.0, 0.0, 0.0, 0.0, 0.0, 0.0, 0.0, 0.0, 1.6689763649191117E9, 0.0, 2022-11-20 15:32:44.919
184.0, -25880.056724555103, -2630.3756392449905, -46173.07140506165, -46188.0023703578, -34670.17080428253, -37610.0286972557, -34292.716895665755, -16882.205531860058, -35188.12777854536, -10514.551164454362, -38958.15181233309, -42772.40994839787, -35968.717750158045, -21859.89431856803, -33544.760470957815, -44429.903558481165, 0.012, 0.9580000000000001, -0.08600000000000001, 192.0, 0.0, 0.0, 0.0, 0.0, 0.0, 0.0, 0.0, 0.0, 0.0, 1.6689763649191167E9, 0.0, 2022-11-20 15:32:44.919
186.0, -25909.158695835915, -2750.7621348812745, -46179.7992801427, -46179.19578304241, -34680.02792358732, -37611.32509843411, -34302.52931148164, -16884.35129932777, -35274.83019528749, -10591.843496780813, -39046.08357502027, -42856.51956278319, -36062.05863500341, -21946.015589954328, -33631.149963277574, -44516.62832696776, 0.012, 0.9580000000000001, -0.08600000000000001, 192.0, 0.0, 0.0, 0.0, 0.0, 0.0, 0.0, 0.0, 0.0, 0.0, 1.6689763649191217E9, 0.0, 2022-11-20 15:32:44.919
188.0, -25846.797328805606, -2617.5680896720996, -46134.20172145387, -46151.05493677318, -34644.175725481, -37575.227031138784, -34262.69850286228, -16846.15216805365, -35163.87613581135, -10495.798050856358, -38926.434686951005, -42748.113602174955, -35946.634226636204, -21829.495946108815, -33528.24253180534, -44401.40508430065, 0.012, 0.9580000000000001, -0.08600000000000001, 192.0, 0.0, 0.0, 0.0, 0.0, 0.0, 0.0, 0.0, 0.0, 0.0, 1.6689763649191267E9, 0.0, 2022-11-20 15:32:44.919
190.0, -25925.564876266108, -2759.903998363495, -46187.6000389576, -46196.11605359508, -34699.47394126343, -37625.16082825194, -34320.969500657266, -16899.282264623915, -35263.09552944845, -10592.692863070115, -39031.33142367976, -42851.93745516986, -36048.46877437458, -21935.800842738252, -33628.914788832044, -44492.980181334045, 0.02, 0.9520000000000001, -0.08, 192.0, 0.0, 80.0, 14.5, 96.0, 126.5, 64.0, 0.0, 0.0, 0.0, 1.6689763649191318E9, 0.0, 2022-11-20 15:32:44.919
192.0, -25837.655465323387, -2622.977211830284, -46118.37668637952, -46139.476733145326, -34640.39828066806, -37573.617705538, -34259.703369105264, -16846.04040933137, -35177.264830740074, -10519.490899978984, -38938.32581500123, -42766.08440471702, -35959.39707272018, -21850.7077515969, -33551.957732672425, -44413.58678502879, 0.02, 0.9520000000000001, -0.08, 192.0, 0.0, 0.0, 0.0, 0.0, 0.0, 0.0, 0.0, 0.0, 0.0, 1.6689763649191368E9, 0.0, 2022-11-20 15:32:44.919
194.0, -25927.174201866892, -2747.6552424019865, -46188.650570947, -46205.07910312165, -34708.92872916803, -37644.83036337261, -34328.61379726098, -16914.660264809165, -35240.184991381764, -10576.890179740212, -39017.249824672916, -42836.62651021797, -36040.310387648395, -21933.051578170252, -33620.62229163913, -44488.95686733209, 0.02, 0.9520000000000001, -0.08, 192.0, 0.0, 0.0, 0.0, 0.0, 0.0, 0.0, 0.0, 0.0, 0.0, 1.6689763649191418E9, 0.0, 2022-11-20 15:32:44.919
196.0, -25833.78861353262, -2633.326069513091, -46108.094883930076, -46127.18327369491, -34626.383736894575, -37569.72850200278, -34246.80641255456, -16837.367932482714, -35176.19194700622, -10525.905850637657, -38935.48714345541, -42766.30792216157, -35962.705130899565, -21858.240289478337, -33546.32509306969, -44424.00269794497, 0.02, 0.9520000000000001, -0.08, 192.0, 0.0, 0.0, 0.0, 0.0, 0.0, 0.0, 0.0, 0.0, 0.0, 1.6689763649191468E9, 0.0, 2022-11-20 15:32:44.919
198.0, -25934.215001370314, -2743.0731347886485, -46205.92846941095, -46206.28609732224, -34716.930653683026, -37655.04511058868, -34335.20756187529, -16923.243334680003, -35240.07323265949, -10583.86392401027, -39012.645365315126, -42834.19017007234, -36043.5066871055, -21933.16333689253, -33605.9818990209, -44492.95782958959, 0.02, 0.9520000000000001, -0.08, 192.0, 0.0, 0.0, 0.0, 0.0, 0.0, 0.0, 0.0, 0.0, 0.0, 1.668976364919153E9, 0.0, 2022-11-20 15:32:44.919
200.0, -25833.945075743806, -2649.061697609627, -46111.67116304293, -46106.127930418006, -34616.28074840078, -37546.862667425, -34232.6801100588, -16819.03950202936, -35181.91399358678, -10518.708588923048, -38943.66788192605, -42764.58683783851, -35970.192965292095, -21851.31124869719, -33536.02093887579, -44419.06296242034, 0.017, 0.9540000000000001, -0.081, 192.0, 0.0, 56.0, 14.5, 112.0, 126.5, 56.0, 0.0, 0.0, 0.0, 1.668976364919158E9, 0.0, 2022-11-20 15:32:44.919
202.0, -25936.249010115745, -2734.0430300287044, -46214.980925915355, -46207.94012641193, -34712.99674665889, -37640.15884878145, -34326.490381537726, -16914.950837487082, -35236.74282273565, -10560.036964420911, -39014.34409789373, -42823.886015878445, -36030.76619276598, -21908.19643833595, -33588.726352301404, -44469.08616651132, 0.017, 0.9540000000000001, -0.081, 192.0, 0.0, 0.0, 0.0, 0.0, 0.0, 0.0, 0.0, 0.0, 0.0, 1.6689763649191632E9, 0.0, 2022-11-20 15:32:44.919
204.0, -25839.06362522407, -2673.000415921261, -46122.26588991474, -46117.68378230141, -34611.22925415388, -37538.14548708743, -34228.16505767883, -16814.792670582854, -35202.45524674121, -10536.679391465115, -38970.33351306123, -42789.41962592836, -35984.945116632596, -21864.878757581566, -33557.612724019615, -44431.82580850432, 0.017, 0.9540000000000001, -0.081, 192.0, 0.0, 0.0, 0.0, 0.0, 0.0, 0.0, 0.0, 0.0, 0.0, 1.668976364919168E9, 0.0, 2022-11-20 15:32:44.919
206.0, -25922.905018675927, -2707.779730293719, -46213.304545081206, -46220.25593760681, -34705.08422912171, -37628.7818108537, -34317.817904689065, -16901.070404180336, -35213.11702884639, -10544.569557257839, -38995.166301151075, -42814.99002158523, -36007.878006443745, -21888.99628984884, -33576.25407889534, -44451.98708200301, 0.017, 0.9540000000000001, -0.081, 192.0, 0.0, 0.0, 0.0, 0.0, 0.0, 0.0, 0.0, 0.0, 0.0, 1.6689763649191732E9, 0.0, 2022-11-20 15:32:44.919
208.0, -25829.787651275117, -2670.228799608803, -46110.955907220356, -46113.30284038816, -34604.14375116155, -37521.91812061288, -34218.263234885126, -16796.151315707128, -35208.601976466416, -10540.881519422714, -38975.27324858585, -42804.57410866906, -35992.567061491856, -21874.55706293071, -33573.75068351635, -44442.55464584287, 0.017, 0.9540000000000001, -0.081, 192.0, 0.0, 0.0, 0.0, 0.0, 0.0, 0.0, 0.0, 0.0, 0.0, 1.668976364919178E9, 0.0, 2022-11-20 15:32:44.919
210.0, -25925.967207666305, -2695.3968638654787, -46219.27246085077, -46234.762219758304, -34717.22122636095, -37640.382366226004, -34329.26199785018, -16909.16173567316, -35193.67101117027, -10525.07883609281, -38970.89230667261, -42793.979381797246, -35991.494177758, -21872.835978607654, -33564.184136889475, -44434.239796905495, 0.0155, 0.9550000000000001, -0.0815, 192.0, 0.0, 56.0, 14.5, 112.0, 126.5, 56.0, 0.0, 0.0, 0.0, 1.6689763649191833E9, 0.0, 2022-11-20 15:32:44.919
212.0, -25836.82845077854, -2697.922610988928, -46114.107503188556, -46121.6847445589, -34613.12915243258, -37539.84421966603, -34228.38857512338, -16808.064795501807, -35226.48337203066, -10572.732755271525, -38994.96513545098, -42823.93071936735, -36014.024736168954, -21903.860199911618, -33597.398829150065, -44469.44379442261, 0.0155, 0.9550000000000001, -0.0815, 192.0, 0.0, 0.0, 0.0, 0.0, 0.0, 0.0, 0.0, 0.0, 0.0, 1.668976364919188E9, 0.0, 2022-11-20 15:32:44.919
214.0, -25915.685405216864, -2685.8526689830624, -46210.42117004647, -46224.346306842126, -34716.215397860455, -37644.47273546133, -34325.32809082605, -16910.368729873746, -35187.21135702269, -10519.647362190171, -38961.48222225693, -42779.94248627931, -35980.22889855253, -21872.23248150736, -33553.67881699548, -44433.85981724976, 0.0155, 0.9550000000000001, -0.0815, 192.0, 0.0, 0.0, 0.0, 0.0, 0.0, 0.0, 0.0, 0.0, 0.0, 1.668976364919193E9, 0.0, 2022-11-20 15:32:44.919
216.0, -25841.119985713958, -2715.200509452881, -46107.3349246186, -46107.75960776325, -34616.9736524789, -37543.26403656769, -34227.695671045265, -16808.690644346552, -35237.39102332485, -10576.018461706455, -39006.45393210101, -42829.8092281591, -36026.742878764024, -21918.679406485488, -33604.57373912021, -44481.42432945065, 0.0155, 0.9550000000000001, -0.0815, 192.0, 0.0, 0.0, 0.0, 0.0, 0.0, 0.0, 0.0, 0.0, 0.0, 1.668976364919198E9, 0.0, 2022-11-20 15:32:44.919
218.0, -25896.015870096195, -2662.2492268382584, -46177.98878884182, -46191.08691109263, -34698.42340927403, -37625.429049185404, -34308.0501923621, -16890.92271219763, -35163.31734219997, -10503.531754437894, -38934.50366669937, -42759.445936613796, -35958.14537503068, -21848.85255680711, -33530.991796373346, -44403.50614827945, 0.0155, 0.9550000000000001, -0.0815, 192.0, 0.0, 0.0, 0.0, 0.0, 0.0, 0.0, 0.0, 0.0, 0.0, 1.668976364919203E9, 0.0, 2022-11-20 15:32:44.919
220.0, -25890.27147177118, -2763.189704798425, -46141.80131456868, -46136.48159938832, -34655.73157736439, -37578.69155152936, -34270.05222678807, -16844.922822108605, -35249.840944986456, -10583.52864784344, -39013.114751948684, -42838.54876024112, -36036.80116376891, -21922.456851298437, -33609.24525371138, -44477.02103579295, 0.012750000000000001, 0.9565000000000001, -0.08375, 192.0, 0.0, 40.0, 14.5, 120.0, 126.5, 40.0, 0.0, 0.0, 0.0, 1.668976364919208E9, 0.0, 2022-11-20 15:32:44.919
222.0, -25901.02266085418, -2660.170514603915, -46177.98878884182, -46197.85948966259, -34694.4895022499, -37628.06655503113, -34308.13959933992, -16890.29686335288, -35190.94409834672, -10518.060388333844, -38957.548315232794, -42776.88029728893, -35979.02190435194, -21867.672725638477, -33545.676892480486, -44420.56052929885, 0.012750000000000001, 0.9565000000000001, -0.08375, 192.0, 0.0, 0.0, 0.0, 0.0, 0.0, 0.0, 0.0, 0.0, 0.0, 1.668976364919213E9, 0.0, 2022-11-20 15:32:44.919
224.0, -25884.325907746068, -2760.8204198861627, -46142.0918872466, -46147.07632626013, -34648.51196390533, -37585.307667888126, -34267.50412792017, -16848.85672913274, -35255.02654970009, -10593.765746803969, -39021.519007863884, -42847.22123708978, -36037.67288180267, -21939.757101506842, -33609.69228860048, -44497.450530225105, 0.012750000000000001, 0.9565000000000001, -0.08375, 192.0, 0.0, 0.0, 0.0, 0.0, 0.0, 0.0, 0.0, 0.0, 0.0, 1.668976364919218E9, 0.0, 2022-11-20 15:32:44.919
226.0, -25887.946890347826, -2649.8663604100184, -46177.6982161639, -46193.07621634915, -34682.665429433044, -37625.20553174085, -34300.78587541412, -16887.6370057627, -35166.69245561272, -10515.109958065745, -38941.969149347446, -42766.46438437276, -35957.743043630486, -21858.15088250052, -33527.8625521496, -44417.6324507752, 0.012750000000000001, 0.9565000000000001, -0.08375, 192.0, 0.0, 0.0, 0.0, 0.0, 0.0, 0.0, 0.0, 0.0, 0.0, 1.668976364919223E9, 0.0, 2022-11-20 15:32:44.919
228.0, -25899.860370142505, -2776.377234027056, -46171.55148643869, -46163.05782354568, -34666.14749028057, -37603.43493264138, -34287.55364269658, -16870.604976487753, -35261.84383175896, -10601.85707829679, -39036.53938013785, -42858.62062676199, -36052.335626165346, -21944.24980214236, -33623.2374457404, -44509.16284431968, 0.012750000000000001, 0.9565000000000001, -0.08375, 192.0, 0.0, 0.0, 0.0, 0.0, 0.0, 0.0, 0.0, 0.0, 0.0, 1.668976364919228E9, 0.0, 2022-11-20 15:32:44.919
230.0, -25874.133512274446, -2641.842084150563, -46169.51747769326, -46182.70500692189, -34672.92006885053, -37614.61080486904, -34293.32039276605, -16883.367822571734, -35174.94024931672, -10513.880612120702, -38949.21111455096, -42770.59945709699, -35964.71678790054, -21854.61930687658, -33539.373700544085, -44427.98130845801, 0.013375000000000001, 0.96025, -0.084875, 192.0, 0.0, 56.0, 15.0, 16.0, 126.5, 40.0, 0.0, 0.0, 0.0, 1.6689763649192345E9, 0.0, 2022-11-20 15:32:44.919
232.0, -25892.663108427896, -2761.1109925640812, -46154.89943681949, -46164.1977625129, -34665.38753096909, -37601.13270296249, -34285.989020584704, -16871.879025921706, -35253.8195554995, -10597.543191616916, -39029.96796726799, -42852.42919354787, -36048.15584995221, -21944.38391260909, -33617.5824543932, -44511.17450132066, 0.013375000000000001, 0.96025, -0.084875, 192.0, 0.0, 0.0, 0.0, 0.0, 0.0, 0.0, 0.0, 0.0, 0.0, 1.6689763649192393E9, 0.0, 2022-11-20 15:32:44.919
234.0, -25847.4008259059, -2622.3066594966244, -46138.38149766702, -46167.46111720337, -34655.5304116643, -37593.64486856996, -34271.25922098866, -16860.43493276059, -35148.9451705152, -10495.775699111904, -38917.60574789116, -42743.37503235043, -35940.7333661, -21841.163556714484, -33517.1113630666, -44410.14461638268, 0.013375000000000001, 0.96025, -0.084875, 192.0, 0.0, 0.0, 0.0, 0.0, 0.0, 0.0, 0.0, 0.0, 0.0, 1.6689763649192443E9, 0.0, 2022-11-20 15:32:44.919
236.0, -25894.85357938452, -2753.1537715379923, -46169.58453292662, -46177.74291965281, -34677.16690029704, -37611.034525756186, -34295.35440151148, -16879.791543458887, -35248.90217171934, -10595.151554960199, -39022.68129857556, -42848.852914435025, -36047.37353889627, -21948.72015103342, -33622.499838173375, -44512.58266122135, 0.013375000000000001, 0.96025, -0.084875, 192.0, 0.0, 0.0, 0.0, 0.0, 0.0, 0.0, 0.0, 0.0, 0.0, 1.6689763649192493E9, 0.0, 2022-11-20 15:32:44.919
238.0, -25833.319226899057, -2617.3669239720016, -46130.111352218555, -46139.9908232678, -34638.11840273361, -37569.86261246951, -34251.120299234426, -16838.28435400538, -35141.30087391149, -10491.93119906559, -38912.688364110996, -42739.307014859565, -35934.20665671905, -21830.32296065366, -33518.8100956452, -44401.85211918976, 0.013375000000000001, 0.96025, -0.084875, 192.0, 0.0, 0.0, 0.0, 0.0, 0.0, 0.0, 0.0, 0.0, 0.0, 1.6689763649192543E9, 0.0, 2022-11-20 15:32:44.919
240.0, -25932.02453041369, -2776.1984200714137, -46213.28219333675, -46204.02857113226, -34714.20374085948, -37645.076232561616, -34325.641015248424, -16911.06163395186, -35256.85939274543, -10598.347854417307, -39036.87465630468, -42852.02686214768, -36057.32006517888, -21942.729883519398, -33636.268512757844, -44513.70024844411, 0.014687500000000001, 0.961125, -0.0864375, 192.0, 0.0, 64.0, 15.0, 8.0, 126.5, 32.0, 0.0, 0.0, 0.0, 1.668976365399686E9, 0.0, 2022-11-20 15:32:45.399
242.0, -25843.62338109295, -2638.4669707378116, -46126.60212833907, -46132.14536096399, -34634.430364898486, -37571.807214237124, -34244.83945904249, -16832.51760393591, -35174.80613884999, -10523.17893781411, -38943.53377145932, -42765.100927960986, -35964.49327045599, -21852.89822255352, -33551.64480825005, -44427.44486659108, 0.014687500000000001, 0.961125, -0.0864375, 192.0, 0.0, 0.0, 0.0, 0.0, 0.0, 0.0, 0.0, 0.0, 0.0, 1.668976365399825E9, 0.0, 2022-11-20 15:32:45.399
244.0, -25941.389911340466, -2777.2266003163577, -46211.47170203587, -46215.450312548914, -34716.640081005105, -37651.24531403129, -34323.15997161388, -16909.362901373257, -35253.73014852168, -10596.537363116428, -39033.25367370292, -42849.07643187958, -36050.99452149803, -21937.49957531686, -33620.15290500557, -44501.25032678251, 0.014687500000000001, 0.961125, -0.0864375, 192.0, 0.0, 0.0, 0.0, 0.0, 0.0, 0.0, 0.0, 0.0, 0.0, 1.66897636539984E9, 0.0, 2022-11-20 15:32:45.399
246.0, -25849.948924773806, -2664.2161803503254, -46127.85382602857, -46135.72164007684, -34631.27876893029, -37559.53610653116, -34238.22334268372, -16824.69449337655, -35198.56604320598, -10543.407266546163, -38970.31116131677, -42794.582878897534, -35980.92180263064, -21868.343277972137, -33559.579677531685, -44439.201884174574, 0.014687500000000001, 0.961125, -0.0864375, 192.0, 0.0, 0.0, 0.0, 0.0, 0.0, 0.0, 0.0, 0.0, 0.0, 1.668976365399845E9, 0.0, 2022-11-20 15:32:45.399
248.0, -25928.917637934406, -2747.2305592573357, -46208.63303049005, -46209.37063805707, -34709.28635707931, -37628.290072475684, -34313.79459068711, -16897.427069834124, -35230.52903777707, -10568.396516847197, -39015.506388605405, -42830.77035317068, -36025.692346774624, -21901.446211510447, -33590.98387849139, -44463.185305975116, 0.014687500000000001, 0.961125, -0.0864375, 192.0, 0.0, 0.0, 0.0, 0.0, 0.0, 0.0, 0.0, 0.0, 0.0, 1.6689763653998497E9, 0.0, 2022-11-20 15:32:45.399
250.0, -25834.347407144, -2664.842029195074, -46113.12402643252, -46122.60116608157, -34621.17578043649, -37537.74315568723, -34228.70149954576, -16811.819888570295, -35191.41348498029, -10538.758103699458, -38965.32672230324, -42796.214556242776, -35982.44172125361, -21856.250984221817, -33557.65742750853, -44428.36128811375, 0.01434375, 0.9605625, -0.08921875, 192.0, 0.0, 56.0, 15.0, 0.0, 126.5, 16.0, 0.0, 0.0, 0.0, 1.6689763653998544E9, 0.0, 2022-11-20 15:32:45.399
252.0, -25921.720376219797, -2723.291840945702, -46204.967344399374, -46214.66800149298, -34711.20860710247, -37632.60395915556, -34318.48845702272, -16904.847848993286, -35213.899339902324, -10550.85039744978, -38995.926260462555, -42818.67805942036, -36014.31530884687, -21884.972975846886, -33579.36097137463, -44459.497268139996, 0.01434375, 0.9605625, -0.08921875, 192.0, 0.0, 0.0, 0.0, 0.0, 0.0, 0.0, 0.0, 0.0, 0.0, 1.6689763653998587E9, 0.0, 2022-11-20 15:32:45.399
254.0, -25803.09966839548, -2648.18997957587, -46084.98318016329, -46095.10852040154, -34589.52571028778, -37520.57701594556, -34200.94063293227, -16791.27863541587, -35187.837205867436, -10531.806711173858, -38953.48029774193, -42782.89291654741, -35973.612782193755, -21847.287934695236, -33551.197773360946, -44440.31947139734, 0.01434375, 0.9605625, -0.08921875, 192.0, 0.0, 0.0, 0.0, 0.0, 0.0, 0.0, 0.0, 0.0, 0.0, 1.6689763653998635E9, 0.0, 2022-11-20 15:32:45.399
0.0, -25906.74470743474, -2697.4532243553667, -46197.792434429226, -46213.72922822586, -34700.92680465303, -37640.15884878145, -34311.55941624158, -16903.506744325965, -35185.177348277255, -10530.979696629012, -38968.254800826886, -42790.268992217665, -35989.70603820158, -21869.058533794705, -33561.457224065925, -44455.13867797121, 0.01434375, 0.9605625, -0.08921875, 192.0, 0.0, 0.0, 0.0, 0.0, 0.0, 0.0, 0.0, 0.0, 0.0, 1.668976365399868E9, 0.0, 2022-11-20 15:32:45.399
2.0, -25830.43585186432, -2686.2773521277136, -46108.31840137463, -46115.783884022705, -34606.60244305163, -37548.7625657037, -34220.833685497484, -16809.115327491203, -35195.83913038244, -10548.347002070786, -38968.76889094936, -42799.36615221097, -35987.15793933367, -21876.94869958743, -33566.79929099075, -44457.70912858357, 0.01434375, 0.9605625, -0.08921875, 192.0, 0.0, 0.0, 0.0, 0.0, 0.0, 0.0, 0.0, 0.0, 0.0, 1.6689763653998744E9, 0.0, 2022-11-20 15:32:45.399
4.0, -25908.957530135816, -2691.6194190525316, -46196.8536611621, -46210.935260168946, -34706.358278555665, -37640.337662737096, -34314.88982616542, -16903.529096070422, -35187.03254306705, -10532.432560018608, -38968.54537350481, -42795.432245186836, -35988.588450978816, -21879.921481599988, -33558.08211065318, -44442.6887563096, 0.013171875, 0.96528125, -0.09060937499999999, 192.0, 0.0, 48.0, 15.0, 40.0, 126.5, 16.0, 0.0, 0.0, 0.0, 1.6689763653998792E9, 0.0, 2022-11-20 15:32:45.399
6.0, -25832.40280537639, -2705.3433901480903, -46104.20568039485, -46102.9316309609, -34619.99113798036, -37538.2125423208, -34228.477982101205, -16808.04244375735, -35216.60390098142, -10567.457743580073, -38982.13523413363, -42816.37582974146, -36011.923672190154, -21897.57935971968, -33586.71469530043, -44457.93264602812, 0.013171875, 0.96528125, -0.09060937499999999, 192.0, 0.0, 0.0, 0.0, 0.0, 0.0, 0.0, 0.0, 0.0, 0.0, 1.6689763653998938E9, 0.0, 2022-11-20 15:32:45.399
8.0, -25895.568835207087, -2664.3055873281464, -46182.548544710706, -46190.39400701452, -34709.442819290496, -37623.260929973236, -34313.79459068711, -16893.62727327672, -35167.988856791126, -10514.864088876735, -38949.56874246225, -42771.78409955312, -35980.20654680807, -21861.257774979804, -33550.43781404946, -44413.966764684534, 0.013171875, 0.96528125, -0.09060937499999999, 192.0, 0.0, 0.0, 0.0, 0.0, 0.0, 0.0, 0.0, 0.0, 0.0, 1.6689763653998983E9, 0.0, 2022-11-20 15:32:45.399
10.0, -25834.570924588555, -2705.745721548286, -46093.2309738673, -46085.76549121922, -34617.420687368, -37532.445792251325, -34225.84047625548, -16802.476859387978, -35205.98682236514, -10548.794036959891, -38973.68627472952, -42797.30979172108, -36004.45818954208, -21886.023507836286, -33576.74581727336, -44443.202846432076, 0.013171875, 0.96528125, -0.09060937499999999, 192.0, 0.0, 0.0, 0.0, 0.0, 0.0, 0.0, 0.0, 0.0, 0.0, 1.668976365399918E9, 0.0, 2022-11-20 15:32:45.399
12.0, -25893.668936928385, -2653.4649912673226, -46173.76430913977, -46174.367806240065, -34700.412714530554, -37618.61176712654, -34304.13863708242, -16886.67588075112, -35165.50781315658, -10500.69308289207, -38936.56002718926, -42753.16509642185, -35968.47188096904, -21846.907955039496, -33525.56032247071, -44400.08633137779, 0.013171875, 0.96528125, -0.09060937499999999, 192.0, 0.0, 0.0, 0.0, 0.0, 0.0, 0.0, 0.0, 0.0, 0.0, 1.668976365399923E9, 0.0, 2022-11-20 15:32:45.399
14.0, -25881.44253271133, -2759.6357774300313, -46135.96750926584, -46123.29407015968, -34653.25053372986, -37575.13762416096, -34262.76555809564, -16845.95100235355, -35250.73501476467, -10594.23513343753, -39017.07101071728, -42835.39716427293, -36041.27151265997, -21924.602618766145, -33601.444494896474, -44479.92676257215, 0.013171875, 0.96528125, -0.09060937499999999, 192.0, 0.0, 0.0, 0.0, 0.0, 0.0, 0.0, 0.0, 0.0, 0.0, 1.668976365399928E9, 0.0, 2022-11-20 15:32:45.399
16.0, -25889.489160715242, -2651.587444733077, -46167.84109685911, -46180.13455630953, -34684.85590038966, -37617.96356653733, -34294.41562824436, -16884.97714817252, -35178.58358366294, -10523.335400025297, -38952.49682098589, -42770.621808841446, -35974.8421281388, -21860.14018775704, -33531.327072540174, -44416.53721529689, 0.018000000000000002, 0.962, -0.096, 192.0, 0.0, 72.0, 15.0, 8.0, 126.5, 0.0, 0.0, 0.0, 0.0, 1.6689763653999329E9, 0.0, 2022-11-20 15:32:45.399
18.0, -25871.294840728624, -2749.7563063807856, -46129.954890007364, -46133.665279586945, -34633.804516053744, -37571.740159003755, -34253.62369461342, -16841.123025551206, -35236.38519482436, -10589.764784546469, -39012.53360659285, -42837.8111526741, -36033.09077418933, -21923.775604221297, -33592.21322443643, -44485.224126008055, 0.018000000000000002, 0.962, -0.096, 192.0, 0.0, 0.0, 0.0, 0.0, 0.0, 0.0, 0.0, 0.0, 0.0, 1.6689763653999376E9, 0.0, 2022-11-20 15:32:45.399
20.0, -25891.679631671865, -2654.2025988343476, -46178.39112024202, -46205.59319324412, -34687.3369440242, -37629.78763935419, -34304.83154116053, -16896.935331456105, -35163.652618366796, -10518.37331275622, -38942.34912900319, -42770.01831174115, -35965.54380244539, -21863.04591453623, -33527.549627727225, -44427.735439269, 0.018000000000000002, 0.962, -0.096, 192.0, 0.0, 0.0, 0.0, 0.0, 0.0, 0.0, 0.0, 0.0, 0.0, 1.6689763653999422E9, 0.0, 2022-11-20 15:32:45.399
22.0, -25891.74668690523, -2769.828172901651, -46154.720622863846, -46161.6943671339, -34663.24176350138, -37593.01901972521, -34281.943354838295, -16865.508778751944, -35253.73014852168, -10612.38474993524, -39030.43735390155, -42859.09001339555, -36053.54262036594, -21956.789130781788, -33616.88955031509, -44515.398981022714, 0.018000000000000002, 0.962, -0.096, 192.0, 0.0, 0.0, 0.0, 0.0, 0.0, 0.0, 0.0, 0.0, 0.0, 1.6689763653999467E9, 0.0, 2022-11-20 15:32:45.399
24.0, -25851.625305607955, -2621.367886229502, -46136.10161973257, -46161.96258806736, -34658.65965588804, -37590.85090051305, -34272.30975297806, -16861.70898219454, -35153.86255429537, -10513.299466764864, -38927.59697766268, -42755.2885121451, -35953.7867848619, -21853.74758884282, -33519.525351467775, -44410.12226463822, 0.018000000000000002, 0.962, -0.096, 192.0, 0.0, 0.0, 0.0, 0.0, 0.0, 0.0, 0.0, 0.0, 0.0, 1.6689763653999517E9, 0.0, 2022-11-20 15:32:45.399
26.0, -25880.2578902552, -2745.9565098233834, -46137.33096567762, -46147.83628557161, -34654.54693490826, -37590.828548768586, -34268.64406688739, -16857.37274377021, -35236.92163669129, -10587.417851378663, -39007.817388512776, -42829.831579903555, -36034.56598932338, -21937.276057872303, -33593.777846548306, -44483.16776551816, 0.018000000000000002, 0.96, -0.094, 192.0, 0.0, 72.0, 15.0, 0.0, 126.5, 8.0, 0.0, 0.0, 0.0, 1.6689763653999562E9, 0.0, 2022-11-20 15:32:45.399
28.0, -25848.630171850942, -2622.7983978746415, -46129.50785511826, -46153.893608319, -34649.49544066137, -37596.05885697113, -34262.60909588446, -16856.61278445873, -35138.57396108794, -10498.83788810228, -38905.87108205212, -42732.80265722307, -35934.38547067469, -21837.497870623814, -33501.062810547686, -44391.79383418487, 0.018000000000000002, 0.96, -0.094, 192.0, 0.0, 0.0, 0.0, 0.0, 0.0, 0.0, 0.0, 0.0, 0.0, 1.6689763653999608E9, 0.0, 2022-11-20 15:32:45.399
30.0, -25899.54744572013, -2757.445306473411, -46159.43684094392, -46165.0471288022, -34675.35640899616, -37621.20456948335, -34291.822825887546, -16881.803200459864, -35245.59411353995, -10597.409081150185, -39022.88246427566, -42844.60608298851, -36051.55331510941, -21951.5811743237, -33611.94981479047, -44503.91018437269, 0.018000000000000002, 0.96, -0.094, 192.0, 0.0, 0.0, 0.0, 0.0, 0.0, 0.0, 0.0, 0.0, 0.0, 1.6689763653999655E9, 0.0, 2022-11-20 15:32:45.399
32.0, -25822.05394769358, -2612.1142640250046, -46096.494328557776, -46115.31449738914, -34615.45373385593, -37571.22606888128, -34232.657758314344, -16829.120138778704, -35139.42332737724, -10493.428765944096, -38909.69323035398, -42735.35075609097, -35936.86651430923, -21840.64946659201, -33500.4593134474, -44395.61598248673, 0.018000000000000002, 0.96, -0.094, 192.0, 0.0, 0.0, 0.0, 0.0, 0.0, 0.0, 0.0, 0.0, 0.0, 1.6689763653999703E9, 0.0, 2022-11-20 15:32:45.399
34.0, -25903.011966110706, -2747.6328906575313, -46155.25706473077, -46154.27358797474, -34664.91814433553, -37617.69534560387, -34285.653744417876, -16878.33868006929, -35225.67870923027, -10572.911569227168, -38998.36260060818, -42816.398181485914, -36028.218093898075, -21926.502517044846, -33570.5767358037, -44468.81794557786, 0.018000000000000002, 0.96, -0.094, 192.0, 0.0, 0.0, 0.0, 0.0, 0.0, 0.0, 0.0, 0.0, 0.0, 1.6689763653999753E9, 0.0, 2022-11-20 15:32:45.399
36.0, -25819.68466278132, -2617.7245518832865, -46089.0288459097, -46086.011360408236, -34597.48293131387, -37540.80534467761, -34215.78219125059, -16808.578885624276, -35153.303760683986, -10504.179955027099, -38915.48233216791, -42734.36727933494, -35943.08029926781, -21836.31322816768, -33494.58080465565, -44385.64710445966, 0.016, 0.964, -0.088, 192.0, 0.0, 64.0, 15.0, 16.0, 126.5, 32.0, 0.0, 0.0, 0.0, 1.6689763653999798E9, 0.0, 2022-11-20 15:32:45.399
38.0, -25902.564931221597, -2729.1479979929923, -46167.572875925645, -46154.87708507504, -34675.736388651894, -37602.87613903, -34289.45354097528, -16875.120028867725, -35207.97612762167, -10550.448066049585, -38987.16437663608, -42795.2534312312, -36015.65641351419, -21899.85923765412, -33561.59133453266, -44438.17370392963, 0.016, 0.964, -0.088, 192.0, 0.0, 0.0, 0.0, 0.0, 0.0, 0.0, 0.0, 0.0, 0.0, 1.668976365399986E9, 0.0, 2022-11-20 15:32:45.399
40.0, -25831.598142575996, -2645.8877498969737, -46106.060875184645, -46104.92093621742, -34618.493571101855, -37542.12409760048, -34231.45076411376, -16817.56428689531, -35166.357179445884, -10520.98846685749, -38930.86033235316, -42753.45566909977, -35965.63320942321, -21849.47840565186, -33524.487438736855, -44390.6762469621, 0.016, 0.964, -0.088, 192.0, 0.0, 0.0, 0.0, 0.0, 0.0, 0.0, 0.0, 0.0, 0.0, 1.6689763653999903E9, 0.0, 2022-11-20 15:32:45.399
42.0, -25925.386062310467, -2737.1722742524476, -46189.34347502512, -46198.44063501843, -34700.65858371957, -37630.36878471003, -34318.55551225609, -16904.24435189299, -35223.37647955138, -10577.247807651498, -39002.38591461014, -42822.81313214459, -36032.397870111214, -21919.729938474888, -33587.40759937854, -44457.32914892783, 0.016, 0.964, -0.088, 192.0, 0.0, 0.0, 0.0, 0.0, 0.0, 0.0, 0.0, 0.0, 0.0, 1.668976365399995E9, 0.0, 2022-11-20 15:32:45.399
44.0, -25818.38826160291, -2642.6690986954095, -46085.989008663775, -46102.99868619427, -34599.047553425735, -37537.89961789842, -34220.40900235283, -16810.32232169179, -35174.24734523861, -10536.27706006492, -38942.93027435902, -42772.7452245647, -35969.25419202497, -21867.628022149565, -33542.90527616802, -44422.34866885527, 0.016, 0.964, -0.088, 192.0, 0.0, 0.0, 0.0, 0.0, 0.0, 0.0, 0.0, 0.0, 0.0, 1.6689763653999999E9, 0.0, 2022-11-20 15:32:45.399
46.0, -25915.059556372114, -2707.779730293719, -46185.38721625653, -46201.59223098663, -34701.753819197875, -37642.6845959049, -34321.572997757554, -16916.068424709847, -35197.11317981639, -10544.793074702391, -38975.943800919515, -42793.688809119325, -36006.08986688732, -21908.24114182486, -33569.23563113638, -44459.22904720653, 0.02, 0.96, -0.09, 192.0, 0.0, 80.0, 15.0, 0.0, 126.5, 24.0, 0.0, 0.0, 0.0, 1.6689763654000044E9, 0.0, 2022-11-20 15:32:45.400
48.0, -25834.16859318836, -2671.547552531666, -46095.913183201934, -46108.02782869671, -34617.08541120117, -37554.90929542891, -34236.34579614947, -16825.029769543384, -35184.81972036597, -10547.140007870199, -38952.11684133016, -42778.22140195625, -35985.23568931052, -21890.04682183824, -33555.57871527418, -44445.23685517751, 0.02, 0.96, -0.09, 192.0, 0.0, 0.0, 0.0, 0.0, 0.0, 0.0, 0.0, 0.0, 0.0, 1.6689763654000092E9, 0.0, 2022-11-20 15:32:45.400
50.0, -25903.548407977632, -2682.2763898702133, -46174.7477858958, -46190.81869015917, -34697.66344996255, -37633.16275276694, -34311.31354705257, -16901.562142558356, -35195.593261193426, -10547.788208459402, -38968.746539204905, -42787.09504450501, -36004.52524477545, -21906.22948482388, -33558.037407164265, -44447.60614008977, 0.02, 0.96, -0.09, 192.0, 0.0, 0.0, 0.0, 0.0, 0.0, 0.0, 0.0, 0.0, 0.0, 1.6689763654000137E9, 0.0, 2022-11-20 15:32:45.400
52.0, -25812.15212489988, -2657.555360502644, -46075.237819580776, -46076.422462036906, -34590.68800099946, -37521.18051304585, -34207.46734231321, -16795.190190695546, -35182.62924940935, -10537.037019376401, -38946.73007091643, -42770.35358790799, -35981.16767181965, -21881.173179289483, -33545.945113413945, -44429.23300614751, 0.02, 0.96, -0.09, 192.0, 0.0, 0.0, 0.0, 0.0, 0.0, 0.0, 0.0, 0.0, 0.0, 1.6689763654000185E9, 0.0, 2022-11-20 15:32:45.400
54.0, -25903.302538788623, -2665.2443605952694, -46177.94408535291, -46185.476623234346, -34697.01524937335, -37627.82068584212, -34312.94522439781, -16902.478564081022, -35172.41450219328, -10511.913658608635, -38950.23929479591, -42762.41871862635, -35978.66427644066, -21871.51722568479, -33532.9140463965, -44417.118360652734, 0.02, 0.96, -0.09, 192.0, 0.0, 0.0, 0.0, 0.0, 0.0, 0.0, 0.0, 0.0, 0.0, 1.6689763654000232E9, 0.0, 2022-11-20 15:32:45.400
56.0, -25825.607875061974, -2687.7302155173084, -46082.278619084194, -46074.00847363573, -34604.05434418373, -37526.81315264859, -34218.86673198542, -16805.5166966339, -35203.4610752417, -10554.493731795996, -38969.21592583846, -42792.23594572973, -35999.764323206466, -21891.90201662803, -33561.70309325494, -44440.7888580309, 0.014, 0.96, -0.09, 192.0, 0.0, 56.0, 15.0, 0.0, 126.5, 24.0, 0.0, 0.0, 0.0, 1.668976365400028E9, 0.0, 2022-11-20 15:32:45.400
58.0, -25894.630061939963, -2649.5534359876438, -46161.58260841163, -46164.354224724084, -34692.99193537139, -37615.437819413884, -34301.16585506986, -16890.29686335288, -35161.30568519899, -10500.558972425339, -38930.86033235316, -42745.07376492903, -35967.8907356132, -21852.31707719768, -33515.36792699908, -44389.89393590617, 0.014, 0.96, -0.09, 192.0, 0.0, 0.0, 0.0, 0.0, 0.0, 0.0, 0.0, 0.0, 0.0, 1.6689763654000323E9, 0.0, 2022-11-20 15:32:45.400
60.0, -25832.045177465105, -2688.512526573244, -46080.401072549954, -46065.76067993172, -34598.51111155881, -37522.387507246436, -34215.13399066139, -16798.90058027513, -35211.328889289965, -10552.28090909492, -38973.66392298507, -42790.8501375735, -36008.079172143836, -21894.96420561841, -33561.99366593286, -44434.8879974947, 0.014, 0.96, -0.09, 192.0, 0.0, 0.0, 0.0, 0.0, 0.0, 0.0, 0.0, 0.0, 0.0, 1.6689763654000373E9, 0.0, 2022-11-20 15:32:45.400
62.0, -25882.73893388974, -2625.681772909376, -46161.26968398925, -46166.23177125833, -34673.70237990646, -37607.43589489888, -34293.29804102159, -16883.256063849458, -35140.31739715546, -10478.944835537057, -38914.94589030098, -42723.6831454853, -35944.175534746115, -21836.112062467582, -33497.1065517791, -44376.63935144417, 0.014, 0.96, -0.09, 192.0, 0.0, 0.0, 0.0, 0.0, 0.0, 0.0, 0.0, 0.0, 0.0, 1.668976365400042E9, 0.0, 2022-11-20 15:32:45.400
64.0, -25868.813797094084, -2727.0469340141935, -46122.757628292755, -46115.87329100052, -34628.28363517328, -37557.30093208563, -34253.221363213226, -16840.050141817348, -35241.32493034899, -10575.996109962, -39009.53847283584, -42818.74511465372, -36032.91196023369, -21930.168203135516, -33593.26375642583, -44475.79168984791, 0.014, 0.96, -0.09, 192.0, 0.0, 0.0, 0.0, 0.0, 0.0, 0.0, 0.0, 0.0, 0.0, 1.6689763654000475E9, 0.0, 2022-11-20 15:32:45.400
66.0, -25888.21511128129, -2628.945127599851, -46168.37753872604, -46182.59324819961, -34680.363199754145, -37611.83918855658, -34301.92581438134, -16896.06361342235, -35166.804214334996, -10500.737786380982, -38939.46575396845, -42749.70057603128, -35963.196869277584, -21860.117836012585, -33521.73817416885, -44410.99398267198, 0.014, 0.9560000000000001, -0.09, 192.0, 0.0, 56.0, 14.5, 112.0, 126.5, 24.0, 0.0, 0.0, 0.0, 1.6689763654000523E9, 0.0, 2022-11-20 15:32:45.400
68.0, -25873.574718663065, -2729.550329393188, -46122.57881433712, -46126.959756250355, -34634.497420131855, -37563.33590308856, -34253.62369461342, -16843.514662207923, -35237.63689251386, -10575.459668095073, -39007.77268502387, -42824.735382167746, -36038.41048936969, -21930.794051980265, -33599.25402393985, -44490.34267548832, 0.014, 0.9560000000000001, -0.09, 192.0, 0.0, 0.0, 0.0, 0.0, 0.0, 0.0, 0.0, 0.0, 0.0, 1.6689763654000573E9, 0.0, 2022-11-20 15:32:45.400
70.0, -25877.396866964922, -2621.0549618071273, -46150.384384439516, -46179.24048653132, -34669.29908624877, -37610.25221470025, -34282.21157577176, -16878.562197513842, -35157.505888641586, -10491.17123975411, -38927.50757068486, -42744.24675038418, -35956.60310466327, -21852.42883591996, -33515.99377584383, -44411.21750011653, 0.014, 0.9560000000000001, -0.09, 192.0, 0.0, 0.0, 0.0, 0.0, 0.0, 0.0, 0.0, 0.0, 0.0, 1.6689763654000633E9, 0.0, 2022-11-20 15:32:45.400
72.0, -25882.69423040083, -2737.373439952545, -46135.54282612119, -46142.42716341343, -34646.4779551599, -37583.25130739824, -34259.16692723834, -16848.34263901027, -35238.48625880316, -10574.051508194389, -39022.12250496417, -42835.33010903956, -36041.74089929353, -21941.321723618716, -33602.69619258597, -44500.579774448845, 0.014, 0.9560000000000001, -0.09, 192.0, 0.0, 0.0, 0.0, 0.0, 0.0, 0.0, 0.0, 0.0, 0.0, 1.668976365400068E9, 0.0, 2022-11-20 15:32:45.400
74.0, -25855.447453909812, -2606.481624422267, -46129.887834774, -46149.22209372784, -34641.694681846464, -37582.73721727577, -34252.237886457195, -16845.973354098005, -35145.458298380174, -10492.26647523242, -38922.590186904694, -42737.183599136304, -35939.30285445486, -21840.56005961419, -33500.4593134474, -44396.80062494286, 0.014, 0.9560000000000001, -0.09, 192.0, 0.0, 0.0, 0.0, 0.0, 0.0, 0.0, 0.0, 0.0, 0.0, 1.6689763654000726E9, 0.0, 2022-11-20 15:32:45.400
76.0, -25908.4657917578, -2760.507495463788, -46158.67688163243, -46163.303692734684, -34673.00947582835, -37606.765342565224, -34288.02302933014, -16874.360069556245, -35240.1179361484, -10596.738528816526, -39022.03309798636, -42840.89569340893, -36040.84682951532, -21946.842604499176, -33601.668012341026, -44493.51662320097, 0.018000000000000002, 0.96, -0.098, 192.0, 0.0, 72.0, 15.0, 0.0, 126.0, 120.0, 0.0, 0.0, 0.0, 1.668976365400077E9, 0.0, 2022-11-20 15:32:45.400
78.0, -25842.25992468118, -2614.0588657926164, -46106.37379960702, -46130.13370396301, -34641.359405679636, -37579.63032479648, -34257.17762198181, -16847.359162254234, -35147.71582457016, -10518.686237178594, -38921.15967525955, -42749.924093475835, -35949.67406388212, -21862.308306969204, -33517.02195608878, -44406.6800959921, 0.018000000000000002, 0.96, -0.098, 192.0, 0.0, 0.0, 0.0, 0.0, 0.0, 0.0, 0.0, 0.0, 0.0, 1.668976365400082E9, 0.0, 2022-11-20 15:32:45.400
80.0, -25887.566910692087, -2739.519207420255, -46126.55742485016, -46126.64683182798, -34659.28550473279, -37594.315420903615, -34278.657648403365, -16864.77117118492, -35212.89351140184, -10589.47421186855, -38989.55601329279, -42816.59934718601, -36022.71956476207, -21941.120557918617, -33580.21033766393, -44467.9462275441, 0.018000000000000002, 0.96, -0.098, 192.0, 0.0, 0.0, 0.0, 0.0, 0.0, 0.0, 0.0, 0.0, 0.0, 1.6689763654000869E9, 0.0, 2022-11-20 15:32:45.400
82.0, -25818.611779047464, -2610.70610412432, -46080.71399697233, -46083.954999918344, -34606.960070962916, -37544.828658679566, -34223.53824657658, -16814.636208371667, -35118.077411422426, -10506.392777728173, -38892.46003537894, -42722.05146814007, -35920.01329898993, -21839.911859024985, -33476.98998176932, -44361.328406492285, 0.018000000000000002, 0.96, -0.098, 192.0, 0.0, 0.0, 0.0, 0.0, 0.0, 0.0, 0.0, 0.0, 0.0, 1.6689763654000912E9, 0.0, 2022-11-20 15:32:45.400
84.0, -25889.98089909326, -2728.25392821478, -46146.47282915984, -46134.98403250981, -34660.40309195556, -37584.63711555447, -34277.49535769169, -16861.552519983354, -35196.93436586075, -10577.314862884863, -38991.18769063803, -42809.73736163823, -36007.54273027691, -21925.29552284426, -33560.38434033207, -44439.11247719675, 0.018000000000000002, 0.96, -0.098, 192.0, 0.0, 0.0, 0.0, 0.0, 0.0, 0.0, 0.0, 0.0, 0.0, 1.668976365400096E9, 0.0, 2022-11-20 15:32:45.400
86.0, -25819.77406975914, -2622.8207496190967, -46085.20669760784, -46103.51277631674, -34608.30117563024, -37538.83839116555, -34227.36039487844, -16815.016188027406, -35112.86945496433, -10508.426786473607, -38901.57954711671, -42730.23220661071, -35920.974424001506, -21836.469690378868, -33487.696467363414, -44361.84249661476, 0.018000000000000002, 0.958, -0.096, 192.0, 0.0, 72.0, 14.5, 112.0, 126.5, 8.0, 0.0, 0.0, 0.0, 1.6689763654001007E9, 0.0, 2022-11-20 15:32:45.400
88.0, -25904.241312055747, -2732.0537247721822, -46153.33481470762, -46179.84398363161, -34679.67029567603, -37618.43295317089, -34297.88014863493, -16890.319215097334, -35196.35322050491, -10594.123374715255, -38986.627934769145, -42819.86270187649, -36009.688497744624, -21937.209002638938, -33569.48150032538, -44460.257227451475, 0.018000000000000002, 0.958, -0.096, 192.0, 0.0, 0.0, 0.0, 0.0, 0.0, 0.0, 0.0, 0.0, 0.0, 1.6689763654001052E9, 0.0, 2022-11-20 15:32:45.400
90.0, -25837.096671712003, -2655.0966686125603, -46093.00745642275, -46121.12595094752, -34608.30117563024, -37562.82181296609, -34232.61305482544, -16829.701284134542, -35148.52048737055, -10551.833874205813, -38927.59697766268, -42768.721910562745, -35950.88105808271, -21885.531769458266, -33523.39220325854, -44420.7840467434, 0.018000000000000002, 0.958, -0.096, 192.0, 0.0, 0.0, 0.0, 0.0, 0.0, 0.0, 0.0, 0.0, 0.0, 1.66897636540011E9, 0.0, 2022-11-20 15:32:45.400
92.0, -25931.018701913203, -2738.938062064417, -46190.46106224788, -46207.89542292302, -34696.25529006187, -37652.698177420876, -34322.355308813494, -16918.571820088844, -35200.35418276241, -10588.401328134696, -38995.166301151075, -42822.276690277664, -36010.62727101175, -21946.842604499176, -33577.483424840386, -44479.7479486165, 0.018000000000000002, 0.958, -0.096, 192.0, 0.0, 0.0, 0.0, 0.0, 0.0, 0.0, 0.0, 0.0, 0.0, 1.6689763654001143E9, 0.0, 2022-11-20 15:32:45.400
94.0, -25829.944113486305, -2663.4785727833, -46097.34369484708, -46113.92868923291, -34605.01546919531, -37559.44669955334, -34231.16019143584, -16828.069606789304, -35160.12104274285, -10564.283795867419, -38948.18293430602, -42784.68105610384, -35965.96848559004, -21903.34610978915, -33548.82848844868, -44444.63335807721, 0.018000000000000002, 0.958, -0.096, 192.0, 0.0, 0.0, 0.0, 0.0, 0.0, 0.0, 0.0, 0.0, 0.0, 1.6689763654001193E9, 0.0, 2022-11-20 15:32:45.400
96.0, -25905.872989400985, -2703.577602336121, -46179.93339060943, -46192.07038784867, -34694.02011561634, -37641.298787748674, -34316.16387559937, -16912.760366530463, -35173.28622022703, -10577.270159395954, -38970.51232701687, -42802.13776852343, -35991.650639969186, -21927.709511245434, -33562.55245954424, -44456.77035531645, 0.018000000000000002, 0.958, -0.094, 192.0, 0.0, 72.0, 14.5, 120.0, 126.5, 16.0, 0.0, 0.0, 0.0, 1.6689763654001238E9, 0.0, 2022-11-20 15:32:45.400
98.0, -25819.103517425483, -2659.6340727369875, -46080.31166557213, -46081.04927313916, -34602.60148079413, -37542.90640865641, -34223.650005298856, -16818.81598458481, -35161.685664854725, -10566.47426682404, -38945.41131799356, -42779.0484165011, -35971.17644204813, -21905.737746445866, -33551.331883827675, -44436.5867300733, 0.018000000000000002, 0.958, -0.094, 192.0, 0.0, 0.0, 0.0, 0.0, 0.0, 0.0, 0.0, 0.0, 0.0, 1.6689763654001284E9, 0.0, 2022-11-20 15:32:45.400
100.0, -25907.99640512424, -2680.734119502797, -46168.824573615144, -46175.3512829961, -34691.18144407051, -37636.202590012865, -34313.951052898294, -16911.575724074333, -35148.4981356261, -10540.523891511428, -38942.81851563675, -42766.017349483656, -35968.20366003557, -21900.23921730986, -33537.78672668776, -44422.907462466654, 0.018000000000000002, 0.958, -0.094, 192.0, 0.0, 0.0, 0.0, 0.0, 0.0, 0.0, 0.0, 0.0, 0.0, 1.6689763654001331E9, 0.0, 2022-11-20 15:32:45.400
102.0, -25857.63792486643, -2697.8332040111072, -46104.451549583864, -46101.36700884903, -34617.018355967804, -37562.41948156589, -34245.42060439833, -16841.078322062294, -35188.64186866783, -10584.37801413274, -38970.132347361134, -42798.96382081078, -35989.415465523656, -21921.942761175964, -33565.1229101566, -44455.161029715666, 0.018000000000000002, 0.958, -0.094, 192.0, 0.0, 0.0, 0.0, 0.0, 0.0, 0.0, 0.0, 0.0, 0.0, 1.6689763654001389E9, 0.0, 2022-11-20 15:32:45.400
104.0, -25909.292806302645, -2661.3775088045013, -46176.26770451877, -46184.04611158921, -34689.05802834726, -37634.6826713899, -34315.06864012106, -16911.374558374235, -35170.44754868121, -10554.76195272946, -38963.31506530226, -42785.61982937096, -35975.17740430563, -21908.46465926941, -33549.655502993526, -44441.79468653139, 0.018000000000000002, 0.958, -0.094, 192.0, 0.0, 0.0, 0.0, 0.0, 0.0, 0.0, 0.0, 0.0, 0.0, 1.668976365879845E9, 0.0, 2022-11-20 15:32:45.879
106.0, -25806.87711320843, -2656.035441879683, -46062.49732524125, -46052.34963325854, -34572.22546007937, -37507.791818117126, -34197.90079568634, -16788.41761212559, -35170.04521728101, -10553.622013762239, -38956.38602452112, -42781.305942691084, -35967.041369323895, -21894.628929451577, -33550.169593116, -44437.59255857379, 0.02, 0.962, -0.092, 192.0, 0.0, 88.0, 15.0, 24.0, 126.5, 24.0, 0.0, 0.0, 0.0, 1.6689763658798788E9, 0.0, 2022-11-20 15:32:45.879
108.0, -25891.031431082658, -2640.1880550608703, -46162.72254737885, -46168.46694570386, -34687.67222019103, -37621.89747356147, -34302.05992484807, -16896.309482611356, -35127.26397839355, -10497.608542157239, -38919.93032931451, -42730.03104091061, -35934.13960148569, -21850.595992874623, -33506.13665653904, -44392.82201442981, 0.02, 0.962, -0.092, 192.0, 0.0, 0.0, 0.0, 0.0, 0.0, 0.0, 0.0, 0.0, 0.0, 1.6689763658799107E9, 0.0, 2022-11-20 15:32:45.879
110.0, -25854.30751494259, -2711.7583408067635, -46102.574003049616, -46104.65271528396, -34624.3720798936, -37561.592467021044, -34241.10671771845, -16833.434025458577, -35203.12579907486, -10592.625807836748, -38988.61724002567, -42806.406951714394, -36004.92757617564, -21930.43642406898, -33583.04900920975, -44476.752814859494, 0.02, 0.962, -0.092, 192.0, 0.0, 0.0, 0.0, 0.0, 0.0, 0.0, 0.0, 0.0, 0.0, 1.6689763658799465E9, 0.0, 2022-11-20 15:32:45.879
112.0, -25884.661183912896, -2626.4640839653116, -46164.06365204616, -46190.21519305887, -34684.833548645205, -37636.761383624245, -34302.41755275936, -16904.132593170714, -35141.74790880059, -10526.710513438049, -38929.18395151901, -42746.48192482971, -35947.23772373649, -21878.80389437722, -33523.77218291428, -44426.79666600188, 0.02, 0.962, -0.092, 192.0, 0.0, 0.0, 0.0, 0.0, 0.0, 0.0, 0.0, 0.0, 0.0, 1.6689763658800004E9, 0.0, 2022-11-20 15:32:45.880
114.0, -25845.836203794028, -2705.2763349147244, -46109.771264764226, -46120.90243350297, -34623.56741709321, -37577.551612562136, -34244.124203219915, -16843.022923829903, -35202.05291534101, -10586.724947300549, -38988.41607432557, -42810.83259711655, -36008.280337843935, -21944.49567133137, -33593.80019829276, -44498.836338381334, 0.02, 0.962, -0.092, 192.0, 0.0, 0.0, 0.0, 0.0, 0.0, 0.0, 0.0, 0.0, 0.0, 1.6689763658800788E9, 0.0, 2022-11-20 15:32:45.880
116.0, -25860.83422432354, -2611.1084355245157, -46151.09964026209, -46181.2521435323, -34676.20577528546, -37630.92757832141, -34292.225157287736, -16894.074308165826, -35115.93164395471, -10503.241181759975, -38904.39586691807, -42725.71715423073, -35924.37188915871, -21857.726199355868, -33511.121095552575, -44413.81030247334, 0.020999999999999998, 0.965, -0.089, 192.0, 0.0, 88.0, 15.0, 32.0, 126.5, 40.0, 0.0, 0.0, 0.0, 1.668976365880085E9, 0.0, 2022-11-20 15:32:45.880
118.0, -25864.96929704777, -2735.3394312071123, -46128.68084057341, -46141.73425933532, -34650.724786606406, -37601.49033087377, -34269.31461922105, -16866.961642141538, -35213.429953268766, -10594.86098228228, -38998.69787677501, -42821.87435887747, -36018.495085060014, -21950.62004931212, -33599.58930010668, -44503.68666692814, 0.020999999999999998, 0.965, -0.089, 192.0, 0.0, 0.0, 0.0, 0.0, 0.0, 0.0, 0.0, 0.0, 0.0, 1.66897636588009E9, 0.0, 2022-11-20 15:32:45.880
120.0, -25849.814814307072, -2611.980153558273, -46140.97430002383, -46167.639931159014, -34661.833603600695, -37617.53888339268, -34279.73053213722, -16881.982014415506, -35126.52637082653, -10506.906867850646, -38914.342393200684, -42737.65298576987, -35931.21152296204, -21863.984687803353, -33511.8587031196, -44417.051305419365, 0.020999999999999998, 0.965, -0.089, 192.0, 0.0, 0.0, 0.0, 0.0, 0.0, 0.0, 0.0, 0.0, 0.0, 1.6689763658800952E9, 0.0, 2022-11-20 15:32:45.880
122.0, -25848.4513578953, -2724.610593868565, -46114.576889822114, -46118.62255556852, -34620.594635080655, -37571.62840028148, -34244.43712764229, -16839.67016216161, -35208.71373518869, -10588.602493834793, -38995.68039127355, -42822.276690277664, -36007.63213725473, -21938.86303172863, -33586.558233089236, -44490.297971999404, 0.020999999999999998, 0.965, -0.089, 192.0, 0.0, 0.0, 0.0, 0.0, 0.0, 0.0, 0.0, 0.0, 0.0, 1.6689763658801003E9, 0.0, 2022-11-20 15:32:45.880
124.0, -25830.659369308876, -2613.164796014404, -46118.06376195714, -46141.80131456868, -34629.84825728515, -37586.20173766634, -34252.796680068575, -16849.348467510757, -35092.30585006545, -10485.985635040479, -38879.29485789476, -42711.50144475716, -35889.860795719724, -21817.068376191663, -33476.744112580316, -44370.716139163516, 0.020999999999999998, 0.965, -0.089, 192.0, 0.0, 0.0, 0.0, 0.0, 0.0, 0.0, 0.0, 0.0, 0.0, 1.6689763658801053E9, 0.0, 2022-11-20 15:32:45.880
126.0, -25887.79042813664, -2764.687271676931, -46149.24444547229, -46162.409622956475, -34656.49153667588, -37611.21333971183, -34282.92683159433, -16875.4329532901, -35219.420220782784, -10605.902744043202, -39006.833911756745, -42836.827675918066, -36018.20451238209, -21942.908697475043, -33600.03633499579, -44493.36016098978, 0.0195, 0.9635, -0.0875, 192.0, 0.0, 72.0, 15.0, 8.0, 126.5, 40.0, 0.0, 0.0, 0.0, 1.6689763658801103E9, 0.0, 2022-11-20 15:32:45.880
128.0, -25835.86732576696, -2633.3484212575463, -46116.07445670062, -46142.91890179145, -34624.014451982315, -37577.261039884215, -34247.00757825465, -16842.218261029513, -35124.51471382555, -10515.445234232573, -38912.71071585545, -42748.22536089723, -35920.77325830141, -21844.404559660503, -33507.29894725072, -44398.34289531027, 0.0195, 0.9635, -0.0875, 192.0, 0.0, 0.0, 0.0, 0.0, 0.0, 0.0, 0.0, 0.0, 0.0, 1.6689763658801153E9, 0.0, 2022-11-20 15:32:45.880
