%OpenBCI Raw EEG Data
%Number of channels = 16
%Sample Rate = 125 Hz
%Board = OpenBCI_GUI$BoardCytonSerialDaisy
Sample Index, EXG Channel 0, EXG Channel 1, EXG Channel 2, EXG Channel 3, EXG Channel 4, EXG Channel 5, EXG Channel 6, EXG Channel 7, EXG Channel 8, EXG Channel 9, EXG Channel 10, EXG Channel 11, EXG Channel 12, EXG Channel 13, EXG Channel 14, EXG Channel 15, Accel Channel 0, Accel Channel 1, Accel Channel 2, Other, Other, Other, Other, Other, Other, Other, Analog Channel 0, Analog Channel 1, Analog Channel 2, Timestamp, Other, Timestamp (Formatted)
30.0, -22333.863059742816, -18955.866271956715, -49378.53507739724, -52497.7433678798, -20678.872845038517, -33486.377714440554, -49110.090626489, -32903.42186730169, -9466.880198345209, -51512.43376880095, -53095.80899427045, -59195.108317745726, -49844.05485916792, -43709.216262008704, -45764.906199563295, -44892.987000106215, 0.0, 0.0, 0.0, 192.0, 0.0, 0.0, 0.0, 0.0, 0.0, 0.0, 0.0, 0.0, 0.0, 1.6581657130775187E9, 0.0, 2022-07-18 13:35:13.077
32.0, -22399.823057630427, -18897.97525381747, -49476.88275300059, -52594.63818009355, -20757.64039249902, -33545.43102329147, -49179.02340638917, -32943.69971081015, -9453.804427838853, -51520.390989827036, -53085.32602612091, -59188.31338743131, -49835.27062359698, -43696.65458162482, -45748.36590866636, -44880.24650576669, 0.047, 0.47700000000000004, 0.07200000000000001, 192.0, 1.0, 120.0, 14.5, 104.0, 2.0, 64.0, 0.0, 0.0, 0.0, 1.658165713077525E9, 0.0, 2022-07-18 13:35:13.077
34.0, -22346.648257571254, -18968.450304085054, -49392.4602141929, -52517.45760648938, -20685.220740463825, -33490.937470309436, -49115.455045158276, -32903.57832951288, -9486.102698576773, -51549.403554130025, -53117.065503247446, -59219.69523664656, -49868.95470249113, -43727.3211750175, -45779.14426078132, -44909.03555262513, 0.047, 0.47700000000000004, 0.07200000000000001, 192.0, 0.0, 0.0, 0.0, 0.0, 0.0, 0.0, 0.0, 0.0, 0.0, 1.65816571307753E9, 0.0, 2022-07-18 13:35:13.077
36.0, -22397.00673782906, -18892.588483403742, -49473.59704656566, -52593.78881380425, -20757.05924714318, -33541.184191844965, -49200.74930199973, -32953.80269930395, -9450.295203959371, -51520.63685901605, -53081.90620921925, -59187.79929730884, -49835.58354801936, -43693.74885484563, -45751.58455986793, -44883.88984011291, 0.047, 0.47700000000000004, 0.07200000000000001, 192.0, 0.0, 0.0, 0.0, 0.0, 0.0, 0.0, 0.0, 0.0, 0.0, 1.6581657130775352E9, 0.0, 2022-07-18 13:35:13.077
38.0, -22343.18373718068, -18951.93236493258, -49390.98499905885, -52519.13398732353, -20689.512275399244, -33498.604118657604, -49124.77572259614, -32911.04381216095, -9489.723681178533, -51555.572635599696, -53121.804073071966, -59225.238469271484, -49875.74963280554, -43739.636986212376, -45798.389112757344, -44928.302756345605, 0.047, 0.47700000000000004, 0.07200000000000001, 192.0, 0.0, 0.0, 0.0, 0.0, 0.0, 0.0, 0.0, 0.0, 0.0, 1.6581657130775404E9, 0.0, 2022-07-18 13:35:13.077
40.0, -22377.225443986114, -18879.132733241648, -49455.78270623478, -52581.45065086492, -20735.176889321436, -33534.545723741736, -49172.630807474954, -32953.51212662603, -9430.782131049888, -51482.214210297374, -53060.560293264425, -59167.079230198775, -49813.768245430976, -43679.80136630552, -45728.204635167676, -44872.62456090743, 0.047, 0.47700000000000004, 0.07200000000000001, 192.0, 0.0, 0.0, 0.0, 0.0, 0.0, 0.0, 0.0, 0.0, 0.0, 1.6581657130775454E9, 0.0, 2022-07-18 13:35:13.077
42.0, -22355.90187977575, -18962.303574359845, -49397.71287413989, -52535.98720264283, -20698.162400503446, -33512.462200219896, -49132.93410932233, -32924.79013500096, -9492.40589051317, -51555.79615304425, -53128.62135513084, -59236.973135110515, -49878.856525284835, -43744.442611270264, -45796.04217958954, -44937.04228842763, 0.07050000000000001, 0.7105, 0.10400000000000001, 192.0, 1.0, 120.0, 14.5, 64.0, 2.0, 32.0, 0.0, 0.0, 0.0, 1.6581657130775506E9, 0.0, 2022-07-18 13:35:13.077
44.0, -22379.43826668719, -18897.058832294802, -49436.537854258764, -52570.52064782628, -20723.084595571112, -33524.755659670314, -49165.21002831579, -32943.386786387775, -9441.890948044176, -51494.9547046369, -53064.60595901084, -59178.03158498187, -49809.432007006646, -43679.62255234987, -45723.33195487642, -44865.226133492724, 0.07050000000000001, 0.7105, 0.10400000000000001, 192.0, 0.0, 0.0, 0.0, 0.0, 0.0, 0.0, 0.0, 0.0, 0.0, 1.658165713077556E9, 0.0, 2022-07-18 13:35:13.077
46.0, -22370.51992064952, -18960.448379570054, -49414.521385970285, -52546.872502192564, -20711.796964621182, -33527.415517260495, -49164.651234704404, -32954.33914117088, -9487.108527077262, -51560.13239146858, -53130.23068073162, -59236.92843162161, -49873.268589171006, -43739.212303067725, -45796.712731923195, -44932.66134651439, 0.07050000000000001, 0.7105, 0.10400000000000001, 192.0, 0.0, 0.0, 0.0, 0.0, 0.0, 0.0, 0.0, 0.0, 0.0, 1.658165713077561E9, 0.0, 2022-07-18 13:35:13.077
48.0, -22373.42564742871, -18908.637035922653, -49435.82259843619, -52560.507066310296, -20710.634673909506, -33518.27365377828, -49145.920472850856, -32929.14872516975, -9434.894852029664, -51488.8526784006, -53068.4281073127, -59171.14724768964, -49799.306666768396, -43675.532183114556, -45726.01416421106, -44862.67803462482, 0.07050000000000001, 0.7105, 0.10400000000000001, 192.0, 0.0, 0.0, 0.0, 0.0, 0.0, 0.0, 0.0, 0.0, 0.0, 1.658165713077566E9, 0.0, 2022-07-18 13:35:13.077
50.0, -22365.267260702523, -18937.627248481185, -49418.67881043897, -52544.05618239119, -20707.95246457487, -33519.70416542341, -49149.005013585695, -32947.63361783429, -9486.572085210335, -51564.75920257082, -53137.85262559088, -59240.03532410089, -49876.37548165029, -43751.90809391834, -45802.59124071494, -44940.730326262754, 0.07050000000000001, 0.7105, 0.10400000000000001, 192.0, 0.0, 0.0, 0.0, 0.0, 0.0, 0.0, 0.0, 0.0, 0.0, 1.6581657130775712E9, 0.0, 2022-07-18 13:35:13.077
52.0, -22355.76776930902, -18904.2113905205, -49418.6117552056, -52543.60914750209, -20699.257635981758, -33502.69448789293, -49131.50359767718, -32921.68324252168, -9424.724808302499, -51468.82551536865, -53052.0219268825, -59155.34456435974, -49792.19881203161, -43660.578866073956, -45709.7867977365, -44848.14940072887, 0.08025, 0.82825, 0.11800000000000001, 192.0, 1.0, 104.0, 14.5, 72.0, 2.0, 16.0, 0.0, 0.0, 0.0, 1.6581657130775769E9, 0.0, 2022-07-18 13:35:13.077
54.0, -22376.398429441266, -18940.46592002701, -49438.32599381519, -52569.44776409242, -20722.794022893195, -33537.09382260965, -49166.908760894396, -32960.01648426252, -9491.02008235694, -51564.40157465954, -53137.539701168505, -59243.835120658296, -49884.39975790975, -43749.494105517166, -45804.78171167156, -44946.31826237658, 0.08025, 0.82825, 0.11800000000000001, 192.0, 0.0, 0.0, 0.0, 0.0, 0.0, 0.0, 0.0, 0.0, 0.0, 1.6581657130775833E9, 0.0, 2022-07-18 13:35:13.077
56.0, -22359.768731566517, -18925.713768686506, -49414.00729584781, -52545.24082484732, -20697.402441191967, -33509.89174960754, -49142.14302803791, -32942.202143931645, -9443.544977133868, -51480.31431201867, -53062.594302009864, -59165.3134423868, -49808.51558548398, -43675.48747962564, -45722.08025718692, -44858.47590666723, 0.08025, 0.82825, 0.11800000000000001, 192.0, 0.0, 0.0, 0.0, 0.0, 0.0, 0.0, 0.0, 0.0, 0.0, 1.65816571307759E9, 0.0, 2022-07-18 13:35:13.077
58.0, -22379.348859709367, -18931.97225713399, -49451.20059862144, -52580.24365666434, -20740.675418457442, -33551.06366289421, -49185.0583773921, -32965.80558607645, -9502.933562151618, -51576.69503410996, -53144.871073349845, -59245.91383289264, -49904.31516221943, -43764.447422557765, -45819.62326998988, -44950.65450080091, 0.08025, 0.82825, 0.11800000000000001, 192.0, 0.0, 0.0, 0.0, 0.0, 0.0, 0.0, 0.0, 0.0, 0.0, 1.6581657130775967E9, 0.0, 2022-07-18 13:35:13.077
60.0, -22342.691998802664, -18923.053911096325, -49396.99761831732, -52522.21852805836, -20682.449124151364, -33492.591499399125, -49130.45306568778, -32918.10696340883, -9441.399209666159, -51468.71375664637, -53057.65456648524, -59154.51754981489, -49815.779902431954, -43669.34074990043, -45726.81882701145, -44856.33013919951, 0.08025, 0.82825, 0.11800000000000001, 192.0, 0.0, 0.0, 0.0, 0.0, 0.0, 0.0, 0.0, 0.0, 0.0, 1.6581657130776036E9, 0.0, 2022-07-18 13:35:13.077
62.0, -22386.61317665734, -18912.146259802135, -49454.12867714509, -52576.22034266238, -20734.238116054312, -33544.69341572445, -49198.849403721026, -32993.81232187895, -9491.73533817951, -51551.12463845309, -53129.33661095341, -59224.97024833802, -49895.17329873721, -43737.84884665595, -45803.01592385959, -44935.32120410457, 0.08025, 0.82825, 0.11800000000000001, 192.0, 0.0, 0.0, 0.0, 0.0, 0.0, 0.0, 0.0, 0.0, 0.0, 1.6581657130776143E9, 0.0, 2022-07-18 13:35:13.077
64.0, -22333.61719055381, -18928.619495465697, -49381.19493498742, -52502.45958595986, -20661.974926230305, -33477.012333513776, -49116.23735621421, -32897.92333816568, -9450.004631281452, -51477.58739919512, -53069.098659646355, -59163.83822725275, -49823.401847291214, -43676.49330812613, -45730.86449275786, -44861.02400553513, 0.082, 0.9580000000000001, 0.126, 192.0, 1.0, 72.0, 14.5, 120.0, 1.5, 120.0, 0.0, 0.0, 0.0, 1.6581657130776212E9, 0.0, 2022-07-18 13:35:13.077
66.0, -22406.34976701138, -18914.64965518113, -49479.319093146216, -52601.79073831925, -20748.923212161448, -33558.61855252011, -49206.046665435635, -32992.31475500044, -9474.815067626843, -51540.44050460345, -53120.485320149106, -59217.37065522321, -49874.162658949215, -43727.72350641769, -45790.29778126452, -44917.43980854032, 0.082, 0.9580000000000001, 0.126, 192.0, 0.0, 0.0, 0.0, 0.0, 0.0, 0.0, 0.0, 0.0, 0.0, 1.65816571307763E9, 0.0, 2022-07-18 13:35:13.077
68.0, -22349.956315750638, -18957.4755975575, -49400.99858057482, -52531.11452235157, -20677.688202582383, -33502.62743265956, -49124.55220515159, -32932.36737637131, -9472.043451314385, -51503.73894020783, -53098.804128027456, -59193.67780610059, -49842.33377484486, -43707.36106721891, -45762.98394954013, -44895.62450595194, 0.082, 0.9580000000000001, 0.126, 192.0, 0.0, 0.0, 0.0, 0.0, 0.0, 0.0, 0.0, 0.0, 0.0, 1.6581657130776362E9, 0.0, 2022-07-18 13:35:13.077
70.0, -22395.41976397273, -18899.294006740332, -49473.15001167655, -52597.61096210611, -20746.86685167156, -33557.29979959724, -49202.73860725625, -32985.698638641676, -9477.050242072373, -51540.14993192553, -53123.86043356186, -59218.890573846176, -49877.470717128606, -43731.232730297175, -45794.81283364449, -44930.71674474678, 0.082, 0.9580000000000001, 0.126, 192.0, 0.0, 0.0, 0.0, 0.0, 0.0, 0.0, 0.0, 0.0, 0.0, 1.6581657130776415E9, 0.0, 2022-07-18 13:35:13.077
72.0, -22336.43351035518, -18952.289992843867, -49382.96072279939, -52507.46637671786, -20672.010859490736, -33490.49043542033, -49106.93903052081, -32912.54137903945, -9464.689727388588, -51496.29580930422, -53091.49510759057, -59181.65256758363, -49848.10052491433, -43694.821738579485, -45761.195809983714, -44893.7469594177, 0.082, 0.9580000000000001, 0.126, 192.0, 0.0, 0.0, 0.0, 0.0, 0.0, 0.0, 0.0, 0.0, 0.0, 1.6581657130776467E9, 0.0, 2022-07-18 13:35:13.077
74.0, -22392.424630215723, -18891.51559966989, -49481.68837805848, -52599.577915618174, -20753.237098841324, -33555.44460480745, -49198.156499642915, -32977.60730714885, -9460.01821279743, -51523.69904800643, -53103.16271819624, -59197.81287882482, -49858.29292038595, -43705.863500340405, -45780.26184800409, -44912.41066603788, 0.084, 0.96, 0.14200000000000002, 192.0, 1.0, 80.0, 15.0, 0.0, 2.0, 56.0, 0.0, 0.0, 0.0, 1.6581657130776517E9, 0.0, 2022-07-18 13:35:13.077
76.0, -22357.600612354352, -18975.915786733127, -49418.03060984977, -52540.03286838924, -20695.010804535246, -33514.58561594315, -49136.33157447953, -32926.265350135014, -9480.760631651954, -51530.29281262074, -53116.99844801408, -59211.35803596474, -49865.557237333924, -43713.485445199665, -45789.31430450849, -44920.881977186444, 0.084, 0.96, 0.14200000000000002, 192.0, 0.0, 0.0, 0.0, 0.0, 0.0, 0.0, 0.0, 0.0, 0.0, 1.658165713077657E9, 0.0, 2022-07-18 13:35:13.077
78.0, -22406.170953055735, -18897.03648055035, -49501.80494806826, -52621.3708664621, -20766.469331558863, -33561.323113599195, -49210.248793393235, -32968.17487098871, -9471.73052689201, -51539.03234470276, -53117.17726196972, -59215.806033111345, -49868.082984457375, -43714.804198122525, -45787.92849635226, -44921.239605097726, 0.084, 0.96, 0.14200000000000002, 192.0, 0.0, 0.0, 0.0, 0.0, 0.0, 0.0, 0.0, 0.0, 0.0, 1.658165713077662E9, 0.0, 2022-07-18 13:35:13.077
80.0, -22363.90380429075, -18978.75445827895, -49419.93050812847, -52553.242749362325, -20705.493772684786, -33522.58754045815, -49135.5492634236, -32933.686129294176, -9497.569143482346, -51544.06148720521, -53136.33270696792, -59232.41337924163, -49889.78652832348, -43739.59228272346, -45805.54167098304, -44940.03742218464, 0.084, 0.96, 0.14200000000000002, 192.0, 0.0, 0.0, 0.0, 0.0, 0.0, 0.0, 0.0, 0.0, 0.0, 1.6581657130776677E9, 0.0, 2022-07-18 13:35:13.077
82.0, -22400.67242391973, -18889.50394266891, -49494.89825903157, -52611.536098901764, -20764.524729791254, -33547.10740412562, -49194.088482152045, -32939.966969486115, -9465.181465766605, -51514.51248103529, -53099.60879082785, -59196.6729398576, -49855.230731395575, -43701.32609621598, -45771.477612433155, -44902.35238103299, 0.084, 0.96, 0.14200000000000002, 192.0, 0.0, 0.0, 0.0, 0.0, 0.0, 0.0, 0.0, 0.0, 0.0, 1.6581657130776727E9, 0.0, 2022-07-18 13:35:13.077
84.0, -22362.56269962343, -18968.584414551784, -49423.4173802635, -52546.15724636999, -20710.835839609605, -33505.041421060734, -49124.52985340713, -32909.12156213779, -9499.31257954986, -51546.72134479539, -53133.31522146645, -59226.780739638896, -49890.2782667015, -43726.38240175038, -45804.759359927106, -44928.23570111224, 0.08600000000000001, 0.9460000000000001, 0.14, 192.0, 1.0, 88.0, 14.5, 72.0, 2.0, 48.0, 0.0, 0.0, 0.0, 1.658165713077678E9, 0.0, 2022-07-18 13:35:13.077
86.0, -22395.62092967283, -18891.560303158796, -49492.41721539703, -52609.39033143406, -20768.90567170449, -33539.28429356626, -49174.95538889831, -32940.726928797594, -9449.490541158979, -51506.24233558683, -53083.11320341983, -59183.30659667333, -49841.21618762209, -43680.98600876165, -45751.07046974546, -44883.196936034794, 0.08600000000000001, 0.9460000000000001, 0.14, 192.0, 0.0, 0.0, 0.0, 0.0, 0.0, 0.0, 0.0, 0.0, 0.0, 1.6581657130776832E9, 0.0, 2022-07-18 13:35:13.077
88.0, -22383.126304522313, -18991.1820281961, -49444.0703921402, -52571.14649667103, -20738.820223667648, -33529.1142498391, -49143.752353638694, -32904.382992313265, -9517.462196047569, -51582.01474929032, -53155.55520719948, -59255.61448998624, -49916.38510422529, -43762.59222776797, -45828.519264283095, -44960.33280615006, 0.08600000000000001, 0.9460000000000001, 0.14, 192.0, 0.0, 0.0, 0.0, 0.0, 0.0, 0.0, 0.0, 0.0, 0.0, 1.6581657130776882E9, 0.0, 2022-07-18 13:35:13.077
90.0, -22397.565531440443, -18908.12294580018, -49474.66993029952, -52602.05895925271, -20759.607346011086, -33542.21237208991, -49169.4568597623, -32914.03894591796, -9451.993936537974, -51506.57761175366, -53076.54179054997, -59181.540808861355, -49834.62242300778, -43697.90627931432, -45740.0957632179, -44884.091005813, 0.08600000000000001, 0.9460000000000001, 0.14, 192.0, 0.0, 0.0, 0.0, 0.0, 0.0, 0.0, 0.0, 0.0, 0.0, 1.6581657130776937E9, 0.0, 2022-07-18 13:35:13.077
92.0, -22370.452865416155, -18971.71365877553, -49426.3678105316, -52552.54984528421, -20726.213839794855, -33523.213389302895, -49136.64449890191, -32905.23235860257, -9493.83640215831, -51565.697975837946, -53136.60092790138, -59238.046018844376, -49895.553278392945, -43756.73607072068, -45805.00522911611, -44953.113192690995, 0.08600000000000001, 0.9460000000000001, 0.14, 192.0, 0.0, 0.0, 0.0, 0.0, 0.0, 0.0, 0.0, 0.0, 0.0, 1.6581657130776987E9, 0.0, 2022-07-18 13:35:13.077
94.0, -22392.692851149186, -18920.528163972875, -49468.88082848559, -52587.59738059013, -20750.465482528864, -33538.72549995488, -49160.4044032579, -32934.11081243883, -9440.996878265963, -51494.86529765908, -53069.54569453546, -59170.208474422514, -49826.79931244842, -43680.53897387254, -45725.678888044225, -44876.31259874256, 0.08600000000000001, 0.9460000000000001, 0.14200000000000002, 192.0, 1.0, 88.0, 14.5, 72.0, 2.0, 56.0, 0.0, 0.0, 0.0, 1.6581657130777056E9, 0.0, 2022-07-18 13:35:13.077
96.0, -22387.775467369018, -18976.36282162223, -49455.4250783235, -52577.82966826316, -20757.752151221295, -33551.890677439056, -49162.550170725604, -32933.954350227636, -9508.297980820893, -51585.59102840317, -53150.61547167486, -59251.591175984286, -49911.579479167405, -43767.50961154814, -45819.4668077787, -44970.94988476633, 0.08600000000000001, 0.9460000000000001, 0.14200000000000002, 192.0, 0.0, 0.0, 0.0, 0.0, 0.0, 0.0, 0.0, 0.0, 0.0, 1.6581657130777109E9, 0.0, 2022-07-18 13:35:13.077
98.0, -22376.621946885818, -18922.003379106925, -49452.94403468896, -52571.37001411558, -20746.57627899364, -33518.743040411835, -49149.92143510836, -32894.07883811937, -9449.289375458882, -51493.18891682493, -53067.77990672349, -59167.6156720657, -49829.59328050534, -43680.628380850365, -45733.07731545893, -44877.541944687604, 0.08600000000000001, 0.9460000000000001, 0.14200000000000002, 192.0, 0.0, 0.0, 0.0, 0.0, 0.0, 0.0, 0.0, 0.0, 0.0, 1.658165713077716E9, 0.0, 2022-07-18 13:35:13.077
100.0, -22368.396504926266, -18950.501853287442, -49434.63795598006, -52563.569255300674, -20741.39067428001, -33525.15799107051, -49151.307243264586, -32914.37422208479, -9499.111413849761, -51564.06629849271, -53133.11405576635, -59234.335629264795, -49895.285057459485, -43746.208399082236, -45805.42991226076, -44948.66519554439, 0.08600000000000001, 0.9460000000000001, 0.14200000000000002, 192.0, 0.0, 0.0, 0.0, 0.0, 0.0, 0.0, 0.0, 0.0, 0.0, 1.658165713077721E9, 0.0, 2022-07-18 13:35:13.077
102.0, -22369.491740404577, -18939.929478160084, -49441.20936884992, -52571.772345515776, -20739.066092856658, -33525.09093583714, -49146.99335658472, -32926.10888792382, -9438.605241609244, -51479.57670445165, -53055.48644727307, -59158.049125438825, -49820.697286212126, -43673.989912747136, -45719.599213552385, -44867.327197471524, 0.08600000000000001, 0.9460000000000001, 0.14200000000000002, 192.0, 0.0, 0.0, 0.0, 0.0, 0.0, 0.0, 0.0, 0.0, 0.0, 1.6581657130777264E9, 0.0, 2022-07-18 13:35:13.077
104.0, -22391.888188348796, -18952.625269010696, -49459.202523136446, -52586.859773023105, -20761.864872201073, -33554.99756991835, -49174.664816220386, -32960.9776092741, -9515.249373346493, -51585.09929002515, -53153.36473624286, -59252.35113529577, -49919.91667984923, -43774.52805930711, -45822.05961013551, -44977.90127729193, 0.092, 0.9500000000000001, 0.14400000000000002, 192.0, 1.0, 112.0, 14.5, 88.0, 2.0, 64.0, 0.0, 0.0, 0.0, 1.6581657130777316E9, 0.0, 2022-07-18 13:35:13.077
106.0, -22365.33431593589, -18942.544632261353, -49426.054886109225, -52552.035755161734, -20728.38195900702, -33508.684755406946, -49130.96715581026, -32893.29652706344, -9446.67422135761, -51478.48146897334, -53062.43783979867, -59156.39509634914, -49824.318268813884, -43672.60410459091, -45726.26003340007, -44875.19501151979, 0.092, 0.9500000000000001, 0.14400000000000002, 192.0, 0.0, 0.0, 0.0, 0.0, 0.0, 0.0, 0.0, 0.0, 0.0, 1.6581657130777366E9, 0.0, 2022-07-18 13:35:13.077
108.0, -22398.996043085583, -18946.299725329845, -49469.529029074794, -52597.767424317295, -20771.051439172203, -33564.608820034126, -49177.235266832744, -32954.54030687098, -9495.155155081173, -51570.525952640295, -53136.51152092356, -59233.64272518668, -49898.19078423867, -43752.15396310735, -45809.564984984994, -44961.18217243936, 0.092, 0.9500000000000001, 0.14400000000000002, 192.0, 0.0, 0.0, 0.0, 0.0, 0.0, 0.0, 0.0, 0.0, 0.0, 1.6581657130777419E9, 0.0, 2022-07-18 13:35:13.077
110.0, -22365.982516525095, -18963.80114123835, -49415.54956621523, -52546.09019113662, -20718.658950168963, -33511.88105486406, -49125.8933098189, -32901.94665216764, -9457.336003462793, -51493.278323802755, -53071.534999791984, -59169.00148022193, -49828.76626596049, -43686.30572394201, -45729.43398111272, -44885.05213082459, 0.092, 0.9500000000000001, 0.14400000000000002, 192.0, 0.0, 0.0, 0.0, 0.0, 0.0, 0.0, 0.0, 0.0, 0.0, 1.6581657130777469E9, 0.0, 2022-07-18 13:35:13.077
112.0, -22421.77247068554, -18952.33469633278, -49486.89633451657, -52615.76057860382, -20786.2059219129, -33574.42123585001, -49194.9602001858, -32979.261336238545, -9505.436957530614, -51569.56482762872, -53143.03823030451, -59242.851643902264, -49901.90117381825, -43760.04412890007, -45805.00522911611, -44958.567018338086, 0.092, 0.9500000000000001, 0.14400000000000002, 192.0, 0.0, 0.0, 0.0, 0.0, 0.0, 0.0, 0.0, 0.0, 0.0, 1.658165713077752E9, 0.0, 2022-07-18 13:35:13.077
114.0, -22375.57141489642, -18989.729164806507, -49419.79639766174, -52548.72769698235, -20713.942732088894, -33515.189113043445, -49107.20725145427, -32901.90194867873, -9478.816029884343, -51511.67380948947, -53099.11705244983, -59197.343492191256, -49848.59226329235, -43714.75949463362, -45743.18030395274, -44900.27366879865, 0.09, 0.9520000000000001, 0.14, 192.0, 1.0, 104.0, 14.5, 96.0, 2.0, 48.0, 0.0, 0.0, 0.0, 1.658165713077757E9, 0.0, 2022-07-18 13:35:13.077
116.0, -22420.63253171832, -18941.382341549677, -49491.67960783, -52620.007410050326, -20780.595634054618, -33566.218145634906, -49191.62979026196, -32969.471272167124, -9495.669245203644, -51565.34034792666, -53140.49013143661, -59242.359905524245, -49892.289923702476, -43751.729279962696, -45791.79534814302, -44942.71963151928, 0.09, 0.9520000000000001, 0.14, 192.0, 0.0, 0.0, 0.0, 0.0, 0.0, 0.0, 0.0, 0.0, 0.0, 1.6581657130777628E9, 0.0, 2022-07-18 13:35:13.077
118.0, -22381.29346147698, -19004.369557424732, -49421.092798840145, -52559.523589554265, -20720.715310658852, -33517.91602586699, -49135.39280121241, -32938.75997528553, -9479.464230473546, -51522.3132398502, -53106.73899730909, -59209.435785941576, -49847.184103391664, -43715.452398711735, -45757.552475637494, -44912.27655557115, 0.09, 0.9520000000000001, 0.14, 192.0, 0.0, 0.0, 0.0, 0.0, 0.0, 0.0, 0.0, 0.0, 0.0, 1.658165713077768E9, 0.0, 2022-07-18 13:35:13.077
120.0, -22430.891982423305, -18948.825472453293, -49496.64169509908, -52634.78191313528, -20792.375003382567, -33572.63309629358, -49207.723046269784, -32975.43918793669, -9497.345626037792, -51564.24511244835, -53135.41628544525, -59242.33755377979, -49878.34243516236, -43747.84007642747, -45795.84101388944, -44948.46402984429, 0.09, 0.9520000000000001, 0.14, 192.0, 0.0, 0.0, 0.0, 0.0, 0.0, 0.0, 0.0, 0.0, 0.0, 1.658165713077773E9, 0.0, 2022-07-18 13:35:13.077
122.0, -22386.14379002378, -19020.641627388195, -49407.525289955774, -52553.06393540668, -20709.15945877546, -33507.94714783992, -49113.2422224572, -32919.64923377624, -9496.429204515125, -51536.70776327941, -53125.11213125136, -59227.116015805725, -49864.12672568879, -43732.84205589796, -45768.750699609605, -44928.10159064551, 0.09, 0.9520000000000001, 0.14, 192.0, 0.0, 0.0, 0.0, 0.0, 0.0, 0.0, 0.0, 0.0, 0.0, 1.658165713077778E9, 0.0, 2022-07-18 13:35:13.077
124.0, -22425.169935842747, -18941.136472360668, -49485.532878104794, -52619.38156120558, -20771.319660105666, -33550.43781404946, -49176.98939764374, -32943.99028348807, -9478.503105461969, -51548.353022140625, -53122.921660294734, -59226.24429777197, -49870.09464145835, -43733.80318090954, -45766.090842019425, -44920.07731438605, 0.09, 0.9520000000000001, 0.146, 192.0, 1.0, 104.0, 14.5, 96.0, 2.0, 72.0, 0.0, 0.0, 0.0, 1.6581657130777833E9, 0.0, 2022-07-18 13:35:13.077
126.0, -22384.310946978447, -19023.793223356395, -49409.1122638121, -52545.263176591776, -20710.56761867614, -33510.31643275219, -49116.37146668095, -32922.39849834424, -9490.707157934567, -51540.39580111454, -53125.40270392927, -59224.90319310465, -49873.49210661556, -43731.590358208465, -45771.09763277741, -44922.26778534267, 0.09, 0.9520000000000001, 0.146, 192.0, 0.0, 0.0, 0.0, 0.0, 0.0, 0.0, 0.0, 0.0, 0.0, 1.65816571307779E9, 0.0, 2022-07-18 13:35:13.077
128.0, -22437.418691804254, -18950.010114909426, -49496.26171544334, -52624.83538685267, -20785.870645746072, -33567.268677624306, -49203.90089796793, -32980.445978694675, -9480.134782807205, -51541.20046391493, -53118.5407183815, -59223.003294825954, -49866.63012106778, -43724.728372660684, -45768.52718216505, -44915.159930605885, 0.09, 0.9520000000000001, 0.146, 192.0, 0.0, 0.0, 0.0, 0.0, 0.0, 0.0, 0.0, 0.0, 0.0, 1.658165713077795E9, 0.0, 2022-07-18 13:35:13.077
130.0, -22376.376077696812, -19009.95749353856, -49401.244449763835, -52537.5518247547, -20705.091441284592, -33512.99864208682, -49115.76796958065, -32927.807620502426, -9505.727530208533, -51553.38216464307, -53136.690334879204, -59237.01783859943, -49879.79529855196, -43745.94017814877, -45784.128699794855, -44935.74588724922, 0.09, 0.9520000000000001, 0.146, 192.0, 0.0, 0.0, 0.0, 0.0, 0.0, 0.0, 0.0, 0.0, 0.0, 1.6581657130778E9, 0.0, 2022-07-18 13:35:13.077
132.0, -22422.53242999702, -18932.03931236736, -49488.2821426728, -52613.8159768362, -20781.176779410456, -33558.64090426456, -49203.23034563426, -32974.70158036966, -9466.567273922834, -51506.08587337564, -53092.00919771304, -59188.91688453161, -49840.23271086606, -43700.67789562677, -45744.67787083124, -44895.95978211877, 0.09, 0.9520000000000001, 0.146, 192.0, 0.0, 0.0, 0.0, 0.0, 0.0, 0.0, 0.0, 0.0, 0.0, 1.6581657130778053E9, 0.0, 2022-07-18 13:35:13.077
134.0, -22383.506284178053, -19009.890438305192, -49413.15792955851, -52540.56931025616, -20717.496659457287, -33520.084145079156, -49125.69214411881, -32932.36737637131, -9515.40583555768, -51561.13821996906, -53147.4415239622, -59238.7836264114, -49899.688351117176, -43758.12187887691, -45803.64177270434, -44953.89550374693, 0.093, 0.9510000000000001, 0.14200000000000002, 192.0, 1.5, 0.0, 14.5, 88.0, 2.0, 40.0, 0.0, 0.0, 0.0, 1.6581657130778105E9, 0.0, 2022-07-18 13:35:13.077
136.0, -22427.06983412145, -18940.152995604636, -49482.09070945868, -52607.624543622085, -20773.73364850684, -33558.28327635328, -49190.35574082801, -32978.61313564934, -9468.511875690447, -51511.96438216739, -53095.40666287025, -59186.88287578618, -49842.087905655855, -43702.53309041657, -45747.18126621023, -44895.40098850739, 0.093, 0.9510000000000001, 0.14200000000000002, 192.0, 0.0, 0.0, 0.0, 0.0, 0.0, 0.0, 0.0, 0.0, 0.0, 1.6581657130778158E9, 0.0, 2022-07-18 13:35:13.077
138.0, -22402.684080920706, -19014.293731962887, -49438.39304904855, -52570.38653735955, -20742.3965027805, -33543.0170348903, -49157.40926950089, -32972.95814430215, -9515.718759980055, -51574.25869396433, -53154.97406184365, -59250.85356841726, -49897.810804582936, -43764.11214639094, -45823.44541829174, -44970.05581498812, 0.093, 0.9510000000000001, 0.14200000000000002, 192.0, 0.0, 0.0, 0.0, 0.0, 0.0, 0.0, 0.0, 0.0, 0.0, 1.6581657130778208E9, 0.0, 2022-07-18 13:35:13.077
140.0, -22410.328377524424, -18937.493138014455, -49481.1295844471, -52607.065750010705, -20770.514997305276, -33545.676892480486, -49181.01271164569, -32937.39651887376, -9463.281567487904, -51506.845832687126, -53094.669055303224, -59190.43680315457, -49839.070420154385, -43700.208508993215, -45763.430984429244, -44900.2960205431, 0.093, 0.9510000000000001, 0.14200000000000002, 192.0, 0.0, 0.0, 0.0, 0.0, 0.0, 0.0, 0.0, 0.0, 0.0, 1.658165713077826E9, 0.0, 2022-07-18 13:35:13.077
142.0, -22401.275921020024, -19006.671787103627, -49452.2734823553, -52589.69844456893, -20749.68317147293, -33550.79544196075, -49164.383013770945, -32939.63169331929, -9524.771216484454, -51581.79123184577, -53169.1003643394, -59265.80688545787, -49913.85935710184, -43780.36186460994, -45843.85256097944, -44983.91389655041, 0.093, 0.9510000000000001, 0.14200000000000002, 192.0, 0.0, 0.0, 0.0, 0.0, 0.0, 0.0, 0.0, 0.0, 0.0, 1.658165713077831E9, 0.0, 2022-07-18 13:35:13.077
144.0, -22396.62675817332, -18939.1695188486, -49451.82644746619, -52586.65860732301, -20738.14967133399, -33527.52727598277, -49148.75914439668, -32904.673564991186, -9456.5313406624, -51489.43382375644, -53080.96743595212, -59178.83624778227, -49822.261908324, -43696.74398860264, -45736.586539338416, -44883.97924709073, 0.0955, 0.9485000000000001, 0.14400000000000002, 192.0, 1.5, 8.0, 14.5, 72.0, 2.0, 72.0, 0.0, 0.0, 0.0, 1.658165713077836E9, 0.0, 2022-07-18 13:35:13.077
146.0, -22409.1884385572, -18995.94294976508, -49444.20450260693, -52586.859773023105, -20741.860060913572, -33551.890677439056, -49149.8990833639, -32948.68414982368, -9512.053073889385, -51567.01672876081, -53148.42500071824, -59246.74084743749, -49893.25104871405, -43769.38715808239, -45804.24526980463, -44959.57284683858, 0.0955, 0.9485000000000001, 0.14400000000000002, 192.0, 0.0, 0.0, 0.0, 0.0, 0.0, 0.0, 0.0, 0.0, 0.0, 1.6581657130778413E9, 0.0, 2022-07-18 13:35:13.077
148.0, -22412.72001418114, -18968.89733897416, -49454.26278761182, -52587.6644358235, -20739.423720767943, -33545.49807852484, -49158.48215323474, -32939.11760319681, -9473.049279814873, -51500.743806450824, -53086.9800552106, -59185.36295716321, -49831.13555087275, -43703.80713985052, -45731.982079980626, -44892.0482268391, 0.0955, 0.9485000000000001, 0.14400000000000002, 192.0, 0.0, 0.0, 0.0, 0.0, 0.0, 0.0, 0.0, 0.0, 0.0, 1.6581657130778468E9, 0.0, 2022-07-18 13:35:13.077
150.0, -22418.710281695163, -18996.389984654186, -49468.210276151935, -52596.426319649974, -20763.78712222423, -33564.675875267494, -49180.029234889655, -32970.54415590098, -9535.544757311913, -51588.92143832701, -53172.698995196704, -59262.61058600075, -49923.805883384455, -43782.46292858874, -45820.18206360126, -44979.264733703705, 0.0955, 0.9485000000000001, 0.14400000000000002, 192.0, 0.0, 0.0, 0.0, 0.0, 0.0, 0.0, 0.0, 0.0, 0.0, 1.658165713077854E9, 0.0, 2022-07-18 13:35:13.077
0.0, -11217.781748507232, -9505.749881952988, -24736.42971949932, -26304.53870350584, -10394.879924640647, -16770.357402605703, -24591.210435773188, -16497.196733617395, -4751.198560142346, -25781.284365807103, -26570.703276479635, -29615.48025792602, -24950.22415521433, -21874.37824897507, -22899.25043573981, -22473.53911084403, 0.096, 0.9560000000000001, 0.14200000000000002, 192.0, 1.5, 0.0, 14.5, 112.0, 2.0, 56.0, 0.0, 0.0, 0.0, 1.6581657136403718E9, 0.0, 2022-07-18 13:35:13.640
2.0, -22425.706377709674, -19082.77947697395, -49448.11605788661, -52594.66053183801, -20788.776372525263, -33549.47668903788, -49183.85138319152, -33005.99402260709, -9552.107399953295, -51543.65915580501, -53160.96432935767, -59219.87405060221, -49961.490924536105, -43779.28898087609, -45833.50370329663, -44976.7166348358, 0.096, 0.9560000000000001, 0.14200000000000002, 192.0, 0.0, 0.0, 0.0, 0.0, 0.0, 0.0, 0.0, 0.0, 0.0, 1.6581657136404808E9, 0.0, 2022-07-18 13:35:13.640
4.0, -22403.95813035466, -19063.06523836437, -49420.84692965114, -52567.436107091446, -20761.417837311965, -33512.0598688197, -49166.03704286063, -32986.07861829741, -9496.518611492946, -51460.15303851999, -53087.002406955056, -59148.974317189975, -49869.692310058155, -43705.46116894021, -45753.998548269105, -44896.40681700788, 0.096, 0.9560000000000001, 0.14200000000000002, 192.0, 0.0, 0.0, 0.0, 0.0, 0.0, 0.0, 0.0, 0.0, 0.0, 1.6581657136404865E9, 0.0, 2022-07-18 13:35:13.640
6.0, -22439.25153484959, -19083.472381052063, -49450.239473609865, -52597.38744466155, -20791.279767904256, -33552.33771232816, -49181.996188401725, -33030.58094150793, -9546.74298128402, -51541.89336799304, -53162.216027047165, -59224.36675123772, -49941.30729929296, -43775.645646529876, -45832.54257828505, -44975.33082667957, 0.096, 0.9560000000000001, 0.14200000000000002, 192.0, 0.0, 0.0, 0.0, 0.0, 0.0, 0.0, 0.0, 0.0, 0.0, 1.6581657136405017E9, 0.0, 2022-07-18 13:35:13.640
8.0, -22429.684988222718, -19105.757070274005, -49423.752656430326, -52567.994900702826, -20758.4003518105, -33528.57780797217, -49141.85245535999, -32985.408065963755, -9506.26397207546, -51468.91492234647, -53104.41441588574, -59160.351355117724, -49872.26276067052, -43701.661372382805, -45754.60204536939, -44894.64102919591, 0.1, 0.9580000000000001, 0.15, 192.0, 1.5, 16.0, 14.5, 120.0, 2.0, 88.0, 0.0, 0.0, 0.0, 1.658165713640508E9, 0.0, 2022-07-18 13:35:13.640
10.0, -22463.570232816965, -19095.92230271367, -49479.050872212756, -52617.95104956043, -20806.34484366713, -33574.667105039014, -49200.950467699826, -33026.669386228255, -9566.881903038253, -51557.33842341166, -53190.71450122768, -59242.20344331306, -49945.50942725056, -43777.07615817501, -45841.05859292252, -44983.26569596121, 0.1, 0.9580000000000001, 0.15, 192.0, 0.0, 0.0, 0.0, 0.0, 0.0, 0.0, 0.0, 0.0, 0.0, 1.6581657136405132E9, 0.0, 2022-07-18 13:35:13.640
12.0, -22408.517886223544, -19104.281855139954, -49414.20846154791, -52546.96190917038, -20736.652104455487, -33493.664383132986, -49132.33061222203, -32961.089367996385, -9512.678922734132, -51467.5961694236, -53122.76519808355, -59171.77309653439, -49865.981920478574, -43691.71484610019, -45766.04613853051, -44897.814976908565, 0.1, 0.9580000000000001, 0.15, 192.0, 0.0, 0.0, 0.0, 0.0, 0.0, 0.0, 0.0, 0.0, 0.0, 1.6581657136405184E9, 0.0, 2022-07-18 13:35:13.640
14.0, -22458.2505176366, -19085.260520608488, -49500.642657356584, -52630.915061344516, -20828.94245731145, -33554.28231409578, -49223.816302277606, -33036.83942995542, -9537.109379423784, -51535.72428652338, -53177.28110281004, -59233.37450425321, -49926.599851441366, -43743.28032055859, -45846.44536333625, -44965.02667248567, 0.1, 0.9580000000000001, 0.15, 192.0, 0.0, 0.0, 0.0, 0.0, 0.0, 0.0, 0.0, 0.0, 0.0, 1.6581657136405237E9, 0.0, 2022-07-18 13:35:13.640
16.0, -22412.787069414506, -19128.175869962677, -49428.93826114396, -52563.14457215602, -20770.604404283098, -33499.36407796908, -49159.24211254622, -32982.50233918457, -9524.391236828713, -51490.08202434564, -53140.62424190334, -59202.08206201578, -49885.09266198787, -43711.36202947641, -45814.28120306507, -44926.84989295601, 0.1, 0.9580000000000001, 0.15, 192.0, 0.0, 0.0, 0.0, 0.0, 0.0, 0.0, 0.0, 0.0, 0.0, 1.6581657136405284E9, 0.0, 2022-07-18 13:35:13.640
18.0, -22449.153357643292, -19054.191595815613, -49493.19952645297, -52620.58855540616, -20835.022131803293, -33558.61855252011, -49220.59765107604, -33023.093107115405, -9527.498129308002, -51525.93422245196, -53155.42109673275, -59219.091739546275, -49917.8826711038, -43734.22786405419, -45841.88560746737, -44958.343500893534, 0.1, 0.96, 0.156, 192.0, 1.5, 16.0, 15.0, 0.0, 2.0, 112.0, 0.0, 0.0, 0.0, 1.6581657136405337E9, 0.0, 2022-07-18 13:35:13.640
20.0, -22396.04561281748, -19102.985453961548, -49407.36882774458, -52538.6023567441, -20762.803645468193, -33504.706144893906, -49132.5988331555, -32948.79590854596, -9516.679884991632, -51476.80508813919, -53122.005238772064, -59174.209436680016, -49886.09849048835, -43706.22112825169, -45798.09854007942, -44928.54862553461, 0.1, 0.96, 0.156, 192.0, 0.0, 0.0, 0.0, 0.0, 0.0, 0.0, 0.0, 0.0, 0.0, 1.6581657136405387E9, 0.0, 2022-07-18 13:35:13.640
22.0, -22457.06587518047, -19048.804825401883, -49506.78938708179, -52633.3737532346, -20857.910318125527, -33577.57283181821, -49231.25943318122, -33026.021185639045, -9542.339687626325, -51515.13832988004, -53153.543550198505, -59197.969341036005, -49929.818502642935, -43739.30171004555, -45831.78261897357, -44964.42317538538, 0.1, 0.96, 0.156, 192.0, 0.0, 0.0, 0.0, 0.0, 0.0, 0.0, 0.0, 0.0, 0.0, 1.6581657136405437E9, 0.0, 2022-07-18 13:35:13.640
24.0, -22386.09908653487, -19108.372224375275, -49410.743941157336, -52550.8064092167, -20772.25843337279, -33513.713897909394, -49134.2975657341, -32970.67826636771, -9537.534062568435, -51490.93139063494, -53135.88567207881, -59178.07628847078, -49915.64749665827, -43724.77307614959, -45814.08003736497, -44950.587445567544, 0.1, 0.96, 0.156, 192.0, 0.0, 0.0, 0.0, 0.0, 0.0, 0.0, 0.0, 0.0, 0.0, 1.6581657136405487E9, 0.0, 2022-07-18 13:35:13.640
26.0, -22431.987217901617, -19035.77375838444, -49496.306418932254, -52638.26878527031, -20840.90064059504, -33561.07724441019, -49199.07292116558, -32992.20299627817, -9516.79164371391, -51490.66316970148, -53124.888613806805, -59177.204570437025, -49909.00902855504, -43727.678802928785, -45804.93817388274, -44942.85374198601, 0.1, 0.96, 0.156, 192.0, 0.0, 0.0, 0.0, 0.0, 0.0, 0.0, 0.0, 0.0, 0.0, 1.6581657136405537E9, 0.0, 2022-07-18 13:35:13.640
28.0, -22399.621891930332, -19129.338160674353, -49422.836234907656, -52576.443860106934, -20791.30211964871, -33516.35140375512, -49140.48899894822, -32956.61901910532, -9538.27167013546, -51516.16651012499, -53147.77680012904, -59207.58059115179, -49917.21211877014, -43753.65152998585, -45827.78165671607, -44963.64086432944, 0.094, 0.9500000000000001, 0.152, 192.0, 1.0, 120.0, 14.5, 88.0, 2.0, 96.0, 0.0, 0.0, 0.0, 1.6581657136405587E9, 0.0, 2022-07-18 13:35:13.640
30.0, -22442.984276173625, -19049.54243296891, -49497.021674754826, -52646.0248405963, -20856.83743439167, -33553.16472687301, -49209.35472361502, -32984.26812699653, -9509.840251188309, -51499.93914365043, -53122.11699749434, -59189.721547331996, -49881.851659041844, -43723.476674971185, -45804.26762154909, -44935.924701204865, 0.094, 0.9500000000000001, 0.152, 192.0, 0.0, 0.0, 0.0, 0.0, 0.0, 0.0, 0.0, 0.0, 0.0, 1.658165713640564E9, 0.0, 2022-07-18 13:35:13.640
32.0, -22397.25260701807, -19129.964009519103, -49411.19097604644, -52563.725717511865, -20792.17383768247, -33504.415572215985, -49133.91758607836, -32948.59474284587, -9536.46117883458, -51531.87978647707, -53153.834122876426, -59222.53390819239, -49914.574612924414, -43754.6797102308, -45831.98378467367, -44964.75845155221, 0.094, 0.9500000000000001, 0.152, 192.0, 0.0, 0.0, 0.0, 0.0, 0.0, 0.0, 0.0, 0.0, 0.0, 1.658165713640569E9, 0.0, 2022-07-18 13:35:13.640
34.0, -22438.223354604645, -19049.67654343564, -49485.89050601608, -52625.75180837534, -20856.5245099693, -33542.27942732327, -49204.59380204604, -32988.24673750958, -9495.557486481368, -51483.130631820044, -53104.2356019301, -59170.14141918915, -49865.53488558947, -43701.72842761617, -45782.787595127535, -44912.23185208224, 0.094, 0.9500000000000001, 0.152, 192.0, 0.0, 0.0, 0.0, 0.0, 0.0, 0.0, 0.0, 0.0, 0.0, 1.658165713640574E9, 0.0, 2022-07-18 13:35:13.640
36.0, -22417.927970639226, -19141.005771280023, -49428.96061288841, -52575.058051950706, -20814.950265282427, -33513.40097348702, -49161.857266647494, -32975.081560025406, -9553.582615087345, -51538.89823423603, -53166.70872768268, -59225.68550416059, -49921.30248800546, -43760.08883238898, -45851.452154094244, -44969.65348358792, 0.094, 0.9500000000000001, 0.152, 192.0, 0.0, 0.0, 0.0, 0.0, 0.0, 0.0, 0.0, 0.0, 0.0, 1.6581657136405792E9, 0.0, 2022-07-18 13:35:13.640
38.0, -22443.565421529463, -19072.698840224606, -49485.84580252717, -52629.015163065815, -20855.585736702174, -33541.49711626734, -49202.336275856054, -32991.688906155694, -9506.196916842095, -51495.96053313739, -53111.61167760035, -59178.03158498187, -49862.47269659909, -43713.57485217749, -45789.984856842144, -44909.70610495879, 0.094, 0.9460000000000001, 0.146, 192.0, 1.0, 120.0, 14.5, 72.0, 2.0, 72.0, 0.0, 0.0, 0.0, 1.6581657136405861E9, 0.0, 2022-07-18 13:35:13.640
40.0, -22413.547028725985, -19134.724931088083, -49437.83425543717, -52585.98805498935, -20819.08533800666, -33536.19975283143, -49173.681339464354, -32996.62864168032, -9562.61271984729, -51565.005071759835, -53178.801021433, -59248.663097460645, -49921.995392083576, -43791.44832985978, -45858.96234023122, -44988.965390797304, 0.094, 0.9460000000000001, 0.146, 192.0, 0.0, 0.0, 0.0, 0.0, 0.0, 0.0, 0.0, 0.0, 0.0, 1.6581657136405916E9, 0.0, 2022-07-18 13:35:13.640
42.0, -22411.44596474719, -19045.183842800125, -49464.09755517216, -52605.72464534338, -20829.434195689464, -33532.69052895195, -49202.80566248961, -32997.14273180279, -9480.291245018392, -51464.31046298867, -53086.577723810406, -59157.87031148319, -49830.889681683744, -43695.380532190866, -45765.3532344524, -44905.34751479, 0.094, 0.9460000000000001, 0.146, 192.0, 0.0, 0.0, 0.0, 0.0, 0.0, 0.0, 0.0, 0.0, 0.0, 1.658165713640597E9, 0.0, 2022-07-18 13:35:13.640
44.0, -22388.982461569605, -19088.657985765694, -49422.903290141025, -52569.73833677034, -20796.82300052917, -33517.80426714471, -49155.33055726654, -32967.929001799705, -9532.728437510543, -51537.28890863525, -53157.65627117828, -59221.036341313884, -49914.105226290856, -43763.17337312381, -45839.58337778847, -44982.841012816556, 0.094, 0.9460000000000001, 0.146, 192.0, 0.0, 0.0, 0.0, 0.0, 0.0, 0.0, 0.0, 0.0, 0.0, 1.658165713640602E9, 0.0, 2022-07-18 13:35:13.640
46.0, -22407.445002489687, -19054.25865104898, -49454.03927016727, -52591.44188063644, -20817.945399039436, -33516.083182821654, -49162.66192944789, -32980.155406016755, -9470.121201291227, -51437.555424875674, -53074.17250563771, -59128.88009892465, -49836.58937651985, -43669.96659874518, -45742.889731274816, -44886.147366302896, 0.094, 0.9460000000000001, 0.146, 192.0, 0.0, 0.0, 0.0, 0.0, 0.0, 0.0, 0.0, 0.0, 0.0, 1.6581657136406076E9, 0.0, 2022-07-18 13:35:13.640
48.0, -22416.877438649826, -19094.469439324075, -49440.00237464933, -52576.66737755149, -20822.058120019214, -33524.286273036756, -49159.04094684612, -32985.5868799194, -9554.968423243574, -51533.10913242211, -53173.66012020828, -59220.18697502458, -49940.97202312613, -43766.34732083647, -45842.75732550112, -44982.79630932764, 0.092, 0.9500000000000001, 0.148, 192.0, 1.0, 112.0, 14.5, 88.0, 2.0, 80.0, 0.0, 0.0, 0.0, 1.6581657136406128E9, 0.0, 2022-07-18 13:35:13.640
50.0, -22414.463450248655, -19068.116732611266, -49438.39304904855, -52557.847208720115, -20815.710224593906, -33501.57690067016, -49159.555036968595, -32937.3741671293, -9490.863620145754, -51436.25902369726, -53081.9285609637, -59124.923840156065, -49855.61071105131, -43676.64977033732, -45746.3989551543, -44875.39617721989, 0.092, 0.9500000000000001, 0.148, 192.0, 0.0, 0.0, 0.0, 0.0, 0.0, 0.0, 0.0, 0.0, 0.0, 1.6581657136406186E9, 0.0, 2022-07-18 13:35:13.640
52.0, -22433.529488269032, -19087.78626773194, -49465.550418561754, -52578.03083396326, -20855.250460535342, -33540.44658427794, -49195.273124608175, -33002.35068826088, -9563.193865203128, -51524.302545106715, -53173.123678341355, -59211.38038770919, -49958.00405240108, -43761.161716122835, -45854.60375006244, -44971.486326633254, 0.092, 0.9500000000000001, 0.148, 192.0, 0.0, 0.0, 0.0, 0.0, 0.0, 0.0, 0.0, 0.0, 0.0, 1.658165713640624E9, 0.0, 2022-07-18 13:35:13.640
54.0, -22387.79781911347, -19056.136197583222, -49412.01799059129, -52526.51006299377, -20799.996948241824, -33486.735342351836, -49133.38114421143, -32947.097175967356, -9490.036605600906, -51419.65167756697, -53079.8274969849, -59121.213450576484, -49856.01304245151, -43666.83735452144, -45756.07726050344, -44882.66049416787, 0.092, 0.9500000000000001, 0.148, 192.0, 0.0, 0.0, 0.0, 0.0, 0.0, 0.0, 0.0, 0.0, 0.0, 1.6581657136406336E9, 0.0, 2022-07-18 13:35:13.640
56.0, -22404.136944310303, -19053.588098715318, -49437.7672002038, -52560.79763898822, -20828.92010556699, -33521.335842768654, -49169.97094988477, -32983.798740362974, -9527.185204885627, -51498.41922502747, -53140.13250352532, -59189.34156767626, -49919.55905193795, -43732.149151819845, -45822.864272935905, -44953.18024792436, 0.092, 0.9500000000000001, 0.148, 192.0, 0.0, 0.0, 0.0, 0.0, 0.0, 0.0, 0.0, 0.0, 0.0, 1.6581657136406388E9, 0.0, 2022-07-18 13:35:13.640
58.0, -22364.730818835596, -19063.266404064467, -49390.87324033657, -52520.07276059065, -20772.43724732843, -33473.12312997856, -49123.45696967327, -32936.21187641763, -9463.192160510083, -51410.643924551485, -53059.84503744186, -59110.77518591585, -49834.80123696342, -43655.08033693795, -45736.60889108288, -44865.449650937284, 0.088, 0.9520000000000001, 0.14200000000000002, 192.0, 1.0, 96.0, 14.5, 96.0, 2.0, 56.0, 0.0, 0.0, 0.0, 1.6581657136406443E9, 0.0, 2022-07-18 13:35:13.640
60.0, -22416.519810738544, -19055.555052227384, -49462.175305149, -52589.54198235774, -20828.718939866896, -33522.051098591226, -49192.36739782899, -32971.72879835711, -9522.848966461297, -51511.56205076719, -53142.47943669313, -59191.6214456107, -49914.19463326867, -43736.53009373308, -45818.88566242286, -44942.89844547492, 0.088, 0.9520000000000001, 0.14200000000000002, 192.0, 0.0, 0.0, 0.0, 0.0, 0.0, 0.0, 0.0, 0.0, 0.0, 1.65816571364065E9, 0.0, 2022-07-18 13:35:13.640
62.0, -22381.1817027547, -19092.614244534285, -49395.52240318328, -52522.397342014, -20751.20309009589, -33456.85106001509, -49105.62027759794, -32915.80473372993, -9491.422413757136, -51445.22207322384, -53093.12678493581, -59137.083189139754, -49853.37553660578, -43679.55549711651, -45748.65648134428, -44871.529325429125, 0.088, 0.9520000000000001, 0.14200000000000002, 192.0, 0.0, 0.0, 0.0, 0.0, 0.0, 0.0, 0.0, 0.0, 0.0, 1.6581657136406555E9, 0.0, 2022-07-18 13:35:13.640
64.0, -22443.96775292966, -19072.654136735695, -49482.91772400352, -52597.49920338383, -20829.098919522636, -33524.39803175903, -49182.130298868455, -32988.403199720764, -9532.728437510543, -51514.51248103529, -53157.70097466719, -59200.830364326284, -49920.45312171616, -43732.55148322004, -45808.939136140245, -44931.90138720291, 0.088, 0.9520000000000001, 0.14200000000000002, 192.0, 0.0, 0.0, 0.0, 0.0, 0.0, 0.0, 0.0, 0.0, 0.0, 1.6581657136406617E9, 0.0, 2022-07-18 13:35:13.640
66.0, -22390.569435425932, -19125.940695517147, -49400.596249174625, -52516.675295433444, -20763.116569890568, -33464.6965223189, -49106.71551307625, -32912.54137903945, -9511.896611678198, -51456.04031754021, -53117.71370383665, -59157.82560799427, -49874.386176393775, -43685.389302419346, -45760.65936811679, -44879.48654645521, 0.088, 0.9520000000000001, 0.14200000000000002, 192.0, 0.0, 0.0, 0.0, 0.0, 0.0, 0.0, 0.0, 0.0, 0.0, 1.6581657136406689E9, 0.0, 2022-07-18 13:35:13.640
68.0, -22429.237953333613, -19053.47633999304, -49467.65148254055, -52587.93265675696, -20837.54787892674, -33530.567113228695, -49194.60257227452, -32992.82884512292, -9513.908268679175, -51477.16271605047, -53126.766160341045, -59175.14820994714, -49902.01293254053, -43708.32219223049, -45791.68358942075, -44913.43884628282, 0.093, 0.9520000000000001, 0.14300000000000002, 192.0, 1.5, 8.0, 14.5, 96.0, 2.0, 64.0, 0.0, 0.0, 0.0, 1.6581657136406744E9, 0.0, 2022-07-18 13:35:13.640
70.0, -22373.582109639898, -19113.915457000192, -49381.038472776236, -52514.216603543355, -20770.939680449927, -33484.43311267294, -49126.407399941374, -32942.984454987585, -9505.146384852695, -51452.642852383, -53101.531040851005, -59151.544767802334, -49882.58926660887, -43701.57196540498, -45775.947961324215, -44911.40483753739, 0.093, 0.9520000000000001, 0.14300000000000002, 192.0, 0.0, 0.0, 0.0, 0.0, 0.0, 0.0, 0.0, 0.0, 0.0, 1.658165713640684E9, 0.0, 2022-07-18 13:35:13.640
72.0, -22421.14662184079, -19038.701836908083, -49459.8730754701, -52593.81116554871, -20844.521623196797, -33535.529200497775, -49199.45290082132, -32988.492606698586, -9505.794585441898, -51471.395965981006, -53109.68942757719, -59163.68176504157, -49905.008066297545, -43720.615651680906, -45791.28125802056, -44933.823637226065, 0.093, 0.9520000000000001, 0.14300000000000002, 192.0, 0.0, 0.0, 0.0, 0.0, 0.0, 0.0, 0.0, 0.0, 0.0, 1.658165713640689E9, 0.0, 2022-07-18 13:35:13.640
74.0, -22377.225443986114, -19120.173945447677, -49380.14440299802, -52516.809405900174, -20754.019409897257, -33478.755769581294, -49093.57268733653, -32935.6754345507, -9512.410701800669, -51465.18218102243, -53112.6845613342, -59160.23959639545, -49900.73888310658, -43714.4689219557, -45774.271580490065, -44924.860587699484, 0.093, 0.9520000000000001, 0.14300000000000002, 192.0, 0.0, 0.0, 0.0, 0.0, 0.0, 0.0, 0.0, 0.0, 0.0, 1.6581657136406944E9, 0.0, 2022-07-18 13:35:13.640
76.0, -22424.25351432008, -19040.691142164607, -49483.63297982609, -52604.56235463171, -20842.30880049572, -33536.17740108698, -49203.319752612086, -33002.79772314998, -9495.557486481368, -51462.56702692116, -53109.33179966591, -59153.578776547765, -49889.65241785675, -43702.48838692765, -45770.985874055135, -44915.159930605885, 0.093, 0.9520000000000001, 0.14300000000000002, 192.0, 0.0, 0.0, 0.0, 0.0, 0.0, 0.0, 0.0, 0.0, 0.0, 1.6581657136406996E9, 0.0, 2022-07-18 13:35:13.640
78.0, -22377.851292830863, -19122.92321001568, -49405.424225976974, -52532.0979991076, -20773.510131062285, -33486.95885979639, -49109.62123985544, -32943.36443464332, -9530.560318298378, -51484.739957420825, -53145.45221870569, -59188.671015342596, -49921.078970560906, -43737.98295712268, -45819.95854615671, -44947.18998041034, 0.0965, 0.9500000000000001, 0.14450000000000002, 192.0, 1.5, 16.0, 14.5, 80.0, 2.0, 72.0, 0.0, 0.0, 0.0, 1.6581657136407053E9, 0.0, 2022-07-18 13:35:13.640
80.0, -22425.57226724294, -19048.134273068223, -49474.155840177045, -52594.749938815825, -20829.881230578572, -33520.50882822381, -49182.17500235737, -32966.185565732194, -9481.945274108086, -51453.80514309468, -53097.2842094045, -59146.42621832207, -49866.473658856594, -43695.64875312433, -45770.360025210386, -44895.06571234056, 0.0965, 0.9500000000000001, 0.14450000000000002, 192.0, 0.0, 0.0, 0.0, 0.0, 0.0, 0.0, 0.0, 0.0, 0.0, 1.6581657136407115E9, 0.0, 2022-07-18 13:35:13.640
82.0, -22400.58301694191, -19148.068922527902, -49414.00729584781, -52532.58973748562, -20776.16998865247, -33498.51471167978, -49125.26746097416, -32968.063112266434, -9531.812015987876, -51512.09849263412, -53149.073201307445, -59199.019873025405, -49913.524080935014, -43749.069422372515, -45823.64658399184, -44950.22981765626, 0.0965, 0.9500000000000001, 0.14450000000000002, 192.0, 0.0, 0.0, 0.0, 0.0, 0.0, 0.0, 0.0, 0.0, 0.0, 1.6581657136407166E9, 0.0, 2022-07-18 13:35:13.640
84.0, -22421.34778754089, -19062.461741264076, -49467.18209590699, -52579.95308398642, -20814.458526904407, -33516.35140375512, -49180.655083734404, -32964.39742617577, -9479.575989195822, -51470.52424794725, -53093.10443319136, -59149.600166034725, -49863.612635566315, -43699.783825848564, -45760.637016372326, -44893.25522103968, 0.0965, 0.9500000000000001, 0.14450000000000002, 192.0, 0.0, 0.0, 0.0, 0.0, 0.0, 0.0, 0.0, 0.0, 0.0, 1.658165713640722E9, 0.0, 2022-07-18 13:35:13.640
86.0, -22404.829848388417, -19158.08250404388, -49425.87607215358, -52555.96966218587, -20800.958073253405, -33517.5136944668, -49152.11190606498, -32972.62286813532, -9524.79356822891, -51542.9662517269, -53150.41430597476, -59215.53781217788, -49924.230566529106, -43769.2306958712, -45835.291842853054, -44965.71957656379, 0.0965, 0.9500000000000001, 0.14450000000000002, 192.0, 0.0, 0.0, 0.0, 0.0, 0.0, 0.0, 0.0, 0.0, 0.0, 1.6581657136407278E9, 0.0, 2022-07-18 13:35:13.640
88.0, -22402.460563476154, -19064.808674431883, -49446.12675263009, -52580.5118775978, -20815.39730017153, -33511.83635137515, -49161.030252102646, -32969.24775472257, -9461.024041297918, -51473.072346815155, -53079.40281384025, -59149.600166034725, -49850.335699359865, -43697.03456128056, -45757.06073725948, -44892.60702045048, 0.09625, 0.9470000000000001, 0.14625, 192.0, 1.5, 0.0, 14.5, 64.0, 2.0, 80.0, 0.0, 0.0, 0.0, 1.6581657136407332E9, 0.0, 2022-07-18 13:35:13.640
90.0, -22394.682156405706, -19135.663704355207, -49423.953822130425, -52567.97254895837, -20810.099936735623, -33516.239645032845, -49153.2518450322, -32987.06209505345, -9517.015161158462, -51548.91181575201, -53146.86037860637, -59218.08591104578, -49919.827272871415, -43772.985788939695, -45834.68834575276, -44970.56990511059, 0.09625, 0.9470000000000001, 0.14625, 192.0, 0.0, 0.0, 0.0, 0.0, 0.0, 0.0, 0.0, 0.0, 0.0, 1.6581657136407385E9, 0.0, 2022-07-18 13:35:13.640
92.0, -22387.887226091294, -19063.33345929783, -49441.74581071685, -52580.08719445315, -20822.97454154188, -33515.72555491037, -49180.69978722332, -32967.57137388842, -9457.894797074176, -51465.98684382282, -53067.332871834384, -59138.08901764024, -49848.94989120363, -43701.19198574925, -45764.52621990755, -44898.77610192014, 0.09625, 0.9470000000000001, 0.14625, 192.0, 0.0, 0.0, 0.0, 0.0, 0.0, 0.0, 0.0, 0.0, 0.0, 1.6581657136407435E9, 0.0, 2022-07-18 13:35:13.640
94.0, -22402.684080920706, -19135.194317721645, -49439.37652580458, -52579.08136595266, -20828.54012591125, -33536.17740108698, -49188.52289778268, -32987.95616483166, -9525.039437417918, -51561.16057171352, -53150.45900946367, -59218.62235291271, -49939.63091845881, -43787.20149841327, -45851.876837238895, -44984.226820972784, 0.09625, 0.9470000000000001, 0.14625, 192.0, 0.0, 0.0, 0.0, 0.0, 0.0, 0.0, 0.0, 0.0, 0.0, 1.6581657136407492E9, 0.0, 2022-07-18 13:35:13.640
96.0, -22422.554781741477, -19115.010692478503, -49465.52806681729, -52592.62652309257, -20833.32339922469, -33540.46893602239, -49176.967045899284, -32987.375019475825, -9486.236809043505, -51493.971227880866, -53095.20549717015, -59161.558349318315, -49876.21901943911, -43730.62923319689, -45771.477612433155, -44915.718724217266, 0.09625, 0.9470000000000001, 0.14625, 192.0, 0.0, 0.0, 0.0, 0.0, 0.0, 0.0, 0.0, 0.0, 0.0, 1.6581657136407545E9, 0.0, 2022-07-18 13:35:13.640
98.0, -22456.976468202647, -19166.08442855888, -49490.76318630734, -52616.60994489312, -20864.682896695485, -33578.802177763246, -49215.70261904033, -33039.34282533441, -9566.166647215683, -51594.911705841034, -53198.47055655367, -59256.77678069792, -49973.53851479752, -43825.11005700947, -45878.54246837407, -45024.25879529224, 0.096125, 0.9485000000000001, 0.150125, 192.0, 1.5, 0.0, 14.5, 88.0, 2.0, 104.0, 0.0, 0.0, 0.0, 1.6581657136407597E9, 0.0, 2022-07-18 13:35:13.640
100.0, -22434.647075491797, -19140.759902091017, -49465.192790650464, -52597.275685939276, -20833.993951558346, -33540.04425287774, -49186.01950240368, -32998.46148472565, -9503.179431340628, -51501.12378610657, -53115.165604968744, -59174.12002970219, -49883.08100498689, -43734.76430592112, -45791.43772023174, -44932.79545698112, 0.096125, 0.9485000000000001, 0.150125, 192.0, 0.0, 0.0, 0.0, 0.0, 0.0, 0.0, 0.0, 0.0, 0.0, 1.6581657136407647E9, 0.0, 2022-07-18 13:35:13.640
102.0, -22477.361259145888, -19169.83952162737, -49507.59404988218, -52650.45048599845, -20886.341737072675, -33588.41342787903, -49243.865817054015, -33054.92199121976, -9575.42026942018, -51611.09436882668, -53208.282972369554, -59277.519199552444, -49979.57348580044, -43831.212083245766, -45893.78635809259, -45034.25002506376, 0.096125, 0.9485000000000001, 0.150125, 192.0, 0.0, 0.0, 0.0, 0.0, 0.0, 0.0, 0.0, 0.0, 0.0, 1.6581657136407733E9, 0.0, 2022-07-18 13:35:13.640
104.0, -22445.15239538579, -19166.68792565917, -49473.84291575467, -52619.11334027211, -20846.779149386784, -33544.469898279895, -49198.08944440955, -32997.12038005834, -9517.26103034747, -51526.694181763436, -53131.437674932204, -59205.524230661904, -49906.818557598424, -43751.48341077369, -45807.77684542857, -44945.08891643154, 0.096125, 0.9485000000000001, 0.150125, 192.0, 0.0, 0.0, 0.0, 0.0, 0.0, 0.0, 0.0, 0.0, 0.0, 1.6581657136407785E9, 0.0, 2022-07-18 13:35:13.640
106.0, -22485.139666216335, -19171.69471641716, -49542.730992165925, -52688.291989361285, -20915.488411842398, -33614.49791365837, -49280.209753538344, -33091.02005851508, -9577.70014735462, -51624.21484282194, -53212.70861777171, -59293.63480730472, -49996.38199763084, -43845.65131016389, -45905.56572742054, -45044.10714436855, 0.096125, 0.9485000000000001, 0.150125, 192.0, 0.0, 0.0, 0.0, 0.0, 0.0, 0.0, 0.0, 0.0, 0.0, 1.6581657136407845E9, 0.0, 2022-07-18 13:35:13.640
108.0, -22442.2466686066, -19186.491571246574, -49480.25786641334, -52623.22606125189, -20841.012399317315, -33558.21622111991, -49211.008752704714, -33028.83750544042, -9545.13365568324, -51548.04009771825, -53155.13052405483, -59229.977039096004, -49932.053677088465, -43782.95466696676, -45840.63390977787, -44982.17046048289, 0.0940625, 0.94825, 0.1510625, 192.0, 1.0, 112.0, 14.5, 80.0, 2.0, 96.0, 0.0, 0.0, 0.0, 1.6581657136407895E9, 0.0, 2022-07-18 13:35:13.640
110.0, -22495.98026227716, -19166.352649492343, -49546.32962302323, -52685.96740793794, -20904.737222759395, -33617.44834392647, -49247.643261866964, -33084.180424711754, -9579.242417722036, -51619.14099683059, -53213.37917010536, -59287.55513281288, -49993.40921561828, -43838.43169670483, -45899.195480250775, -45043.59305424608, 0.0940625, 0.94825, 0.1510625, 192.0, 0.0, 0.0, 0.0, 0.0, 0.0, 0.0, 0.0, 0.0, 0.0, 1.658165713640795E9, 0.0, 2022-07-18 13:35:13.640
112.0, -22451.76851174456, -19210.94437968068, -49475.98868322238, -52616.587593148666, -20843.538146440762, -33562.32894209969, -49192.97089492928, -33008.273900541535, -9553.895539509718, -51557.47253387839, -53169.72621318415, -59238.448350244566, -49940.77085742603, -43788.207326913755, -45841.997366189644, -44986.30553320712, 0.0940625, 0.94825, 0.1510625, 192.0, 0.0, 0.0, 0.0, 0.0, 0.0, 0.0, 0.0, 0.0, 0.0, 1.6581657136408005E9, 0.0, 2022-07-18 13:35:13.640
114.0, -22496.047317510525, -19153.276878985987, -49547.402506757084, -52681.09472764668, -20913.588513563696, -33627.61838765364, -49266.91046558744, -33086.54970962402, -9572.201618218616, -51614.82711015071, -53207.925344458265, -59278.234455375015, -49983.440337591215, -43830.38506870092, -45892.44525342527, -45038.541559999176, 0.0940625, 0.94825, 0.1510625, 192.0, 0.0, 0.0, 0.0, 0.0, 0.0, 0.0, 0.0, 0.0, 0.0, 1.6581657136408055E9, 0.0, 2022-07-18 13:35:13.640
116.0, -22434.423558047245, -19204.060042388446, -49457.369680091106, -52601.38840691905, -20846.46622496441, -33571.0237706928, -49203.40915958991, -33028.16695310676, -9554.342574398825, -51567.642577605555, -53167.312224782974, -59236.72726592151, -49954.628938988324, -43801.12663520892, -45858.73882278667, -45005.90801309443, 0.0940625, 0.94825, 0.1510625, 192.0, 0.0, 0.0, 0.0, 0.0, 0.0, 0.0, 0.0, 0.0, 0.0, 1.6581657136408117E9, 0.0, 2022-07-18 13:35:13.640
118.0, -22490.79465756353, -19150.661724884718, -49546.776657912334, -52699.31139937775, -20933.77213880684, -33649.9924838534, -49298.76170143625, -33124.07828856448, -9555.214292432582, -51595.67166515251, -53181.70674821219, -59259.48134177701, -49975.1478403983, -43829.06631577806, -45890.90298305786, -45038.742725699274, 0.09303125, 0.9481250000000001, 0.14753125, 192.0, 1.0, 112.0, 14.5, 80.0, 2.0, 64.0, 0.0, 0.0, 0.0, 1.6581657136408176E9, 0.0, 2022-07-18 13:35:13.640
120.0, -22453.914279212273, -19227.79759499998, -49471.495982586865, -52630.11039854412, -20858.424408247996, -33591.095637213664, -49218.98832547526, -33077.765474053085, -9574.101516497316, -51590.41900520551, -53195.229553607656, -59268.086763392304, -49978.03121543303, -43831.972042557245, -45890.34418944648, -45042.85544667905, 0.09303125, 0.9481250000000001, 0.14753125, 192.0, 0.0, 0.0, 0.0, 0.0, 0.0, 0.0, 0.0, 0.0, 0.0, 1.6581657141199389E9, 0.0, 2022-07-18 13:35:14.119
122.0, -22484.513817371586, -19133.83086130987, -49538.50651246387, -52690.0354254288, -20900.199818634967, -33617.06836427073, -49265.32349173111, -33080.04535198752, -9557.181245944648, -51590.7766331168, -53190.84861169441, -59261.89533017819, -49974.65610202028, -43812.45896964776, -45878.989503263176, -45025.465789492824, 0.09303125, 0.9481250000000001, 0.14753125, 192.0, 0.0, 0.0, 0.0, 0.0, 0.0, 0.0, 0.0, 0.0, 0.0, 1.6581657141200204E9, 0.0, 2022-07-18 13:35:14.120
124.0, -22448.147529142803, -19225.1377374098, -49469.08199418569, -52625.93062233098, -20833.479861435873, -33577.23755565137, -49191.80860421761, -33033.799592709496, -9563.976176259062, -51585.345159214165, -53192.30147508401, -59260.30835632186, -49962.98849141461, -43814.60473711547, -45873.02158749361, -45023.163559813926, 0.09303125, 0.9481250000000001, 0.14753125, 192.0, 0.0, 0.0, 0.0, 0.0, 0.0, 0.0, 0.0, 0.0, 0.0, 1.658165714120036E9, 0.0, 2022-07-18 13:35:14.120
126.0, -22483.39623014882, -19132.98149502057, -49553.95156788249, -52694.75164350887, -20894.94715868797, -33613.15680899105, -49267.22339000981, -33070.50115710511, -9544.440751605123, -51580.42777543399, -53175.425908020254, -59243.65630670265, -49952.01378488705, -43802.9371265098, -45861.443383865764, -45007.76320788422, 0.09303125, 0.9481250000000001, 0.14753125, 192.0, 0.0, 0.0, 0.0, 0.0, 0.0, 0.0, 0.0, 0.0, 0.0, 1.658165714120041E9, 0.0, 2022-07-18 13:35:14.120
128.0, -22446.471148308654, -19221.248533874576, -49484.147069948565, -52625.12595953059, -20838.374893471588, -33579.919764986014, -49206.24783113573, -33056.508965076086, -9585.836182336352, -51605.34997050166, -53212.261582882595, -59273.004147172476, -49990.65995105028, -43838.00701356018, -45900.06719828453, -45040.86614142253, 0.09251562499999999, 0.9510625000000001, 0.147765625, 192.0, 1.0, 112.0, 14.5, 104.0, 2.0, 80.0, 0.0, 0.0, 0.0, 1.658165714120046E9, 0.0, 2022-07-18 13:35:14.120
130.0, -22494.840323309938, -19145.386713193264, -49555.00209987189, -52687.263809116346, -20894.790696476783, -33615.81666658124, -49272.69956740136, -33102.19593074273, -9551.660365064188, -51569.09544099515, -53177.459916765685, -59239.72239967852, -49953.310186065464, -43794.62227757243, -45859.208209420234, -44998.50958567972, 0.09251562499999999, 0.9510625000000001, 0.147765625, 192.0, 0.0, 0.0, 0.0, 0.0, 0.0, 0.0, 0.0, 0.0, 0.0, 1.658165714120051E9, 0.0, 2022-07-18 13:35:14.120
132.0, -22456.037694935527, -19221.09207166339, -49475.8769245001, -52612.586630891165, -20834.239820747356, -33572.00724744883, -49207.857156736514, -33031.54206651951, -9594.955694074119, -51608.322752514214, -53223.63862081035, -59286.45989733457, -49999.84651802141, -43838.78932461612, -45904.76106462015, -45045.53765601369, 0.09251562499999999, 0.9510625000000001, 0.147765625, 192.0, 0.0, 0.0, 0.0, 0.0, 0.0, 0.0, 0.0, 0.0, 0.0, 1.658165714120056E9, 0.0, 2022-07-18 13:35:14.120
134.0, -22493.432163409256, -19152.047533040946, -49535.310213006764, -52669.002433896356, -20881.446705036964, -33606.272471698816, -49248.492628156266, -33067.148395436816, -9548.397010373714, -51558.076030978686, -53165.300567782, -59232.77100715292, -49941.352002781874, -43776.539716308085, -45836.49883705364, -44981.209335471314, 0.09251562499999999, 0.9510625000000001, 0.147765625, 192.0, 0.0, 0.0, 0.0, 0.0, 0.0, 0.0, 0.0, 0.0, 0.0, 1.6581657141200693E9, 0.0, 2022-07-18 13:35:14.120
136.0, -22466.185386918234, -19223.930743209214, -49487.768052550324, -52633.39610497905, -20849.88604186607, -33598.80698905075, -49224.084523211066, -33073.920974006774, -9602.37647323328, -51635.21190109395, -53233.85336802642, -59302.1955254311, -50007.8037390475, -43853.74264165672, -45917.81448338205, -45065.810688234655, 0.09251562499999999, 0.9510625000000001, 0.147765625, 192.0, 0.0, 0.0, 0.0, 0.0, 0.0, 0.0, 0.0, 0.0, 0.0, 1.658165714120074E9, 0.0, 2022-07-18 13:35:14.120
138.0, -22484.60322434941, -19163.4245709687, -49534.818474628744, -52674.2327420989, -20881.35729805914, -33608.32883218871, -49261.23312249579, -33084.26983168958, -9536.774103256954, -51557.025498989286, -53160.45023923519, -59227.272478016916, -49934.82529340092, -43785.547469323574, -45847.182970903275, -44990.68647512037, 0.09251562499999999, 0.9510625000000001, 0.147765625, 192.0, 0.0, 0.0, 0.0, 0.0, 0.0, 0.0, 0.0, 0.0, 0.0, 1.6581657141200788E9, 0.0, 2022-07-18 13:35:14.120
140.0, -22477.607128334897, -19223.975446698125, -49508.51047140485, -52650.696355187465, -20859.139664070568, -33605.95954727645, -49234.07575298259, -33081.252346188114, -9610.356046003824, -51646.70069774398, -53250.10308624543, -59314.04194999242, -50019.13607348634, -43866.103156340505, -45934.2430155567, -45075.667807539445, 0.098, 0.9480000000000001, 0.148, 192.0, 1.5, 8.0, 14.5, 80.0, 2.0, 80.0, 0.0, 0.0, 0.0, 1.6581657141200836E9, 0.0, 2022-07-18 13:35:14.120
142.0, -22472.3544683879, -19154.1709487642, -49519.95456456597, -52651.83629415468, -20860.145492571057, -33585.35123888865, -49237.160293717425, -33041.91327594677, -9545.446580105612, -51545.08966745016, -53162.66306193627, -59224.456158215544, -49932.545415466484, -43770.32593134951, -45841.57268304499, -44975.15201272393, 0.098, 0.9480000000000001, 0.148, 192.0, 0.0, 0.0, 0.0, 0.0, 0.0, 0.0, 0.0, 0.0, 0.0, 1.6581657141200883E9, 0.0, 2022-07-18 13:35:14.120
144.0, -22485.899625527814, -19206.116402878335, -49524.42491345703, -52658.11713434663, -20876.059934623234, -33606.048954254264, -49252.538293902675, -33083.21929970018, -9610.847784381842, -51632.954374903966, -53244.20222570923, -59301.5473248419, -50025.41691367828, -43850.792211388616, -45936.5452452356, -45063.79903123368, 0.098, 0.9480000000000001, 0.148, 192.0, 0.0, 0.0, 0.0, 0.0, 0.0, 0.0, 0.0, 0.0, 0.0, 1.6581657141200933E9, 0.0, 2022-07-18 13:35:14.120
146.0, -22445.711188997175, -19142.682152114172, -49492.059587485746, -52625.170663019504, -20841.660599906518, -33560.205526376434, -49234.74630531625, -33038.62756951184, -9539.523367824957, -51525.57659454067, -53149.363773985366, -59206.015969039916, -49932.321898021924, -43758.144230621365, -45838.801066732536, -44964.289064918645, 0.098, 0.9480000000000001, 0.148, 192.0, 0.0, 0.0, 0.0, 0.0, 0.0, 0.0, 0.0, 0.0, 0.0, 1.658165714120098E9, 0.0, 2022-07-18 13:35:14.120
148.0, -22466.09597994041, -19171.672364672704, -49503.21310796894, -52643.58850045067, -20864.660544951028, -33598.04702973927, -49249.252587467745, -33090.81889281498, -9591.200601005627, -51604.45590072345, -53220.82230100898, -59277.452144319075, -50011.335314671436, -43841.4491822063, -45924.631765440914, -45053.74074622879, 0.098, 0.9480000000000001, 0.148, 192.0, 0.0, 0.0, 0.0, 0.0, 0.0, 0.0, 0.0, 0.0, 0.0, 1.6581657141201031E9, 0.0, 2022-07-18 13:35:14.120
150.0, -22446.649962264295, -19163.737495391073, -49481.53191584729, -52616.766407104304, -20834.999780058835, -33573.21424164942, -49215.25558415122, -33041.35448233539, -9533.242527633016, -51516.09945489162, -53138.098494779886, -59195.71181484602, -49924.856415373855, -43757.585437009984, -45827.08875263796, -44966.83716378656, 0.094, 0.9540000000000001, 0.148, 192.0, 1.0, 120.0, 14.5, 104.0, 2.0, 80.0, 0.0, 0.0, 0.0, 1.658165714120108E9, 0.0, 2022-07-18 13:35:14.120
152.0, -22469.64990730881, -19167.716105904117, -49512.19850923998, -52644.259052784335, -20868.281527552786, -33606.898320543565, -49254.9746340483, -33084.09101773394, -9588.697205626631, -51611.96608686043, -53219.95058297522, -59276.35690884077, -50005.322695412964, -43838.07406879355, -45916.47337871473, -45054.634816007, 0.094, 0.9540000000000001, 0.148, 192.0, 0.0, 0.0, 0.0, 0.0, 0.0, 0.0, 0.0, 0.0, 0.0, 1.658165714120113E9, 0.0, 2022-07-18 13:35:14.120
154.0, -22437.664560993264, -19173.50520771804, -49454.6204155231, -52597.67801733947, -20805.11549772209, -33549.54374427125, -49189.03698790514, -33026.26705482806, -9534.114245666773, -51530.024591687274, -53143.75348612708, -59200.18216373708, -49919.827272871415, -43755.59613175346, -45822.03725839106, -44960.46691661679, 0.094, 0.9540000000000001, 0.148, 192.0, 0.0, 0.0, 0.0, 0.0, 0.0, 0.0, 0.0, 0.0, 0.0, 1.6581657141201177E9, 0.0, 2022-07-18 13:35:14.120
156.0, -22498.483657656154, -19177.37205950881, -49528.15765478106, -52680.20065786847, -20875.009402633837, -33618.74474510488, -49256.40514569344, -33111.874236091884, -9582.617531134789, -51615.944697373474, -53219.2129754082, -59279.19558038659, -49997.924267998256, -43831.03326929013, -45895.88742207139, -45041.91667341193, 0.094, 0.9540000000000001, 0.148, 192.0, 0.0, 0.0, 0.0, 0.0, 0.0, 0.0, 0.0, 0.0, 0.0, 1.6581657141201227E9, 0.0, 2022-07-18 13:35:14.120
158.0, -22464.665468295272, -19214.14067913779, -49476.74864253386, -52627.09291304266, -20821.700492107928, -33569.23563113638, -49203.78913924565, -33041.71211024668, -9558.522350611967, -51555.1703041995, -53176.81171617648, -59234.96147810954, -49943.90010164978, -43785.4357106013, -45844.947796457745, -44990.23944023126, 0.094, 0.9540000000000001, 0.148, 192.0, 0.0, 0.0, 0.0, 0.0, 0.0, 0.0, 0.0, 0.0, 0.0, 1.6581657141201274E9, 0.0, 2022-07-18 13:35:14.120
160.0, -22494.102715742913, -19159.49066394456, -49541.255777031874, -52683.2851986033, -20879.859731180637, -33613.402678180064, -49270.26322725573, -33080.000648498615, -9587.579618403866, -51608.747435658865, -53221.13522543135, -59277.92153095264, -49998.103081953894, -43837.53762692662, -45902.86116634145, -45039.36857454402, 0.098, 0.9580000000000001, 0.148, 192.0, 1.5, 8.0, 14.5, 120.0, 2.0, 80.0, 0.0, 0.0, 0.0, 1.6581657141201322E9, 0.0, 2022-07-18 13:35:14.120
162.0, -22451.276773366546, -19211.07849014741, -49474.26759889932, -52612.34076170216, -20820.78407058526, -33566.19579389045, -49199.69877001033, -33035.900656688296, -9566.032536748951, -51549.85058901914, -53183.38312904634, -59235.00618159845, -49959.85924719086, -43795.11401595044, -45864.14794494485, -44994.016885044206, 0.098, 0.9580000000000001, 0.148, 192.0, 0.0, 0.0, 0.0, 0.0, 0.0, 0.0, 0.0, 0.0, 0.0, 1.6581657141201372E9, 0.0, 2022-07-18 13:35:14.120
164.0, -22503.445744925233, -19158.149559277244, -49558.98071038493, -52693.00820744136, -20900.825667479716, -33635.75442263537, -49285.30595127415, -33108.34266046794, -9579.488286911046, -51606.35579900215, -53213.40152184982, -59271.57363552733, -50000.04768372151, -43832.754353613185, -45908.203233266264, -45036.19462683137, 0.098, 0.9580000000000001, 0.148, 192.0, 0.0, 0.0, 0.0, 0.0, 0.0, 0.0, 0.0, 0.0, 0.0, 1.658165714120142E9, 0.0, 2022-07-18 13:35:14.120
166.0, -22458.07170368096, -19228.57990605592, -49477.10627044515, -52617.23579373787, -20831.311742223712, -33577.52812832929, -49206.89603172494, -33028.59163625141, -9577.320167698881, -51582.35002545715, -53194.514297785085, -59255.525083008426, -49973.76203224207, -43816.594042371995, -45888.75721559015, -45010.19954802985, 0.098, 0.9580000000000001, 0.148, 192.0, 0.0, 0.0, 0.0, 0.0, 0.0, 0.0, 0.0, 0.0, 0.0, 1.6581657141201484E9, 0.0, 2022-07-18 13:35:14.120
168.0, -22504.675090870274, -19157.434303454676, -49562.22171333095, -52695.086919675705, -20905.206609392957, -33633.89922784558, -49287.697587930874, -33089.991878270135, -9575.46497290909, -51607.093406569176, -53208.81941423648, -59270.16547562665, -49987.3965963598, -43829.62510938944, -45897.56380290554, -45019.90020512345, 0.098, 0.9580000000000001, 0.148, 192.0, 0.0, 0.0, 0.0, 0.0, 0.0, 0.0, 0.0, 0.0, 0.0, 1.6581657141201532E9, 0.0, 2022-07-18 13:35:14.120
170.0, -22451.992029189114, -19223.304894364464, -49470.66896804202, -52614.061846025215, -20836.810271359715, -33574.64475329456, -49197.35183684252, -33028.25636008458, -9583.288083468447, -51589.480231938396, -53207.098329913424, -59261.06831563334, -49978.70176776669, -43828.5969291445, -45886.32087544452, -45013.88758586498, 0.096, 0.9560000000000001, 0.146, 192.0, 1.5, 0.0, 14.5, 112.0, 2.0, 72.0, 0.0, 0.0, 0.0, 1.6581657141201582E9, 0.0, 2022-07-18 13:35:14.120
172.0, -22492.82866630896, -19138.815300323404, -49556.70083245049, -52693.85757373066, -20914.504935086363, -33626.00906205286, -49275.381776736, -33075.55265135201, -9563.707955325599, -51576.62797887659, -53195.76599547458, -59250.473588761524, -49973.78438398652, -43819.07508600654, -45877.93897127378, -45009.19371952936, 0.096, 0.9560000000000001, 0.146, 192.0, 0.0, 0.0, 0.0, 0.0, 0.0, 0.0, 0.0, 0.0, 0.0, 1.6581657141201632E9, 0.0, 2022-07-18 13:35:14.120
174.0, -22436.211697603667, -19209.335054079897, -49468.05381394074, -52614.64299138105, -20842.912297596016, -33574.801215505744, -49192.23328736226, -33030.67034848575, -9580.650577622722, -51591.558944172735, -53206.98657119114, -59260.64363248869, -49985.27318063655, -43825.08770526501, -45900.26836398463, -45032.05955410714, 0.096, 0.9560000000000001, 0.146, 192.0, 0.0, 0.0, 0.0, 0.0, 0.0, 0.0, 0.0, 0.0, 0.0, 1.658165714120168E9, 0.0, 2022-07-18 13:35:14.120
176.0, -22477.316555656977, -19125.35955016131, -49539.512340964364, -52681.09472764668, -20905.00544369286, -33615.32492820322, -49258.03682303868, -33072.57986933945, -9536.46117883458, -51559.37243215709, -53165.56878871546, -59227.25012627246, -49943.40836327176, -43781.32298962152, -45862.65037806635, -44992.608725143524, 0.096, 0.9560000000000001, 0.146, 192.0, 0.0, 0.0, 0.0, 0.0, 0.0, 0.0, 0.0, 0.0, 0.0, 1.6581657141201732E9, 0.0, 2022-07-18 13:35:14.120
178.0, -22447.96871518716, -19216.21939137213, -49469.21610465242, -52613.905383814024, -20855.675143679997, -33575.516471328316, -49205.39846484643, -33033.82194445395, -9576.157876987205, -51607.51808971383, -53210.22757413716, -59272.24418786099, -49984.8484974919, -43829.2451297337, -45909.410227466855, -45036.08286810909, 0.096, 0.9560000000000001, 0.146, 192.0, 0.0, 0.0, 0.0, 0.0, 0.0, 0.0, 0.0, 0.0, 0.0, 1.658165714120178E9, 0.0, 2022-07-18 13:35:14.120
180.0, -22474.880215511348, -19127.058282739912, -49522.726180878424, -52655.52433198981, -20891.549693530764, -33583.898375499055, -49247.50915140023, -33028.03284264002, -9533.421341588657, -51549.87294076359, -53157.70097466719, -59212.54267842087, -49928.49974972007, -43771.24235287218, -45841.527979556085, -44961.159820694906, 0.096, 0.9500000000000001, 0.14400000000000002, 192.0, 1.5, 0.0, 14.5, 88.0, 2.0, 64.0, 0.0, 0.0, 0.0, 1.6581657141201832E9, 0.0, 2022-07-18 13:35:14.120
182.0, -22457.222337391657, -19219.415690829243, -49485.08584321569, -52623.69544788545, -20867.499216496853, -33574.197718405456, -49203.85619447901, -33009.81617090895, -9593.167554517693, -51607.093406569176, -53224.376228377376, -59272.75827798346, -49989.98939871662, -43838.275234493645, -45902.4364831968, -45025.15286507045, 0.096, 0.9500000000000001, 0.14400000000000002, 192.0, 0.0, 0.0, 0.0, 0.0, 0.0, 0.0, 0.0, 0.0, 0.0, 1.658165714120188E9, 0.0, 2022-07-18 13:35:14.120
184.0, -22472.68974455473, -19140.715198602105, -49539.579396197725, -52667.102535617654, -20901.85384772466, -33577.28225914029, -49236.89207278396, -33012.65484245477, -9532.840196232819, -51542.78743777126, -53156.337518255415, -59212.54267842087, -49927.89625261978, -43765.60971326944, -45833.906034696825, -44954.923683991874, 0.096, 0.9500000000000001, 0.14400000000000002, 192.0, 0.0, 0.0, 0.0, 0.0, 0.0, 0.0, 0.0, 0.0, 0.0, 1.6581657141201928E9, 0.0, 2022-07-18 13:35:14.120
186.0, -22452.841395478416, -19212.15137388127, -49503.570735880225, -52640.43690448248, -20877.915129413024, -33573.57186956071, -49206.85132823603, -33032.391432808814, -9585.880885825263, -51614.33537177269, -53222.275164398576, -59284.6941095226, -50001.63465757784, -43833.29079548011, -45919.44616072728, -45038.56391174364, 0.096, 0.9500000000000001, 0.14400000000000002, 192.0, 0.0, 0.0, 0.0, 0.0, 0.0, 0.0, 0.0, 0.0, 0.0, 1.6581657141201975E9, 0.0, 2022-07-18 13:35:14.120
188.0, -22462.519700827565, -19148.60536439483, -49529.67757340403, -52663.86153267164, -20899.350452345665, -33582.8254917652, -49237.584976862076, -33026.311758316966, -9527.587536285822, -51548.37537388509, -53149.78845713002, -59218.175318023605, -49932.25484278856, -43766.190858625276, -45848.41231684832, -44975.64375110195, 0.096, 0.9500000000000001, 0.14400000000000002, 192.0, 0.0, 0.0, 0.0, 0.0, 0.0, 0.0, 0.0, 0.0, 0.0, 1.6581657141202025E9, 0.0, 2022-07-18 13:35:14.120
190.0, -22450.74033149962, -19194.51584750603, -49497.46870964393, -52640.25809052683, -20889.739202229885, -33594.873082026614, -49233.15933145992, -33042.78499398053, -9581.566999145389, -51619.99036311989, -53215.703751528716, -59281.1401821542, -50006.21676519117, -43839.50458043868, -45923.20125379578, -45059.77571723172, 0.092, 0.9540000000000001, 0.148, 192.0, 1.0, 112.0, 14.5, 104.0, 2.0, 80.0, 0.0, 0.0, 0.0, 1.6581657141202075E9, 0.0, 2022-07-18 13:35:14.120
192.0, -22435.563497014464, -19137.69771310064, -49485.24230542687, -52630.065695055215, -20880.619690492116, -33571.73902651537, -49221.156444687425, -33010.88905464281, -9515.539946024412, -51522.424998572475, -53121.49114864959, -59190.28034094338, -49913.59113616838, -43755.17144860881, -45819.153883356325, -44963.79732654063, 0.092, 0.9540000000000001, 0.148, 192.0, 0.0, 0.0, 0.0, 0.0, 0.0, 0.0, 0.0, 0.0, 0.0, 1.6581657141202123E9, 0.0, 2022-07-18 13:35:14.120
194.0, -22443.58777327392, -19169.92892860519, -49475.65340705555, -52628.61283166562, -20884.24067309388, -33589.75453254635, -49228.197244190844, -33045.82483122645, -9563.551493114412, -51601.46076696644, -53189.14987911581, -59256.37444929773, -49992.0010557176, -43825.93707155431, -45896.535622660595, -45041.5813972451, 0.092, 0.9540000000000001, 0.148, 192.0, 0.0, 0.0, 0.0, 0.0, 0.0, 0.0, 0.0, 0.0, 0.0, 1.6581657141202176E9, 0.0, 2022-07-18 13:35:14.120
196.0, -22434.69177898071, -19149.901765573235, -49464.0752034277, -52612.07254076869, -20868.23682406388, -33562.865383966615, -49214.18270041737, -33022.26609257056, -9514.042379145907, -51509.01395189929, -53115.70204683567, -59178.612730337714, -49911.62418265631, -43745.18021883729, -45809.11795009589, -44955.10249794752, 0.092, 0.9540000000000001, 0.148, 192.0, 0.0, 0.0, 0.0, 0.0, 0.0, 0.0, 0.0, 0.0, 0.0, 1.6581657141202223E9, 0.0, 2022-07-18 13:35:14.120
198.0, -22453.668410023263, -19163.82690236889, -49491.18786945199, -52634.245471268354, -20893.181370876002, -33598.56111986174, -49235.70743032783, -33053.87145923036, -9567.597158860823, -51599.09148205417, -53196.615361763885, -59253.02168762943, -49987.910686482275, -43826.58527214352, -45894.45691042625, -45038.899187910465, 0.092, 0.9540000000000001, 0.148, 192.0, 0.0, 0.0, 0.0, 0.0, 0.0, 0.0, 0.0, 0.0, 0.0, 1.6581657141202285E9, 0.0, 2022-07-18 13:35:14.120
200.0, -22437.753967971083, -19162.999887824048, -49467.24915114036, -52609.166813989505, -20855.89866112455, -33562.19483163295, -49209.86881373749, -33021.796705937, -9510.711969222066, -51509.25982108829, -53124.15100623978, -59176.71283205901, -49901.20826974014, -43751.05872762904, -45808.06741810649, -44952.73321303525, 0.08600000000000001, 0.9540000000000001, 0.15, 192.0, 1.0, 88.0, 14.5, 104.0, 2.0, 88.0, 0.0, 0.0, 0.0, 1.6581657141202335E9, 0.0, 2022-07-18 13:35:14.120
202.0, -22459.077532181447, -19147.80070159444, -49506.20824172595, -52648.81880865322, -20894.030737165303, -33596.057724482744, -49247.97853803379, -33072.46811061718, -9567.150123971716, -51596.43162446399, -53199.94577168772, -59257.894367920686, -49976.3995380878, -43831.52500766814, -45894.233392981696, -45040.59792048907, 0.08600000000000001, 0.9540000000000001, 0.15, 192.0, 0.0, 0.0, 0.0, 0.0, 0.0, 0.0, 0.0, 0.0, 0.0, 1.6581657141202385E9, 0.0, 2022-07-18 13:35:14.120
204.0, -22414.172877570734, -19158.26131799952, -49439.44358103795, -52576.62267406257, -20831.244686990343, -33520.73234566836, -49178.91164766689, -32964.442129664676, -9524.391236828713, -51509.63980074404, -53131.34826795439, -59185.47471588549, -49904.29281047497, -43747.34833804946, -45811.7107524527, -44945.491247831735, 0.08600000000000001, 0.9540000000000001, 0.15, 192.0, 0.0, 0.0, 0.0, 0.0, 0.0, 0.0, 0.0, 0.0, 0.0, 1.6581657141202433E9, 0.0, 2022-07-18 13:35:14.120
206.0, -22456.48472982463, -19128.39938740723, -49493.087767730685, -52626.26589849781, -20872.662469466028, -33564.966447945415, -49214.45092135083, -33020.67911871423, -9550.185149930137, -51566.9720252719, -53180.27623656705, -59229.44059722908, -49958.87577043483, -43781.45710008826, -45857.19655241926, -44986.64080937395, 0.08600000000000001, 0.9540000000000001, 0.15, 192.0, 0.0, 0.0, 0.0, 0.0, 0.0, 0.0, 0.0, 0.0, 0.0, 1.6581657141202483E9, 0.0, 2022-07-18 13:35:14.120
208.0, -22410.551894968976, -19166.84438787036, -49427.507749498815, -52560.12708665456, -20800.60044534212, -33502.739191381836, -49139.39376346991, -32958.45186215066, -9512.254239589482, -51489.79145166773, -53126.11795975184, -59169.82849476678, -49898.66017087224, -43713.50779694412, -45789.44841497522, -44919.02678239665, 0.08600000000000001, 0.9540000000000001, 0.15, 192.0, 0.0, 0.0, 0.0, 0.0, 0.0, 0.0, 0.0, 0.0, 0.0, 1.658165714120253E9, 0.0, 2022-07-18 13:35:14.120
210.0, -22462.743218272117, -19131.841556053347, -49518.43464594301, -52645.55545396274, -20882.251367837354, -33573.54951781625, -49234.723953571796, -33047.54591554951, -9547.480588851045, -51562.00993800282, -53188.9040099268, -59233.709780420046, -49956.50648552257, -43777.27732387511, -45867.05367172405, -44994.12864376648, 0.088, 0.9520000000000001, 0.149, 192.0, 1.0, 104.0, 14.5, 88.0, 2.0, 80.0, 0.0, 0.0, 0.0, 1.658165714120258E9, 0.0, 2022-07-18 13:35:14.120
212.0, -22410.2389705466, -19189.55376023695, -49436.962537403415, -52571.92880772696, -20809.138811724046, -33518.43011598946, -49156.73871716723, -32973.71810361363, -9518.445672803602, -51506.7564257093, -53141.160683770264, -59186.83817229726, -49912.25003150106, -43738.74291643416, -45820.91967116829, -44947.90523623291, 0.088, 0.9520000000000001, 0.149, 192.0, 0.0, 0.0, 0.0, 0.0, 0.0, 0.0, 0.0, 0.0, 0.0, 1.6581657141202629E9, 0.0, 2022-07-18 13:35:14.120
214.0, -22454.316610612466, -19125.58306760586, -49512.42202668453, -52648.95291911995, -20884.173617860513, -33588.9275180015, -49239.50722688523, -33041.15331663529, -9532.5496235549, -51549.58236808567, -53164.65236719279, -59220.76812038042, -49949.51038950806, -43778.12669016441, -45854.26847389561, -44990.08297802007, 0.088, 0.9520000000000001, 0.149, 192.0, 0.0, 0.0, 0.0, 0.0, 0.0, 0.0, 0.0, 0.0, 0.0, 1.6581657141202676E9, 0.0, 2022-07-18 13:35:14.120
216.0, -22377.650127130764, -19172.789951895473, -49398.651647407016, -52543.2515195908, -20787.792895769227, -33506.1590082835, -49134.38697271192, -32966.92317329922, -9517.998637914496, -51517.597021770125, -53134.03047728902, -59189.69919558754, -49919.69316240468, -43748.19770433876, -45820.204415345725, -44963.596160840534, 0.088, 0.9520000000000001, 0.149, 192.0, 0.0, 0.0, 0.0, 0.0, 0.0, 0.0, 0.0, 0.0, 0.0, 1.6581657141202726E9, 0.0, 2022-07-18 13:35:14.120
218.0, -22434.982351658626, -19102.58312256135, -49490.40555839605, -52630.691543899964, -20871.70134445445, -33569.302686369745, -49222.92223249939, -33047.05417717149, -9500.385463283714, -51524.235489873354, -53125.290945206994, -59185.5194193744, -49915.200461769164, -43745.13551534838, -45820.338525812454, -44965.071375974585, 0.088, 0.9520000000000001, 0.149, 192.0, 0.0, 0.0, 0.0, 0.0, 0.0, 0.0, 0.0, 0.0, 0.0, 1.6581657141202774E9, 0.0, 2022-07-18 13:35:14.120
220.0, -22394.302176749967, -19183.898768889758, -49403.99371433183, -52551.07463015016, -20797.3594423961, -33509.44471471843, -49139.93020533684, -32966.27497271001, -9526.134672896227, -51533.86909173359, -53140.892462836804, -59198.70694860303, -49929.684392176205, -43760.245294600165, -45829.078057894476, -44972.827431300575, 0.09, 0.9550000000000001, 0.1475, 192.0, 1.0, 112.0, 14.5, 120.0, 2.0, 72.0, 0.0, 0.0, 0.0, 1.6581657141202824E9, 0.0, 2022-07-18 13:35:14.120
222.0, -22436.569325514953, -19092.167209645177, -49489.42208164002, -52624.053075796735, -20862.69359143896, -33543.79934594624, -49222.16227318791, -32990.07958055491, -9503.291190062904, -51520.0110101713, -53125.96149754066, -59182.94896876204, -49909.45606344415, -43743.10150660295, -45815.53290075456, -44943.92662571986, 0.09, 0.9550000000000001, 0.1475, 192.0, 0.0, 0.0, 0.0, 0.0, 0.0, 0.0, 0.0, 0.0, 0.0, 1.6581657141202874E9, 0.0, 2022-07-18 13:35:14.120
224.0, -22394.95037733917, -19175.628623441295, -49413.046170836235, -52553.68978425143, -20793.805515027707, -33504.63908966054, -49145.786362384126, -32965.60442037635, -9528.45925431958, -51537.445370846435, -53155.711669410666, -59209.234620241485, -49939.519159736534, -43769.11893714892, -45848.41231684832, -44969.65348358792, 0.09, 0.9550000000000001, 0.1475, 192.0, 0.0, 0.0, 0.0, 0.0, 0.0, 0.0, 0.0, 0.0, 0.0, 1.6581657141202922E9, 0.0, 2022-07-18 13:35:14.120
226.0, -22423.91823815325, -19083.45002930761, -49483.655331570546, -52608.29509595574, -20841.32532373969, -33539.46310752191, -49205.130243912965, -33004.78702840651, -9476.022061827429, -51483.264742286774, -53097.59713382687, -59153.511721314404, -49877.046033983956, -43709.015096308605, -45790.67776092026, -44911.67305847086, 0.09, 0.9550000000000001, 0.1475, 192.0, 0.0, 0.0, 0.0, 0.0, 0.0, 0.0, 0.0, 0.0, 0.0, 1.6581657141202972E9, 0.0, 2022-07-18 13:35:14.120
228.0, -22391.932891837703, -19167.64905067075, -49416.53304297126, -52544.570272513665, -20787.2564539023, -33509.91410135199, -49145.719307150765, -32973.3828274468, -9525.307658351381, -51536.193673156944, -53154.392916487806, -59204.272532972405, -49934.44531374518, -43763.91098069084, -45848.54642731505, -44972.402748155924, 0.09, 0.9550000000000001, 0.1475, 192.0, 0.0, 0.0, 0.0, 0.0, 0.0, 0.0, 0.0, 0.0, 0.0, 1.658165714120302E9, 0.0, 2022-07-18 13:35:14.120
230.0, -22414.686967693207, -19082.980642674047, -49471.495982586865, -52594.28055218227, -20826.05908227671, -33523.59336895864, -49172.630807474954, -32981.563565917444, -9469.517704190936, -51479.93433236294, -53096.79247102648, -59147.633212522655, -49875.280246171984, -43699.53795665955, -45775.83620260194, -44909.907270658885, 0.094, 0.9515, 0.14375, 192.0, 1.5, 8.0, 14.5, 80.0, 2.0, 48.0, 0.0, 0.0, 0.0, 1.658165714120308E9, 0.0, 2022-07-18 13:35:14.120
232.0, -22395.933854095205, -19159.825940111394, -49426.747790187335, -52564.44097333443, -20796.621834829075, -33509.26590076279, -49148.088592063024, -32982.85996709585, -9521.999600171996, -51530.15870215401, -53156.8963118668, -59204.94308530606, -49929.28206077601, -43752.46688752972, -45833.63781376336, -44967.150088208924, 0.094, 0.9515, 0.14375, 192.0, 0.0, 0.0, 0.0, 0.0, 0.0, 0.0, 0.0, 0.0, 0.0, 1.6581657141203127E9, 0.0, 2022-07-18 13:35:14.120
234.0, -22414.798726415484, -19090.736698000037, -49460.70009001495, -52599.80143306273, -20822.16987874149, -33509.53412169625, -49176.43060403235, -32966.610248876845, -9484.560428209357, -51478.883800373536, -53108.21421244314, -59163.14532317464, -49878.00715899553, -43711.36202947641, -45783.79342362803, -44911.6507067264, 0.094, 0.9515, 0.14375, 192.0, 0.0, 0.0, 0.0, 0.0, 0.0, 0.0, 0.0, 0.0, 0.0, 1.6581657141203177E9, 0.0, 2022-07-18 13:35:14.120
236.0, -22418.777336928528, -19168.140789048768, -49437.45427578143, -52579.01431071929, -20820.672311862985, -33517.714860166896, -49163.28777829263, -32977.69671412667, -9531.722609010054, -51556.422001889, -53169.346233528406, -59227.16071929464, -49943.29660454948, -43776.56206805254, -45857.48712509717, -44976.98485576926, 0.094, 0.9515, 0.14375, 192.0, 0.0, 0.0, 0.0, 0.0, 0.0, 0.0, 0.0, 0.0, 0.0, 1.6581657141203227E9, 0.0, 2022-07-18 13:35:14.120
238.0, -22421.928932896728, -19116.12827970127, -49462.77880224929, -52592.22419169238, -20828.137794511058, -33517.82661888917, -49168.76395568418, -32970.2312314786, -9481.453535730068, -51484.49408823182, -53097.46302336014, -59156.104523671216, -49871.18987693666, -43703.53891891705, -45778.317246236475, -44900.02779960964, 0.094, 0.9515, 0.14375, 192.0, 0.0, 0.0, 0.0, 0.0, 0.0, 0.0, 0.0, 0.0, 0.0, 1.6581657141203275E9, 0.0, 2022-07-18 13:35:14.120
240.0, -22425.23699107611, -19164.184530280178, -49459.11311615862, -52587.88795326805, -20828.1154427666, -33532.89169465205, -49175.983569143245, -33001.81424639395, -9552.912062753685, -51578.50552541084, -53193.15084137331, -59242.158739824146, -49971.28098860753, -43797.75152179617, -45877.71545382922, -45004.76807412721, 0.097, 0.94875, 0.140875, 192.0, 1.5, 16.0, 14.5, 72.0, 2.0, 40.0, 0.0, 0.0, 0.0, 1.6581657146005929E9, 0.0, 2022-07-18 13:35:14.600
242.0, -22398.70547040766, -19105.108869684802, -49433.07333386819, -52561.78111574425, -20789.759849281294, -33494.558452911195, -49143.618243171964, -32948.505335868045, -9473.138686792694, -51465.60686416708, -53090.44457560117, -59137.99961066242, -49856.415373851705, -43694.93349730176, -45755.94315003671, -44889.38836924891, 0.097, 0.94875, 0.140875, 192.0, 0.0, 0.0, 0.0, 0.0, 0.0, 0.0, 0.0, 0.0, 0.0, 1.6581657146006575E9, 0.0, 2022-07-18 13:35:14.600
244.0, -22419.85022066238, -19141.07282651339, -49460.83420048168, -52591.59834284763, -20827.17666949948, -33545.78865120276, -49180.677435478865, -32999.6908306707, -9540.775065514454, -51557.29371992275, -53171.2014283182, -59219.89640234666, -49949.55509299697, -43789.056693203056, -45845.8195144915, -44980.38232092647, 0.097, 0.94875, 0.140875, 192.0, 0.0, 0.0, 0.0, 0.0, 0.0, 0.0, 0.0, 0.0, 0.0, 1.658165714600705E9, 0.0, 2022-07-18 13:35:14.600
246.0, -22398.325490751922, -19114.384843633754, -49425.764313431304, -52562.56342680019, -20792.330299893656, -33519.12302006758, -49149.429696730345, -32967.660780866245, -9483.956931109064, -51475.26281777177, -53093.03737795799, -59140.10067464122, -49870.899304258746, -43709.86446259791, -45762.13458325083, -44905.727494445746, 0.097, 0.94875, 0.140875, 192.0, 0.0, 0.0, 0.0, 0.0, 0.0, 0.0, 0.0, 0.0, 0.0, 1.6581657146007376E9, 0.0, 2022-07-18 13:35:14.600
248.0, -22415.938665382706, -19113.222552922078, -49448.20546486443, -52590.50310736932, -20815.73257633836, -33543.79934594624, -49173.07784236406, -33000.89782487128, -9534.494225322513, -51565.563865371216, -53162.41719274726, -59215.023722055405, -49943.810694671956, -43784.653399545365, -45840.87977896688, -44989.188908241864, 0.097, 0.94875, 0.140875, 192.0, 0.0, 0.0, 0.0, 0.0, 0.0, 0.0, 0.0, 0.0, 0.0, 1.6581657146007435E9, 0.0, 2022-07-18 13:35:14.600
250.0, -22375.392600940777, -19114.049567466926, -49398.07050205118, -52540.63636548953, -20764.01063966878, -33486.154196996, -49125.87095807445, -32941.53159159799, -9470.478829202513, -51463.5952071661, -53077.81583998392, -59131.42819779256, -49853.97903370608, -43691.826604822476, -45744.543760364504, -44893.07640708404, 0.0935, 0.9473750000000001, 0.1424375, 192.0, 1.0, 104.0, 14.5, 72.0, 2.0, 64.0, 0.0, 0.0, 0.0, 1.6581657146007497E9, 0.0, 2022-07-18 13:35:14.600
252.0, -22435.384683058823, -19124.621942594284, -49472.322997131705, -52614.821805336695, -20830.59648640114, -33556.20456411893, -49188.83582220505, -33028.30106357349, -9520.5467367824, -51550.9681762419, -53153.9458815987, -59208.944047563564, -49934.80294165647, -43769.11893714892, -45824.384191558864, -44972.00041675573, 0.0935, 0.9473750000000001, 0.1424375, 192.0, 0.0, 0.0, 0.0, 0.0, 0.0, 0.0, 0.0, 0.0, 0.0, 1.6581657146007576E9, 0.0, 2022-07-18 13:35:14.600
254.0, -22384.623871400818, -19150.751131862537, -49407.05590332221, -52547.47599929285, -20766.02229666976, -33498.268842490776, -49140.17607452584, -32963.123376741816, -9491.645931201689, -51494.32885579215, -53106.1355002088, -59162.13949467415, -49876.50959211703, -43723.834302882475, -45763.699205362704, -44914.75759920569, 0.0935, 0.9473750000000001, 0.1424375, 192.0, 0.0, 0.0, 0.0, 0.0, 0.0, 0.0, 0.0, 0.0, 0.0, 1.658165714600764E9, 0.0, 2022-07-18 13:35:14.600
0.0, -22448.169880887257, -19130.388692663753, -49482.09070945868, -52620.1191687726, -20843.336980740667, -33560.36198858762, -49200.034046177156, -33017.34870879039, -9530.180338642638, -51567.933150283476, -53162.17132355825, -59219.87405060221, -49940.54733998148, -43776.606771541454, -45833.39194457435, -44970.54755336614, 0.0935, 0.9473750000000001, 0.1424375, 192.0, 0.0, 0.0, 0.0, 0.0, 0.0, 0.0, 0.0, 0.0, 0.0, 1.6581657146007705E9, 0.0, 2022-07-18 13:35:14.600
2.0, -22397.05144131797, -19172.298213517453, -49398.67399915147, -52541.284566078735, -20775.834712485637, -33495.43017094495, -49125.98271679672, -32951.76869055852, -9510.711969222066, -51516.30062059172, -53119.03245675951, -59177.94217800405, -49894.43569117018, -43737.55827397803, -45777.37847296935, -44917.79743645161, 0.0935, 0.9473750000000001, 0.1424375, 192.0, 0.0, 0.0, 0.0, 0.0, 0.0, 0.0, 0.0, 0.0, 0.0, 1.658165714600777E9, 0.0, 2022-07-18 13:35:14.600
4.0, -22433.507136524575, -19103.63365455075, -49474.26759889932, -52612.20665123542, -20847.2708877648, -33549.431985548974, -49210.33820037106, -33012.252511054576, -9515.808166957875, -51551.6163768311, -53141.47360819264, -59203.53492540538, -49932.053677088465, -43762.65928300134, -45816.717543210696, -44947.882884488456, 0.09275, 0.9456875, 0.14221875, 192.0, 1.0, 112.0, 14.5, 64.0, 2.0, 56.0, 0.0, 0.0, 0.0, 1.6581657146007836E9, 0.0, 2022-07-18 13:35:14.600
6.0, -22388.602481913866, -19163.98336458008, -49397.57876367316, -52544.771438213764, -20781.44500034392, -33501.889825092534, -49140.71251639277, -32971.6840948682, -9499.379634783225, -51512.54552752322, -53117.825462558925, -59177.67395707059, -49898.77192959451, -43744.21909382571, -45797.85267089042, -44931.34259359152, 0.09275, 0.9456875, 0.14221875, 192.0, 0.0, 0.0, 0.0, 0.0, 0.0, 0.0, 0.0, 0.0, 0.0, 1.6581657146007955E9, 0.0, 2022-07-18 13:35:14.600
8.0, -22442.4478343067, -19095.184695146643, -49487.20925893894, -52631.51855844481, -20856.144530313555, -33570.50968057033, -49220.575299331584, -33038.98519742313, -9502.888858662709, -51528.661135275506, -53135.729209867626, -59193.566047378314, -49911.80299661196, -43759.351224821956, -45817.768075200096, -44962.076242217576, 0.09275, 0.9456875, 0.14221875, 192.0, 0.0, 0.0, 0.0, 0.0, 0.0, 0.0, 0.0, 0.0, 0.0, 1.6581657146008017E9, 0.0, 2022-07-18 13:35:14.600
10.0, -22388.311909235945, -19167.73845764857, -49397.310542739695, -52547.58775801513, -20775.991174696825, -33505.957842583404, -49131.9953360552, -32970.07476926741, -9514.958800668574, -51524.235489873354, -53140.959518070165, -59195.33183519028, -49910.39483671127, -43752.69040497427, -45812.69422920874, -44966.45718413081, 0.09275, 0.9456875, 0.14221875, 192.0, 0.0, 0.0, 0.0, 0.0, 0.0, 0.0, 0.0, 0.0, 0.0, 1.6581657146008072E9, 0.0, 2022-07-18 13:35:14.600
12.0, -22441.531412784032, -19092.368375345275, -49478.3803198791, -52621.92966007348, -20844.923954596994, -33549.990779160355, -49208.52770907017, -32998.21561553665, -9491.578875968324, -51515.38419906905, -53122.27345970553, -59179.77502104939, -49896.53675514898, -43729.73516341867, -45793.33761851044, -44941.82556174106, 0.09275, 0.9456875, 0.14221875, 192.0, 0.0, 0.0, 0.0, 0.0, 0.0, 0.0, 0.0, 0.0, 0.0, 1.6581657146008132E9, 0.0, 2022-07-18 13:35:14.600
14.0, -22402.348804753878, -19188.190303825177, -49404.68661840995, -52560.12708665456, -20784.3060236342, -33517.64780493353, -49137.42680995784, -32981.34004847289, -9523.005428672484, -51537.15479816852, -53146.81567511746, -59205.54658240636, -49918.10618854835, -43760.55821902254, -45821.59022350195, -44968.848820787534, 0.095375, 0.9458437500000001, 0.14410937499999998, 192.0, 1.5, 8.0, 14.5, 72.0, 2.0, 72.0, 0.0, 0.0, 0.0, 1.6581657146008196E9, 0.0, 2022-07-18 13:35:14.600
16.0, -22442.090206395413, -19103.901875484215, -49476.41336636703, -52628.29990724324, -20842.465262706908, -33561.09959615464, -49208.25948813671, -33028.63633974032, -9492.517649235446, -51522.91673695049, -53121.602907371875, -59187.01698625291, -49899.42013018372, -43746.81189618253, -45800.289011036046, -44952.17441942387, 0.095375, 0.9458437500000001, 0.14410937499999998, 192.0, 0.0, 0.0, 0.0, 0.0, 0.0, 0.0, 0.0, 0.0, 0.0, 1.658165714600826E9, 0.0, 2022-07-18 13:35:14.600
18.0, -22400.024223330525, -19191.56541723793, -49403.904307354016, -52566.34087161313, -20780.193302654425, -33530.74592718434, -49138.58910066952, -32996.40512423577, -9518.22215535905, -51537.75829526881, -53147.21800651765, -59210.419262697615, -49926.48809271909, -43778.484318075694, -45825.07709563698, -44981.65637036042, 0.095375, 0.9458437500000001, 0.14410937499999998, 192.0, 0.0, 0.0, 0.0, 0.0, 0.0, 0.0, 0.0, 0.0, 0.0, 1.658165714600832E9, 0.0, 2022-07-18 13:35:14.600
20.0, -22451.880270466838, -19120.665683825693, -49480.861363513635, -52631.09387530016, -20841.68295165097, -33571.13552941508, -49209.824110248584, -33018.131019846325, -9494.082271347317, -51514.937164179944, -53121.804073071966, -59185.22884669648, -49890.658246357234, -43745.94017814877, -45788.28612426354, -44948.26286414419, 0.095375, 0.9458437500000001, 0.14410937499999998, 192.0, 0.0, 0.0, 0.0, 0.0, 0.0, 0.0, 0.0, 0.0, 0.0, 1.658165714600838E9, 0.0, 2022-07-18 13:35:14.600
22.0, -22419.783165429017, -19191.721879449116, -49414.58844120365, -52566.74320301333, -20787.614081813586, -33525.58267421516, -49160.51616198017, -32996.65099342477, -9547.972327229063, -51572.671720108, -53183.29372206852, -59237.733094422, -49941.37435452633, -43799.20438518577, -45844.947796457745, -44998.77780661319, 0.095375, 0.9458437500000001, 0.14410937499999998, 192.0, 0.0, 0.0, 0.0, 0.0, 0.0, 0.0, 0.0, 0.0, 0.0, 1.658165714600844E9, 0.0, 2022-07-18 13:35:14.600
24.0, -22433.82006094695, -19100.325596371367, -49450.39593582105, -52599.913191785, -20815.509058893807, -33532.15408708502, -49180.386862800944, -32999.82494113743, -9485.856829387765, -51491.62429471306, -53109.53296536601, -59159.94902371753, -49865.17725767819, -43719.7215819027, -45762.35810069539, -44916.478683528745, 0.09568750000000001, 0.947921875, 0.1460546875, 192.0, 1.5, 0.0, 14.5, 88.0, 2.0, 80.0, 0.0, 0.0, 0.0, 1.65816571460085E9, 0.0, 2022-07-18 13:35:14.600
26.0, -22414.128174081823, -19168.386658237774, -49411.83917663565, -52566.13970591303, -20792.21854117138, -33521.134677068556, -49158.19158055682, -32994.92990910172, -9529.107454908784, -51553.113943709606, -53168.18394281673, -59216.8789168452, -49939.72032543663, -43778.10433841996, -45834.84480796395, -44981.03052151567, 0.09568750000000001, 0.947921875, 0.1460546875, 192.0, 0.0, 0.0, 0.0, 0.0, 0.0, 0.0, 0.0, 0.0, 0.0, 1.6581657146008563E9, 0.0, 2022-07-18 13:35:14.600
28.0, -22426.62279923234, -19107.67932029716, -49457.59319753566, -52604.98703777636, -20821.521678152287, -33535.2162760754, -49198.849403721026, -33008.18449356371, -9471.529361191913, -51480.62723644105, -53101.039302472986, -59153.511721314404, -49871.793374036955, -43714.044238811046, -45777.6019904139, -44915.584613750536, 0.09568750000000001, 0.947921875, 0.1460546875, 192.0, 0.0, 0.0, 0.0, 0.0, 0.0, 0.0, 0.0, 0.0, 0.0, 1.6581657146008632E9, 0.0, 2022-07-18 13:35:14.600
30.0, -22415.37987177132, -19158.373076721797, -49436.44844728094, -52585.809241033705, -20804.333186666154, -33541.16184010051, -49175.51418250969, -33026.62468273934, -9536.729399768043, -51566.189714215965, -53182.980797646145, -59231.96634435253, -49958.36168031236, -43793.83996651649, -45872.015758993126, -45014.826359132094, 0.09568750000000001, 0.947921875, 0.1460546875, 192.0, 0.0, 0.0, 0.0, 0.0, 0.0, 0.0, 0.0, 0.0, 0.0, 1.65816571460087E9, 0.0, 2022-07-18 13:35:14.600
32.0, -22410.551894968976, -19104.170096417678, -49442.79634270625, -52587.95500850141, -20798.611140085595, -33523.45925849191, -49169.38980452893, -32979.52955717201, -9469.182428024105, -51465.651567655994, -53096.032511715, -59143.788712476344, -49864.506705344524, -43707.00343930763, -45778.76428112558, -44924.01122141018, 0.09568750000000001, 0.947921875, 0.1460546875, 192.0, 0.0, 0.0, 0.0, 0.0, 0.0, 0.0, 0.0, 0.0, 0.0, 1.6581657146008763E9, 0.0, 2022-07-18 13:35:14.600
34.0, -22420.319607295944, -19150.058227784422, -49441.87992118358, -52592.47006088139, -20799.16993369698, -33544.469898279895, -49176.36354879899, -33017.66163321277, -9527.811053730376, -51561.38408915807, -53179.44922202221, -59226.221946027516, -49944.436543516706, -43793.34822813848, -45865.89138101237, -45014.73695215428, 0.09568750000000001, 0.947921875, 0.1460546875, 192.0, 0.0, 0.0, 0.0, 0.0, 0.0, 0.0, 0.0, 0.0, 0.0, 1.6581657146008825E9, 0.0, 2022-07-18 13:35:14.600
36.0, -22417.525639239033, -19134.099082243334, -49430.949918144936, -52583.95404624392, -20781.06502068818, -33511.612833930594, -49148.222702529754, -32971.706446612654, -9463.862712843742, -51472.73707064833, -53096.16662218173, -59143.721657242975, -49856.14715291824, -43703.02482879458, -45759.452373916196, -44911.382485792936, 0.092, 0.9480000000000001, 0.14, 192.0, 1.0, 112.0, 14.5, 80.0, 2.0, 48.0, 0.0, 0.0, 0.0, 1.6581657146008887E9, 0.0, 2022-07-18 13:35:14.600
38.0, -22450.338000099422, -19163.961012835625, -49467.74088951837, -52623.18135776298, -20824.583867142665, -33553.008264661825, -49202.24686887823, -33031.698528730696, -9541.043286447917, -51586.64156039257, -53193.68728324024, -59247.27728930442, -49966.542418783, -43811.31903068054, -45869.46766012522, -45018.402638244945, 0.092, 0.9480000000000001, 0.14, 192.0, 0.0, 0.0, 0.0, 0.0, 0.0, 0.0, 0.0, 0.0, 0.0, 1.6581657146008973E9, 0.0, 2022-07-18 13:35:14.600
40.0, -22413.323511281433, -19149.588841150864, -49438.3706973041, -52584.1105084551, -20784.998927712313, -33515.72555491037, -49163.176019570354, -32987.285612498, -9484.269855531438, -51496.31816104867, -53114.1374247238, -59167.74978253243, -49893.20634522514, -43734.451381498744, -45788.599048685915, -44936.08116341605, 0.092, 0.9480000000000001, 0.14, 192.0, 0.0, 0.0, 0.0, 0.0, 0.0, 0.0, 0.0, 0.0, 0.0, 1.6581657146009028E9, 0.0, 2022-07-18 13:35:14.600
42.0, -22447.43227332023, -19142.145710247245, -49480.05670071324, -52616.632296637574, -20830.507079423318, -33560.630209521085, -49209.57824105957, -33044.707244003686, -9531.186167143127, -51581.433603934485, -53184.031329635545, -59239.364771767236, -49968.53172403952, -43801.976001498224, -45876.17318346181, -45019.85550163454, 0.092, 0.9480000000000001, 0.14, 192.0, 0.0, 0.0, 0.0, 0.0, 0.0, 0.0, 0.0, 0.0, 0.0, 1.6581657146009078E9, 0.0, 2022-07-18 13:35:14.600
44.0, -22408.96492111265, -19153.388637708264, -49415.48251098186, -52554.405040074, -20766.849311214606, -33510.74111589684, -49149.20617928579, -32993.36528698984, -9467.506047189958, -51481.253085285796, -53104.4367676302, -59151.500064313426, -49870.38521413627, -43710.78088412057, -45776.14912702431, -44923.43007605435, 0.092, 0.9480000000000001, 0.14, 192.0, 0.0, 0.0, 0.0, 0.0, 0.0, 0.0, 0.0, 0.0, 0.0, 1.6581657146009128E9, 0.0, 2022-07-18 13:35:14.600
46.0, -22465.648945051307, -19141.497509658042, -49486.538706605286, -52629.283383999275, -20836.18442251497, -33585.306535399744, -49225.17975868938, -33076.558479852494, -9524.435940317624, -51573.69990035295, -53187.89818142631, -59232.83806238628, -49953.310186065464, -43794.219946172234, -45853.64262505086, -45000.230670002784, 0.1, 0.9580000000000001, 0.14200000000000002, 192.0, 1.5, 16.0, 14.5, 120.0, 2.0, 56.0, 0.0, 0.0, 0.0, 1.6581657146009176E9, 0.0, 2022-07-18 13:35:14.600
48.0, -22407.445002489687, -19170.97946059459, -49408.88874636755, -52557.62369127556, -20762.11074139008, -33524.01805210329, -49162.61722595897, -33015.2923483005, -9491.109489334762, -51506.86818443158, -53137.115018023855, -59182.032547239374, -49891.9769992801, -43741.00044262415, -45788.55434519701, -44937.9587099503, 0.1, 0.9580000000000001, 0.14200000000000002, 192.0, 0.0, 0.0, 0.0, 0.0, 0.0, 0.0, 0.0, 0.0, 0.0, 1.6581657146009226E9, 0.0, 2022-07-18 13:35:14.600
50.0, -22459.993953704114, -19129.382864163264, -49495.36764566513, -52635.60892768013, -20834.46333819191, -33572.32017187121, -49237.76379081771, -33055.43608134223, -9514.958800668574, -51560.91470252451, -53181.25971332309, -59228.166547795125, -49949.06335461895, -43784.496937334174, -45842.86908422341, -44989.7700535977, 0.1, 0.9580000000000001, 0.14200000000000002, 192.0, 0.0, 0.0, 0.0, 0.0, 0.0, 0.0, 0.0, 0.0, 0.0, 1.6581657146009276E9, 0.0, 2022-07-18 13:35:14.600
52.0, -22393.989252327592, -19171.60530943934, -49413.24733653633, -52553.19804587341, -20752.611249996575, -33494.29023197773, -49138.14206578041, -32959.07771099541, -9491.35535852377, -51509.10335887711, -53137.673811635235, -59179.462096627016, -49902.03528428499, -43734.49608498765, -45802.12185408138, -44938.718669261776, 0.1, 0.9580000000000001, 0.14200000000000002, 192.0, 0.0, 0.0, 0.0, 0.0, 0.0, 0.0, 0.0, 0.0, 0.0, 1.6581657146009324E9, 0.0, 2022-07-18 13:35:14.600
54.0, -22464.978392717647, -19127.550021117928, -49514.344276707685, -52656.10547734565, -20846.26505926431, -33581.75260803135, -49219.189491175355, -33028.65869148477, -9502.307713306871, -51556.51140886681, -53168.8991986393, -59212.54267842087, -49933.64065094479, -43773.0304924286, -45841.57268304499, -44979.44354765935, 0.1, 0.9580000000000001, 0.14200000000000002, 192.0, 0.0, 0.0, 0.0, 0.0, 0.0, 0.0, 0.0, 0.0, 0.0, 1.6581657146009371E9, 0.0, 2022-07-18 13:35:14.600
56.0, -22401.00770008656, -19182.848236900358, -49409.1122638121, -52561.31172911069, -20758.780331466238, -33514.11622930959, -49135.01282155667, -32959.70355984015, -9506.666303475655, -51531.6115655436, -53159.198541545695, -59201.56797189331, -49916.340400736386, -43767.599018525965, -45823.065438636004, -44963.03736722915, 0.096, 0.9540000000000001, 0.14200000000000002, 192.0, 1.5, 0.0, 14.5, 104.0, 2.0, 56.0, 0.0, 0.0, 0.0, 1.6581657146009421E9, 0.0, 2022-07-18 13:35:14.600
58.0, -22455.501253068596, -19107.656968552707, -49492.55132586376, -52642.783837650284, -20842.97935282938, -33576.09761668416, -49218.58599407506, -33035.56538052147, -9487.667320688644, -51539.479379591874, -53152.31420425346, -59201.29975095985, -49915.267517002525, -43768.26957085962, -45822.48429328016, -44958.94699799383, 0.096, 0.9540000000000001, 0.14200000000000002, 192.0, 0.0, 0.0, 0.0, 0.0, 0.0, 0.0, 0.0, 0.0, 0.0, 1.6581657146009486E9, 0.0, 2022-07-18 13:35:14.600
60.0, -22412.49649673659, -19183.11645783382, -49413.24733653633, -52571.68293853795, -20779.38863985403, -33531.17061032899, -49144.15468503889, -32988.64906890978, -9510.801376199886, -51542.38510637106, -53167.02165210505, -59211.38038770919, -49930.15377880976, -43773.85750697345, -45836.58824403146, -44977.67775984738, 0.096, 0.9540000000000001, 0.14200000000000002, 192.0, 0.0, 0.0, 0.0, 0.0, 0.0, 0.0, 0.0, 0.0, 0.0, 1.6581657146009552E9, 0.0, 2022-07-18 13:35:14.600
62.0, -22455.277735624044, -19098.001014948015, -49505.962372536946, -52653.624433711106, -20866.158111829533, -33585.41829412202, -49235.483912883275, -33050.92102896226, -9492.651759702178, -51525.15191139602, -53150.10138155239, -59193.58839912277, -49921.59306068338, -43753.91975091932, -45831.76026722912, -44967.574771353575, 0.096, 0.9540000000000001, 0.14200000000000002, 192.0, 0.0, 0.0, 0.0, 0.0, 0.0, 0.0, 0.0, 0.0, 0.0, 1.6581657146009617E9, 0.0, 2022-07-18 13:35:14.600
64.0, -22399.756002397062, -19174.26516702952, -49426.54662448724, -52568.59839780312, -20800.756907553307, -33522.654595691514, -49144.95934783928, -32990.70542939966, -9520.45732980458, -51548.33067039617, -53176.09646035391, -59216.700102889554, -49947.565787740445, -43779.15487040936, -45869.758232803135, -45004.34339098256, 0.096, 0.9540000000000001, 0.14200000000000002, 192.0, 0.0, 0.0, 0.0, 0.0, 0.0, 0.0, 0.0, 0.0, 0.0, 1.6581657146009676E9, 0.0, 2022-07-18 13:35:14.600
66.0, -22420.520772996042, -19075.06812513687, -49496.14995672106, -52622.06377054021, -20859.899623382047, -33539.03842437726, -49195.630752519464, -32985.92215608623, -9456.307823217849, -51496.6534372155, -53114.45034914617, -59160.32900337327, -49896.24618247106, -43718.738105146665, -45812.47071176419, -44939.14335240643, 0.094, 0.9460000000000001, 0.146, 192.0, 1.0, 120.0, 14.5, 72.0, 2.0, 72.0, 0.0, 0.0, 0.0, 1.6581657146009753E9, 0.0, 2022-07-18 13:35:14.600
68.0, -22398.593711685386, -19171.82882688389, -49432.73805770136, -52572.97933971636, -20814.100898993125, -33518.5642264562, -49159.130353823944, -32996.3380690024, -9505.749881952988, -51549.11298145211, -53171.35789052938, -59215.20253601105, -49946.76112494006, -43774.304541862555, -45863.87972401139, -44991.60289664303, 0.094, 0.9460000000000001, 0.146, 192.0, 0.0, 0.0, 0.0, 0.0, 0.0, 0.0, 0.0, 0.0, 0.0, 1.6581657146009817E9, 0.0, 2022-07-18 13:35:14.600
70.0, -22455.143625157314, -19115.34596864533, -49498.1839654665, -52641.42038123851, -20869.957908386936, -33563.51358455582, -49211.701656782825, -32995.71222015765, -9460.398192453169, -51517.172338625474, -53124.530985895515, -59179.48444837147, -49894.70391210364, -43729.71281167422, -45806.34633378343, -44939.836256484545, 0.094, 0.9460000000000001, 0.146, 192.0, 0.0, 0.0, 0.0, 0.0, 0.0, 0.0, 0.0, 0.0, 0.0, 1.6581657146009877E9, 0.0, 2022-07-18 13:35:14.600
72.0, -22416.1398310828, -19183.496437489564, -49427.19482507644, -52584.42343287748, -20813.29623619273, -33538.01024413231, -49153.341252010025, -32967.504318655054, -9523.385408328224, -51591.11190928363, -53199.49873679862, -59256.57561499782, -49960.97683441363, -43811.05080974708, -45871.88164852639, -45007.69615265085, 0.094, 0.9460000000000001, 0.146, 192.0, 0.0, 0.0, 0.0, 0.0, 0.0, 0.0, 0.0, 0.0, 0.0, 1.6581657146009934E9, 0.0, 2022-07-18 13:35:14.600
74.0, -22421.414842774255, -19097.01753819198, -49465.058680183734, -52609.569145389694, -20832.83166084667, -33532.936398140955, -49185.97479891477, -32981.00477230606, -9439.946346276563, -51489.992617367825, -53100.212287928145, -59157.37857310517, -49865.91486524521, -43711.540843432056, -45767.11902226436, -44903.760540933676, 0.094, 0.9460000000000001, 0.146, 192.0, 0.0, 0.0, 0.0, 0.0, 0.0, 0.0, 0.0, 0.0, 0.0, 1.658165714601E9, 0.0, 2022-07-18 13:35:14.601
76.0, -22419.090261350902, -19175.69567867466, -49448.51838928681, -52600.80726156322, -20834.97742831438, -33549.92372392699, -49170.37328128496, -33013.8394849109, -9523.296001350403, -51584.987531302875, -53190.51333552758, -59242.67282994662, -49969.00111067309, -43806.736923067205, -45865.578456589996, -45009.01490557372, 0.09, 0.9520000000000001, 0.14200000000000002, 192.0, 1.0, 104.0, 14.5, 96.0, 2.0, 56.0, 0.0, 0.0, 0.0, 1.6581657146010065E9, 0.0, 2022-07-18 13:35:14.601
78.0, -22419.380834028823, -19114.049567466926, -49462.756450504836, -52612.05018902424, -20840.118329539102, -33541.09478486714, -49177.88346742195, -32988.91728984324, -9456.687802873588, -51495.24527731482, -53103.27447691852, -59157.95971846101, -49882.05282474194, -43719.1180848024, -45773.10928977839, -44921.50782603119, 0.09, 0.9520000000000001, 0.14200000000000002, 192.0, 0.0, 0.0, 0.0, 0.0, 0.0, 0.0, 0.0, 0.0, 0.0, 1.6581657146010127E9, 0.0, 2022-07-18 13:35:14.601
80.0, -22404.539275710496, -19149.432378939677, -49429.92173789999, -52582.679996809966, -20825.232067731868, -33527.147296327035, -49158.32569102356, -32976.06503678144, -9513.528289023434, -51583.78053710229, -53177.102288854396, -59236.23552754349, -49960.306282079975, -43789.21315541425, -45859.99052047617, -45004.45514970484, 0.09, 0.9520000000000001, 0.14200000000000002, 192.0, 0.0, 0.0, 0.0, 0.0, 0.0, 0.0, 0.0, 0.0, 0.0, 1.658165714601019E9, 0.0, 2022-07-18 13:35:14.601
82.0, -22413.77054617054, -19120.576276847874, -49443.93628167347, -52591.37482540308, -20835.55857367022, -33519.43594448995, -49174.038967375636, -32970.96883904563, -9445.467227157025, -51478.727338162345, -53087.203572655155, -59145.263927610395, -49866.65247281224, -43695.33582870196, -45767.16372575328, -44907.046247368606, 0.09, 0.9520000000000001, 0.14200000000000002, 192.0, 0.0, 0.0, 0.0, 0.0, 0.0, 0.0, 0.0, 0.0, 0.0, 1.6581657146010256E9, 0.0, 2022-07-18 13:35:14.601
84.0, -22425.01347363156, -19154.50622493103, -49453.61458702262, -52604.80822382071, -20853.685838423473, -33537.45145052093, -49199.899935710426, -33005.36817376234, -9511.874259933742, -51577.61145563263, -53177.25875106559, -59233.59802169777, -49963.569636770444, -43787.00033271317, -45867.18778219078, -45001.99645781475, 0.09, 0.9520000000000001, 0.14200000000000002, 192.0, 0.0, 0.0, 0.0, 0.0, 0.0, 0.0, 0.0, 0.0, 0.0, 1.658165714601032E9, 0.0, 2022-07-18 13:35:14.601
86.0, -22400.51596170854, -19128.108814729312, -49423.395028519044, -52574.275740894765, -20805.048442488725, -33497.1065517791, -49130.38601045442, -32973.27106872453, -9450.697535359566, -51482.25891378629, -53095.384311125796, -59150.583642790756, -49878.18597295117, -43705.63998289585, -45769.242437987625, -44912.61183173798, 0.08600000000000001, 0.9500000000000001, 0.146, 192.0, 1.0, 88.0, 14.5, 88.0, 2.0, 72.0, 0.0, 0.0, 0.0, 1.6581657146010377E9, 0.0, 2022-07-18 13:35:14.601
88.0, -22442.403130817787, -19147.532480660975, -49469.461973841426, -52610.55262214573, -20857.30682102523, -33539.88779066656, -49189.886354194445, -32991.44303696669, -9513.103605878783, -51564.647443848546, -53176.34232954292, -59225.5290419494, -49966.18479087172, -43786.530946079605, -45850.24515989365, -44992.18404199887, 0.08600000000000001, 0.9500000000000001, 0.146, 192.0, 0.0, 0.0, 0.0, 0.0, 0.0, 0.0, 0.0, 0.0, 0.0, 1.6581657146010435E9, 0.0, 2022-07-18 13:35:14.601
90.0, -22415.692796193696, -19150.661724884718, -49432.760409445815, -52566.2067611464, -20818.12421299508, -33498.738229124334, -49141.450123959796, -32949.980551002096, -9467.774268123421, -51479.8002218962, -53109.48826187709, -59151.32125035778, -49889.18303122318, -43714.49127370015, -45773.981007812145, -44903.0005816222, 0.08600000000000001, 0.9500000000000001, 0.146, 192.0, 0.0, 0.0, 0.0, 0.0, 0.0, 0.0, 0.0, 0.0, 0.0, 1.65816571460105E9, 0.0, 2022-07-18 13:35:14.601
92.0, -22437.77631971554, -19133.964971776604, -49479.252037912855, -52614.0171425363, -20863.74412342836, -33554.90816294053, -49201.218688633286, -33022.69077571521, -9511.851908189286, -51560.646481591044, -53179.203352833196, -59220.38814072468, -49961.26740709155, -43781.05476868806, -45859.83405826498, -44985.09853900654, 0.08600000000000001, 0.9500000000000001, 0.146, 192.0, 0.0, 0.0, 0.0, 0.0, 0.0, 0.0, 0.0, 0.0, 0.0, 1.658165714601056E9, 0.0, 2022-07-18 13:35:14.601
94.0, -22398.638415174297, -19158.954222077635, -49427.12776984308, -52569.64892979252, -20808.043576245735, -33506.96367108389, -49159.86796139097, -32966.14086224328, -9469.003614068462, -51492.96539938038, -53113.064540989944, -59159.92667197307, -49887.73016783359, -43718.4698842132, -45797.49504297913, -44925.59819526651, 0.08600000000000001, 0.9500000000000001, 0.146, 192.0, 0.0, 0.0, 0.0, 0.0, 0.0, 0.0, 0.0, 0.0, 0.0, 1.658165714601061E9, 0.0, 2022-07-18 13:35:14.601
96.0, -22435.809366203473, -19122.006788493014, -49483.521221103816, -52631.45150321144, -20855.719847168904, -33558.819718220206, -49205.756092757714, -33019.516828002554, -9486.952064866075, -51561.920531024996, -53163.62418694785, -59215.157832522134, -49946.090572606394, -43772.40464358385, -45853.15088667285, -44989.1665564974, 0.09, 0.9480000000000001, 0.14200000000000002, 192.0, 1.0, 104.0, 14.5, 80.0, 2.0, 56.0, 0.0, 0.0, 0.0, 1.658165714601066E9, 0.0, 2022-07-18 13:35:14.601
98.0, -22391.19528427068, -19165.950318092146, -49406.608868433104, -52562.07168842217, -20777.95812820889, -33502.806246615204, -49131.83887384402, -32968.95718204465, -9444.573157378813, -51491.69134994643, -53110.762311311046, -59160.507817328915, -49884.13153697629, -43724.14722730485, -45782.76524338308, -44938.09282041703, 0.09, 0.9480000000000001, 0.14200000000000002, 192.0, 0.0, 0.0, 0.0, 0.0, 0.0, 0.0, 0.0, 0.0, 0.0, 1.658165714601071E9, 0.0, 2022-07-18 13:35:14.601
100.0, -22456.752950758095, -19132.64621885374, -49501.201450967965, -52651.9257011325, -20871.45547526544, -33584.43481736598, -49226.69967731234, -33044.64018877032, -9478.950140351075, -51557.025498989286, -53163.87005613686, -59213.772024365906, -49938.24511030258, -43777.21026864174, -45834.97891843068, -44997.54846066814, 0.09, 0.9480000000000001, 0.14200000000000002, 192.0, 0.0, 0.0, 0.0, 0.0, 0.0, 0.0, 0.0, 0.0, 0.0, 1.658165714601076E9, 0.0, 2022-07-18 13:35:14.601
102.0, -22398.258435518557, -19186.40216426875, -49408.575821945175, -52562.8539994781, -20792.330299893656, -33515.949072354924, -49138.41028671388, -32973.40517919126, -9474.993881582484, -51522.02266717228, -53143.14998902679, -59190.59326536576, -49910.953630322656, -43755.59613175346, -45812.9624501422, -44974.03442550116, 0.09, 0.9480000000000001, 0.14200000000000002, 192.0, 0.0, 0.0, 0.0, 0.0, 0.0, 0.0, 0.0, 0.0, 0.0, 1.658165714601082E9, 0.0, 2022-07-18 13:35:14.601
104.0, -22439.25153484959, -19109.60157032032, -49480.928418747004, -52630.08804679967, -20859.385533259578, -33560.339636843164, -49209.28766838166, -33028.68104322923, -9459.414715697136, -51536.52894932377, -53141.54066342601, -59190.68267234357, -49919.827272871415, -43756.80312595405, -45820.271470579086, -44969.63113184347, 0.09, 0.9480000000000001, 0.14200000000000002, 192.0, 0.0, 0.0, 0.0, 0.0, 0.0, 0.0, 0.0, 0.0, 0.0, 1.6581657150805764E9, 0.0, 2022-07-18 13:35:15.080
106.0, -22392.29051974899, -19188.391469525275, -49395.58945841664, -52551.633423761545, -20782.54023582223, -33497.844159346125, -49138.81261811407, -32982.4352839512, -9461.135800020194, -51519.65338226002, -53132.510558666065, -59178.94800650454, -49909.29960123296, -43743.41443102532, -45807.73214193966, -44952.73321303525, 0.093, 0.9470000000000001, 0.14300000000000002, 192.0, 1.5, 0.0, 14.5, 72.0, 2.0, 64.0, 0.0, 0.0, 0.0, 1.6581657150806556E9, 0.0, 2022-07-18 13:35:15.080
108.0, -22471.572157331964, -19131.72979733107, -49504.88948880309, -52644.34845976216, -20869.399114775555, -33552.96356117291, -49233.941642515856, -33030.2456653411, -9465.136762277694, -51535.634879545556, -53149.05084956299, -59193.81191656732, -49914.97694432461, -43750.2764165731, -45816.82930193297, -44956.60006482602, 0.093, 0.9470000000000001, 0.14300000000000002, 192.0, 0.0, 0.0, 0.0, 0.0, 0.0, 0.0, 0.0, 0.0, 0.0, 1.6581657150807295E9, 0.0, 2022-07-18 13:35:15.080
110.0, -22415.78220317152, -19209.402109313265, -49419.416418005996, -52562.474019822366, -20791.078602204158, -33502.42626695946, -49148.8485513745, -32969.85125182286, -9493.232905058016, -51548.73300179637, -53176.34232954292, -59217.258896500934, -49937.61926145783, -43764.82740221351, -45834.241310863654, -44967.731233564766, 0.093, 0.9470000000000001, 0.14300000000000002, 192.0, 0.0, 0.0, 0.0, 0.0, 0.0, 0.0, 0.0, 0.0, 0.0, 1.6581657150807347E9, 0.0, 2022-07-18 13:35:15.080
112.0, -22440.950267428194, -19106.271160396478, -49479.676721057505, -52613.86068032512, -20838.97839057188, -33537.65261622103, -49197.30713335361, -33010.799647664986, -9451.412791182136, -51515.69712349142, -53138.858454091365, -59183.150134462136, -49892.53579289148, -43725.711849416715, -45797.606801701404, -44935.09768666002, 0.093, 0.9470000000000001, 0.14300000000000002, 192.0, 0.0, 0.0, 0.0, 0.0, 0.0, 0.0, 0.0, 0.0, 0.0, 1.6581657150807395E9, 0.0, 2022-07-18 13:35:15.080
114.0, -22406.34976701138, -19198.248588830065, -49417.874147638584, -52559.523589554265, -20792.3079481492, -33505.64491816103, -49150.457876975284, -32985.02808630801, -9477.854904872764, -51543.48034184937, -53164.4959049816, -59208.876992330195, -49924.07410431792, -43751.41635554032, -45827.87106369389, -44965.965445752794, 0.093, 0.9470000000000001, 0.14300000000000002, 192.0, 0.0, 0.0, 0.0, 0.0, 0.0, 0.0, 0.0, 0.0, 0.0, 1.6581657150807447E9, 0.0, 2022-07-18 13:35:15.080
116.0, -22445.174747130248, -19111.83674476585, -49490.025578740315, -52627.69641014295, -20854.110521568124, -33540.424232533485, -49213.93683122836, -33009.34678427539, -9442.986183522486, -51503.94010590793, -53119.81476781545, -59166.587491820756, -49882.09752823085, -43714.33481148897, -45793.24821153262, -44930.00148892421, 0.0955, 0.9465000000000001, 0.14450000000000002, 192.0, 1.5, 8.0, 14.5, 72.0, 2.0, 72.0, 0.0, 0.0, 0.0, 1.6581657150807507E9, 0.0, 2022-07-18 13:35:15.080
118.0, -22398.191380285192, -19173.236986784577, -49412.10739756911, -52560.32825235466, -20791.905616749005, -33504.415572215985, -49152.15660955389, -32990.236042766104, -9490.908323634663, -51545.24612966134, -53170.08384109543, -59211.55920166484, -49939.519159736534, -43764.737995235686, -45848.658186037326, -44988.54070765265, 0.0955, 0.9465000000000001, 0.14450000000000002, 192.0, 0.0, 0.0, 0.0, 0.0, 0.0, 0.0, 0.0, 0.0, 0.0, 1.6581657150807557E9, 0.0, 2022-07-18 13:35:15.080
120.0, -22421.638360218807, -19101.97962546106, -49474.96050297743, -52615.96174430392, -20840.3194952392, -33539.0160726328, -49198.67058976538, -33008.36330751936, -9425.954154247542, -51467.1491345345, -53099.96641873913, -59141.15120663062, -49867.524190845994, -43692.60891587841, -45780.306551493, -44925.285270844135, 0.0955, 0.9465000000000001, 0.14450000000000002, 192.0, 0.0, 0.0, 0.0, 0.0, 0.0, 0.0, 0.0, 0.0, 0.0, 1.6581657150807605E9, 0.0, 2022-07-18 13:35:15.080
122.0, -22403.846371632382, -19177.79674265346, -49427.105418098625, -52575.10275543961, -20804.333186666154, -33521.55936021321, -49153.09538282101, -32990.52661544402, -9487.376748010725, -51554.365641399105, -53174.82241091996, -59215.49310868897, -49944.995337128086, -43770.37063483842, -45854.40258436234, -45004.14222528246, 0.0955, 0.9465000000000001, 0.14450000000000002, 192.0, 0.0, 0.0, 0.0, 0.0, 0.0, 0.0, 0.0, 0.0, 0.0, 1.6581657150807655E9, 0.0, 2022-07-18 13:35:15.080
