%OpenBCI Raw EEG Data
%Number of channels = 16
%Sample Rate = 125 Hz
%Board = OpenBCI_GUI$BoardCytonSerialDaisy
Sample Index, EXG Channel 0, EXG Channel 1, EXG Channel 2, EXG Channel 3, EXG Channel 4, EXG Channel 5, EXG Channel 6, EXG Channel 7, EXG Channel 8, EXG Channel 9, EXG Channel 10, EXG Channel 11, EXG Channel 12, EXG Channel 13, EXG Channel 14, EXG Channel 15, Accel Channel 0, Accel Channel 1, Accel Channel 2, Other, Other, Other, Other, Other, Other, Other, Analog Channel 0, Analog Channel 1, Analog Channel 2, Timestamp, Other, Timestamp (Formatted)
0.0, -40983.89041231757, -17678.93346296948, -59734.321800985555, -58787.457202369835, -45586.896906721224, -48040.42554383583, -46062.229104307786, -28942.53628761009, 0.0, 0.0, 0.0, 0.0, 0.0, 0.0, 0.0, 0.0, 0.027, 0.48, -0.027, 192.0, 0.5, 88.0, 15.0, 0.0, 127.0, 40.0, 0.0, 0.0, 0.0, 1.6689761791555436E9, 0.0, 2022-11-20 15:29:39.155
182.0, -41071.28573313782, -17799.878752217144, -59821.82888052808, -58864.68247946292, -45671.20768680664, -48116.644992428424, -46143.947082036386, -29023.8519339385, -47936.57933909647, -16920.91875325665, -51772.80923996082, -55182.90313278474, -48703.87002275825, -32898.54918701043, -50028.90378581331, -56443.67563053079, 0.027, 0.48, -0.027, 192.0, 0.0, 0.0, 0.0, 0.0, 0.0, 0.0, 0.0, 0.0, 0.0, 1.668976179155552E9, 0.0, 2022-11-20 15:29:39.155
184.0, -40998.57550842471, -17694.937311999478, -59750.817388393574, -58798.387205408486, -45597.78220627096, -48044.98529970471, -46072.220334079306, -28952.661627848345, -47888.85836468439, -16877.869293435728, -51717.51102417839, -55131.628231004266, -48650.96344363254, -32843.02745378345, -49985.407291103285, -56397.02753985257, 0.027, 0.48, -0.027, 192.0, 0.0, 0.0, 0.0, 0.0, 0.0, 0.0, 0.0, 0.0, 0.0, 1.6689761791555583E9, 0.0, 2022-11-20 15:29:39.155
186.0, -41081.679294309535, -17783.114943875666, -59828.04266548666, -58876.84182844661, -45678.44965201017, -48128.35730652301, -46155.61469264206, -29034.290198599127, -47943.32956592197, -16926.86431728176, -51781.235847620475, -55188.78164157649, -48710.64260132821, -32903.198349857135, -50034.44701843822, -56450.537616078575, 0.027, 0.48, -0.027, 192.0, 0.0, 0.0, 0.0, 0.0, 0.0, 0.0, 0.0, 0.0, 0.0, 1.6689761791555648E9, 0.0, 2022-11-20 15:29:39.155
188.0, -40989.99243855387, -17699.36295740163, -59743.41896097887, -58790.340577404575, -45597.73750278205, -48043.21951189274, -46071.30391255664, -28948.6830173353, -47904.48223405865, -16896.555351800365, -51734.63246043116, -55147.073286422885, -48672.577580520825, -32865.60271568331, -49999.91357325477, -56416.36179880641, 0.027, 0.48, -0.027, 192.0, 0.0, 0.0, 0.0, 0.0, 0.0, 0.0, 0.0, 0.0, 0.0, 1.6689761791555712E9, 0.0, 2022-11-20 15:29:39.155
190.0, -41089.65886708008, -17768.832179168723, -59850.28265121969, -58892.93508445443, -45708.51274830255, -48147.66921373239, -46175.552448696195, -29052.104538930005, -47935.97584199618, -16925.657323081174, -51770.70817598202, -55177.8739902823, -48715.02354324145, -32904.584158013364, -50029.7084486137, -56446.24608114315, 0.0425, 0.722, -0.0375, 192.0, 0.5, 104.0, 15.0, 16.0, 127.0, 64.0, 0.0, 0.0, 0.0, 1.6689761791555777E9, 0.0, 2022-11-20 15:29:39.155
192.0, -40979.174194237494, -17706.470812138417, -59743.77658889015, -58778.76237377672, -45601.090264450344, -48037.162189145354, -46069.0240346222, -28943.653874832857, -47921.26839414459, -16918.102433455282, -51747.79763791533, -55159.813780762415, -48696.04691219889, -32881.874785646774, -50015.89507054032, -56429.68343850177, 0.0425, 0.722, -0.0375, 192.0, 0.0, 0.0, 0.0, 0.0, 0.0, 0.0, 0.0, 0.0, 0.0, 1.668976179155584E9, 0.0, 2022-11-20 15:29:39.155
194.0, -41085.65790482258, -17743.50765270086, -59846.79577908466, -58887.19068612942, -45707.372809335335, -48146.015184642696, -46171.506782949786, -29048.37179760597, -47917.24508014263, -16902.657378036663, -51752.692669951044, -55159.813780762415, -48699.0420459559, -32887.328611293866, -50015.179814717754, -56431.940964691756, 0.0425, 0.722, -0.0375, 192.0, 0.0, 0.0, 0.0, 0.0, 0.0, 0.0, 0.0, 0.0, 0.0, 1.6689761791555903E9, 0.0, 2022-11-20 15:29:39.155
196.0, -40973.608609868126, -17704.392099904075, -59733.36067597398, -58770.872207984, -45596.10582543681, -48034.837607722, -46060.73153742928, -28937.194220685273, -47921.33544937795, -16915.97901773203, -51744.82485590278, -55160.707850540624, -48693.58822030881, -32887.79799792743, -50019.918384542274, -56437.461845572216, 0.0425, 0.722, -0.0375, 192.0, 0.0, 0.0, 0.0, 0.0, 0.0, 0.0, 0.0, 0.0, 0.0, 1.668976179155624E9, 0.0, 2022-11-20 15:29:39.155
198.0, -41078.86297450816, -17713.08692849719, -59832.58006961108, -58889.29175010822, -45709.07154191394, -48150.30671957812, -46175.50774520728, -29054.27265814217, -47909.48902481664, -16903.77496525943, -51736.9123383656, -55152.37064985879, -48689.699016773586, -32884.42288451468, -50010.17302395976, -56433.907918203826, 0.0425, 0.722, -0.0375, 192.0, 0.0, 0.0, 0.0, 0.0, 0.0, 0.0, 0.0, 0.0, 0.0, 1.6689761791556325E9, 0.0, 2022-11-20 15:29:39.155
200.0, -40978.59304888166, -17715.098585498166, -59726.23046949274, -58775.364908619515, -45595.88230799226, -48037.18454088981, -46065.96184563182, -28944.190316699784, -47928.465655859196, -16924.696198069596, -51747.99880361543, -55170.006176234034, -48698.706769789074, -32902.23722484556, -50024.52284390007, -56451.43168585678, 0.04825, 0.844, -0.041749999999999995, 192.0, 0.5, 88.0, 15.0, 24.0, 127.0, 72.0, 0.0, 0.0, 0.0, 1.6689761791556408E9, 0.0, 2022-11-20 15:29:39.155
202.0, -41067.12830866913, -17682.375631615596, -59821.784177039175, -58877.95941566938, -45690.877221927316, -48134.57109148158, -46159.72741362183, -29042.202716136304, -47891.02648389655, -16875.611767245744, -51718.85212884571, -55129.68362923666, -48662.96633040504, -32864.820404627375, -49981.13810791232, -56410.79621443704, 0.04825, 0.844, -0.041749999999999995, 192.0, 0.0, 0.0, 0.0, 0.0, 0.0, 0.0, 0.0, 0.0, 0.0, 1.66897617915565E9, 0.0, 2022-11-20 15:29:39.155
204.0, -40987.4219879415, -17727.548507159772, -59745.76589414667, -58778.807077265636, -45606.99112498655, -48042.16897990334, -46076.24364808126, -28956.975514528218, -47943.64249034435, -16939.850680810294, -51772.45161204954, -55186.725281086605, -48718.33160142083, -32916.38587908577, -50043.499474942626, -56465.06624997452, 0.04825, 0.844, -0.041749999999999995, 192.0, 0.0, 0.0, 0.0, 0.0, 0.0, 0.0, 0.0, 0.0, 0.0, 1.6689761791556585E9, 0.0, 2022-11-20 15:29:39.155
206.0, -41056.19830563048, -17656.02292490279, -59821.71712180581, -58862.91669165096, -45685.51280325804, -48122.299983775614, -46152.23957922931, -29036.771242233666, -47879.67179771326, -16856.076342591805, -51702.89298330462, -55114.506794751505, -48655.925530901615, -32846.983712552035, -49977.38301484383, -56394.50179272912, 0.04825, 0.844, -0.041749999999999995, 192.0, 0.0, 0.0, 0.0, 0.0, 0.0, 0.0, 0.0, 0.0, 0.0, 1.6689761791556742E9, 0.0, 2022-11-20 15:29:39.155
208.0, -40999.22370901391, -17747.329801002717, -59765.860112411996, -58795.25796118474, -45620.02219200399, -48058.41869812235, -46089.11825288752, -28970.766540857145, -47956.986481784166, -16939.962439532574, -51780.654702264634, -55193.296693956465, -48731.563834138375, -32919.984509943075, -50058.49749547213, -56472.196456455764, 0.04825, 0.844, -0.041749999999999995, 192.0, 0.0, 0.0, 0.0, 0.0, 0.0, 0.0, 0.0, 0.0, 0.0, 1.6689761791556828E9, 0.0, 2022-11-20 15:29:39.155
210.0, -41036.55112225427, -17640.086131106156, -59802.136993662956, -58859.832150916125, -45662.3787477468, -48108.955992335796, -46131.1395324635, -29018.778087947143, -47866.52897197354, -16848.72261866601, -51687.02324474135, -55101.654541689706, -48635.40662949165, -32825.950721019595, -49960.48509603561, -56383.43767922374, 0.054125, 0.9039999999999999, -0.045875, 192.0, 0.5, 112.0, 15.0, 16.0, 127.0, 56.0, 0.0, 0.0, 0.0, 1.668976179155691E9, 0.0, 2022-11-20 15:29:39.155
212.0, -41002.21884277092, -17752.202481293974, -59766.44125776783, -58806.16561247893, -45617.049409991436, -48061.72675630174, -46088.06772089812, -28971.548851913078, -47956.628853872884, -16951.339477460322, -51783.56042904383, -55195.75538584655, -48727.89814804771, -32920.61035878782, -50055.6141204374, -56482.81353507203, 0.054125, 0.9039999999999999, -0.045875, 192.0, 0.0, 0.0, 0.0, 0.0, 0.0, 0.0, 0.0, 0.0, 0.0, 1.6689761791557047E9, 0.0, 2022-11-20 15:29:39.155
214.0, -41034.36065129765, -17651.664334734003, -59807.166136165404, -58861.10620035008, -45658.24367502257, -48107.86075685749, -46128.97141325133, -29014.55360824509, -47869.97114061966, -16862.75951418394, -51699.20494546949, -55107.60010571482, -48641.665117939134, -32829.61640711027, -49974.79021248701, -56396.06641484099, 0.054125, 0.9039999999999999, -0.045875, 192.0, 0.0, 0.0, 0.0, 0.0, 0.0, 0.0, 0.0, 0.0, 0.0, 1.668976179155711E9, 0.0, 2022-11-20 15:29:39.155
216.0, -41008.79025564078, -17771.916719903555, -59777.28185382865, -58812.69232185988, -45615.864767535306, -48071.11448897296, -46093.07451165611, -28979.103741538973, -47961.88151381988, -16948.12082625876, -51790.26595238042, -55196.20242073565, -48722.421970656156, -32911.379088327776, -50061.179704806775, -56484.26639846163, 0.054125, 0.9039999999999999, -0.045875, 192.0, 0.0, 0.0, 0.0, 0.0, 0.0, 0.0, 0.0, 0.0, 0.0, 1.6689761791557171E9, 0.0, 2022-11-20 15:29:39.155
218.0, -41012.29947952026, -17646.92576490948, -59783.89797018743, -58835.02171457073, -45629.476979908584, -48091.85690782749, -46104.518604817225, -28993.78883764611, -47852.58148343342, -16844.60989768623, -51682.374081894646, -55089.6516549172, -48608.69629486756, -32800.82736025183, -49956.05945063347, -56380.35313848891, 0.054125, 0.9039999999999999, -0.045875, 192.0, 0.0, 0.0, 0.0, 0.0, 0.0, 0.0, 0.0, 0.0, 0.0, 1.668976179155723E9, 0.0, 2022-11-20 15:29:39.155
220.0, -41041.22263684543, -17810.115851177678, -59798.78423199466, -58839.5367669507, -45636.98716604557, -48104.46329170028, -46114.06279969964, -29003.087163339518, -47977.326569238496, -16970.427867225157, -51806.40391187715, -55217.57068843493, -48727.808741069886, -32925.86301873482, -50071.930893889774, -56502.77364287063, 0.0540625, 0.9339999999999999, -0.0459375, 192.0, 0.5, 88.0, 15.0, 16.0, 127.0, 72.0, 0.0, 0.0, 0.0, 1.6689761791557295E9, 0.0, 2022-11-20 15:29:39.155
222.0, -41006.242156772874, -17675.0219076898, -59774.13025786046, -58833.390037225494, -45620.17865421518, -48081.418643166864, -46092.69453200037, -28979.953107828274, -47867.44539349621, -16853.640002446176, -51690.8006895543, -55106.10253883631, -48612.38433270268, -32813.59020633581, -49962.07206989194, -56388.35506300391, 0.0540625, 0.9339999999999999, -0.0459375, 192.0, 0.0, 0.0, 0.0, 0.0, 0.0, 0.0, 0.0, 0.0, 0.0, 1.6689761791557355E9, 0.0, 2022-11-20 15:29:39.155
224.0, -41046.00591015886, -17832.646409588626, -59809.31190363311, -58859.65333696048, -45650.733488885584, -48097.71306487478, -46120.70126780287, -29000.427305749337, -47978.01947331661, -16962.78357062144, -51806.739188043975, -55221.23637452559, -48727.78638932543, -32922.59966404434, -50073.09318460145, -56488.75909909715, 0.0540625, 0.9339999999999999, -0.0459375, 192.0, 0.0, 0.0, 0.0, 0.0, 0.0, 0.0, 0.0, 0.0, 0.0, 1.668976179155742E9, 0.0, 2022-11-20 15:29:39.155
226.0, -40997.234403757386, -17705.867315038126, -59760.98743212074, -58826.55040342217, -45609.53922385445, -48054.03775620911, -46076.40011029245, -28960.30592445206, -47868.607684207884, -16853.930575124094, -51695.33809367873, -55111.690474950134, -48611.28909722437, -32804.15777017567, -49963.591988514905, -56370.831295350945, 0.0540625, 0.9339999999999999, -0.0459375, 192.0, 0.0, 0.0, 0.0, 0.0, 0.0, 0.0, 0.0, 0.0, 0.0, 1.6689761791557481E9, 0.0, 2022-11-20 15:29:39.155
228.0, -41073.297390138796, -17869.01269781741, -59836.536328379676, -58891.16929664246, -45680.90834390025, -48125.40687625491, -46149.31150070566, -29031.183306119838, -47996.45966249224, -16972.05954457039, -51825.201728964064, -55237.396685766784, -48740.95156680961, -32923.247864633544, -50085.31958881851, -56499.532639924604, 0.0540625, 0.9339999999999999, -0.0459375, 192.0, 0.0, 0.0, 0.0, 0.0, 0.0, 0.0, 0.0, 0.0, 0.0, 1.6689761791557543E9, 0.0, 2022-11-20 15:29:39.155
230.0, -40972.96040927892, -17732.689408384493, -59749.699801170806, -58812.73702534879, -45602.07374120638, -48048.11454392845, -46068.934627644376, -28951.365226669936, -47879.09065235742, -16875.567063756833, -51706.42455892856, -55127.7613792135, -48631.53977770088, -32812.11499120176, -49978.52295381105, -56394.4123857513, 0.05903125, 0.946, -0.046968750000000004, 192.0, 1.0, 0.0, 14.5, 120.0, 127.0, 64.0, 0.0, 0.0, 0.0, 1.6689761791557608E9, 0.0, 2022-11-20 15:29:39.155
232.0, -41054.633683518616, -17866.844578605243, -59832.71418007782, -58887.79418322971, -45679.92486714421, -48129.54194897914, -46146.91986404894, -29030.445698552812, -47948.67163284679, -16937.5484511314, -51781.81699297631, -55199.55518240395, -48715.6493920862, -32892.1118846073, -50052.39546923584, -56468.083735475986, 0.05903125, 0.946, -0.046968750000000004, 192.0, 0.0, 0.0, 0.0, 0.0, 0.0, 0.0, 0.0, 0.0, 0.0, 1.6689761791557672E9, 0.0, 2022-11-20 15:29:39.155
234.0, -40974.569734879704, -17769.547434991295, -59753.477245983755, -58811.68649335939, -45598.028075459966, -48052.56254107506, -46066.94532238786, -28952.661627848345, -47894.73687347613, -16889.939235441594, -51719.90266083511, -55143.38524858776, -48647.96830987553, -32830.86810479976, -49994.59385807441, -56412.02556038208, 0.05903125, 0.946, -0.046968750000000004, 192.0, 0.0, 0.0, 0.0, 0.0, 0.0, 0.0, 0.0, 0.0, 0.0, 1.668976179155774E9, 0.0, 2022-11-20 15:29:39.155
236.0, -41065.876610979634, -17868.54331118385, -59839.08442724758, -58894.075023421654, -45681.3330270449, -48133.85583565901, -46148.68565186091, -29033.530239287644, -47942.94958626623, -16932.564012117866, -51776.00553941793, -55193.09552825637, -48700.45020585659, -32880.84660540183, -50038.246814995626, -56458.49483710466, 0.05903125, 0.946, -0.046968750000000004, 192.0, 0.0, 0.0, 0.0, 0.0, 0.0, 0.0, 0.0, 0.0, 0.0, 1.6689761791557822E9, 0.0, 2022-11-20 15:29:39.155
238.0, -40974.68149360198, -17798.448240572005, -59751.17501630486, -58801.1811734654, -45591.009627701, -48039.93380545781, -46056.88703738297, -28940.167002697828, -47902.13530089084, -16895.460116322054, -51726.205852771505, -55149.82255099089, -48647.16364707514, -32831.82922981134, -49997.767805787065, -56410.88562141486, 0.05903125, 0.946, -0.046968750000000004, 192.0, 0.0, 0.0, 0.0, 0.0, 0.0, 0.0, 0.0, 0.0, 0.0, 1.6689761791557908E9, 0.0, 2022-11-20 15:29:39.155
240.0, -41084.22739317744, -17887.743459670957, -59861.346764725065, -58908.31308463968, -45703.170681377735, -48151.111382378505, -46168.01991081476, -29051.6575040409, -47954.63954861636, -16939.40364592119, -51787.226115134494, -55206.48422318509, -48709.39090363871, -32887.12744559377, -50048.68507965626, -56462.74166855117, 0.059515625, 0.953, -0.048484375, 192.0, 0.5, 112.0, 15.0, 0.0, 127.0, 56.0, 0.0, 0.0, 0.0, 1.668976179155799E9, 0.0, 2022-11-20 15:29:39.155
242.0, -40953.64850206953, -17814.742662279925, -59733.271268996155, -58778.89648424346, -45574.06700540388, -48022.834720949504, -46042.60427267603, -28926.040700202073, -47916.0604376865, -16916.068424709847, -51745.361297769705, -55170.54261810096, -48670.543571775386, -32847.050767785404, -50017.414989163284, -56431.15865363582, 0.059515625, 0.953, -0.048484375, 192.0, 0.0, 0.0, 0.0, 0.0, 0.0, 0.0, 0.0, 0.0, 0.0, 1.6689761791558075E9, 0.0, 2022-11-20 15:29:39.155
244.0, -41057.897038209085, -17852.181834242565, -59834.39056091197, -58890.14111639752, -45680.84128866688, -48130.10074259052, -46149.15503849448, -29030.624512508457, -47905.935097448244, -16894.029604676914, -51737.02409708787, -55157.2656818945, -48661.647577482174, -32841.44047992712, -50000.40531163279, -56418.55226976303, 0.059515625, 0.953, -0.048484375, 192.0, 0.0, 0.0, 0.0, 0.0, 0.0, 0.0, 0.0, 0.0, 0.0, 1.6689761791558185E9, 0.0, 2022-11-20 15:29:39.155
246.0, -40945.87009499909, -17830.835918287747, -59726.096359026, -58772.39212660696, -45567.74146172303, -48012.329401055504, -46037.686888895856, -28917.94936870925, -47926.230481413666, -16913.699139797587, -51743.77432391338, -55170.25204542304, -48668.8895426857, -32847.07311952986, -50017.61615486338, -56431.11395014691, 0.059515625, 0.953, -0.048484375, 192.0, 0.0, 0.0, 0.0, 0.0, 0.0, 0.0, 0.0, 0.0, 0.0, 1.6689761791558268E9, 0.0, 2022-11-20 15:29:39.155
248.0, -41042.519038023835, -17825.203278685007, -59826.27687767469, -58887.68242450743, -45669.91128562824, -48122.523501220174, -46138.51560813375, -29021.728518215245, -47891.71938797467, -16869.28622356489, -51715.32055322177, -55135.271565350486, -48645.26374879644, -32822.75442156249, -49985.295532381, -56401.609647465906, 0.059515625, 0.953, -0.048484375, 192.0, 0.0, 0.0, 0.0, 0.0, 0.0, 0.0, 0.0, 0.0, 0.0, 1.6689761791558352E9, 0.0, 2022-11-20 15:29:39.155
250.0, -40942.67379554198, -17837.139110224143, -59723.66001888037, -58774.24732139675, -45560.20892384159, -48012.57527024452, -46028.85794983601, -28909.992147683162, -47917.58035630946, -16906.032491449416, -51743.886082635654, -55163.658280808726, -48670.610627008755, -32848.36952070827, -50015.33627692894, -56436.9701071942, 0.059515625, 0.953, -0.048484375, 192.0, 0.0, 0.0, 0.0, 0.0, 0.0, 0.0, 0.0, 0.0, 0.0, 1.668976179155842E9, 0.0, 2022-11-20 15:29:39.155
252.0, -41040.50738102286, -17819.660046060093, -59823.79583404015, -58889.78348848623, -45667.76551816053, -48126.636222199944, -46139.56614012315, -29020.32035831456, -47866.864248140366, -16854.869348391217, -51700.18842222553, -55117.59133548634, -48625.728324142496, -32806.83997951031, -49964.910741437765, -56389.47265022667, 0.052000000000000005, 0.962, -0.052000000000000005, 192.0, 0.5, 80.0, 15.0, 8.0, 127.0, 48.0, 0.0, 0.0, 0.0, 1.6689761791558502E9, 0.0, 2022-11-20 15:29:39.155
254.0, -40970.41231041102, -17879.62977643368, -59750.66092618238, -58802.81285081063, -45593.133043424255, -48048.11454392845, -46068.42053752191, -28945.55377311156, -47959.69104286326, -16944.16456749017, -51778.01719641891, -55203.556144661445, -48707.043970470906, -32891.19546308464, -50050.070887812486, -56475.88449429089, 0.052000000000000005, 0.962, -0.052000000000000005, 192.0, 0.0, 0.0, 0.0, 0.0, 0.0, 0.0, 0.0, 0.0, 0.0, 1.6689761791558588E9, 0.0, 2022-11-20 15:29:39.155
0.0, -41015.20520629945, -17790.200446868, -59799.968874450795, -58864.36955504055, -45647.20191326165, -48108.15132953541, -46120.90243350297, -29002.103686583483, -47872.92157088775, -16856.299860036357, -51693.9522855225, -55116.07141686338, -48619.8274636063, -32802.90607248617, -49963.25671234807, -56391.529010716564, 0.052000000000000005, 0.962, -0.052000000000000005, 192.0, 0.0, 0.0, 0.0, 0.0, 0.0, 0.0, 0.0, 0.0, 0.0, 1.668976179155867E9, 0.0, 2022-11-20 15:29:39.155
2.0, -40938.985757706854, -17861.658973891615, -59721.022513034644, -58765.70895501482, -45563.18170585415, -48021.65007849337, -46036.72576388428, -28917.05529893104, -47932.31015590551, -16926.05965448137, -51753.07264960679, -55174.565932102916, -48680.758318991466, -32863.88163136025, -50025.863948567385, -56454.71739229171, 0.052000000000000005, 0.962, -0.052000000000000005, 192.0, 0.0, 0.0, 0.0, 0.0, 0.0, 0.0, 0.0, 0.0, 0.0, 1.6689761791558757E9, 0.0, 2022-11-20 15:29:39.155
4.0, -41025.44230525998, -17793.530856791836, -59805.422700097886, -58868.23640683132, -45659.38361398979, -48119.0589808296, -46129.0384684847, -29013.436021022324, -47833.56014890196, -16827.17553701109, -51662.12340141814, -55080.48743969053, -48593.295942937846, -32777.17921461812, -49930.17613055422, -56365.01984179257, 0.052000000000000005, 0.962, -0.052000000000000005, 192.0, 0.0, 0.0, 0.0, 0.0, 0.0, 0.0, 0.0, 0.0, 0.0, 1.668976179155884E9, 0.0, 2022-11-20 15:29:39.155
6.0, -40986.751435607846, -17899.9251603991, -59767.20121707931, -58811.239458470285, -45609.60627908782, -48067.13587845992, -46081.585715006084, -28964.083369265005, -47970.956322068734, -16946.98088729154, -51787.941370957065, -55204.15964176174, -48719.53859562142, -32902.6172045013, -50055.18943729275, -56493.27415147712, 0.052000000000000005, 0.9580000000000001, -0.05, 192.0, 0.5, 80.0, 14.5, 120.0, 127.0, 56.0, 0.0, 0.0, 0.0, 1.6689761791558926E9, 0.0, 2022-11-20 15:29:39.155
8.0, -40994.39573221156, -17768.698068701993, -59787.89893244493, -58849.21507229985, -45636.24955847854, -48091.14165200492, -46102.55165130516, -28987.284480009614, -47865.120812072855, -16842.084150562783, -51682.016453983364, -55100.46989923357, -48615.40181820415, -32793.11600841475, -49949.26452031905, -56387.30453101451, 0.052000000000000005, 0.9580000000000001, -0.05, 192.0, 0.0, 0.0, 0.0, 0.0, 0.0, 0.0, 0.0, 0.0, 0.0, 1.668976179155901E9, 0.0, 2022-11-20 15:29:39.155
10.0, -40978.995380281856, -17890.20215156104, -59760.4062867649, -58804.48923164478, -45600.486767350056, -48054.08245969802, -46069.78399393368, -28952.05813074805, -47951.06326950351, -16933.122805729246, -51770.99874865994, -55192.804955578446, -48706.77574953744, -32887.55212873842, -50033.910576571296, -56473.60461635645, 0.052000000000000005, 0.9580000000000001, -0.05, 192.0, 0.0, 0.0, 0.0, 0.0, 0.0, 0.0, 0.0, 0.0, 0.0, 1.6689761791559072E9, 0.0, 2022-11-20 15:29:39.155
12.0, -41009.527863207804, -17784.746621220904, -59798.09132791655, -58860.63681371651, -45644.877331838296, -48097.93658231933, -46111.40294210946, -28994.817017891055, -47855.263692768065, -16848.744970410466, -51675.04270971331, -55100.46989923357, -48606.32700995529, -32796.0440869384, -49936.56872946844, -56369.84781859491, 0.052000000000000005, 0.9580000000000001, -0.05, 192.0, 0.0, 0.0, 0.0, 0.0, 0.0, 0.0, 0.0, 0.0, 0.0, 1.6689761791559134E9, 0.0, 2022-11-20 15:29:39.155
14.0, -41029.9350058955, -17925.942590945077, -59817.514993848206, -58865.93417715242, -45653.30393949794, -48104.59740216701, -46121.46122711435, -29002.68483193932, -47988.368330999416, -16990.320919790378, -51817.60213584926, -55244.07985735892, -48745.28780523394, -32938.04471946296, -50077.98821663716, -56510.06031156306, 0.052000000000000005, 0.9580000000000001, -0.05, 192.0, 0.0, 0.0, 0.0, 0.0, 0.0, 0.0, 0.0, 0.0, 0.0, 1.6689761791559196E9, 0.0, 2022-11-20 15:29:39.155
16.0, -40991.422950199005, -17774.93420540502, -59776.94657766182, -58843.00128734128, -45621.89973853824, -48076.18833496432, -46089.96761917682, -28974.32046822554, -47859.13054455883, -16864.257081062446, -51687.02324474135, -55113.299800550914, -48615.51357692642, -32808.27049115545, -49954.71834596615, -56385.73990890264, 0.052000000000000005, 0.96, -0.052000000000000005, 192.0, 0.5, 80.0, 15.0, 0.0, 127.0, 48.0, 0.0, 0.0, 0.0, 1.6689761791559258E9, 0.0, 2022-11-20 15:29:39.155
18.0, -41032.8854361636, -17917.694797241067, -59816.2185926698, -58866.537674252715, -45658.93657910068, -48111.43703597034, -46131.25129118578, -29011.11143959897, -47969.10112727894, -16970.807846880896, -51801.151251930154, -55220.78933963649, -48731.4520754161, -32915.648271518745, -50060.10682107292, -56494.70466312226, 0.052000000000000005, 0.96, -0.052000000000000005, 192.0, 0.0, 0.0, 0.0, 0.0, 0.0, 0.0, 0.0, 0.0, 0.0, 1.668976179155932E9, 0.0, 2022-11-20 15:29:39.155
20.0, -40971.574601122695, -17768.42984776853, -59762.417943765875, -58820.046045785675, -45609.27100292099, -48063.96193074727, -46081.228087094794, -28962.02700877512, -47859.8458003814, -16867.743953197474, -51683.73753830642, -55104.783785913445, -48617.23466124948, -32802.10140968578, -49953.868979676845, -56382.45420246771, 0.052000000000000005, 0.96, -0.052000000000000005, 192.0, 0.0, 0.0, 0.0, 0.0, 0.0, 0.0, 0.0, 0.0, 0.0, 1.6689761791559403E9, 0.0, 2022-11-20 15:29:39.155
22.0, -41053.13611664011, -17919.617047264226, -59839.64322085896, -58886.43072681794, -45681.37773053381, -48132.9617658808, -46153.312462963164, -29031.02684390865, -47977.72890063869, -16978.25097778451, -51805.5768973323, -55223.31508675994, -48737.19647374111, -32923.29256812246, -50070.276864800086, -56493.65413113286, 0.052000000000000005, 0.96, -0.052000000000000005, 192.0, 0.0, 0.0, 0.0, 0.0, 0.0, 0.0, 0.0, 0.0, 0.0, 1.6689761791559465E9, 0.0, 2022-11-20 15:29:39.155
24.0, -40953.603798580625, -17763.266594799352, -59734.07593179655, -58794.00626349524, -45581.64424677423, -48040.02321243563, -46057.13290657198, -28936.6801305628, -47876.67666395625, -16891.54856104238, -51699.24964895841, -55125.07916987887, -48629.796341633366, -32820.65335758369, -49971.28098860753, -56388.377414748364, 0.052000000000000005, 0.96, -0.052000000000000005, 192.0, 0.0, 0.0, 0.0, 0.0, 0.0, 0.0, 0.0, 0.0, 0.0, 1.6689761791559527E9, 0.0, 2022-11-20 15:29:39.155
26.0, -41046.05061364778, -17889.665709694113, -59827.439168386365, -58880.12753488154, -45665.82091639291, -48127.485588489246, -46143.142419236, -29024.79070720562, -47939.708583320215, -16951.093608271316, -51769.67999573708, -55189.16162123223, -48699.10910118927, -32891.62014622929, -50023.89699505532, -56452.92925273529, 0.058, 0.9540000000000001, -0.052000000000000005, 192.0, 0.5, 104.0, 14.5, 104.0, 127.0, 48.0, 0.0, 0.0, 0.0, 1.668976179155959E9, 0.0, 2022-11-20 15:29:39.155
28.0, -40950.608664823616, -17781.90794967508, -59737.36163823148, -58795.28031292919, -45577.330360094355, -48036.7375060007, -46053.73544141477, -28935.607246828946, -47872.22866680964, -16895.594226788788, -51701.01543677037, -55127.69432398013, -48630.73511490049, -32819.803991294386, -49961.82620070293, -56391.171382805274, 0.058, 0.9540000000000001, -0.052000000000000005, 192.0, 0.0, 0.0, 0.0, 0.0, 0.0, 0.0, 0.0, 0.0, 0.0, 1.668976179155965E9, 0.0, 2022-11-20 15:29:39.155
30.0, -41063.149698156085, -17894.381927774182, -59849.120360508015, -58909.43067186245, -45682.56237298994, -48145.456391031315, -46155.72645136434, -29038.26880911217, -47944.69302233375, -16959.900195586706, -51778.10660339673, -55202.05857778294, -48707.60276408229, -32894.34705905284, -50032.83769283744, -56465.73680230818, 0.058, 0.9540000000000001, -0.052000000000000005, 192.0, 0.0, 0.0, 0.0, 0.0, 0.0, 0.0, 0.0, 0.0, 0.0, 1.6689761791559713E9, 0.0, 2022-11-20 15:29:39.155
32.0, -40960.89046727306, -17808.595932554716, -59747.19640579181, -58807.57377237961, -45577.73269149455, -48045.29822412709, -46052.439040236364, -28937.06011021854, -47907.63383002685, -16921.701064312587, -51732.57609994127, -55161.06547845191, -48657.64661522468, -32853.51042193299, -49991.30815163948, -56427.85059545644, 0.058, 0.9540000000000001, -0.052000000000000005, 192.0, 0.0, 0.0, 0.0, 0.0, 0.0, 0.0, 0.0, 0.0, 0.0, 1.6689761791559775E9, 0.0, 2022-11-20 15:29:39.155
34.0, -41069.430538348024, -17881.127343312186, -59851.71316286483, -58916.85145102161, -45686.45157652516, -48153.145391123944, -46160.88970433351, -29044.54964930411, -47936.288766418555, -16942.532890144932, -51769.50118178144, -55189.29573169896, -48691.30834237437, -32885.83104441536, -50016.99030601863, -56452.437514357276, 0.058, 0.9540000000000001, -0.052000000000000005, 192.0, 0.0, 0.0, 0.0, 0.0, 0.0, 0.0, 0.0, 0.0, 0.0, 1.6689761791559837E9, 0.0, 2022-11-20 15:29:39.155
36.0, -40979.42006342651, -17845.43160741706, -59764.54135948913, -58824.60580165456, -45601.35848538381, -48064.87835226993, -46076.33305505908, -28956.43907266129, -47923.68238254576, -16947.83025358084, -51752.37974552867, -55180.75736531703, -48675.237438111006, -32872.06236983089, -50019.22548046416, -56445.24025264267, 0.06, 0.962, -0.052000000000000005, 192.0, 0.5, 112.0, 15.0, 8.0, 127.0, 48.0, 0.0, 0.0, 0.0, 1.66897617915599E9, 0.0, 2022-11-20 15:29:39.155
38.0, -41082.305143154284, -17876.947567099043, -59860.586805413586, -58929.97192501688, -45704.17650987822, -48174.13367916748, -46178.43582373093, -29059.950001233818, -47935.90878676281, -16951.78651234943, -51774.12799288369, -55198.99638879256, -48696.203374410085, -32896.87280617628, -50038.82796035147, -56471.592959355476, 0.06, 0.962, -0.052000000000000005, 192.0, 0.0, 0.0, 0.0, 0.0, 0.0, 0.0, 0.0, 0.0, 0.0, 1.668976179155996E9, 0.0, 2022-11-20 15:29:39.155
40.0, -40962.03040624028, -17837.362627668695, -59732.086626540025, -58790.72055706031, -45582.426557830164, -48047.734564272716, -46058.63047345048, -28938.602380585955, -47936.26641467409, -16953.41818969467, -51762.30392006683, -55190.61448462182, -48687.30738011687, -32884.57934672586, -50031.49658817013, -56466.31794766402, 0.06, 0.962, -0.052000000000000005, 192.0, 0.0, 0.0, 0.0, 0.0, 0.0, 0.0, 0.0, 0.0, 0.0, 1.668976179156002E9, 0.0, 2022-11-20 15:29:39.156
42.0, -41048.35284332667, -17825.829127529756, -59824.53344160717, -58887.570665785155, -45682.76353869004, -48149.792629455646, -46156.35230020909, -29039.07347191256, -47893.149899619806, -16901.785660002908, -51724.596527170725, -55142.96056544311, -48650.71757444353, -32844.614427639775, -49984.6473317918, -56422.575583764985, 0.06, 0.962, -0.052000000000000005, 192.0, 0.0, 0.0, 0.0, 0.0, 0.0, 0.0, 0.0, 0.0, 0.0, 1.6689761791560085E9, 0.0, 2022-11-20 15:29:39.156
44.0, -40935.25301638282, -17830.590049098737, -59716.01572227666, -58761.57388229059, -45569.93193267965, -48031.283680353605, -46045.46529596631, -28924.364319367927, -47919.34614412143, -16934.68742784112, -51748.49054199345, -55171.92842625719, -48678.25492361247, -32870.87772737476, -50018.532576386046, -56447.49777883265, 0.06, 0.962, -0.052000000000000005, 192.0, 0.0, 0.0, 0.0, 0.0, 0.0, 0.0, 0.0, 0.0, 0.0, 1.6689761791560144E9, 0.0, 2022-11-20 15:29:39.156
46.0, -41027.8339419167, -17797.66592951607, -59809.58012456657, -58862.38024978403, -45666.35735825984, -48125.49628323273, -46139.7896575677, -29020.32035831456, -47858.72821315864, -16869.643851476176, -51696.16510822358, -55116.809024430404, -48624.901309597655, -32813.3443371468, -49955.83593318891, -56384.55526644651, 0.056, 0.962, -0.052000000000000005, 192.0, 0.5, 96.0, 15.0, 8.0, 127.0, 48.0, 0.0, 0.0, 0.0, 1.6689761791560209E9, 0.0, 2022-11-20 15:29:39.156
46.0, -20256.11195041084, -5242.825179436824, -29661.3013340594, -29275.733742205353, -22706.82426772407, -23995.089411150147, -22982.734201280382, -14325.233021406297, -47858.72821315864, -16869.643851476176, -51696.16510822358, -55116.809024430404, -48624.901309597655, -32813.3443371468, -49955.83593318891, -56384.55526644651, 0.056, 0.956, -0.065, 192.0, 0.75, 144.0, 22.0, 92.0, 190.0, 96.0, 0.0, 0.0, 0.0, 1.6689761797418988E9, 0.0, 2022-11-20 15:29:39.741
2.0, -40630.062297590055, -10504.045844560367, -59439.25642243105, -58673.61976785896, -45533.833865384324, -48110.72178014777, -46082.859764440036, -28768.34914306988, -47673.54401034642, -17372.312232531578, -51450.497084915296, -54883.166239639075, -48442.1310951866, -32765.712769712543, -49322.722771492336, -56233.88215707328, 0.056, 0.956, -0.065, 192.0, 0.0, 0.0, 0.0, 0.0, 0.0, 0.0, 0.0, 0.0, 0.0, 1.668976179741939E9, 0.0, 2022-11-20 15:29:39.741
4.0, -40556.592113565464, -10564.23909237851, -59363.52871221647, -58584.59276969347, -45440.56003577233, -48022.767665716136, -45996.13499595344, -28679.568014093402, -47744.33198503638, -17449.64926834694, -51516.43473105845, -54951.24965324994, -48502.59256393821, -32831.11397398877, -49382.82661233266, -56297.45051830418, 0.056, 0.956, -0.065, 192.0, 0.0, 0.0, 0.0, 0.0, 0.0, 0.0, 0.0, 0.0, 0.0, 1.668976179741979E9, 0.0, 2022-11-20 15:29:39.741
6.0, -40615.89129160539, -10460.147018450143, -59438.16118695273, -58668.23299744523, -45507.86113832726, -48095.9025735739, -46063.79372641966, -28754.044026618485, -47666.659673054186, -17363.66210742737, -51444.529169145724, -54874.62787325715, -48424.33910660018, -32754.11221434024, -49295.56540197914, -56214.950229519636, 0.056, 0.956, -0.065, 192.0, 0.0, 0.0, 0.0, 0.0, 0.0, 0.0, 0.0, 0.0, 0.0, 1.6689761797420533E9, 0.0, 2022-11-20 15:29:39.742
8.0, -40558.71552928872, -10548.525816026427, -59388.540314261954, -58588.32551101751, -45446.37148933071, -48025.136950628395, -46003.33225766805, -28687.681697330678, -47744.175522825186, -17439.948611253334, -51522.53675729475, -54950.6685078941, -48503.28546801633, -32826.017776252964, -49382.91601931048, -56290.67793973422, 0.058, 0.9480000000000001, -0.088, 192.0, 0.5, 104.0, 14.5, 80.0, 126.5, 32.0, 0.0, 0.0, 0.0, 1.6689761797420585E9, 0.0, 2022-11-20 15:29:39.742
10.0, -40609.006954313154, -10433.034352425857, -59431.56742233842, -58655.961889739265, -45505.894184815195, -48084.637294368426, -46056.775278660694, -28742.86815439083, -47656.91431247167, -17348.082941542023, -51438.404791164976, -54860.70273646149, -48424.182644388995, -32740.075318822306, -49306.920088162435, -56205.40603463722, 0.058, 0.9480000000000001, -0.088, 192.0, 0.0, 0.0, 0.0, 0.0, 0.0, 0.0, 0.0, 0.0, 0.0, 1.6689761797420633E9, 0.0, 2022-11-20 15:29:39.742
12.0, -40573.870012029416, -10557.086534152812, -59389.032052639974, -58600.037825112086, -45454.507524312445, -48033.3400408435, -46008.473158892775, -28692.35321192184, -47750.09873510584, -17443.480186877274, -51530.06929517619, -54952.05431605033, -48515.198947811004, -32825.28016868594, -49396.17060377248, -56299.79745147198, 0.058, 0.9480000000000001, -0.088, 192.0, 0.0, 0.0, 0.0, 0.0, 0.0, 0.0, 0.0, 0.0, 0.0, 1.6689761797420683E9, 0.0, 2022-11-20 15:29:39.742
14.0, -40599.574518153015, -10424.563041277295, -59423.11846293431, -58650.82098851455, -45493.66778059814, -48082.42447166735, -46047.544008200646, -28733.793346141978, -47649.73940250152, -17352.173310777343, -51433.286241684706, -54855.00304162539, -48415.75603672934, -32729.502943694944, -49302.382684038006, -56208.33411316087, 0.058, 0.9480000000000001, -0.088, 192.0, 0.0, 0.0, 0.0, 0.0, 0.0, 0.0, 0.0, 0.0, 0.0, 1.6689761797420733E9, 0.0, 2022-11-20 15:29:39.742
16.0, -40579.32383767651, -10550.313955582853, -59400.67731150119, -58609.00087463867, -45468.075033196816, -48055.46826785425, -46029.88613008096, -28712.69329937617, -47757.675976476196, -17455.147797482943, -51533.82438824468, -54958.49161845346, -48522.060933358785, -32841.28401771594, -49410.676885923975, -56319.22111740364, 0.058, 0.9480000000000001, -0.088, 192.0, 0.0, 0.0, 0.0, 0.0, 0.0, 0.0, 0.0, 0.0, 0.0, 1.668976179742078E9, 0.0, 2022-11-20 15:29:39.742
18.0, -40578.250953942654, -10406.502831757407, -59411.92023896221, -58630.07856966002, -45491.65612359716, -48077.350625675994, -46049.645072179446, -28735.536782209492, -47653.20392289209, -17352.173310777343, -51421.976258990326, -54848.18575956652, -48417.43241756349, -32733.056871063338, -49302.85207067157, -56213.43031089668, 0.062, 0.9540000000000001, -0.096, 192.0, 0.5, 120.0, 14.5, 104.0, 126.5, 0.0, 0.0, 0.0, 0.0, 1.668976179742083E9, 0.0, 2022-11-20 15:29:39.742
20.0, -40609.833968858, -10572.129258171231, -59432.305029905445, -58629.586831282, -45509.71633311705, -48090.11347175998, -46068.04055786617, -28751.25005856157, -47768.427165559195, -17465.22843423229, -51540.798132514734, -54965.800638890345, -48538.690631233534, -32851.90109633221, -49412.95676385841, -56325.21138491767, 0.062, 0.9540000000000001, -0.096, 192.0, 0.0, 0.0, 0.0, 0.0, 0.0, 0.0, 0.0, 0.0, 0.0, 1.668976179742088E9, 0.0, 2022-11-20 15:29:39.742
22.0, -40574.2276399407, -10418.818642952281, -59386.39454679425, -58604.95520889226, -45473.75237628846, -48061.972625490744, -46032.501284182224, -28717.34246222287, -47657.987196205526, -17368.937119118826, -51430.60403235007, -54862.960262651475, -48422.17098738802, -32740.835278133785, -49298.91816364744, -56209.38464515027, 0.062, 0.9540000000000001, -0.096, 192.0, 0.0, 0.0, 0.0, 0.0, 0.0, 0.0, 0.0, 0.0, 0.0, 1.668976179742093E9, 0.0, 2022-11-20 15:29:39.742
24.0, -40631.2916435351, -10584.37801413274, -59427.208832169636, -58645.88125298992, -45513.73964711901, -48103.12218703296, -46075.59544749206, -28758.134395853805, -47765.02970040199, -17469.587024401073, -51539.99346971434, -54973.08730758278, -48524.765494437874, -32852.437538199134, -49395.72356888337, -56311.50976556657, 0.062, 0.9540000000000001, -0.096, 192.0, 0.0, 0.0, 0.0, 0.0, 0.0, 0.0, 0.0, 0.0, 0.0, 1.668976179742098E9, 0.0, 2022-11-20 15:29:39.742
26.0, -40531.46875279769, -10405.072320112267, -59335.834900836344, -58571.06996429801, -45431.19465484556, -48019.0349243921, -45993.922173252366, -28676.05879021392, -47657.74132701651, -17369.317098774565, -51420.389285134, -54857.037050370825, -48405.787158702275, -32738.309531010334, -49286.49059373028, -56199.32636014538, 0.062, 0.9540000000000001, -0.096, 192.0, 0.0, 0.0, 0.0, 0.0, 0.0, 0.0, 0.0, 0.0, 0.0, 1.6689761797421029E9, 0.0, 2022-11-20 15:29:39.742
28.0, -40610.19159676929, -10550.738638727504, -59417.821099498404, -58638.70634301977, -45507.16823424915, -48088.88412581493, -46068.77816543319, -28747.45026200417, -47741.4709617461, -17437.422864129887, -51505.59413499763, -54936.07281876479, -48499.37391273665, -32826.28599718642, -49370.1531732265, -56279.30090180647, 0.06, 0.96, -0.1, 192.0, 0.5, 112.0, 15.0, 0.0, 126.0, 112.0, 0.0, 0.0, 0.0, 1.6689761797421079E9, 0.0, 2022-11-20 15:29:39.742
30.0, -40523.35506956042, -10406.569886990774, -59335.052589780404, -58557.16717924681, -45418.02947736138, -48001.1311770834, -45979.594705056516, -28657.551545804927, -47646.56545478886, -17352.463883455264, -51410.17453791792, -54844.25185254239, -48398.99222838786, -32721.724536624497, -49282.93666636189, -56189.44688909613, 0.06, 0.96, -0.1, 192.0, 0.0, 0.0, 0.0, 0.0, 0.0, 0.0, 0.0, 0.0, 0.0, 1.6689761797421129E9, 0.0, 2022-11-20 15:29:39.742
32.0, -40625.68135567682, -10541.216795589542, -59432.57325083891, -58650.150436180884, -45505.268335970446, -48089.71114035978, -46068.55464798864, -28744.36572126934, -47732.73142966407, -17417.440404586843, -51505.43767278644, -54931.624821618185, -48486.07462478574, -32805.476523098536, -49361.41364114448, -56267.61093945634, 0.06, 0.96, -0.1, 192.0, 0.0, 0.0, 0.0, 0.0, 0.0, 0.0, 0.0, 0.0, 0.0, 1.6689761797421176E9, 0.0, 2022-11-20 15:29:39.742
34.0, -40524.24913933863, -10428.63105876816, -59331.632772878744, -58566.97959506269, -45408.37352375669, -48001.91348813933, -45972.397443341906, -28651.695388757635, -47668.045481210414, -17363.19272079381, -51435.43200915242, -54870.29163483282, -48410.3245628267, -32738.756565899443, -49290.55861122115, -56204.02022648099, 0.06, 0.96, -0.1, 192.0, 0.0, 0.0, 0.0, 0.0, 0.0, 0.0, 0.0, 0.0, 0.0, 1.6689761797421227E9, 0.0, 2022-11-20 15:29:39.742
36.0, -40644.50152450818, -10543.675487479626, -59459.14947499627, -58690.87531457846, -45536.381964252236, -48129.653707701415, -46096.203755879855, -28774.719390239647, -47727.21054878361, -17427.476337847274, -51508.25399258781, -54941.07960952278, -48485.38172070763, -32818.954625005084, -49359.916074265966, -56280.15026809577, 0.06, 0.96, -0.1, 192.0, 0.0, 0.0, 0.0, 0.0, 0.0, 0.0, 0.0, 0.0, 0.0, 1.6689761797421296E9, 0.0, 2022-11-20 15:29:39.742
38.0, -40517.990650891144, -10443.025582197379, -59342.36161021729, -58567.15840901833, -45422.209253574525, -48009.71424695424, -45982.589838813525, -28660.412569095206, -47692.29712394442, -17387.466715272276, -51457.13555301852, -54892.48691707694, -48444.56743533223, -32776.15103437317, -49329.96473669586, -56244.96862232311, 0.05, 0.9520000000000001, -0.10200000000000001, 192.0, 0.5, 72.0, 14.5, 96.0, 126.0, 104.0, 0.0, 0.0, 0.0, 1.6689761797421343E9, 0.0, 2022-11-20 15:29:39.742
40.0, -40647.407251287375, -10517.45689123355, -59465.07268727692, -58689.176581999855, -45550.26239755898, -48135.934547893354, -46107.51373857424, -28786.007021189576, -47718.649830657225, -17407.20330562631, -51484.82936439865, -54912.82700453127, -48483.817098595755, -32809.43278186712, -49356.563312597675, -56274.11529709284, 0.05, 0.9520000000000001, -0.10200000000000001, 192.0, 0.0, 0.0, 0.0, 0.0, 0.0, 0.0, 0.0, 0.0, 0.0, 1.6689761797421396E9, 0.0, 2022-11-20 15:29:39.742
42.0, -40547.24908438314, -10480.375347182196, -59352.3081364999, -58572.768696876614, -45435.95557641454, -48021.11363662644, -45991.73170229575, -28670.62731631128, -47721.935537092155, -17410.578419039062, -51476.80508813919, -54905.31681839428, -48476.55278164778, -32794.3900578487, -49348.807257271685, -56262.67120393172, 0.05, 0.9520000000000001, -0.10200000000000001, 192.0, 0.0, 0.0, 0.0, 0.0, 0.0, 0.0, 0.0, 0.0, 0.0, 1.6689761797421443E9, 0.0, 2022-11-20 15:29:39.742
44.0, -40660.7959462161, -10506.236315516988, -59451.10284699236, -58682.80633483009, -45545.032089356435, -48128.69258268984, -46095.82377622411, -28776.619288518345, -47733.24551978654, -17413.461794073795, -51496.11699534857, -54917.87849877817, -48491.64020915511, -32808.80693302237, -49349.45545786089, -56268.706174934654, 0.05, 0.9520000000000001, -0.10200000000000001, 192.0, 0.0, 0.0, 0.0, 0.0, 0.0, 0.0, 0.0, 0.0, 0.0, 1.668976179742149E9, 0.0, 2022-11-20 15:29:39.742
46.0, -40558.760232777626, -10493.115841521721, -59348.12836028676, -58571.74051663167, -45437.095515381756, -48015.145720856875, -45989.652990061404, -28666.939278476155, -47737.89468263325, -17423.229506400767, -51493.56889648067, -54919.040789489845, -48482.632456139625, -32801.274395140936, -49349.634271816525, -56262.09005857588, 0.05, 0.9520000000000001, -0.10200000000000001, 192.0, 0.0, 0.0, 0.0, 0.0, 0.0, 0.0, 0.0, 0.0, 0.0, 1.6689761797421541E9, 0.0, 2022-11-20 15:29:39.742
48.0, -40635.449068003785, -10459.007079482923, -59439.6811055757, -58674.04445100361, -45529.00588858198, -48113.20282378231, -46080.78105220569, -28758.827299931923, -47712.994839310035, -17394.842790942526, -51479.286131773726, -54900.019454958376, -48463.27584544133, -32785.67287751113, -49330.076495418136, -56240.878253087794, 0.05, 0.9520000000000001, -0.10300000000000001, 192.0, 0.5, 72.0, 14.5, 96.0, 126.0, 96.0, 0.0, 0.0, 0.0, 1.6689761797421591E9, 0.0, 2022-11-20 15:29:39.742
50.0, -40522.34924105993, -10471.524056377895, -59335.29845896942, -58552.428609422284, -45418.94589888405, -48002.561688728536, -45974.52085906516, -28650.7119120016, -47718.24749925703, -17413.081814418056, -51484.13646032053, -54911.128271952664, -48469.84725831119, -32800.02269745144, -49345.34273688111, -56256.21154978414, 0.05, 0.9520000000000001, -0.10300000000000001, 192.0, 0.0, 0.0, 0.0, 0.0, 0.0, 0.0, 0.0, 0.0, 0.0, 1.668976179742164E9, 0.0, 2022-11-20 15:29:39.742
52.0, -40607.26351824564, -10416.1587853621, -59422.939648978674, -58652.72088679325, -45517.71825763205, -48101.557564921095, -46073.04734862415, -28751.719445195133, -47662.27873114094, -17355.727238145737, -51435.07438124113, -54858.355803293685, -48427.35659210165, -32752.212316061537, -49295.319532790134, -56207.663560827204, 0.05, 0.9520000000000001, -0.10300000000000001, 192.0, 0.0, 0.0, 0.0, 0.0, 0.0, 0.0, 0.0, 0.0, 0.0, 1.668976179742169E9, 0.0, 2022-11-20 15:29:39.742
54.0, -40527.2666248401, -10476.754364580436, -59342.71923812858, -58557.68126936928, -45424.84675942025, -48006.98733413069, -45983.103928936, -28660.792548750946, -47724.43893247115, -17424.570611068084, -51491.55723947969, -54919.64428659014, -48484.442947440504, -32808.71752604455, -49358.10558296509, -56272.684785447695, 0.05, 0.9520000000000001, -0.10300000000000001, 192.0, 0.0, 0.0, 0.0, 0.0, 0.0, 0.0, 0.0, 0.0, 0.0, 1.668976179742174E9, 0.0, 2022-11-20 15:29:39.742
56.0, -40590.2314889707, -10378.473744210452, -59410.60148603934, -58642.483787832716, -45494.561850376354, -48081.910381544876, -46050.0697553241, -28728.965369339632, -47639.61406226326, -17339.030485037623, -51413.08026469711, -54837.07694257223, -48404.311943568224, -32728.407708216633, -49278.9804075933, -56194.386624620754, 0.05, 0.9520000000000001, -0.10300000000000001, 192.0, 0.0, 0.0, 0.0, 0.0, 0.0, 0.0, 0.0, 0.0, 0.0, 1.668976179742179E9, 0.0, 2022-11-20 15:29:39.742
58.0, -40553.999311208645, -10497.161507268132, -59369.40722100821, -58587.63260693939, -45446.595006775264, -48034.21175887725, -46005.76859781368, -28685.29006067396, -47744.309633291916, -17440.30623916462, -51508.90219317701, -54935.2681559644, -48499.3962644811, -32820.65335758369, -49378.75859484179, -56296.39998631478, 0.052000000000000005, 0.9520000000000001, -0.10450000000000001, 192.0, 0.5, 88.0, 14.5, 96.0, 126.0, 88.0, 0.0, 0.0, 0.0, 1.6689761797421837E9, 0.0, 2022-11-20 15:29:39.742
60.0, -40591.058503515545, -10372.617587163162, -59403.98536968057, -58642.14851166589, -45487.3869404062, -48080.03283501063, -46046.359365744516, -28729.322997250918, -47654.679138026135, -17354.699057900794, -51422.13272120151, -54846.6434891991, -48408.40231280355, -32736.096708309262, -49288.92693387591, -56210.524584117484, 0.052000000000000005, 0.9520000000000001, -0.10450000000000001, 192.0, 0.0, 0.0, 0.0, 0.0, 0.0, 0.0, 0.0, 0.0, 0.0, 1.6689761797421887E9, 0.0, 2022-11-20 15:29:39.742
62.0, -40569.01968348261, -10502.190649770577, -59368.42374425218, -58590.247761040664, -45445.23155036349, -48040.380840346916, -46005.63448734695, -28684.373639151294, -47754.18910434117, -17451.39270441445, -51523.252013117315, -54946.04169679186, -48501.81025288228, -32832.99152052301, -49379.406795430994, -56302.70317825117, 0.052000000000000005, 0.9520000000000001, -0.10450000000000001, 192.0, 0.0, 0.0, 0.0, 0.0, 0.0, 0.0, 0.0, 0.0, 0.0, 1.6689761797421937E9, 0.0, 2022-11-20 15:29:39.742
64.0, -40606.52591067862, -10381.446526223008, -59411.94259070666, -58646.1941774123, -45497.981667278014, -48092.84038458352, -46050.78501114667, -28730.68645366269, -47663.59748406381, -17363.326831260543, -51435.70023008588, -54855.695945703505, -48416.426589063005, -32751.295894538867, -49288.390492008984, -56209.518755617, 0.052000000000000005, 0.9520000000000001, -0.10450000000000001, 192.0, 0.0, 0.0, 0.0, 0.0, 0.0, 0.0, 0.0, 0.0, 0.0, 1.6689761797421994E9, 0.0, 2022-11-20 15:29:39.742
66.0, -40594.8806518174, -10512.427748731106, -59400.74436673455, -58612.68891247379, -45475.65227456716, -48061.972625490744, -46026.66747887939, -28702.187979482173, -47761.76634571151, -17464.17790224289, -51535.52312082328, -54955.943519585555, -48522.73148569244, -32849.64357014222, -49387.22990599035, -56300.445652061186, 0.052000000000000005, 0.9520000000000001, -0.10450000000000001, 192.0, 0.0, 0.0, 0.0, 0.0, 0.0, 0.0, 0.0, 0.0, 0.0, 1.6689761797422044E9, 0.0, 2022-11-20 15:29:39.742
68.0, -40592.15373899385, -10367.543741171807, -59406.04173017046, -58633.56544179505, -45482.98364674851, -48072.50029712919, -46031.92013882639, -28713.095630776363, -47670.079489955846, -17378.3025000456, -51440.23763421031, -54865.28484407483, -48425.72491475641, -32754.08986259578, -49294.269000800734, -56207.90943001622, 0.052000000000000005, 0.9530000000000001, -0.10625000000000001, 192.0, 0.5, 80.0, 14.5, 104.0, 126.0, 80.0, 0.0, 0.0, 0.0, 1.6689761797422106E9, 0.0, 2022-11-20 15:29:39.742
70.0, -40633.14683832489, -10534.667734464138, -59440.351657909356, -58655.22428217224, -45512.13032151823, -48100.28351548714, -46067.258246810234, -28744.835107902898, -47777.97136044161, -17485.300300753155, -51554.18682744346, -54979.41285126363, -48538.80238995581, -32865.98269533905, -49406.78768238875, -56321.76921627155, 0.052000000000000005, 0.9530000000000001, -0.10625000000000001, 192.0, 0.0, 0.0, 0.0, 0.0, 0.0, 0.0, 0.0, 0.0, 0.0, 1.6689761797422156E9, 0.0, 2022-11-20 15:29:39.742
72.0, -40576.5298696196, -10360.43588643502, -59383.39941303724, -58618.701531732266, -45465.90691398465, -48056.58585507701, -46019.15729274241, -28696.600043368348, -47663.91040848618, -17389.16544785088, -51440.192930721394, -54871.74449822241, -48425.523749056316, -32757.19675507507, -49299.36519853654, -56216.58190686487, 0.052000000000000005, 0.9530000000000001, -0.10625000000000001, 192.0, 0.0, 0.0, 0.0, 0.0, 0.0, 0.0, 0.0, 0.0, 0.0, 1.6689761797422204E9, 0.0, 2022-11-20 15:29:39.742
74.0, -40633.348004024985, -10517.166318555632, -59426.4265211137, -58656.23011067273, -45508.889318572205, -48096.595477652016, -46064.21840956431, -28741.124718323317, -47775.847944718356, -17481.299338495654, -51552.35398439813, -54978.384671018684, -48533.303860819804, -32864.663942416184, -49400.10451079661, -56320.651629048785, 0.052000000000000005, 0.9530000000000001, -0.10625000000000001, 192.0, 0.0, 0.0, 0.0, 0.0, 0.0, 0.0, 0.0, 0.0, 0.0, 1.6689761797422252E9, 0.0, 2022-11-20 15:29:39.742
76.0, -40553.865200741915, -10351.785761330815, -59352.688116155645, -58596.46154599924, -45446.50559979744, -48036.58104378951, -46000.851214033515, -28681.49026411656, -47668.33605388833, -17386.952625149803, -51437.08603824211, -54871.31981507776, -48424.07088566672, -32756.168574830124, -49291.87736414401, -56211.70922657362, 0.052000000000000005, 0.9530000000000001, -0.10625000000000001, 192.0, 0.0, 0.0, 0.0, 0.0, 0.0, 0.0, 0.0, 0.0, 0.0, 1.6689761797422302E9, 0.0, 2022-11-20 15:29:39.742
78.0, -40617.344154994986, -10475.793239568859, -59416.70351227564, -58645.12129367844, -45510.073961028334, -48098.830652097546, -46064.821906664605, -28745.751529425568, -47754.88200841928, -17456.846530061546, -51515.54066128024, -54942.19719674554, -48510.795654153306, -32845.374386951255, -49364.118202223566, -56291.90728567926, 0.053000000000000005, 0.9555, -0.107125, 192.0, 0.5, 88.0, 14.5, 120.0, 126.0, 80.0, 0.0, 0.0, 0.0, 1.668976179742235E9, 0.0, 2022-11-20 15:29:39.742
80.0, -40544.700985515236, -10349.394124674098, -59343.79212186243, -58573.953339332744, -45440.60473926124, -48027.39447681839, -45995.173870941864, -28675.164720435707, -47670.347710889306, -17380.001232624203, -51425.79840729218, -54851.94085263501, -48422.30509785475, -32757.420272519623, -49277.080509314605, -56208.53527886097, 0.053000000000000005, 0.9555, -0.107125, 192.0, 0.0, 0.0, 0.0, 0.0, 0.0, 0.0, 0.0, 0.0, 0.0, 1.66897617974224E9, 0.0, 2022-11-20 15:29:39.742
82.0, -40642.55692274057, -10477.044937258355, -59439.83756778688, -58662.1980264423, -45538.5500834644, -48115.460349972294, -46083.10563362904, -28758.603782487367, -47755.418450286204, -17462.009783030724, -51525.375428840576, -54941.70545836753, -48519.334020535236, -32848.9059625752, -49369.974359270855, -56294.74595722508, 0.053000000000000005, 0.9555, -0.107125, 192.0, 0.0, 0.0, 0.0, 0.0, 0.0, 0.0, 0.0, 0.0, 0.0, 1.6689761797422447E9, 0.0, 2022-11-20 15:29:39.742
84.0, -40535.44736331074, -10360.19001724601, -59337.734799115045, -58562.86687408291, -45440.98471891698, -48017.04561913558, -45985.56262082608, -28661.28428712896, -47686.351559919305, -17393.792258953126, -51449.53595990372, -54867.11768712017, -48442.846351009175, -32770.45133953707, -49311.815120198145, -56227.243688970055, 0.053000000000000005, 0.9555, -0.107125, 192.0, 0.0, 0.0, 0.0, 0.0, 0.0, 0.0, 0.0, 0.0, 0.0, 1.6689761797422507E9, 0.0, 2022-11-20 15:29:39.742
86.0, -40625.97192835473, -10435.671858271582, -59426.6276868138, -58653.458494360275, -45528.71531590406, -48108.17368127986, -46076.198944592354, -28753.909916151755, -47722.74019989255, -17428.146890180935, -51496.60873372659, -54906.322646894776, -48491.97548532194, -32816.361822648265, -49357.16680969796, -56273.02006161452, 0.053000000000000005, 0.9555, -0.107125, 192.0, 0.0, 0.0, 0.0, 0.0, 0.0, 0.0, 0.0, 0.0, 0.0, 1.6689761797422557E9, 0.0, 2022-11-20 15:29:39.742
88.0, -40534.95562493272, -10382.63116867914, -59341.19931950561, -58564.96793806171, -45440.69414623906, -48024.55580527256, -45997.05141747611, -28674.561223335415, -47688.877307042756, -17405.83984921454, -51450.5417884042, -54871.87860868915, -48443.49455159838, -32775.77105471743, -49324.71207674886, -56238.017229797515, 0.0495, 0.95875, -0.1055625, 192.0, 0.5, 56.0, 15.0, 8.0, 126.0, 96.0, 0.0, 0.0, 0.0, 1.6689761797422607E9, 0.0, 2022-11-20 15:29:39.742
90.0, -40643.205123329775, -10441.617422296695, -59448.308878935444, -58675.92199753786, -45550.46356325907, -48139.04144037264, -46108.854843241555, -28787.50458806808, -47727.814045883904, -17436.126462951477, -51494.15004183651, -54912.51408010889, -48487.54983991979, -32816.94296800411, -49356.16098119748, -56273.1318203368, 0.0495, 0.95875, -0.1055625, 192.0, 0.0, 0.0, 0.0, 0.0, 0.0, 0.0, 0.0, 0.0, 0.0, 1.6689761797422657E9, 0.0, 2022-11-20 15:29:39.742
92.0, -40530.77584871958, -10395.461069996485, -59330.69399961162, -58565.72789737319, -45432.04402113486, -48030.858997208954, -46000.8065105446, -28681.803188538932, -47711.49727243153, -17432.997218727734, -51475.173410793956, -54903.036940459846, -48462.9405692745, -32812.20439817958, -49332.579890797126, -56262.47003823162, 0.0495, 0.95875, -0.1055625, 192.0, 0.0, 0.0, 0.0, 0.0, 0.0, 0.0, 0.0, 0.0, 0.0, 1.6689761797422705E9, 0.0, 2022-11-20 15:29:39.742
94.0, -40636.18667557081, -10410.548497503818, -59435.52368110701, -58681.66639586287, -45541.880493388235, -48143.44473403034, -46111.60410780956, -28794.120704426852, -47704.70234211712, -17431.790224527147, -51480.09079457412, -54903.12634743767, -48464.88517104211, -32821.748593061995, -49320.26407960225, -56263.90054987676, 0.0495, 0.95875, -0.1055625, 192.0, 0.0, 0.0, 0.0, 0.0, 0.0, 0.0, 0.0, 0.0, 0.0, 1.6689761797422755E9, 0.0, 2022-11-20 15:29:39.742
96.0, -40545.572703549, -10416.784634206848, -59339.008848549, -58577.86489461242, -45438.86130319373, -48039.24090137969, -46006.796778058626, -28691.30267993244, -47724.4165807267, -17451.325649181086, -51489.85850690109, -54915.37510339917, -48476.686892114514, -32828.811744309874, -49332.73635300832, -56279.390308784285, 0.0495, 0.95875, -0.1055625, 192.0, 0.0, 0.0, 0.0, 0.0, 0.0, 0.0, 0.0, 0.0, 0.0, 1.6689761797422805E9, 0.0, 2022-11-20 15:29:39.742
98.0, -40623.55793995356, -10371.678813896038, -59419.11750067682, -58663.53913110962, -45522.23331001202, -48116.13090230595, -46082.16686036192, -28767.74564596959, -47706.15520550671, -17412.008930684202, -51467.70792814588, -54889.3576728532, -48456.547970360276, -32807.130552188224, -49302.89677416048, -56254.713982905625, 0.04675, 0.958375, -0.10378125, 192.0, 0.5, 48.0, 14.5, 120.0, 126.0, 104.0, 0.0, 0.0, 0.0, 1.6689761797422853E9, 0.0, 2022-11-20 15:29:39.742
100.0, -40536.72141274469, -10412.604857993705, -59335.29845896942, -58557.68126936928, -45427.26074782143, -48011.97177314422, -45982.7015975358, -28661.932487718164, -47735.45834248762, -17448.822253802093, -51491.020797612764, -54914.838661532245, -48482.05131078378, -32820.58630235032, -49332.22226288584, -56271.38838426929, 0.04675, 0.958375, -0.10378125, 192.0, 0.0, 0.0, 0.0, 0.0, 0.0, 0.0, 0.0, 0.0, 0.0, 1.6689761797422917E9, 0.0, 2022-11-20 15:29:39.742
102.0, -40605.34126822249, -10337.90532802407, -59417.10584367584, -58649.882215247424, -45520.087542544316, -48098.0036375527, -46068.01820612171, -28746.265619548038, -47676.852068525804, -17385.991500138225, -51436.95192777538, -54856.00887012588, -48428.54123455778, -32769.19964184757, -49283.87543962902, -56212.55859286292, 0.04675, 0.958375, -0.10378125, 192.0, 0.0, 0.0, 0.0, 0.0, 0.0, 0.0, 0.0, 0.0, 0.0, 1.6689761797422965E9, 0.0, 2022-11-20 15:29:39.742
104.0, -40519.175293347274, -10396.601008963706, -59334.96318280258, -58551.06515301051, -45431.97696590149, -48003.56751722903, -45983.90859173639, -28654.7128742591, -47728.372839495285, -17444.240146188753, -51491.78075692424, -54912.78230104236, -48489.53914517631, -32826.04012799742, -49355.53513235273, -56269.57789296841, 0.04675, 0.958375, -0.10378125, 192.0, 0.0, 0.0, 0.0, 0.0, 0.0, 0.0, 0.0, 0.0, 0.0, 1.6689761797423015E9, 0.0, 2022-11-20 15:29:39.742
106.0, -40600.93797456479, -10318.101682436667, -59411.60731453983, -58651.424485614836, -45521.36159197827, -48096.729588118746, -46071.75094744575, -28743.538706724492, -47645.64903326619, -17362.63392718243, -51413.81787226414, -54833.83593962622, -48413.677324495, -32753.48636549549, -49277.68400641489, -56192.50907808651, 0.04675, 0.958375, -0.10378125, 192.0, 0.0, 0.0, 0.0, 0.0, 0.0, 0.0, 0.0, 0.0, 0.0, 1.6689761797423065E9, 0.0, 2022-11-20 15:29:39.742
108.0, -40561.28597990108, -10427.424064567575, -59350.69881089912, -58577.171990534305, -45459.06728018133, -48036.20106413378, -46009.88131879346, -28682.45138912814, -47754.70319446364, -17472.537454669175, -51515.67477174697, -54934.888176308654, -48516.22712805595, -32860.975904581064, -49372.27658894975, -56299.752747983075, 0.044375, 0.9561875, -0.10289062500000001, 192.0, 0.5, 40.0, 14.5, 104.0, 126.0, 104.0, 0.0, 0.0, 0.0, 1.6689761797423112E9, 0.0, 2022-11-20 15:29:39.742
110.0, -40595.88648031789, -10294.095908891668, -59387.266264828, -58632.7384272502, -45503.21197548055, -48089.93465780433, -46052.30492976963, -28732.49694496357, -47658.9483212171, -17372.73691567623, -51409.48163383981, -54831.37724773613, -48413.52086228381, -32760.147185343172, -49259.75790736174, -56198.856973511814, 0.044375, 0.9561875, -0.10289062500000001, 192.0, 0.0, 0.0, 0.0, 0.0, 0.0, 0.0, 0.0, 0.0, 0.0, 1.6689761797423165E9, 0.0, 2022-11-20 15:29:39.742
112.0, -40575.948724263755, -10425.814738966792, -59371.8659128983, -58596.2827320436, -45474.087652455295, -48057.39051787741, -46026.10868526801, -28704.6243196278, -47766.99665391406, -17478.348908227552, -51516.121806636074, -54940.856092078226, -48520.60806996919, -32866.429730228156, -49364.38642315703, -56310.34747485489, 0.044375, 0.9561875, -0.10289062500000001, 192.0, 0.0, 0.0, 0.0, 0.0, 0.0, 0.0, 0.0, 0.0, 0.0, 1.6689761797423213E9, 0.0, 2022-11-20 15:29:39.742
114.0, -40575.30052367455, -10270.783039424783, -59380.33722404686, -58618.142738120885, -45493.310152686856, -48074.33314017453, -46046.24760702224, -28723.936226837188, -47660.982329962535, -17377.520188989663, -51420.433988622906, -54842.91074787507, -48421.813359476735, -32763.119967355728, -49274.3312447466, -56213.609124852315, 0.044375, 0.9561875, -0.10289062500000001, 192.0, 0.0, 0.0, 0.0, 0.0, 0.0, 0.0, 0.0, 0.0, 0.0, 1.6689761797423263E9, 0.0, 2022-11-20 15:29:39.742
116.0, -40559.4754886002, -10397.897410142114, -59359.50539821451, -58576.25556901164, -45470.24315240898, -48042.66071828136, -46025.61694688999, -28698.47758990259, -47736.2183017991, -17454.633707360474, -51496.63108547105, -54918.10201622272, -48500.245630770405, -32839.160601992684, -49358.75378355429, -56285.73820420959, 0.044375, 0.9561875, -0.10289062500000001, 192.0, 0.0, 0.0, 0.0, 0.0, 0.0, 0.0, 0.0, 0.0, 0.0, 1.6689761797423317E9, 0.0, 2022-11-20 15:29:39.742
118.0, -40568.46088987123, -10264.971585866402, -59361.69586917113, -58594.651054698355, -45479.42971938011, -48052.540189330604, -46032.233063248765, -28708.49117141857, -47635.389582561205, -17361.449284726295, -51399.088072668084, -54822.23538425391, -48401.316809811215, -32738.801269388354, -49261.210770751335, -56179.075679668866, 0.044375, 0.9561875, -0.10289062500000001, 192.0, 0.0, 0.0, 0.0, 0.0, 0.0, 0.0, 0.0, 0.0, 0.0, 1.6689761797423368E9, 0.0, 2022-11-20 15:29:39.742
120.0, -40604.670715888824, -10423.1101778877, -59389.68025322918, -58607.01156938214, -45498.04872251138, -48068.0970034715, -46052.707261169824, -28726.171401282718, -47767.15311612524, -17478.281852994187, -51527.49884456383, -54944.38766770216, -48523.15616883709, -32862.719340648575, -49372.857734305595, -56288.621579244325, 0.042, 0.96, -0.1, 192.0, 0.5, 40.0, 15.0, 0.0, 126.0, 112.0, 0.0, 0.0, 0.0, 1.668976180222226E9, 0.0, 2022-11-20 15:29:40.222
122.0, -40545.63975878236, -10256.366164251109, -59334.091464768826, -58572.47812419869, -45449.29956785436, -48023.393514560885, -46001.0076762447, -28678.76335129301, -47650.27584436844, -17370.077058086044, -51408.811081506145, -54827.08571280071, -48403.39552204556, -32748.703092182055, -49246.525674644196, -56168.54800803042, 0.042, 0.96, -0.1, 192.0, 0.0, 0.0, 0.0, 0.0, 0.0, 0.0, 0.0, 0.0, 0.0, 1.6689761802223148E9, 0.0, 2022-11-20 15:29:40.222
124.0, -40596.5346809071, -10402.814793922282, -59384.919331660196, -58616.68987473129, -45497.422873666634, -48064.31955865855, -46048.12515355649, -28723.511543692537, -47745.360165281316, -17474.63851864797, -51506.89053617603, -54931.37895242917, -48509.99099135292, -32855.83500335634, -49337.78784725522, -56271.008404613545, 0.042, 0.96, -0.1, 192.0, 0.0, 0.0, 0.0, 0.0, 0.0, 0.0, 0.0, 0.0, 0.0, 1.6689761802223203E9, 0.0, 2022-11-20 15:29:40.222
126.0, -40528.38421206286, -10246.620803668595, -59325.5530983869, -58564.9232345728, -45439.86713169422, -48001.444101505775, -45989.04949296111, -28664.793511008444, -47645.91725419966, -17376.313194789076, -51395.17651738841, -54830.729047146924, -48406.211841846925, -32754.447490507067, -49245.51984614371, -56177.48870581254, 0.042, 0.96, -0.1, 192.0, 0.0, 0.0, 0.0, 0.0, 0.0, 0.0, 0.0, 0.0, 0.0, 1.6689761802223253E9, 0.0, 2022-11-20 15:29:40.222
128.0, -40609.230471757706, -10387.615607692673, -59406.66757901521, -58622.32251433403, -45510.76686510645, -48065.72771855923, -46060.39626126245, -28731.558171696448, -47729.66924067369, -17458.902890551435, -51491.82546041316, -54920.04661799033, -48497.47401445795, -32842.803936338896, -49346.86265550407, -56266.873331889314, 0.042, 0.96, -0.1, 192.0, 0.0, 0.0, 0.0, 0.0, 0.0, 0.0, 0.0, 0.0, 0.0, 1.6689761802223303E9, 0.0, 2022-11-20 15:29:40.222
130.0, -40529.90413068583, -10256.164998551012, -59326.91655479867, -58546.21482446371, -45441.23058810599, -47995.699703180755, -45990.16708018388, -28659.71966501709, -47656.69079502711, -17384.0021948817, -51406.88883148299, -54832.986573336915, -48408.24585059236, -32750.535935227388, -49276.097032558566, -56182.89782797073, 0.05, 0.964, -0.11, 192.0, 0.5, 72.0, 15.0, 16.0, 126.0, 72.0, 0.0, 0.0, 0.0, 1.6689761802223356E9, 0.0, 2022-11-20 15:29:40.222
132.0, -40622.2391870307, -10367.610796405173, -59414.93772446367, -58631.218508627244, -45531.50928396098, -48084.212611223775, -46079.484651027284, -28747.047930603974, -47739.45930474512, -17456.511253894718, -51501.52611750676, -54916.179766199566, -48500.89383135961, -32836.90307580269, -49363.38059465654, -56266.873331889314, 0.05, 0.964, -0.11, 192.0, 0.0, 0.0, 0.0, 0.0, 0.0, 0.0, 0.0, 0.0, 0.0, 1.6689761802223513E9, 0.0, 2022-11-20 15:29:40.222
134.0, -40521.52222651509, -10261.261196286821, -59320.658066351185, -58543.04087675105, -45437.81077120433, -47997.174918314806, -45985.115585936976, -28654.198784136628, -47665.96676897607, -17395.021604898167, -51423.496177613284, -54844.40831475357, -48422.77448448831, -32763.47759526701, -49296.39241652399, -56192.6655402977, 0.05, 0.964, -0.11, 192.0, 0.0, 0.0, 0.0, 0.0, 0.0, 0.0, 0.0, 0.0, 0.0, 1.6689761802223563E9, 0.0, 2022-11-20 15:29:40.222
136.0, -40620.80867538556, -10345.52727288333, -59429.511061848534, -58648.25053790218, -45541.880493388235, -48107.48077720175, -46089.83350871009, -28762.470634278136, -47711.69843813163, -17441.60264034303, -51479.286131773726, -54896.57728631226, -48481.76073810586, -32822.55325586239, -49346.281510148234, -56250.06482005893, 0.05, 0.964, -0.11, 192.0, 0.0, 0.0, 0.0, 0.0, 0.0, 0.0, 0.0, 0.0, 0.0, 1.6689761802223616E9, 0.0, 2022-11-20 15:29:40.222
138.0, -40516.470732268186, -10280.170772096011, -59321.12745298475, -58539.06226623801, -45426.43373327658, -47995.923220625315, -45972.68801601983, -28649.683731756657, -47676.60619933679, -17423.855355245516, -51437.57777662013, -54864.927216163545, -48443.87453125412, -32785.49406355549, -49318.185367367914, -56226.819005825404, 0.05, 0.964, -0.11, 192.0, 0.0, 0.0, 0.0, 0.0, 0.0, 0.0, 0.0, 0.0, 0.0, 1.6689761802223663E9, 0.0, 2022-11-20 15:29:40.222
140.0, -40624.831989387516, -10336.072484978735, -59421.3750268668, -58652.56442458206, -45531.755153149985, -48108.08427430204, -46073.762604446725, -28756.681532464212, -47706.57988865136, -17437.0652362186, -51463.7963728662, -54887.234257129945, -48468.17087747704, -32808.65047081119, -49323.840358715104, -56248.85782585834, 0.06, 0.966, -0.10400000000000001, 192.0, 0.5, 112.0, 15.0, 24.0, 126.0, 96.0, 0.0, 0.0, 0.0, 1.6689761802223716E9, 0.0, 2022-11-20 15:29:40.222
142.0, -40535.44736331074, -10318.883993492604, -59322.6026681188, -58554.820246079, -45426.09845710975, -48011.234165577196, -45972.64331253091, -28658.065635927396, -47706.289315973445, -17450.297468936144, -51457.694346629905, -54887.4577745745, -48453.55283660327, -32802.10140968578, -49307.389474796, -56245.81798861241, 0.06, 0.966, -0.10400000000000001, 192.0, 0.0, 0.0, 0.0, 0.0, 0.0, 0.0, 0.0, 0.0, 0.0, 1.6689761802223768E9, 0.0, 2022-11-20 15:29:40.222
144.0, -40642.4898675072, -10343.247394948889, -59438.742332308575, -58683.722756352756, -45541.99225211051, -48130.39131526844, -46088.090072642575, -28772.59597451639, -47706.60224039582, -17442.183785698868, -51473.0499950707, -54899.12538518017, -48461.17478146253, -32809.47748535603, -49310.89869867548, -56249.26015725853, 0.06, 0.966, -0.10400000000000001, 192.0, 0.0, 0.0, 0.0, 0.0, 0.0, 0.0, 0.0, 0.0, 0.0, 1.668976180222382E9, 0.0, 2022-11-20 15:29:40.222
146.0, -40503.104389083914, -10322.460272605453, -59304.587162087824, -58539.554004616024, -45407.81473014531, -47987.13898505438, -45956.304187334084, -28633.635179237746, -47715.095903288835, -17457.517082395207, -51476.626274183545, -54910.658885319106, -48462.717051829946, -32810.03627896742, -49330.970565196345, -56254.04343057197, 0.06, 0.966, -0.10400000000000001, 192.0, 0.0, 0.0, 0.0, 0.0, 0.0, 0.0, 0.0, 0.0, 0.0, 1.668976180222387E9, 0.0, 2022-11-20 15:29:40.222
148.0, -40588.823329070015, -10298.454499060452, -59398.44213705566, -58640.27096513164, -45504.30721095887, -48075.830707053035, -46051.92495011389, -28725.746718138067, -47655.84142873781, -17390.238331584733, -51421.17159618993, -54850.95737587898, -48407.396484303055, -32751.944095128074, -49276.94639884787, -56187.8599152398, 0.06, 0.966, -0.10400000000000001, 192.0, 0.0, 0.0, 0.0, 0.0, 0.0, 0.0, 0.0, 0.0, 0.0, 1.668976180222392E9, 0.0, 2022-11-20 15:29:40.222
150.0, -40521.1645986038, -10375.076279053244, -59327.654162365696, -58553.03210652258, -45426.053753620836, -47983.607409430435, -45973.917361964865, -28642.084138641854, -47713.84420559934, -17444.39660839994, -51468.13261129053, -54901.31585613679, -48454.84923778167, -32791.37257234724, -49328.84714947309, -56235.156206507236, 0.052000000000000005, 0.962, -0.1, 192.0, 0.5, 80.0, 15.0, 8.0, 126.0, 112.0, 0.0, 0.0, 0.0, 1.668976180222397E9, 0.0, 2022-11-20 15:29:40.222
152.0, -40599.79803559757, -10325.880089507114, -59411.56261105092, -58647.647040801894, -45521.18277802262, -48076.300093686594, -46061.78206941868, -28732.072261818917, -47672.314664401376, -17399.78252646715, -51432.593337606595, -54859.71925970546, -48420.829882720696, -32746.91495262563, -49290.11157633205, -56201.04744446844, 0.052000000000000005, 0.962, -0.1, 192.0, 0.0, 0.0, 0.0, 0.0, 0.0, 0.0, 0.0, 0.0, 0.0, 1.668976180222402E9, 0.0, 2022-11-20 15:29:40.222
154.0, -40518.39298229134, -10403.731215444948, -59333.800892090905, -58554.90965305682, -45440.06829739431, -47998.49367123767, -45981.51695507967, -28651.20365037962, -47732.55261570843, -17462.523873153197, -51489.009140611786, -54917.87849877817, -48477.58096189272, -32804.02365970894, -49356.38449864203, -56269.80141041296, 0.052000000000000005, 0.962, -0.1, 192.0, 0.0, 0.0, 0.0, 0.0, 0.0, 0.0, 0.0, 0.0, 0.0, 1.668976180222407E9, 0.0, 2022-11-20 15:29:40.222
156.0, -40561.1742211788, -10305.294132863777, -59380.20311358012, -58620.28850558859, -45495.612382365754, -48069.57221860555, -46032.63539464896, -28711.598063897858, -47643.23504486502, -17368.065401085067, -51407.53703207219, -54833.09833205919, -48395.28183880828, -32722.5739029138, -49271.202000522855, -56197.00177872203, 0.052000000000000005, 0.962, -0.1, 192.0, 0.0, 0.0, 0.0, 0.0, 0.0, 0.0, 0.0, 0.0, 0.0, 1.6689761802224123E9, 0.0, 2022-11-20 15:29:40.222
158.0, -40516.314270056995, -10423.668971499083, -59324.5025663975, -58558.53063565858, -45436.6261287482, -48023.21470060524, -45984.065053947576, -28662.692447029647, -47712.078417787365, -17442.07202697659, -51478.41441373997, -54906.38970212814, -48460.07954598422, -32795.10531367127, -49336.17852165443, -56276.37282328282, 0.052000000000000005, 0.962, -0.1, 192.0, 0.0, 0.0, 0.0, 0.0, 0.0, 0.0, 0.0, 0.0, 0.0, 1.668976180222417E9, 0.0, 2022-11-20 15:29:40.222
160.0, -40575.322875419006, -10330.797473287283, -59385.45577352712, -58645.16599716735, -45513.091446529805, -48104.686809144834, -46058.9210461284, -28740.655331689755, -47640.86575995276, -17370.278223786143, -51403.55842155915, -54836.406390238575, -48390.65502770603, -32729.167667528116, -49265.189381264376, -56207.261229427015, 0.052000000000000005, 0.9500000000000001, -0.108, 192.0, 0.5, 80.0, 14.5, 88.0, 126.0, 80.0, 0.0, 0.0, 0.0, 1.6689761802224224E9, 0.0, 2022-11-20 15:29:40.222
162.0, -40542.823438980995, -10470.205303455032, -59343.50154918451, -58586.93970286128, -45466.48805934049, -48050.26031139616, -46013.61406011749, -28690.945052021154, -47752.04333687345, -17489.167152543923, -51513.394893812525, -54953.03779280637, -48504.67127617256, -32844.97205555106, -49375.517591895776, -56318.23764064761, 0.052000000000000005, 0.9500000000000001, -0.108, 192.0, 0.0, 0.0, 0.0, 0.0, 0.0, 0.0, 0.0, 0.0, 0.0, 1.6689761802224276E9, 0.0, 2022-11-20 15:29:40.222
164.0, -40576.48516613068, -10348.947089784991, -59361.85233138232, -58622.59073526749, -45492.79606256438, -48070.35452966148, -46035.25054875023, -28711.754526109045, -47634.0931813828, -17370.144113319413, -51390.05796790814, -54829.92438434654, -48384.463594491914, -32718.14825751165, -49246.81624732212, -56177.53340930145, 0.052000000000000005, 0.9500000000000001, -0.108, 192.0, 0.0, 0.0, 0.0, 0.0, 0.0, 0.0, 0.0, 0.0, 0.0, 1.6689761802224343E9, 0.0, 2022-11-20 15:29:40.222
166.0, -40581.44725339976, -10499.79901311386, -59350.095313798825, -58593.51111573114, -45463.33646337229, -48028.51206404115, -46005.07569373557, -28678.830406526376, -47777.01023543003, -17501.304149783155, -51529.51050156481, -54963.140781300164, -48517.45647400099, -32850.068253286874, -49364.67699583495, -56289.29213157799, 0.052000000000000005, 0.9500000000000001, -0.108, 192.0, 0.0, 0.0, 0.0, 0.0, 0.0, 0.0, 0.0, 0.0, 0.0, 1.6689761802224393E9, 0.0, 2022-11-20 15:29:40.222
168.0, -40539.85065696844, -10328.338781397199, -59335.8572525808, -58589.71131917374, -45442.214064862026, -47995.275020036104, -45982.165155668874, -28653.90821145871, -47645.55962628837, -17371.708735431283, -51397.05406392265, -54833.83593962622, -48382.49664097984, -32711.912120808618, -49231.348840159044, -56147.38090603124, 0.052000000000000005, 0.9500000000000001, -0.108, 192.0, 0.0, 0.0, 0.0, 0.0, 0.0, 0.0, 0.0, 0.0, 0.0, 1.6689761802224443E9, 0.0, 2022-11-20 15:29:40.222
170.0, -40561.822421768, -10470.473524388495, -59376.872703656285, -58612.197174095774, -45471.45014660957, -48019.481959281205, -46015.22338571827, -28684.53010136248, -47744.13081933628, -17471.755143613238, -51501.10143436211, -54937.74919959893, -48488.26509574236, -32812.383212135224, -49345.34273688111, -56257.597357940365, 0.048, 0.9520000000000001, -0.10200000000000001, 192.0, 0.5, 64.0, 14.5, 96.0, 126.0, 104.0, 0.0, 0.0, 0.0, 1.6689761802224493E9, 0.0, 2022-11-20 15:29:40.222
172.0, -40519.801142192024, -10318.593420814685, -59346.250813752515, -58599.4343280118, -45454.90985571264, -48018.47613078071, -45999.934792510845, -28674.024781468488, -47630.31573656985, -17362.365706248966, -51385.2299911058, -54825.83401511121, -48378.38392000007, -32710.928644052583, -49247.1738752334, -56167.13984812974, 0.048, 0.9520000000000001, -0.10200000000000001, 192.0, 0.0, 0.0, 0.0, 0.0, 0.0, 0.0, 0.0, 0.0, 0.0, 1.6689761802224543E9, 0.0, 2022-11-20 15:29:40.222
174.0, -40573.93706726278, -10471.59111161126, -59393.61416025331, -58633.76660749515, -45503.3907894362, -48081.351587933495, -46052.05906058062, -28726.39491872727, -47740.26396754551, -17473.900911080946, -51504.09656811912, -54945.28173748038, -48497.92104934705, -32833.81853506786, -49364.878161535045, -56291.39319555679, 0.048, 0.9520000000000001, -0.10200000000000001, 192.0, 0.0, 0.0, 0.0, 0.0, 0.0, 0.0, 0.0, 0.0, 0.0, 1.6689761802224596E9, 0.0, 2022-11-20 15:29:40.222
176.0, -40514.79435143404, -10334.28434542231, -59336.192528747626, -58575.69677540026, -45453.81462023433, -48036.9386717008, -46000.33712391104, -28677.511653603513, -47643.011527420465, -17384.67274721536, -51397.59050578958, -54844.14009382011, -48394.901859152546, -32731.447545462557, -49267.75983187674, -56193.85018275383, 0.048, 0.9520000000000001, -0.10200000000000001, 192.0, 0.0, 0.0, 0.0, 0.0, 0.0, 0.0, 0.0, 0.0, 0.0, 1.6689761802224646E9, 0.0, 2022-11-20 15:29:40.222
178.0, -40603.620183899424, -10478.11782099221, -59415.4741663306, -58631.33026734952, -45537.36544100827, -48109.179509780355, -46081.652770239445, -28757.620305731336, -47747.72945019358, -17485.814390875625, -51503.269553574275, -54944.611185146714, -48507.241726784916, -32838.51240140347, -49368.96853077037, -56293.740128724596, 0.048, 0.9520000000000001, -0.10200000000000001, 192.0, 0.0, 0.0, 0.0, 0.0, 0.0, 0.0, 0.0, 0.0, 0.0, 1.6689761802224696E9, 0.0, 2022-11-20 15:29:40.222
180.0, -40509.92167114278, -10346.600156617184, -59312.45497613609, -58542.72795232868, -45449.411326576635, -48017.35854355795, -45995.19622268632, -28670.448502355637, -47662.01051020748, -17396.027433398656, -51400.853860480056, -54842.57547170824, -48413.63262100609, -32743.13750781268, -49284.8812681295, -56203.46143286961, 0.046, 0.96, -0.1, 192.0, 0.5, 56.0, 15.0, 0.0, 126.0, 112.0, 0.0, 0.0, 0.0, 1.6689761802224748E9, 0.0, 2022-11-20 15:29:40.222
182.0, -40602.34613446547, -10457.598919582239, -59379.264340313006, -58622.70249398977, -45524.22261526855, -48089.28645721513, -46073.31556955762, -28745.30449453646, -47737.7158686776, -17463.060315020124, -51476.51451546127, -54910.70358880801, -48489.71795913196, -32824.967244263564, -49351.15419043949, -56275.4340500157, 0.046, 0.96, -0.1, 192.0, 0.0, 0.0, 0.0, 0.0, 0.0, 0.0, 0.0, 0.0, 0.0, 1.6689761802224798E9, 0.0, 2022-11-20 15:29:40.222
184.0, -40499.68457218225, -10356.1443514996, -59266.7903622139, -58522.34316138544, -45419.03530586187, -47982.44511871876, -45966.451879316795, -28638.0608246399, -47665.877361998246, -17407.24800911522, -51395.824717977615, -54837.658087928074, -48403.17200460101, -32748.434871248588, -49270.151468533455, -56193.514906587, 0.046, 0.96, -0.1, 192.0, 0.0, 0.0, 0.0, 0.0, 0.0, 0.0, 0.0, 0.0, 0.0, 1.6689761802224848E9, 0.0, 2022-11-20 15:29:40.222
186.0, -40606.32474497852, -10429.927459946568, -59373.855218154815, -58630.57030803803, -45521.898033845195, -48084.45848041278, -46071.5721334901, -28742.242305546082, -47704.814100839394, -17444.754236311226, -51446.96550929135, -54887.03309142985, -48449.82009527923, -32799.530959073425, -49299.81223342565, -56223.57800287939, 0.046, 0.96, -0.1, 192.0, 0.0, 0.0, 0.0, 0.0, 0.0, 0.0, 0.0, 0.0, 0.0, 1.66897618022249E9, 0.0, 2022-11-20 15:29:40.222
188.0, -40511.64275546584, -10377.646729665605, -59298.97687422954, -58542.59384186195, -45431.61933799021, -47988.100110065956, -45979.661760289884, -28650.75661549051, -47694.91227804569, -17442.429654887874, -51436.08020974162, -54880.90871344909, -48435.73849627239, -32782.16365363165, -49285.57417220762, -56204.19904043664, 0.046, 0.96, -0.1, 192.0, 0.0, 0.0, 0.0, 0.0, 0.0, 0.0, 0.0, 0.0, 0.0, 1.6689761802224953E9, 0.0, 2022-11-20 15:29:40.222
190.0, -40598.76985535263, -10404.893506156624, -59397.74923297754, -58646.06006694557, -45523.216786768055, -48077.909419287374, -46067.99585437726, -28739.850668889365, -47694.37583617876, -17427.78926226965, -51445.870273813045, -54884.708510006494, -48443.002813220366, -32786.07520891133, -49279.114518060036, -56203.08145321387, 0.044, 0.9590000000000001, -0.10200000000000001, 192.0, 0.5, 40.0, 14.5, 120.0, 126.0, 96.0, 0.0, 0.0, 0.0, 1.6689761802225E9, 0.0, 2022-11-20 15:29:40.222
192.0, -40489.78274938855, -10371.298834240299, -59298.283970151424, -58537.02825749258, -45417.04600060535, -47971.82804010249, -45965.401347327395, -28635.266856582984, -47709.418560197184, -17454.387838171464, -51452.441686682905, -54898.901867735614, -48451.87645576912, -32794.211243893056, -49300.974524137324, -56228.584793637376, 0.044, 0.9590000000000001, -0.10200000000000001, 192.0, 0.0, 0.0, 0.0, 0.0, 0.0, 0.0, 0.0, 0.0, 0.0, 1.668976180222505E9, 0.0, 2022-11-20 15:29:40.222
194.0, -40588.666866858825, -10366.582616160229, -59398.6209510113, -58642.59554655499, -45524.73670539102, -48078.37880592094, -46067.7723369327, -28737.92841886621, -47653.986233948024, -17387.44436352782, -51404.38543610399, -54843.246024041895, -48409.2740308373, -32751.072377094315, -49259.243817239265, -56187.23406639505, 0.044, 0.9590000000000001, -0.10200000000000001, 192.0, 0.0, 0.0, 0.0, 0.0, 0.0, 0.0, 0.0, 0.0, 0.0, 1.6689761802225103E9, 0.0, 2022-11-20 15:29:40.222
196.0, -40515.263738067595, -10401.741910188426, -59321.84270880732, -58553.412086178316, -45444.82921896329, -47995.8785171364, -45991.262315662185, -28658.95970570561, -47707.406903196206, -17451.303297436632, -51453.29105297221, -54894.11859442218, -48457.4867436274, -32795.52999681592, -49326.05318141618, -56249.3272124919, 0.044, 0.9590000000000001, -0.10200000000000001, 192.0, 0.0, 0.0, 0.0, 0.0, 0.0, 0.0, 0.0, 0.0, 0.0, 1.668976180222517E9, 0.0, 2022-11-20 15:29:40.222
198.0, -40592.04198027158, -10347.181301973022, -59395.17878236518, -58634.772435995634, -45524.08850480181, -48076.27774194214, -46069.11344160002, -28738.800136899965, -47681.456527883594, -17419.96615171029, -51433.912090529455, -54864.56958825226, -48435.783199761296, -32768.73025521401, -49301.98035263782, -56225.924936047195, 0.044, 0.9590000000000001, -0.10200000000000001, 192.0, 0.0, 0.0, 0.0, 0.0, 0.0, 0.0, 0.0, 0.0, 0.0, 1.668976180222522E9, 0.0, 2022-11-20 15:29:40.222
200.0, -40497.807025648006, -10381.692395412016, -59291.46668809256, -58528.89222251085, -45420.37641052919, -47980.36640648442, -45974.43145208734, -28643.760519476, -47693.01237976699, -17433.15368093892, -51438.248328953785, -54868.548198765304, -48437.392525362084, -32778.117987885234, -49310.58577425311, -56240.386514709775, 0.044, 0.9585000000000001, -0.10300000000000001, 192.0, 0.5, 48.0, 14.5, 120.0, 126.0, 96.0, 0.0, 0.0, 0.0, 1.6689761802225273E9, 0.0, 2022-11-20 15:29:40.222
202.0, -40596.24410822918, -10336.206595445467, -59388.02622413948, -58645.70243903428, -45528.536501948416, -48094.762634606675, -46077.76356670423, -28751.630038217314, -47657.58486480533, -17395.245122342723, -51405.63713379349, -54832.15955879207, -48401.6744377225, -32749.597161960264, -49266.91046558744, -56211.105729473325, 0.044, 0.9585000000000001, -0.10300000000000001, 192.0, 0.0, 0.0, 0.0, 0.0, 0.0, 0.0, 0.0, 0.0, 0.0, 1.6689761802225323E9, 0.0, 2022-11-20 15:29:40.222
204.0, -40522.952738160224, -10406.279314312855, -59301.569676586354, -58547.198301219745, -45443.64457650716, -48009.17780508731, -45994.52567035266, -28665.15113891973, -47737.58175821087, -17472.112771524524, -51476.24629452781, -54910.41301613009, -48476.6421886256, -32824.54256111891, -49336.4467425879, -56285.93936990969, 0.044, 0.9585000000000001, -0.10300000000000001, 192.0, 0.0, 0.0, 0.0, 0.0, 0.0, 0.0, 0.0, 0.0, 0.0, 1.6689761802225375E9, 0.0, 2022-11-20 15:29:40.222
206.0, -40572.05952072854, -10298.61096127164, -59340.48406368304, -58606.944514148774, -45503.70371385857, -48073.68493958533, -46047.611063434015, -28720.27054074652, -47638.742344229504, -17378.68247970134, -51379.84322069207, -54814.56873590574, -48384.30713228073, -32731.76046988493, -49235.93094777238, -56187.77050826199, 0.044, 0.9585000000000001, -0.10300000000000001, 192.0, 0.0, 0.0, 0.0, 0.0, 0.0, 0.0, 0.0, 0.0, 0.0, 1.6689761802225423E9, 0.0, 2022-11-20 15:29:40.222
208.0, -40538.59895927894, -10428.63105876816, -59284.85057173378, -58539.82222554949, -45444.449239307556, -48019.750180214665, -45995.44209187533, -28667.967458721098, -47742.275624546484, -17490.21768453332, -51481.56600970817, -54919.39841740113, -48484.107671273676, -32835.00317752399, -49330.43412332942, -56282.36309079684, 0.044, 0.9585000000000001, -0.10300000000000001, 192.0, 0.0, 0.0, 0.0, 0.0, 0.0, 0.0, 0.0, 0.0, 0.0, 1.6689761802225475E9, 0.0, 2022-11-20 15:29:40.222
210.0, -40581.827233055505, -10321.767368527338, -59331.16338624518, -58598.40614776685, -45491.5890683638, -48069.7957360501, -46042.80543837613, -28718.124773278807, -47637.423591306644, -17379.68830820183, -51381.18432535938, -54815.86513708415, -48372.438355974955, -32732.2745600074, -49215.43439810687, -56164.63645275074, 0.045, 0.9572500000000002, -0.10450000000000001, 192.0, 0.5, 56.0, 14.5, 112.0, 126.0, 88.0, 0.0, 0.0, 0.0, 1.6689761802225523E9, 0.0, 2022-11-20 15:29:40.222
212.0, -40554.625160053394, -10451.54159683485, -59322.35679892979, -58555.93783330177, -45459.1790389036, -48027.8862151964, -46010.50716763821, -28681.44556062765, -47755.75372645304, -17501.17003931642, -51496.698140704415, -54931.9153942961, -48483.16889800655, -32843.83211658384, -49330.23295762932, -56268.281491789996, 0.045, 0.9572500000000002, -0.10450000000000001, 192.0, 0.0, 0.0, 0.0, 0.0, 0.0, 0.0, 0.0, 0.0, 0.0, 1.6689761802225575E9, 0.0, 2022-11-20 15:29:40.222
214.0, -40550.73595651817, -10295.682882747995, -59341.82516835036, -58584.860990626934, -45477.12748970121, -48036.58104378951, -46020.11841775399, -28692.643784599757, -47633.86966393825, -17391.24416008522, -51380.89375268147, -54819.46376794145, -48373.04185307525, -32726.261940748926, -49229.31483141361, -56162.62479574976, 0.045, 0.9572500000000002, -0.10450000000000001, 192.0, 0.0, 0.0, 0.0, 0.0, 0.0, 0.0, 0.0, 0.0, 0.0, 1.6689761802225628E9, 0.0, 2022-11-20 15:29:40.222
216.0, -40540.81178198002, -10426.999381422924, -59344.84265385183, -58568.58892066347, -45462.062413938336, -48015.72686621271, -46002.81816754558, -28670.448502355637, -47735.41363899871, -17481.36639372902, -51488.517402233774, -54924.78518781486, -48484.867630585155, -32819.669880827656, -49341.118257179056, -56267.63329120079, 0.045, 0.9572500000000002, -0.10450000000000001, 192.0, 0.0, 0.0, 0.0, 0.0, 0.0, 0.0, 0.0, 0.0, 0.0, 1.6689761802225678E9, 0.0, 2022-11-20 15:29:40.222
218.0, -40539.33656684597, -10296.040510659279, -59351.436418466146, -58601.53539199059, -45475.24994316697, -48037.34100310099, -46014.77635082917, -28683.81484553991, -47612.747265427985, -17371.127590075444, -51371.64013047697, -54811.61830563764, -48367.92330359499, -32705.161893983117, -49233.673421582396, -56156.25454858, 0.045, 0.9572500000000002, -0.10450000000000001, 192.0, 0.0, 0.0, 0.0, 0.0, 0.0, 0.0, 0.0, 0.0, 0.0, 1.6689761802225728E9, 0.0, 2022-11-20 15:29:40.222
220.0, -40601.07208503152, -10482.163486738622, -59405.23706737007, -58655.693668805805, -45529.788199637915, -48096.77429160765, -46072.1756305904, -28739.046006088975, -47757.20658984263, -17519.252600580767, -51513.126672879065, -54960.07859230979, -48514.46134024398, -32862.428767970654, -49379.16092624199, -56309.3416463544, 0.0475, 0.9556250000000002, -0.10225000000000001, 192.0, 0.5, 72.0, 14.5, 104.0, 126.0, 112.0, 0.0, 0.0, 0.0, 1.668976180222579E9, 0.0, 2022-11-20 15:29:40.222
222.0, -40547.45025008324, -10329.791644786794, -59349.5588719319, -58614.94643866378, -45487.47634738402, -48054.95417773178, -46027.85212133553, -28696.756505579535, -47660.46823984006, -17429.21977391479, -51406.59825880507, -54864.86016093018, -48414.9290221845, -32766.718598213032, -49286.445890241375, -56217.16305222071, 0.0475, 0.9556250000000002, -0.10225000000000001, 192.0, 0.0, 0.0, 0.0, 0.0, 0.0, 0.0, 0.0, 0.0, 0.0, 1.668976180222584E9, 0.0, 2022-11-20 15:29:40.222
224.0, -40576.41811089732, -10446.44539909904, -59365.45096223962, -58615.4381770418, -45506.7435511045, -48065.86182902597, -46042.60427267603, -28708.692337118668, -47745.2707583035, -17508.65787370895, -51493.054806358195, -54948.83566484877, -48501.65379067109, -32848.0565962859, -49366.57689411365, -56293.9859979136, 0.0475, 0.9556250000000002, -0.10225000000000001, 192.0, 0.0, 0.0, 0.0, 0.0, 0.0, 0.0, 0.0, 0.0, 0.0, 1.6689761802225893E9, 0.0, 2022-11-20 15:29:40.222
226.0, -40502.97027861718, -10298.409795571542, -59284.47059207805, -58541.453902894726, -45431.775800201394, -47996.95140087025, -45969.91639970737, -28639.08900488484, -47624.14665510019, -17401.97299742377, -51372.62360723301, -54828.493872701394, -48379.14387931155, -32727.066603549316, -49247.75502058924, -56173.53244704395, 0.0475, 0.9556250000000002, -0.10225000000000001, 192.0, 0.0, 0.0, 0.0, 0.0, 0.0, 0.0, 0.0, 0.0, 0.0, 1.6689761802225943E9, 0.0, 2022-11-20 15:29:40.222
228.0, -40596.75819835165, -10440.656297285115, -59374.88339839976, -58616.198136353276, -45519.506397188474, -48081.12807048894, -46058.85399089503, -28726.998415827566, -47719.23097601307, -17481.254635006742, -51476.8497916281, -54915.44215863254, -48478.63149388212, -32820.36278490577, -49331.86463497456, -56261.307747519946, 0.0475, 0.9556250000000002, -0.10225000000000001, 192.0, 0.0, 0.0, 0.0, 0.0, 0.0, 0.0, 0.0, 0.0, 0.0, 1.668976180222601E9, 0.0, 2022-11-20 15:29:40.222
230.0, -40500.645697193824, -10308.468080576431, -59283.241246133, -58526.23236492067, -45436.112038625724, -47995.297371780565, -45975.66079803238, -28644.274609598473, -47653.360385103275, -17414.64643652993, -51395.958828444345, -54834.8417681267, -48399.43926327697, -32739.561228699833, -49252.89592181396, -56181.109688414304, 0.05075, 0.9558125000000002, -0.10212500000000001, 192.0, 0.5, 88.0, 14.5, 112.0, 126.0, 104.0, 0.0, 0.0, 0.0, 1.6689761802226062E9, 0.0, 2022-11-20 15:29:40.222
232.0, -40590.79028258208, -10409.96735214798, -59363.595767449835, -58606.69864495977, -45517.20416750958, -48080.770442577654, -46059.50219148424, -28725.567904182426, -47714.470054444086, -17472.537454669175, -51463.684614143924, -54899.57242006927, -48467.54502863229, -32811.06445921236, -49302.9861811383, -56234.999744296045, 0.05075, 0.9558125000000002, -0.10212500000000001, 192.0, 0.0, 0.0, 0.0, 0.0, 0.0, 0.0, 0.0, 0.0, 0.0, 1.6689761802226112E9, 0.0, 2022-11-20 15:29:40.222
234.0, -40500.75745591611, -10323.019066216835, -59280.62609203173, -58522.521975341086, -45432.625166490696, -47999.767720671625, -45976.35370211049, -28643.648760753724, -47647.63833852272, -17420.189669154843, -51390.862630708536, -54833.32184950374, -48396.555888242234, -32751.18413581659, -49233.82988379358, -56166.26813009598, 0.05075, 0.9558125000000002, -0.10212500000000001, 192.0, 0.0, 0.0, 0.0, 0.0, 0.0, 0.0, 0.0, 0.0, 0.0, 1.6689761802226164E9, 0.0, 2022-11-20 15:29:40.222
236.0, -40588.80097732556, -10378.876075610648, -59371.620043709285, -58606.966865893235, -45520.691039644604, -48089.532326404136, -46060.28450254018, -28729.390052484283, -47702.3107054604, -17467.03892553317, -51453.17929424993, -54888.1059751637, -48462.04649949628, -32816.495933115, -49283.76368090674, -56217.095996987344, 0.05075, 0.9558125000000002, -0.10212500000000001, 192.0, 0.0, 0.0, 0.0, 0.0, 0.0, 0.0, 0.0, 0.0, 0.0, 1.6689761802226217E9, 0.0, 2022-11-20 15:29:40.222
238.0, -40509.69815369823, -10341.749828070382, -59297.9933974735, -58528.22167017718, -45433.63099499119, -48004.03690386259, -45972.464498575275, -28643.42524330917, -47675.95799874759, -17449.40339915793, -51416.589488576596, -54859.115762605164, -48427.1330746571, -32780.53197628641, -49254.81817183711, -56189.133964673754, 0.05075, 0.9558125000000002, -0.10212500000000001, 192.0, 0.0, 0.0, 0.0, 0.0, 0.0, 0.0, 0.0, 0.0, 0.0, 1.6689761802226267E9, 0.0, 2022-11-20 15:29:40.222
240.0, -40606.59296591199, -10366.537912671318, -59403.493631302554, -58637.81227324156, -45527.64243217021, -48095.5002421737, -46063.68196769738, -28735.73794790959, -47700.81313858189, -17461.339230697064, -51453.84984658359, -54890.05057693131, -48456.21269419345, -32809.164560933656, -49279.40509073795, -56215.73254057557, 0.051375000000000004, 0.9589062500000001, -0.1010625, 192.0, 0.5, 80.0, 15.0, 8.0, 126.0, 112.0, 0.0, 0.0, 0.0, 1.6689761807030263E9, 0.0, 2022-11-20 15:29:40.703
242.0, -40505.272508296075, -10340.833406547716, -59307.76110980048, -58539.285783682564, -45422.85745416373, -47990.40233974485, -45968.843515973516, -28638.44080429564, -47696.18632747964, -17467.93299531138, -51449.312442459166, -54885.8037454848, -48441.77346727532, -32791.618441536244, -49288.70341643136, -56218.95119177714, 0.051375000000000004, 0.9589062500000001, -0.1010625, 192.0, 0.0, 0.0, 0.0, 0.0, 0.0, 0.0, 0.0, 0.0, 0.0, 1.6689761807030916E9, 0.0, 2022-11-20 15:29:40.703
244.0, -40605.34126822249, -10331.646839576584, -59418.826927998896, -58658.73350605172, -45537.45484798609, -48109.8053586251, -46083.954999918344, -28756.301552808472, -47682.86468778428, -17442.295544421144, -51447.144323247, -54870.6045592552, -48440.72293528592, -32789.11504615725, -49294.58192522311, -56226.64019186976, 0.051375000000000004, 0.9589062500000001, -0.1010625, 192.0, 0.0, 0.0, 0.0, 0.0, 0.0, 0.0, 0.0, 0.0, 0.0, 1.66897618070311E9, 0.0, 2022-11-20 15:29:40.703
246.0, -40484.57479293046, -10319.75571152636, -59304.67656906564, -58530.43449287826, -45421.426942518585, -47990.044711833565, -45966.518934550164, -28637.636141495248, -47692.520641388975, -17462.30035570864, -51453.26870122775, -54884.23912337293, -48456.50326687137, -32802.12376143024, -49318.47594004583, -56250.93653809268, 0.051375000000000004, 0.9589062500000001, -0.1010625, 192.0, 0.0, 0.0, 0.0, 0.0, 0.0, 0.0, 0.0, 0.0, 0.0, 1.668976180703171E9, 0.0, 2022-11-20 15:29:40.703
248.0, -40587.32576219151, -10290.65374024555, -59407.986331938075, -58646.46239834576, -45538.30421427539, -48107.72664639076, -46083.44090979587, -28753.93226789621, -47647.16895188916, -17416.72514876427, -51411.493290840786, -54845.36943976515, -48420.136978642586, -32768.59614474728, -49275.381776736, -56207.97648524958, 0.051375000000000004, 0.9589062500000001, -0.1010625, 192.0, 0.0, 0.0, 0.0, 0.0, 0.0, 0.0, 0.0, 0.0, 0.0, 1.6689761807031772E9, 0.0, 2022-11-20 15:29:40.703
250.0, -40505.272508296075, -10349.885863052114, -59312.343217413814, -58539.8669290384, -45445.767992230416, -48008.66371496484, -45991.262315662185, -28658.445615583136, -47706.758702607, -17479.332384983587, -51453.31340471666, -54896.309065378795, -48467.097993743184, -32819.26754942746, -49322.40984706996, -56254.91514860572, 0.0526875, 0.961453125, -0.10153125, 192.0, 0.5, 88.0, 15.0, 16.0, 126.0, 104.0, 0.0, 0.0, 0.0, 1.668976180703182E9, 0.0, 2022-11-20 15:29:40.703
252.0, -40588.75627383665, -10282.875333175103, -59383.310006059415, -58632.626668527926, -45526.97187983655, -48090.627561882444, -46062.47497349679, -28732.072261818917, -47658.188361905624, -17422.380140111465, -51404.09486342608, -54843.15661706408, -48415.86779545162, -32764.77399644542, -49262.06013704064, -56194.945418232135, 0.0526875, 0.961453125, -0.10153125, 192.0, 0.0, 0.0, 0.0, 0.0, 0.0, 0.0, 0.0, 0.0, 0.0, 1.668976180703187E9, 0.0, 2022-11-20 15:29:40.703
254.0, -40526.30549982852, -10370.203598761987, -59311.38209240224, -58550.99809777714, -45445.969157930514, -48017.35854355795, -45986.52374583766, -28655.785757992955, -47735.6148046988, -17505.215705062834, -51484.672902187456, -54926.34980992673, -48485.71699687446, -32844.122689261756, -49337.43021934393, -56277.11043084985, 0.0526875, 0.961453125, -0.10153125, 192.0, 0.0, 0.0, 0.0, 0.0, 0.0, 0.0, 0.0, 0.0, 0.0, 1.668976180703192E9, 0.0, 2022-11-20 15:29:40.703
0.0, -40562.671788057305, -10253.348678749642, -59354.34214524533, -58610.14081360589, -45499.21101322306, -48076.7471285757, -46036.502246439726, -28710.324014463906, -47628.840521435806, -17398.530828777653, -51387.33105508459, -54825.58814592221, -48382.49664097984, -32746.579676458798, -49235.30509892763, -56183.03193843746, 0.0526875, 0.961453125, -0.10153125, 192.0, 0.0, 0.0, 0.0, 0.0, 0.0, 0.0, 0.0, 0.0, 0.0, 1.6689761807031968E9, 0.0, 2022-11-20 15:29:40.703
2.0, -40515.57666248997, -10361.307604468777, -59304.47540336555, -58532.55790860151, -45448.89723645416, -48024.019363405634, -45989.25065866121, -28659.38438885026, -47708.591545652336, -17486.395536231463, -51468.1996665239, -54907.73080679546, -48464.728708830924, -32833.68442460113, -49318.43123655692, -56264.81697139943, 0.0526875, 0.961453125, -0.10153125, 192.0, 0.0, 0.0, 0.0, 0.0, 0.0, 0.0, 0.0, 0.0, 0.0, 1.6689761807032015E9, 0.0, 2022-11-20 15:29:40.703
4.0, -40549.68542452877, -10233.567384906697, -59342.339258472835, -58569.86297009742, -45490.717350330044, -48065.481849370226, -46031.07077253709, -28704.69137486117, -47616.25648930747, -17389.254854828698, -51370.50019150975, -54804.9351340455, -48368.258579761816, -32738.24247577697, -49225.045648222644, -56166.40224056271, 0.0526875, 0.961453125, -0.10153125, 192.0, 0.0, 0.0, 0.0, 0.0, 0.0, 0.0, 0.0, 0.0, 0.0, 1.6689761807032168E9, 0.0, 2022-11-20 15:29:40.703
6.0, -40544.92450295979, -10379.613683177673, -59329.12937749975, -58533.16140570181, -45463.09059418328, -48031.46249430925, -46007.57908911456, -28677.221080925596, -47734.43016224267, -17508.724928942316, -51486.93042837745, -54916.60444934422, -48486.70047363049, -32847.38604395223, -49334.97152745385, -56267.94621562317, 0.056, 0.962, -0.098, 192.0, 0.5, 96.0, 15.0, 8.0, 126.0, 120.0, 0.0, 0.0, 0.0, 1.6689761807032216E9, 0.0, 2022-11-20 15:29:40.703
8.0, -40532.49693304264, -10216.222431209379, -59325.44133966462, -58552.853292566935, -45463.35881511674, -48027.28271809611, -46001.43235938935, -28671.00729596702, -47619.92217539813, -17385.656223971393, -51365.91808389641, -54796.57558161922, -48367.5656756837, -32726.418402960113, -49206.940735213844, -56131.15353955669, 0.056, 0.962, -0.098, 192.0, 0.0, 0.0, 0.0, 0.0, 0.0, 0.0, 0.0, 0.0, 0.0, 1.6689761807032263E9, 0.0, 2022-11-20 15:29:40.703
10.0, -40544.9692064487, -10363.296909725299, -59333.13033975725, -58556.38486819087, -45460.318977870826, -48011.569441744025, -45996.20205118681, -28658.222098138584, -47731.18915929666, -17492.475210723307, -51475.55339044969, -54907.2614201619, -48482.05131078378, -32836.277226957944, -49310.22814634182, -56225.20968022462, 0.056, 0.962, -0.098, 192.0, 0.0, 0.0, 0.0, 0.0, 0.0, 0.0, 0.0, 0.0, 0.0, 1.6689761807032313E9, 0.0, 2022-11-20 15:29:40.703
12.0, -40526.104334128424, -10210.478032884364, -59316.14301397122, -58565.571435162004, -45448.85253296525, -47999.275982293606, -45983.215687658274, -28644.788699720946, -47617.82111141934, -17394.77573570916, -51367.59446473056, -54800.77770957682, -48368.14682103954, -32725.457277948535, -49201.88924096695, -56113.94269632611, 0.056, 0.962, -0.098, 192.0, 0.0, 0.0, 0.0, 0.0, 0.0, 0.0, 0.0, 0.0, 0.0, 1.6689761807032363E9, 0.0, 2022-11-20 15:29:40.703
14.0, -40584.196517967765, -10377.825543621248, -59376.448020511634, -58610.47608977272, -45503.10021675828, -48055.0435847096, -46042.13488604246, -28701.226854470595, -47740.0180983565, -17510.334254543097, -51496.072291859666, -54926.238051204455, -48493.45070045599, -32854.71741613357, -49329.24948087329, -56249.99776482556, 0.056, 0.962, -0.098, 192.0, 0.0, 0.0, 0.0, 0.0, 0.0, 0.0, 0.0, 0.0, 0.0, 1.668976180703241E9, 0.0, 2022-11-20 15:29:40.703
16.0, -40548.67959602828, -10244.653850156528, -59352.79987487792, -58598.89788614487, -45487.1857747061, -48050.573235818534, -46023.40412418892, -28688.709877575624, -47648.97944319004, -17425.12940467947, -51402.84316573658, -54839.37917225113, -48407.41883604752, -32766.83035693531, -49257.09804977156, -56181.48966807004, 0.052000000000000005, 0.962, -0.1, 192.0, 0.5, 80.0, 15.0, 8.0, 126.0, 112.0, 0.0, 0.0, 0.0, 1.6689761807032464E9, 0.0, 2022-11-20 15:29:40.703
18.0, -40600.87091933143, -10383.324072757254, -59398.15156437774, -58636.113540662955, -45535.733763663025, -48109.872413858466, -46074.20963933583, -28741.750567168066, -47753.5185520075, -17530.406121063963, -51505.90705942, -54944.92410956909, -48518.484654245935, -32883.14883508073, -49362.799449300706, -56299.30571309396, 0.052000000000000005, 0.962, -0.1, 192.0, 0.0, 0.0, 0.0, 0.0, 0.0, 0.0, 0.0, 0.0, 0.0, 1.6689761807032511E9, 0.0, 2022-11-20 15:29:40.703
20.0, -40536.36378483341, -10249.191254280955, -59317.68528433863, -58569.03595555258, -45470.936056487095, -48054.23892190921, -46009.76956007118, -28681.467912372103, -47657.8977892277, -17444.038980488658, -51401.74793025827, -54844.60948045367, -48421.2769176098, -32790.41144733565, -49269.100936544055, -56216.29133418696, 0.052000000000000005, 0.962, -0.1, 192.0, 0.0, 0.0, 0.0, 0.0, 0.0, 0.0, 0.0, 0.0, 0.0, 1.6689761807032561E9, 0.0, 2022-11-20 15:29:40.703
22.0, -40624.51906496514, -10377.557322687784, -59389.34497706235, -58626.09995914697, -45544.20507481159, -48123.59638495403, -46082.74800571776, -28751.406520772758, -47736.19595005464, -17511.742414443783, -51484.04705334271, -54915.73273131046, -48503.41957848306, -32869.782491896454, -49330.18825414041, -56285.335872809395, 0.052000000000000005, 0.962, -0.1, 192.0, 0.0, 0.0, 0.0, 0.0, 0.0, 0.0, 0.0, 0.0, 0.0, 1.6689761807032611E9, 0.0, 2022-11-20 15:29:40.703
24.0, -40505.02663910707, -10229.566422649195, -59272.53476053891, -58520.286800895556, -45433.251015335445, -48011.234165577196, -45978.07478643356, -28646.398025321727, -47676.62855108125, -17451.45975964782, -51409.61574430654, -54845.57060546525, -48430.44113283648, -32795.4405898381, -49264.27295974171, -56214.92787777518, 0.052000000000000005, 0.962, -0.1, 192.0, 0.0, 0.0, 0.0, 0.0, 0.0, 0.0, 0.0, 0.0, 0.0, 1.668976180703266E9, 0.0, 2022-11-20 15:29:40.703
26.0, -40598.948669308265, -10331.624487832129, -59370.50245648652, -58616.22048809773, -45533.38683049522, -48095.388483451425, -46076.02013063671, -28736.49790722107, -47711.452568942615, -17488.004861832247, -51454.58745415061, -54890.363501353684, -48468.34969143268, -32837.39481418071, -49299.27579155872, -56247.56142467993, 0.044, 0.96, -0.1, 192.0, 0.5, 48.0, 15.0, 0.0, 126.0, 112.0, 0.0, 0.0, 0.0, 1.668976180703271E9, 0.0, 2022-11-20 15:29:40.703
28.0, -40471.72253986866, -10208.01934099428, -59249.89244340568, -58490.827201703454, -45411.65923019162, -47966.19540049975, -45956.70651873428, -28611.641062693725, -47650.208789135075, -17428.236297158754, -51389.11919464102, -54828.85150061268, -48401.249754577846, -32762.91880165563, -49242.43530540888, -56179.25449362451, 0.044, 0.96, -0.1, 192.0, 0.0, 0.0, 0.0, 0.0, 0.0, 0.0, 0.0, 0.0, 0.0, 1.668976180703276E9, 0.0, 2022-11-20 15:29:40.703
30.0, -40590.09737850397, -10291.570161768219, -59371.93296813166, -58606.475127515216, -45524.893167602204, -48075.98716926422, -46069.716938700316, -28726.171401282718, -47671.37589113425, -17450.744503825248, -51422.445645623884, -54856.120628848155, -48435.53733057229, -32800.6932497851, -49270.19617202237, -56204.19904043664, 0.044, 0.96, -0.1, 192.0, 0.0, 0.0, 0.0, 0.0, 0.0, 0.0, 0.0, 0.0, 0.0, 1.6689761807032807E9, 0.0, 2022-11-20 15:29:40.703
32.0, -40504.24432805113, -10253.54984444974, -59296.83110676183, -58523.19252767474, -45439.01776540492, -47992.570458957016, -45983.5509638251, -28641.659455497203, -47684.02697849595, -17467.485960422273, -51424.054971224665, -54860.322756805755, -48436.99019396189, -32802.34727887479, -49283.24959078427, -56209.518755617, 0.044, 0.96, -0.1, 192.0, 0.0, 0.0, 0.0, 0.0, 0.0, 0.0, 0.0, 0.0, 0.0, 1.6689761807032857E9, 0.0, 2022-11-20 15:29:40.703
34.0, -40595.46179717324, -10270.045431857758, -59398.71035798912, -58629.09509290399, -45537.54425496391, -48098.38361720844, -46076.8247934371, -28740.074186333917, -47696.65571411321, -17473.878559336492, -51443.05395401167, -54866.58124525324, -48457.75496456087, -32820.38513665022, -49297.644114213486, -56222.572174378896, 0.044, 0.96, -0.1, 192.0, 0.0, 0.0, 0.0, 0.0, 0.0, 0.0, 0.0, 0.0, 0.0, 1.6689761807032907E9, 0.0, 2022-11-20 15:29:40.703
36.0, -40501.24919429412, -10255.114466561612, -59300.0944614523, -58527.08173120997, -45437.49784678195, -48003.947496884764, -45978.34300736702, -28642.19589736413, -47689.72667333206, -17474.482056436784, -51425.77605554772, -54853.93015789153, -48446.57909233321, -32813.61255808026, -49289.64218969848, -56220.42640691119, 0.044, 0.96, -0.098, 192.0, 0.5, 48.0, 15.0, 0.0, 126.0, 120.0, 0.0, 0.0, 0.0, 1.6689761807032971E9, 0.0, 2022-11-20 15:29:40.703
38.0, -40591.974925038216, -10242.284565244267, -59389.21086659561, -58630.726770249225, -45532.246891528004, -48102.83161435505, -46070.67806371189, -28739.336578766895, -47688.05029249791, -17460.08753300757, -51424.412599135954, -54849.43745725602, -48447.71903130043, -32815.55715984788, -49282.243762283775, -56220.02407551099, 0.044, 0.96, -0.098, 192.0, 0.0, 0.0, 0.0, 0.0, 0.0, 0.0, 0.0, 0.0, 0.0, 1.668976180703302E9, 0.0, 2022-11-20 15:29:40.703
40.0, -40498.81285414849, -10260.769457908806, -59285.52112406745, -58524.82420501998, -45429.78649494487, -47999.58890671598, -45970.31873110757, -28632.450536781616, -47703.87532757227, -17494.889199124482, -51437.86834929805, -54876.326605835755, -48458.87255178363, -32829.21407571007, -49306.294239317685, -56243.6275176558, 0.044, 0.96, -0.098, 192.0, 0.0, 0.0, 0.0, 0.0, 0.0, 0.0, 0.0, 0.0, 0.0, 1.668976180703307E9, 0.0, 2022-11-20 15:29:40.703
42.0, -40593.22662272771, -10219.64224811104, -59378.57143623489, -58634.48186331771, -45534.906749118185, -48105.84909985651, -46075.304874814145, -28737.92841886621, -47655.1485246597, -17434.874765261982, -51396.33880810009, -54836.92048036105, -48414.23611810638, -32785.896394955686, -49264.004738808246, -56201.583886335364, 0.044, 0.96, -0.098, 192.0, 0.0, 0.0, 0.0, 0.0, 0.0, 0.0, 0.0, 0.0, 0.0, 1.6689761807033117E9, 0.0, 2022-11-20 15:29:40.703
44.0, -40508.17823507527, -10275.253388315843, -59288.20333340208, -58528.10991145491, -45440.18005611659, -48008.417845775824, -45988.93773423883, -28647.493260800038, -47712.32428697638, -17493.74926015726, -51450.340622704105, -54893.87272523317, -48464.728708830924, -32837.26070371398, -49323.66154475946, -56262.782962654, 0.044, 0.96, -0.098, 192.0, 0.0, 0.0, 0.0, 0.0, 0.0, 0.0, 0.0, 0.0, 0.0, 1.6689761807033167E9, 0.0, 2022-11-20 15:29:40.703
46.0, -40589.42682617031, -10210.366274162088, -59368.1108198298, -58619.43913929929, -45532.381001994734, -48098.87535558645, -46076.80244169265, -28736.989645599086, -47646.40899257767, -17433.086625705557, -51392.29314235367, -54828.56092793476, -48407.53059476979, -32776.799234962375, -49262.70833762984, -56200.958037490615, 0.048, 0.9580000000000001, -0.1, 192.0, 0.5, 64.0, 14.5, 120.0, 126.0, 112.0, 0.0, 0.0, 0.0, 1.6689761807033217E9, 0.0, 2022-11-20 15:29:40.703
48.0, -40541.616444780404, -10306.210554386444, -59310.242153435014, -58536.89414702584, -45469.01380646394, -48028.64617450788, -46013.144673483934, -28669.04034245495, -47726.5176447055, -17521.666588981938, -51470.680710158435, -54905.33917013874, -48484.33118871823, -32855.522078933966, -49339.06189668917, -56276.01519537153, 0.048, 0.9580000000000001, -0.1, 192.0, 0.0, 0.0, 0.0, 0.0, 0.0, 0.0, 0.0, 0.0, 0.0, 1.6689761807033265E9, 0.0, 2022-11-20 15:29:40.703
50.0, -40589.158605236844, -10197.692835055928, -59357.51609295799, -58595.52277273212, -45520.46752220005, -48079.18346872133, -46059.16691531741, -28718.929436079197, -47658.881265983735, -17440.10507346452, -51403.06668318113, -54827.93507909001, -48410.70454248245, -32778.743836729984, -49257.41097419393, -56192.442022853145, 0.048, 0.9580000000000001, -0.1, 192.0, 0.0, 0.0, 0.0, 0.0, 0.0, 0.0, 0.0, 0.0, 0.0, 1.6689761807033312E9, 0.0, 2022-11-20 15:29:40.703
52.0, -40535.894398199845, -10307.194031142477, -59301.726138797545, -58518.36455087239, -45457.99439644747, -48014.47516852322, -45997.0067139872, -28655.316371359393, -47743.43791525816, -17524.16998436093, -51487.5562772222, -54912.469376619985, -48491.997837066396, -32859.4559859581, -49329.74121925131, -56265.621634199815, 0.048, 0.9580000000000001, -0.1, 192.0, 0.0, 0.0, 0.0, 0.0, 0.0, 0.0, 0.0, 0.0, 0.0, 1.6689761807033365E9, 0.0, 2022-11-20 15:29:40.703
54.0, -40562.09064270146, -10175.92223595646, -59336.63956363673, -58572.008737565135, -45505.402446437176, -48065.63831158142, -46043.632452920974, -28706.43481092868, -47627.25354757948, -17407.739747493237, -51370.32137755411, -54796.10619498565, -48380.59674270114, -32750.178307316102, -49219.055380708625, -56152.9017869117, 0.048, 0.9580000000000001, -0.1, 192.0, 0.0, 0.0, 0.0, 0.0, 0.0, 0.0, 0.0, 0.0, 0.0, 1.6689761807033412E9, 0.0, 2022-11-20 15:29:40.703
56.0, -40539.69419475725, -10302.56722004023, -59312.94671451411, -58538.503472626624, -45474.40057687766, -48038.771514746135, -46018.01735377519, -28677.95868849262, -47736.128894821275, -17527.27687684022, -51476.067480572165, -54907.59669632873, -48496.8481656132, -32865.7591778945, -49332.021097185745, -56265.71104117764, 0.052000000000000005, 0.96, -0.1, 192.0, 0.5, 80.0, 15.0, 0.0, 126.0, 112.0, 0.0, 0.0, 0.0, 1.668976180703346E9, 0.0, 2022-11-20 15:29:40.703
58.0, -40544.45511632623, -10159.449000292898, -59320.32279018436, -58574.13215328839, -45491.32084743033, -48063.4925441137, -46034.73645862776, -28698.29877594695, -47618.22344281953, -17409.997273683224, -51355.45746749133, -54794.20629670695, -48379.166231056006, -32759.096653353772, -49218.38482837496, -56156.61217649128, 0.052000000000000005, 0.96, -0.1, 192.0, 0.0, 0.0, 0.0, 0.0, 0.0, 0.0, 0.0, 0.0, 0.0, 1.6689761807033508E9, 0.0, 2022-11-20 15:29:40.703
60.0, -40548.23256113918, -10295.079385647701, -59322.58031637434, -58555.714315857214, -45476.948675745574, -48052.473134097236, -46024.85698757851, -28688.262842686516, -47737.69351693315, -17531.546060031185, -51477.6991579174, -54915.28569642135, -48501.20675578198, -32885.11578859279, -49341.40882985698, -56282.16192509675, 0.052000000000000005, 0.96, -0.1, 192.0, 0.0, 0.0, 0.0, 0.0, 0.0, 0.0, 0.0, 0.0, 0.0, 1.6689761807033558E9, 0.0, 2022-11-20 15:29:40.703
62.0, -40534.26272085461, -10152.497607767298, -59322.133281485236, -58561.27990022658, -45474.24411466648, -48048.47217183974, -46017.6597258639, -28682.58549959487, -47611.070884593835, -17403.559971280094, -51348.32726101008, -54780.59408433367, -48368.884428606565, -32749.239534048982, -49217.28959289665, -56157.416839291676, 0.052000000000000005, 0.96, -0.1, 192.0, 0.0, 0.0, 0.0, 0.0, 0.0, 0.0, 0.0, 0.0, 0.0, 1.6689761807033608E9, 0.0, 2022-11-20 15:29:40.703
64.0, -40563.431747368784, -10293.22419085791, -59350.36353473229, -58571.20407476474, -45489.77857706292, -48054.52949458713, -46032.8142086046, -28694.186054967173, -47745.158999581225, -17531.00961816426, -51486.39398651052, -54912.670542320084, -48505.52064246186, -32879.95253562362, -49346.72854503734, -56287.90632342176, 0.052000000000000005, 0.96, -0.1, 192.0, 0.0, 0.0, 0.0, 0.0, 0.0, 0.0, 0.0, 0.0, 0.0, 1.6689761807033665E9, 0.0, 2022-11-20 15:29:40.703
66.0, -40488.553403443504, -10123.2391742753, -59280.22376063154, -58521.65025730732, -45423.952689642036, -47994.33624676899, -45966.54128629462, -28630.43887978064, -47606.868756636235, -17400.117802633977, -51345.689755164356, -54777.062508709736, -48361.6648151475, -32733.660368163633, -49213.75801727272, -56151.27010956647, 0.05, 0.962, -0.098, 192.0, 0.5, 72.0, 15.0, 8.0, 126.0, 120.0, 0.0, 0.0, 0.0, 1.6689761807033713E9, 0.0, 2022-11-20 15:29:40.703
68.0, -40567.902096259844, -10286.786888454782, -59357.04670632443, -58591.49945873016, -45500.68622835711, -48068.834611038525, -46042.67132790939, -28707.73121210709, -47708.14451076323, -17500.924170127415, -51453.0451837832, -54883.792088483824, -48466.56155187626, -32838.802974081394, -49319.8393964576, -56255.831570128394, 0.05, 0.962, -0.098, 192.0, 0.0, 0.0, 0.0, 0.0, 0.0, 0.0, 0.0, 0.0, 0.0, 1.6689761807033775E9, 0.0, 2022-11-20 15:29:40.703
70.0, -40485.133586541844, -10146.663802464462, -59278.03328967492, -58520.80089101802, -45430.032364133884, -47998.76189217113, -45970.18462064083, -28636.8091269504, -47614.44599800659, -17425.621143057484, -51355.14454306896, -54794.60862810715, -48372.661873419514, -32741.34936825626, -49243.999927520745, -56171.99017667654, 0.05, 0.962, -0.098, 192.0, 0.0, 0.0, 0.0, 0.0, 0.0, 0.0, 0.0, 0.0, 0.0, 1.6689761807033825E9, 0.0, 2022-11-20 15:29:40.703
72.0, -40576.46281438623, -10283.076498875202, -59356.44320922413, -58590.58303720749, -45514.00786805247, -48081.08336700003, -46051.7684879027, -28717.007186056042, -47712.41369395419, -17508.210838819843, -51450.206512237375, -54883.97090243947, -48466.80742106526, -32831.538657133424, -49333.138684408514, -56258.156151551746, 0.05, 0.962, -0.098, 192.0, 0.0, 0.0, 0.0, 0.0, 0.0, 0.0, 0.0, 0.0, 0.0, 1.6689761807033875E9, 0.0, 2022-11-20 15:29:40.703
74.0, -40475.2541154926, -10167.763849230272, -59245.936184637096, -58498.739719240635, -45412.39683775864, -47986.24491527616, -45953.26435008817, -28620.849981409312, -47624.1913585891, -17421.866049988992, -51354.272825035194, -54793.80396530676, -48367.67743440598, -32732.118097796214, -49237.54027337316, -56165.68698474014, 0.05, 0.962, -0.098, 192.0, 0.0, 0.0, 0.0, 0.0, 0.0, 0.0, 0.0, 0.0, 0.0, 1.6689761807033925E9, 0.0, 2022-11-20 15:29:40.703
76.0, -40587.88455580289, -10292.106603635146, -59348.84361610933, -58612.86772642943, -45510.83392033981, -48089.71114035978, -46054.42834549288, -28724.249151259562, -47695.62753386826, -17485.188542030875, -51435.32025043014, -54871.565684266774, -48438.84538875167, -32807.73404928852, -49294.559573478655, -56236.65377338574, 0.051000000000000004, 0.962, -0.098, 192.0, 0.5, 80.0, 15.0, 8.0, 126.0, 120.0, 0.0, 0.0, 0.0, 1.6689761807033973E9, 0.0, 2022-11-20 15:29:40.703
78.0, -40497.47174948118, -10230.59460289414, -59259.74956271047, -58531.77559754558, -45419.30352679533, -48001.287639294584, -45963.97083568226, -28633.992807149032, -47657.964844461065, -17459.349925440543, -51391.756700486745, -54839.62504144014, -48388.173984071494, -32767.210336591048, -49247.21857872231, -56198.81227002291, 0.051000000000000004, 0.962, -0.098, 192.0, 0.0, 0.0, 0.0, 0.0, 0.0, 0.0, 0.0, 0.0, 0.0, 1.668976180703402E9, 0.0, 2022-11-20 15:29:40.703
80.0, -40578.474471387206, -10294.185315869488, -59352.44224696663, -58618.88034568791, -45510.94567906209, -48089.12999500394, -46052.88607512547, -28722.863343103334, -47703.04831302742, -17487.624882176504, -51439.142398732, -54882.62979777215, -48436.6325660506, -32817.99349999351, -49286.04355884118, -56240.744142621064, 0.051000000000000004, 0.962, -0.098, 192.0, 0.0, 0.0, 0.0, 0.0, 0.0, 0.0, 0.0, 0.0, 0.0, 1.668976180703407E9, 0.0, 2022-11-20 15:29:40.703
82.0, -40447.895580279306, -10232.092169772646, -59234.51444322043, -58490.71544298118, -45387.675808391075, -47960.339243452465, -45928.52096897614, -28596.53128344194, -47657.92014097216, -17448.26346019071, -51382.659540493434, -54831.6901721585, -48384.396539258545, -32760.66127546564, -49242.971747275806, -56195.705377543614, 0.051000000000000004, 0.962, -0.098, 192.0, 0.0, 0.0, 0.0, 0.0, 0.0, 0.0, 0.0, 0.0, 0.0, 1.6689761807034118E9, 0.0, 2022-11-20 15:29:40.703
84.0, -40573.80295679605, -10293.291246091276, -59371.57534022038, -58620.69083698879, -45521.20512976708, -48085.7995850801, -46056.01531934921, -28720.762279124534, -47667.37492887675, -17452.93497478187, -51398.46222382334, -54840.72027691845, -48405.40717904654, -32772.82062444933, -49257.299215471656, -56199.438118867656, 0.051000000000000004, 0.962, -0.098, 192.0, 0.0, 0.0, 0.0, 0.0, 0.0, 0.0, 0.0, 0.0, 0.0, 1.6689761807034168E9, 0.0, 2022-11-20 15:29:40.703
86.0, -40477.26577249358, -10299.46032756094, -59279.73202225352, -58508.08274842295, -45417.96242212802, -47976.7230721382, -45955.052489644586, -28615.910245884686, -47690.24076345453, -17479.734716383784, -51418.4893868553, -54858.53461724933, -48428.13890315758, -32780.06258965285, -49294.24664905628, -56212.87151728529, 0.051500000000000004, 0.958, -0.096, 192.0, 0.5, 80.0, 14.5, 104.0, 126.5, 8.0, 0.0, 0.0, 0.0, 1.6689761807034216E9, 0.0, 2022-11-20 15:29:40.703
88.0, -40593.830119828, -10317.94522022548, -59396.94457017715, -58634.41480808435, -45537.767772408464, -48096.81899509657, -46072.577961990595, -28732.228724030105, -47673.96869349107, -17449.291640435655, -51411.7838635187, -54844.0953903312, -48416.51599604083, -32758.046121364372, -49282.243762283775, -56191.25738039701, 0.051500000000000004, 0.958, -0.096, 192.0, 0.0, 0.0, 0.0, 0.0, 0.0, 0.0, 0.0, 0.0, 0.0, 1.6689761807034264E9, 0.0, 2022-11-20 15:29:40.703
90.0, -40489.402769732806, -10343.13563622661, -59285.498772322986, -58524.0642457085, -45422.36571578571, -47982.713339652226, -45960.32750133604, -28621.52053374297, -47718.448664957126, -17500.56654221613, -51455.928558817934, -54895.9067339786, -48456.749136060374, -32799.48625558451, -49329.67416401794, -56237.9725263086, 0.051500000000000004, 0.958, -0.096, 192.0, 0.0, 0.0, 0.0, 0.0, 0.0, 0.0, 0.0, 0.0, 0.0, 1.6689761807034314E9, 0.0, 2022-11-20 15:29:40.703
92.0, -40579.994390010164, -10304.556525296752, -59371.84356115384, -58635.80061624058, -45512.331487218325, -48085.50901240218, -46049.95799660182, -28716.11311627783, -47653.293329869906, -17435.187689684357, -51392.807232476145, -54838.485102472914, -48387.63754220457, -32739.628283933198, -49253.588825892075, -56178.47218256858, 0.051500000000000004, 0.958, -0.096, 192.0, 0.0, 0.0, 0.0, 0.0, 0.0, 0.0, 0.0, 0.0, 0.0, 1.6689761807034364E9, 0.0, 2022-11-20 15:29:40.703
94.0, -40518.88472066936, -10386.878000125647, -59304.2965894099, -58552.89799605584, -45434.74858221395, -48010.317744054526, -45978.20889690029, -28643.157022375708, -47725.981202838564, -17517.822088935627, -51459.32602397514, -54913.96694349849, -48447.45081036697, -32812.58437783532, -49318.67710574593, -56252.411753226734, 0.051500000000000004, 0.958, -0.096, 192.0, 0.0, 0.0, 0.0, 0.0, 0.0, 0.0, 0.0, 0.0, 0.0, 1.6689761807034411E9, 0.0, 2022-11-20 15:29:40.703
96.0, -40589.13625349239, -10312.737263767394, -59379.44315426864, -58643.42256109984, -45515.66189714216, -48090.24758222671, -46056.842333894056, -28723.086860547886, -47663.53042883044, -17451.772684070194, -51403.89369772598, -54853.81839916926, -48393.80662367423, -32753.28519979539, -49260.719032373316, -56195.81713626589, 0.051750000000000004, 0.958, -0.093, 192.0, 0.5, 80.0, 14.5, 120.0, 126.5, 24.0, 0.0, 0.0, 0.0, 1.668976180703446E9, 0.0, 2022-11-20 15:29:40.703
98.0, -40525.67965098377, -10410.213221336988, -59305.68239756613, -58556.94366180226, -45442.75050672895, -48011.90471791085, -45987.17194642687, -28650.62250502378, -47746.52245599299, -17541.64904852498, -51480.80605039669, -54935.044638519845, -48474.027034524326, -32831.98569202253, -49340.693574034405, -56271.83541915839, 0.051750000000000004, 0.958, -0.093, 192.0, 0.0, 0.0, 0.0, 0.0, 0.0, 0.0, 0.0, 0.0, 0.0, 1.668976180703451E9, 0.0, 2022-11-20 15:29:40.703
100.0, -40588.1304249919, -10316.782929513804, -59357.47138946908, -58626.90462194737, -45509.98455405051, -48088.77236709266, -46054.40599374843, -28723.198619270162, -47660.26707413996, -17456.13127423898, -51393.05310166516, -54844.90005313159, -48387.72694918239, -32746.065586336328, -49244.93870078787, -56175.8123249784, 0.051750000000000004, 0.958, -0.093, 192.0, 0.0, 0.0, 0.0, 0.0, 0.0, 0.0, 0.0, 0.0, 0.0, 1.668976180703457E9, 0.0, 2022-11-20 15:29:40.703
102.0, -40517.96829914669, -10400.959599132491, -59285.40936534517, -58526.32177189848, -45429.339460055766, -48016.57623250201, -45976.57721955505, -28646.9121154442, -47745.53897923696, -17531.300190842176, -51474.16758229346, -54919.62193484568, -48468.48380189941, -32829.079965243334, -49316.19606211139, -56254.95985209464, 0.051750000000000004, 0.958, -0.093, 192.0, 0.0, 0.0, 0.0, 0.0, 0.0, 0.0, 0.0, 0.0, 0.0, 1.668976180703462E9, 0.0, 2022-11-20 15:29:40.703
104.0, -40529.188874863255, -10264.725716677394, -59312.343217413814, -58570.06413579752, -45464.09642268377, -48056.809372521566, -46006.59561235853, -28681.44556062765, -47636.52952152843, -17421.620180799982, -51367.39329903046, -54806.74562534638, -48361.28483549176, -32726.91014133813, -49211.74636027174, -56157.34978405831, 0.051750000000000004, 0.958, -0.093, 192.0, 0.0, 0.0, 0.0, 0.0, 0.0, 0.0, 0.0, 0.0, 0.0, 1.6689761811828294E9, 0.0, 2022-11-20 15:29:41.182
106.0, -40514.92846190077, -10392.689453684026, -59299.759185285475, -58549.634641365374, -45445.544474785864, -48034.725848999726, -45990.994094728725, -28659.987885950555, -47716.34760097833, -17508.56846673113, -51453.53692216121, -54897.493707834925, -48444.92506324352, -32821.97211050655, -49300.81806192614, -56256.390363739774, 0.052875000000000005, 0.961, -0.0915, 192.0, 0.5, 88.0, 15.0, 16.0, 126.5, 24.0, 0.0, 0.0, 0.0, 1.6689761811829343E9, 0.0, 2022-11-20 15:29:41.182
108.0, -40514.77199968958, -10252.588719438163, -59319.831051806344, -58585.46448772723, -45470.66783555363, -48054.97652947623, -46012.22825196126, -28683.188996695164, -47620.212748076054, -17416.233410386256, -51352.99877560124, -54803.32580844472, -48350.66775687549, -32725.77020237091, -49215.72497078478, -56165.999909162514, 0.052875000000000005, 0.961, -0.0915, 192.0, 0.0, 0.0, 0.0, 0.0, 0.0, 0.0, 0.0, 0.0, 0.0, 1.6689761811829484E9, 0.0, 2022-11-20 15:29:41.182
110.0, -40541.32587210248, -10410.749663203915, -59358.16429354719, -58594.78516516509, -45491.209088708056, -48057.435221366315, -46030.24375799224, -28692.420267155205, -47744.957833881126, -17543.861871226058, -51481.588361452625, -54932.36242918521, -48487.90746783107, -32851.543468420925, -49351.042431717215, -56289.1356693668, 0.052875000000000005, 0.961, -0.0915, 192.0, 0.0, 0.0, 0.0, 0.0, 0.0, 0.0, 0.0, 0.0, 0.0, 1.6689761811829531E9, 0.0, 2022-11-20 15:29:41.182
112.0, -40493.96252560169, -10238.417713453498, -59311.62796159124, -58559.08942926997, -45453.50169581195, -48012.485863266695, -45987.19429817132, -28648.744958489533, -47623.52080625544, -17413.573552796075, -51350.4730284778, -54800.64359911008, -48364.52583843778, -32711.241568474958, -49230.119494214, -56152.74532470052, 0.052875000000000005, 0.961, -0.0915, 192.0, 0.0, 0.0, 0.0, 0.0, 0.0, 0.0, 0.0, 0.0, 0.0, 1.6689761811829584E9, 0.0, 2022-11-20 15:29:41.182
114.0, -40537.79429647855, -10393.91879962907, -59330.4034269337, -58578.66955741282, -45477.97685599051, -48038.68210776831, -46016.922118296876, -28675.745865791545, -47727.79169413945, -17520.191373847887, -51453.60397739458, -54902.90282999311, -48469.73549958891, -32820.54159886141, -49325.89671920499, -56248.03081131349, 0.052875000000000005, 0.961, -0.0915, 192.0, 0.0, 0.0, 0.0, 0.0, 0.0, 0.0, 0.0, 0.0, 0.0, 1.6689761811829631E9, 0.0, 2022-11-20 15:29:41.182
116.0, -40505.808950163, -10270.134838835578, -59289.29856888039, -58557.07777226899, -45453.4793440675, -48021.31480232654, -45992.871641262966, -28653.885859714253, -47635.680155239126, -17438.383989141465, -51361.82771466109, -54815.30634347277, -48371.18665828546, -32729.39118497267, -49232.28761342617, -56156.41101079119, 0.0534375, 0.9615, -0.09175, 192.0, 0.5, 88.0, 15.0, 8.0, 126.5, 16.0, 0.0, 0.0, 0.0, 1.6689761811829937E9, 0.0, 2022-11-20 15:29:41.182
118.0, -40555.83215425398, -10391.48245948344, -59338.47240668206, -58591.38770000789, -45500.10508300127, -48070.645102339404, -46038.98329007427, -28700.645709114757, -47723.70132490413, -17516.302170312665, -51457.85080884109, -54901.986408470446, -48464.68400534201, -32825.77190706395, -49316.97837316732, -56247.15909327973, 0.0534375, 0.9615, -0.09175, 192.0, 0.0, 0.0, 0.0, 0.0, 0.0, 0.0, 0.0, 0.0, 0.0, 1.6689761811830003E9, 0.0, 2022-11-20 15:29:41.183
120.0, -40484.55244118601, -10265.373917266597, -59276.04398441839, -58531.61913533439, -45436.20144560355, -48012.37410454442, -45975.258466632185, -28636.116222872286, -47642.162161131164, -17444.351904911033, -51367.21448507482, -54818.12266327413, -48375.67935892098, -32739.71769091102, -49235.752133816735, -56164.681156239654, 0.0534375, 0.9615, -0.09175, 192.0, 0.0, 0.0, 0.0, 0.0, 0.0, 0.0, 0.0, 0.0, 0.0, 1.6689761811830084E9, 0.0, 2022-11-20 15:29:41.183
122.0, -40558.31319788852, -10377.937302343524, -59345.02146780747, -58592.66174944184, -45501.73676034651, -48079.384634421425, -46043.18541803186, -28700.73511609258, -47709.68678113065, -17513.26233306674, -51443.500988900785, -54891.771661254366, -48450.28948191279, -32815.311290658865, -49302.80736718266, -56235.60324139634, 0.0534375, 0.9615, -0.09175, 192.0, 0.0, 0.0, 0.0, 0.0, 0.0, 0.0, 0.0, 0.0, 0.0, 1.6689761811830153E9, 0.0, 2022-11-20 15:29:41.183
