%OpenBCI Raw EEG Data
%Number of channels = 16
%Sample Rate = 125 Hz
%Board = OpenBCI_GUI$BoardCytonSerialDaisy
Sample Index, EXG Channel 0, EXG Channel 1, EXG Channel 2, EXG Channel 3, EXG Channel 4, EXG Channel 5, EXG Channel 6, EXG Channel 7, EXG Channel 8, EXG Channel 9, EXG Channel 10, EXG Channel 11, EXG Channel 12, EXG Channel 13, EXG Channel 14, EXG Channel 15, Accel Channel 0, Accel Channel 1, Accel Channel 2, Other, Other, Other, Other, Other, Other, Other, Analog Channel 0, Analog Channel 1, Analog Channel 2, Timestamp, Other, Timestamp (Formatted)
0.0, -19104.706538284605, 24626.079157123466, -34692.36608652664, -33626.03141379731, -26989.642022805456, -27459.229822067, -23402.499962151047, -2104.3943887227047, 0.0, 0.0, 0.0, 0.0, 0.0, 0.0, 0.0, 0.0, 0.0, 0.0, 0.0, 192.0, 0.0, 0.0, 0.0, 0.0, 0.0, 0.0, 0.0, 0.0, 0.0, 1.6689768295651577E9, 0.0, 2022-11-20 15:40:29.565
46.0, -19147.018390538502, 24378.73475298104, -34741.942255728514, -33662.621219470646, -27041.36395947504, -27505.67674704513, -23453.73016044261, -2154.864627702788, -25671.134969131348, -2843.544226115254, -27581.382105515255, -32493.982612369375, -27012.44080214987, -9348.348897498716, -21758.372695252026, -34020.271482500015, 0.026000000000000002, 0.9440000000000001, -0.22, 192.0, 0.0, 104.0, 14.5, 64.0, 124.5, 16.0, 0.0, 0.0, 0.0, 1.6689768295651667E9, 0.0, 2022-11-20 15:40:29.565
48.0, -19081.125447884257, 24594.183217785743, -34678.97739159792, -33612.32979444621, -26980.924842467888, -27451.987856863485, -23398.789572571466, -2100.5275369319365, -25591.339241425903, -2779.573533484165, -27487.325964847325, -32414.812733508676, -26920.485725460738, -9263.233454612906, -21683.896682726943, -33946.98011243106, 0.026000000000000002, 0.9440000000000001, -0.22, 192.0, 0.0, 0.0, 0.0, 0.0, 0.0, 0.0, 0.0, 0.0, 0.0, 1.668976829565174E9, 0.0, 2022-11-20 15:40:29.565
50.0, -19139.709370101617, 24437.49748915404, -34743.708043540486, -33666.21985032795, -27043.7332443873, -27513.902189004682, -23456.747645944077, -2162.0171859284865, -25641.74242517262, -2816.69978102443, -27550.760215611484, -32466.847594600633, -26987.89858673794, -9328.813472844777, -21735.931543818897, -34001.65247936875, 0.026000000000000002, 0.9440000000000001, -0.22, 192.0, 0.0, 0.0, 0.0, 0.0, 0.0, 0.0, 0.0, 0.0, 0.0, 1.6689768295651813E9, 0.0, 2022-11-20 15:40:29.565
52.0, -19077.504465282498, 24549.39032189731, -34678.4856532199, -33602.718544330426, -26979.583737800567, -27447.53985971688, -23393.223988202095, -2098.381769464227, -25602.40335493128, -2779.126498595059, -27494.14324690619, -32413.829256752644, -26930.38754825444, -9271.88357971711, -21686.757706017223, -33955.71964451309, 0.026000000000000002, 0.9440000000000001, -0.22, 192.0, 0.0, 0.0, 0.0, 0.0, 0.0, 0.0, 0.0, 0.0, 0.0, 1.6689768295652556E9, 0.0, 2022-11-20 15:40:29.565
54.0, -19164.36334423582, 24476.657745439737, -34763.73520657244, -33682.827196458245, -27067.336686532104, -27532.16356422467, -23476.238367109105, -2182.513735594003, -25663.893003927828, -2814.933993212461, -27569.625087931763, -32470.08859754665, -27006.785810802678, -9334.669629892067, -21741.005389810252, -34011.9789853071, 0.026000000000000002, 0.9440000000000001, -0.22, 192.0, 0.0, 0.0, 0.0, 0.0, 0.0, 0.0, 0.0, 0.0, 0.0, 1.6689768295652635E9, 0.0, 2022-11-20 15:40:29.565
56.0, -19072.698840224606, 24496.52844626051, -34668.02503681482, -33592.012058736334, -26976.298031365637, -27439.314417757323, -23392.73224982408, -2099.1640805201628, -25630.007759333585, -2785.474394020366, -27517.03143322843, -32428.64846332651, -26957.43315904536, -9279.952559465475, -21703.7226800588, -33974.271592410994, 0.032, 0.9400000000000001, -0.224, 192.0, 0.5, 0.0, 14.5, 48.0, 124.5, 0.0, 0.0, 0.0, 0.0, 1.6689768295653045E9, 0.0, 2022-11-20 15:40:29.565
58.0, -19138.97176253459, 24542.416577627253, -34728.62061603316, -33658.3967397686, -27036.312465228137, -27504.089773188804, -23454.02073312053, -2159.334976593849, -25627.5490674435, -2775.8184404156736, -27530.3977764127, -32434.258751184792, -26976.298031365637, -9288.781498525323, -21709.511781872723, -33976.48441511207, 0.032, 0.9400000000000001, -0.224, 192.0, 0.0, 0.0, 0.0, 0.0, 0.0, 0.0, 0.0, 0.0, 0.0, 1.6689768295653126E9, 0.0, 2022-11-20 15:40:29.565
60.0, -19061.25474706349, 24444.73945435756, -34652.7811470963, -33575.80704400624, -26957.27669683417, -27423.958769316527, -23376.415476371705, -2079.7851180774114, -25607.544256156, -2777.6512834610085, -27494.16559865065, -32412.912835229974, -26937.98714136924, -9254.15864636405, -21685.01426994971, -33950.355225843814, 0.032, 0.9400000000000001, -0.224, 192.0, 0.0, 0.0, 0.0, 0.0, 0.0, 0.0, 0.0, 0.0, 0.0, 1.6689768295653195E9, 0.0, 2022-11-20 15:40:29.565
62.0, -19142.056303269423, 24585.354278725896, -34734.38736610262, -33661.72714969244, -27034.501973927257, -27503.843903999797, -23454.7359889431, -2155.2222556140728, -25613.914503325763, -2773.8514869036067, -27519.557180351876, -32424.625149324558, -26961.18825211385, -9273.939940206998, -21696.033679966175, -33956.90428696922, 0.032, 0.9400000000000001, -0.224, 192.0, 0.0, 0.0, 0.0, 0.0, 0.0, 0.0, 0.0, 0.0, 0.0, 1.6689768295653267E9, 0.0, 2022-11-20 15:40:29.565
64.0, -19075.939843170625, 24386.088476906836, -34670.55078393826, -33595.83420703819, -26963.9151649374, -27438.196830534558, -23386.607871843324, -2093.1067577727745, -25621.044709807007, -2798.3937023155336, -27514.93036924963, -32433.208219195396, -26944.402092027914, -9276.935073964009, -21700.459325368327, -33962.2687056385, 0.032, 0.9400000000000001, -0.224, 192.0, 0.0, 0.0, 0.0, 0.0, 0.0, 0.0, 0.0, 0.0, 0.0, 1.668976829565334E9, 0.0, 2022-11-20 15:40:29.565
66.0, -19163.066943057413, 24607.97424411467, -34754.79450879032, -33693.600737285706, -27047.5330409447, -27528.07319498935, -23466.895337926788, -2173.8412587453436, -25619.83771560642, -2791.9787516568604, -27530.464831646066, -32442.171268721973, -26958.036656145654, -9294.950579994987, -21702.470982369305, -33967.72253128559, 0.028, 0.9380000000000001, -0.224, 192.0, 0.0, 112.0, 14.5, 40.0, 124.5, 0.0, 0.0, 0.0, 0.0, 1.6689768295653408E9, 0.0, 2022-11-20 15:40:29.565
68.0, -19064.58515698733, 24346.838813643317, -34667.3321327367, -33598.158788461544, -26958.617801501492, -27442.466013725523, -23383.143351452753, -2093.7102548730677, -25645.94455313022, -2834.5364730997653, -27542.333607951834, -32472.6143446701, -26969.346638840037, -9315.044798260307, -21728.600171637558, -34001.92070030221, 0.028, 0.9380000000000001, -0.224, 192.0, 0.0, 0.0, 0.0, 0.0, 0.0, 0.0, 0.0, 0.0, 0.0, 1.6689768295653481E9, 0.0, 2022-11-20 15:40:29.565
70.0, -19154.014486553013, 24655.270535382097, -34758.102566969705, -33690.62795527315, -27047.48833745579, -27529.72722407904, -23471.20922460666, -2177.0599099469077, -25599.20705547417, -2771.258684546791, -27506.794334267895, -32422.032346967742, -26942.301028049118, -9280.533704821313, -21691.33981363056, -33964.705045784125, 0.028, 0.9380000000000001, -0.224, 192.0, 0.0, 0.0, 0.0, 0.0, 0.0, 0.0, 0.0, 0.0, 0.0, 1.668976829565355E9, 0.0, 2022-11-20 15:40:29.565
72.0, -19076.63274724874, 24322.296598231387, -34683.5371474668, -33597.957622761445, -26971.738275496755, -27445.416443993625, -23393.805133557933, -2099.678170642635, -25653.901774156308, -2823.338249127656, -27549.26264873298, -32465.819414355687, -26986.04339194815, -9318.84459481771, -21737.00442755275, -34010.45906668414, 0.028, 0.9380000000000001, -0.224, 192.0, 0.0, 0.0, 0.0, 0.0, 0.0, 0.0, 0.0, 0.0, 0.0, 1.6689768295653625E9, 0.0, 2022-11-20 15:40:29.565
74.0, -19128.041759495947, 24693.492018400673, -34719.67991825103, -33650.730091420424, -27017.447592907858, -27492.019831182937, -23438.441567235182, -2144.0687351308748, -25591.24983444808, -2749.778658125241, -27493.182121894613, -32401.468742068857, -26933.09210933353, -9253.398687052571, -21673.637232021956, -33944.007330418506, 0.028, 0.9380000000000001, -0.224, 192.0, 0.0, 0.0, 0.0, 0.0, 0.0, 0.0, 0.0, 0.0, 0.0, 1.66897682956537E9, 0.0, 2022-11-20 15:40:29.565
76.0, -19077.817389704873, 24304.817534067337, -34669.70141764896, -33592.302631414255, -26973.369952841993, -27443.360083503736, -23392.933415524178, -2101.6227724102464, -25640.17780306075, -2802.864051206595, -27531.917695035663, -32450.32965544816, -26971.760627241212, -9290.636693315113, -21711.612845851523, -33986.74386581706, 0.028, 0.9380000000000001, -0.226, 192.0, 0.0, 112.0, 14.5, 40.0, 124.0, 120.0, 0.0, 0.0, 0.0, 1.6689768295653837E9, 0.0, 2022-11-20 15:40:29.565
78.0, -19136.289553199953, 24687.971137520213, -34716.371860071646, -33656.943876379, -27029.383424446994, -27500.468790587045, -23450.51150924105, -2156.742174237034, -25591.786276315008, -2749.801009869696, -27486.454246813566, -32404.799151992698, -26933.270923289172, -9245.106189859653, -21667.177577874372, -33940.38634781675, 0.028, 0.9380000000000001, -0.226, 192.0, 0.0, 0.0, 0.0, 0.0, 0.0, 0.0, 0.0, 0.0, 0.0, 1.6689768295653908E9, 0.0, 2022-11-20 15:40:29.565
80.0, -19089.26148286599, 24286.690269314084, -34680.63142068761, -33609.04408801128, -26988.47973209378, -27458.82749066681, -23410.658348877234, -2119.213595296573, -25664.541204517034, -2827.473321851888, -27553.531831923945, -32475.721237149388, -26998.135685698475, -9313.390769170615, -21735.462157185335, -34007.79920909396, 0.028, 0.9380000000000001, -0.226, 192.0, 0.0, 0.0, 0.0, 0.0, 0.0, 0.0, 0.0, 0.0, 0.0, 1.6689768295653985E9, 0.0, 2022-11-20 15:40:29.565
82.0, -19130.612210108306, 24678.114018215423, -34710.985089657916, -33659.87195490264, -27013.625444606, -27494.29970911738, -23439.20152654666, -2146.929758421154, -25583.382020399815, -2749.2198645138583, -27479.905185688163, -32403.07806766964, -26914.026071313154, -9239.808826423745, -21660.00266790422, -33938.128821626764, 0.028, 0.9380000000000001, -0.226, 192.0, 0.0, 0.0, 0.0, 0.0, 0.0, 0.0, 0.0, 0.0, 0.0, 1.6689768295654051E9, 0.0, 2022-11-20 15:40:29.565
84.0, -19105.332387129354, 24281.974051234014, -34694.690667949995, -33625.852599841666, -26985.328136125583, -27470.740970461487, -23410.59129364387, -2123.192205809618, -25667.737503974142, -2839.7891330467623, -27568.77572164246, -32492.23917630186, -26988.703249538336, -9325.728932109945, -21737.54086941968, -34022.26078775654, 0.028, 0.9380000000000001, -0.226, 192.0, 0.0, 0.0, 0.0, 0.0, 0.0, 0.0, 0.0, 0.0, 0.0, 1.668976829565412E9, 0.0, 2022-11-20 15:40:29.565
86.0, -19126.924172273182, 24661.439616851763, -34708.28052857883, -33653.255838543875, -26999.7226595548, -27492.2880521164, -23428.472689208116, -2139.5313310064475, -25586.377154156824, -2762.385041998034, -27486.901281702674, -32412.08582068513, -26901.956129307287, -9245.7320387044, -21654.81706319059, -33945.57195253038, 0.028, 0.9420000000000001, -0.23, 192.0, 0.0, 112.0, 14.5, 56.0, 124.0, 104.0, 0.0, 0.0, 0.0, 1.6689768295654187E9, 0.0, 2022-11-20 15:40:29.565
88.0, -19117.916419257694, 24314.026452782924, -34703.7431244544, -33631.4852394444, -26993.91120599642, -27483.459113056557, -23420.91779958222, -2134.27867105945, -25667.402227807313, -2833.79886553274, -27567.948707097617, -32488.10410357763, -26986.24455764825, -9326.243022232416, -21730.92475306091, -34020.31618598893, 0.028, 0.9420000000000001, -0.23, 192.0, 0.0, 0.0, 0.0, 0.0, 0.0, 0.0, 0.0, 0.0, 0.0, 1.6689768295654256E9, 0.0, 2022-11-20 15:40:29.565
90.0, -19137.965934034102, 24625.118032111888, -34714.67312749304, -33652.831155399224, -27003.857732279033, -27493.003307938972, -23433.81475613293, -2143.3311275638493, -25599.967014785652, -2770.0740420906595, -27489.87406371523, -32415.527989331247, -26913.221408512763, -9255.052716142263, -21659.823853948576, -33944.633179263255, 0.028, 0.9420000000000001, -0.23, 192.0, 0.0, 0.0, 0.0, 0.0, 0.0, 0.0, 0.0, 0.0, 0.0, 1.668976829565432E9, 0.0, 2022-11-20 15:40:29.565
92.0, -19147.018390538502, 24317.021586539937, -34734.744994013905, -33652.78645191032, -27016.709985340833, -27497.183084152115, -23439.15682305775, -2148.8520084443103, -25686.98235595016, -2851.3896884190667, -27588.355849785312, -32505.76198169732, -27014.81008706213, -9349.533539954846, -21750.46017771485, -34025.658252913745, 0.028, 0.9420000000000001, -0.23, 192.0, 0.0, 0.0, 0.0, 0.0, 0.0, 0.0, 0.0, 0.0, 0.0, 1.6689768295654392E9, 0.0, 2022-11-20 15:40:29.565
94.0, -19125.091329227846, 24583.901415336302, -34713.8908164371, -33641.52117270484, -26997.509836853726, -27473.646697240674, -23422.996511816564, -2127.1931680671178, -25610.58409340192, -2778.12067009457, -27501.29580513189, -32423.909893501987, -26931.99687385522, -9259.903044689065, -21676.833531479067, -33947.04716766443, 0.028, 0.9420000000000001, -0.23, 192.0, 0.0, 0.0, 0.0, 0.0, 0.0, 0.0, 0.0, 0.0, 0.0, 1.6689768295654464E9, 0.0, 2022-11-20 15:40:29.565
96.0, -19148.493605672553, 24353.85726140228, -34744.4009476186, -33664.007027626874, -27033.451441937857, -27502.927482477127, -23453.841919164886, -2160.273749860972, -25681.170902391783, -2843.7230400708963, -27582.723210182576, -32499.01175487182, -27021.113278998528, -9345.487874208437, -21754.10351206106, -34024.607720924345, 0.03, 0.9420000000000001, -0.23, 192.0, 0.0, 120.0, 14.5, 56.0, 124.0, 104.0, 0.0, 0.0, 0.0, 1.6689768295654576E9, 0.0, 2022-11-20 15:40:29.565
98.0, -19085.171113630666, 24557.10167373439, -34681.05610383226, -33612.30744270175, -26979.874310478488, -27449.707978929044, -23402.790534828968, -2109.4011794806934, -25599.721145596643, -2782.1216323520703, -27486.16367413565, -32417.964329476876, -26930.499306976715, -9263.076992401719, -21676.833531479067, -33952.03160667796, 0.03, 0.9420000000000001, -0.23, 192.0, 0.0, 0.0, 0.0, 0.0, 0.0, 0.0, 0.0, 0.0, 0.0, 1.6689768295654657E9, 0.0, 2022-11-20 15:40:29.565
100.0, -19132.534460131465, 24421.40423314622, -34732.57687480174, -33668.03034162883, -27033.987883804784, -27509.92357849164, -23457.06057036645, -2166.420479586182, -25643.619971706867, -2822.0418479492487, -27546.714549865075, -32472.86021385911, -26994.15707518543, -9327.271202477361, -21722.6769593569, -34006.74867710456, 0.03, 0.9420000000000001, -0.23, 192.0, 0.0, 0.0, 0.0, 0.0, 0.0, 0.0, 0.0, 0.0, 0.0, 1.6689768295654724E9, 0.0, 2022-11-20 15:40:29.565
102.0, -19081.68424149564, 24503.211617852645, -34675.80344388526, -33626.88078008661, -26976.43214183237, -27468.706961716052, -23408.95961629863, -2124.130979076741, -25598.558854884966, -2796.516155781288, -27488.06357241435, -32430.36954764957, -26925.89484761892, -9278.589103053702, -21668.317516841595, -33968.57189757489, 0.03, 0.9420000000000001, -0.23, 192.0, 0.0, 0.0, 0.0, 0.0, 0.0, 0.0, 0.0, 0.0, 0.0, 1.6689768295654793E9, 0.0, 2022-11-20 15:40:29.565
104.0, -19151.287573729467, 24454.484814940075, -34750.055938965794, -33695.99237394242, -27044.11322404304, -27539.15966023918, -23480.485198555612, -2195.455395633626, -25645.78809091903, -2835.676412066986, -27559.030361059948, -32489.042876844753, -26987.406848359926, -9347.655993420602, -21724.040415768675, -34027.24522677007, 0.03, 0.9420000000000001, -0.23, 192.0, 0.0, 0.0, 0.0, 0.0, 0.0, 0.0, 0.0, 0.0, 0.0, 1.668976829565486E9, 0.0, 2022-11-20 15:40:29.565
106.0, -19080.276081594955, 24452.94254457266, -34673.72473165092, -33614.810838080746, -26966.083284149565, -27462.180252335103, -23407.238531975574, -2121.962859864576, -25609.600616645886, -2806.730902997363, -27503.106296432772, -32440.98662626584, -26924.509039462693, -9287.686263047011, -21682.354412359527, -33978.473720368595, 0.034, 0.9380000000000001, -0.23600000000000002, 192.0, 0.5, 8.0, 14.5, 40.0, 124.0, 80.0, 0.0, 0.0, 0.0, 1.6689768295654929E9, 0.0, 2022-11-20 15:40:29.565
108.0, -19176.880321130793, 24494.04740262597, -34765.81391880679, -33702.98846995693, -27057.747788160777, -27548.59209639932, -23496.153771418783, -2208.2852969509718, -25649.096149098415, -2829.1720544304912, -27553.867108090773, -32478.694019161943, -26979.89666222294, -9332.65797289109, -21722.364034934526, -34009.34147946137, 0.034, 0.9380000000000001, -0.23600000000000002, 192.0, 0.0, 0.0, 0.0, 0.0, 0.0, 0.0, 0.0, 0.0, 0.0, 1.668976829565502E9, 0.0, 2022-11-20 15:40:29.565
110.0, -19096.749317258516, 24389.01655543048, -34691.80729291526, -33621.27049222833, -26974.28637436466, -27466.963525648538, -23413.944055312164, -2128.5789762233467, -25644.134061829336, -2832.6812783099745, -27533.169392725158, -32470.37917022457, -26954.303914821616, -9311.647333103101, -21712.59632260756, -33997.91973804471, 0.034, 0.9380000000000001, -0.23600000000000002, 192.0, 0.0, 0.0, 0.0, 0.0, 0.0, 0.0, 0.0, 0.0, 0.0, 1.668976829565509E9, 0.0, 2022-11-20 15:40:29.565
112.0, -19177.260300786533, 24546.976333496135, -34765.67980834005, -33700.21685364447, -27048.874145612022, -27540.523116650955, -23487.12366665884, -2199.7469305690447, -25647.12919558635, -2812.6541152780196, -27553.464776690576, -32471.09442604714, -26973.995801686742, -9324.946621054009, -21713.6245028525, -33998.54558688946, 0.034, 0.9380000000000001, -0.23600000000000002, 192.0, 0.0, 0.0, 0.0, 0.0, 0.0, 0.0, 0.0, 0.0, 0.0, 1.6689768295655167E9, 0.0, 2022-11-20 15:40:29.565
114.0, -19088.143895643225, 24356.427712014643, -34678.53035670881, -33607.0324310103, -26967.603202772523, -27447.51750797242, -23405.360985441326, -2115.8831853727324, -25642.63649495083, -2817.0127054468044, -27532.87882004724, -32460.454995686414, -26956.85201368952, -9305.45589988898, -21702.560389347123, -33982.65349658173, 0.034, 0.9380000000000001, -0.23600000000000002, 192.0, 0.0, 0.0, 0.0, 0.0, 0.0, 0.0, 0.0, 0.0, 0.0, 1.668976829565525E9, 0.0, 2022-11-20 15:40:29.565
116.0, -19163.871605857803, 24600.397002744317, -34752.67109306707, -33687.83398721623, -27045.990770577286, -27516.40558438368, -23479.009983421565, -2182.401976871726, -25633.58403844643, -2798.214888359891, -27534.801070070396, -32452.14014674904, -26971.49240630775, -9303.556001610279, -21697.508895100225, -33970.04711270894, 0.032, 0.9390000000000001, -0.239, 192.0, 0.0, 120.0, 14.5, 48.0, 124.0, 56.0, 0.0, 0.0, 0.0, 1.668976829565532E9, 0.0, 2022-11-20 15:40:29.565
118.0, -19071.58125300184, 24329.404452968178, -34674.32822875121, -33597.331773916696, -26965.837414960555, -27432.318321742812, -23397.403764415238, -2103.299153244395, -25644.87166939636, -2819.2031764034245, -27529.30254093439, -32458.868021830087, -26969.704266751323, -9295.419966628548, -21703.38740389197, -33971.410569120715, 0.032, 0.9390000000000001, -0.239, 192.0, 0.0, 0.0, 0.0, 0.0, 0.0, 0.0, 0.0, 0.0, 0.0, 1.668976829565539E9, 0.0, 2022-11-20 15:40:29.565
120.0, -19163.35751573533, 24627.82259319098, -34757.543773358324, -33691.27615586235, -27051.26578226874, -27527.760270566974, -23488.17419864824, -2194.3154566664048, -25621.82702086294, -2789.5871150001426, -27519.177200696136, -32440.159611720996, -26962.372894569984, -9282.366547866648, -21687.04827869514, -33959.5641445594, 0.032, 0.9390000000000001, -0.239, 192.0, 0.0, 0.0, 0.0, 0.0, 0.0, 0.0, 0.0, 0.0, 0.0, 1.6689768295655465E9, 0.0, 2022-11-20 15:40:29.565
122.0, -19056.650287705696, 24311.27718821492, -34652.31176046273, -33570.5767358037, -26943.552725738613, -27422.215333249016, -23381.82459852989, -2091.2068594940733, -25655.913431157285, -2823.8746909945835, -27541.39483468471, -32466.355856222614, -26979.606089545025, -9302.773690554344, -21710.517610373212, -33986.58740360587, 0.032, 0.9390000000000001, -0.239, 192.0, 0.0, 0.0, 0.0, 0.0, 0.0, 0.0, 0.0, 0.0, 0.0, 1.6689768295655532E9, 0.0, 2022-11-20 15:40:29.565
124.0, -19124.53253561646, 24690.653346854848, -34709.442819290496, -33639.10718430366, -27000.326156655094, -27484.464941557046, -23439.20152654666, -2144.962804909087, -25578.35287789737, -2732.3666491945564, -27469.891604172186, -32382.08977962611, -26909.913350333376, -9224.453177982949, -21627.302065766107, -33908.4010015012, 0.032, 0.9390000000000001, -0.239, 192.0, 0.0, 0.0, 0.0, 0.0, 0.0, 0.0, 0.0, 0.0, 0.0, 1.66897682956556E9, 0.0, 2022-11-20 15:40:29.565
126.0, -19084.0535264079, 24284.589205335287, -34679.35737125366, -33590.15686394654, -26968.161996383908, -27446.08699632728, -23403.282273206984, -2112.217499282062, -25661.680181226755, -2813.4364263339553, -27545.17227949766, -32458.95742880791, -26982.176540157383, -9294.436489872514, -21701.755726546733, -33984.01695299351, 0.033, 0.9375, -0.2345, 192.0, 0.5, 8.0, 14.5, 32.0, 124.0, 104.0, 0.0, 0.0, 0.0, 1.6689768295655675E9, 0.0, 2022-11-20 15:40:29.565
128.0, -19136.825995066883, 24678.292832171064, -34721.445706063, -33643.97986459492, -27014.407755661938, -27491.885720716207, -23448.611610962347, -2154.3058340914054, -25599.944663041195, -2753.1537715379923, -27490.49991255998, -32400.440561823914, -26930.074623832064, -9241.194634579973, -21649.363237543494, -33927.80231568841, 0.033, 0.9375, -0.2345, 192.0, 0.0, 0.0, 0.0, 0.0, 0.0, 0.0, 0.0, 0.0, 0.0, 1.668976829565575E9, 0.0, 2022-11-20 15:40:29.565
130.0, -19098.358642859297, 24276.74374303147, -34692.05316210427, -33598.78463730629, -26986.088095437062, -27452.30078128586, -23414.815773345923, -2120.4205894971597, -25656.494576513123, -2820.4995775818325, -27546.98277079854, -32462.354893965115, -26985.931633225875, -9301.83491728722, -21709.020043494707, -33982.09470297035, 0.033, 0.9375, -0.2345, 192.0, 0.0, 0.0, 0.0, 0.0, 0.0, 0.0, 0.0, 0.0, 0.0, 1.668976829565582E9, 0.0, 2022-11-20 15:40:29.565
132.0, -19134.188489221156, 24671.16262568982, -34728.57591254424, -33650.104242575675, -27028.802279091156, -27497.87598823023, -23460.145111101283, -2162.3301103508607, -25600.458753163668, -2766.631873444542, -27493.070363172337, -32406.006146193286, -26934.992007612233, -9252.884596930098, -21668.116351141496, -33938.352339071316, 0.033, 0.9375, -0.2345, 192.0, 0.0, 0.0, 0.0, 0.0, 0.0, 0.0, 0.0, 0.0, 0.0, 1.6689768295655887E9, 0.0, 2022-11-20 15:40:29.565
134.0, -19098.783326003948, 24291.898225772173, -34709.71104022396, -33615.570797392225, -27008.35043291455, -27474.80898795235, -23439.15682305775, -2142.6605752301903, -25665.859957439898, -2830.6249178200865, -27559.79032037143, -32470.17800452447, -27009.557427115134, -9325.37130419866, -21743.82170961162, -34012.49307542957, 0.033, 0.9375, -0.2345, 192.0, 0.0, 0.0, 0.0, 0.0, 0.0, 0.0, 0.0, 0.0, 0.0, 1.6689768295655959E9, 0.0, 2022-11-20 15:40:29.565
136.0, -19103.16426791719, 24675.834140280982, -34706.82766518923, -33634.27920750132, -27013.15605797244, -27484.397886323677, -23446.68936093919, -2150.9754241675646, -25575.62596507382, -2745.0400883007155, -27467.522319259922, -32383.83321569362, -26921.178629538852, -9243.385105536594, -21664.04833365063, -33935.46896403658, 0.0345, 0.9397500000000001, -0.23025, 192.0, 0.5, 16.0, 14.5, 56.0, 124.0, 120.0, 0.0, 0.0, 0.0, 1.6689768295656028E9, 0.0, 2022-11-20 15:40:29.565
138.0, -19111.724986043573, 24307.879723057715, -34726.11722065416, -33640.76121339336, -27025.404813933947, -27494.657337028664, -23455.674762210223, -2162.8218487288773, -25664.071817883472, -2831.697801553941, -27563.992448329027, -32479.252812773328, -27013.178409716897, -9336.010734559386, -21747.867375358033, -34020.562055177936, 0.0345, 0.9397500000000001, -0.23025, 192.0, 0.0, 0.0, 0.0, 0.0, 0.0, 0.0, 0.0, 0.0, 0.0, 1.66897682956561E9, 0.0, 2022-11-20 15:40:29.565
140.0, -19095.810543991392, 24638.52907878507, -34704.92776691053, -33640.42593722653, -27002.807200289633, -27480.57573802182, -23436.005227089554, -2144.1581421086958, -25588.20999720216, -2767.1459635670144, -27480.307517088357, -32404.866207226063, -26925.067833074074, -9253.97983240841, -21668.272813352683, -33945.28137985246, 0.0345, 0.9397500000000001, -0.23025, 192.0, 0.0, 0.0, 0.0, 0.0, 0.0, 0.0, 0.0, 0.0, 0.0, 1.6689768295656188E9, 0.0, 2022-11-20 15:40:29.565
142.0, -19116.016520978992, 24336.221735027044, -34723.47971480843, -33648.986655352914, -27017.380537674493, -27493.673860272633, -23450.846785407877, -2161.2348748725503, -25668.832739452453, -2827.898004996539, -27566.652305919208, -32484.930155864975, -27003.611863090024, -9331.093350779218, -21733.763424606732, -34020.49499994457, 0.0345, 0.9397500000000001, -0.23025, 192.0, 0.0, 0.0, 0.0, 0.0, 0.0, 0.0, 0.0, 0.0, 0.0, 1.668976829565626E9, 0.0, 2022-11-20 15:40:29.565
144.0, -19094.3576806018, 24594.049107319013, -34692.70136269347, -33626.836076597705, -26983.495293080246, -27464.214261080535, -23422.705939138646, -2130.635336713235, -25598.737668840608, -2763.413222242978, -27487.01304042495, -32409.962404961876, -26917.110612047985, -9246.514349760337, -21658.840377192544, -33950.62344677728, 0.0345, 0.9397500000000001, -0.23025, 192.0, 0.0, 0.0, 0.0, 0.0, 0.0, 0.0, 0.0, 0.0, 0.0, 1.6689768295656333E9, 0.0, 2022-11-20 15:40:29.565
146.0, -19141.005771280023, 24371.179863355144, -34741.89755223961, -33663.671751460046, -27029.8304593361, -27500.088810931305, -23460.30157331247, -2165.8840377192546, -25676.678201756265, -2829.283813152768, -27580.398628759223, -32489.57931871168, -27007.38930790297, -9326.757112354888, -21730.097738516062, -34022.61841566782, 0.03225, 0.9408750000000001, -0.22912500000000002, 192.0, 0.0, 120.0, 14.5, 56.0, 124.0, 112.0, 0.0, 0.0, 0.0, 1.6689768295656404E9, 0.0, 2022-11-20 15:40:29.565
148.0, -19099.096250426323, 24539.197926425688, -34701.86557792015, -33629.71945163244, -26985.395191358948, -27459.609801722745, -23415.73219486859, -2120.7558656639894, -25611.813439346963, -2776.064309604682, -27503.732145277518, -32421.652367312, -26933.270923289172, -9250.939995162487, -21658.57215625908, -33952.322179355884, 0.03225, 0.9408750000000001, -0.22912500000000002, 192.0, 0.0, 0.0, 0.0, 0.0, 0.0, 0.0, 0.0, 0.0, 0.0, 1.6689768295656471E9, 0.0, 2022-11-20 15:40:29.565
150.0, -19154.059190041924, 24406.92030273918, -34769.79252931983, -33684.86120520368, -27051.31048575765, -27517.701985562086, -23474.27141359704, -2177.6857587916566, -25679.338059346446, -2830.0214207197932, -27587.059448606906, -32490.026353600784, -27020.755651087245, -9328.500548422402, -21722.811069823634, -34015.108229530844, 0.03225, 0.9408750000000001, -0.22912500000000002, 192.0, 0.0, 0.0, 0.0, 0.0, 0.0, 0.0, 0.0, 0.0, 0.0, 1.6689768295656545E9, 0.0, 2022-11-20 15:40:29.565
152.0, -19071.000107646003, 24498.13777186129, -34689.438008003, -33611.391021179086, -26972.565290041603, -27442.19779279206, -23399.638938860768, -2103.8132433668666, -25630.92418085625, -2795.5326790252543, -27520.339491407813, -32437.164477963983, -26958.304877079117, -9272.59883553968, -21673.927804699877, -33967.87899349678, 0.03225, 0.9408750000000001, -0.22912500000000002, 192.0, 0.0, 0.0, 0.0, 0.0, 0.0, 0.0, 0.0, 0.0, 0.0, 1.6689768295656614E9, 0.0, 2022-11-20 15:40:29.565
154.0, -19134.65787585472, 24475.56250996143, -34753.67692156755, -33675.85345218819, -27041.252200752762, -27508.33660463531, -23465.040143136997, -2167.8733429757767, -25651.532489244044, -2809.0107809318047, -27557.68925639263, -32464.455957943912, -26999.38738338797, -9310.46269064697, -21696.81599102211, -33992.01887750851, 0.03225, 0.9408750000000001, -0.22912500000000002, 192.0, 0.0, 0.0, 0.0, 0.0, 0.0, 0.0, 0.0, 0.0, 0.0, 1.6689768295656683E9, 0.0, 2022-11-20 15:40:29.565
156.0, -19060.67360170765, 24451.959067816624, -34684.36416201165, -33606.831265310204, -26976.655659276923, -27443.33773175928, -23403.68460460718, -2107.3448189908054, -25623.615160419366, -2802.9534581844164, -27512.6951948041, -32435.443393640926, -26953.655714232413, -9271.302434361272, -21667.66931625239, -33961.017007949, 0.032125, 0.9424375, -0.2295625, 192.0, 0.5, 0.0, 14.5, 64.0, 124.0, 104.0, 0.0, 0.0, 0.0, 1.6689768295656757E9, 0.0, 2022-11-20 15:40:29.565
158.0, -19127.50531762902, 24536.538068835507, -34752.46992736697, -33667.22567882844, -27053.67977066991, -27511.48820060351, -23481.669841011746, -2183.9665989835976, -25650.146681087816, -2808.5190425537876, -27553.084797034837, -32458.778614852265, -27002.650738078446, -9309.568620868757, -21705.175543448397, -33991.124807730295, 0.032125, 0.9424375, -0.2295625, 192.0, 0.0, 0.0, 0.0, 0.0, 0.0, 0.0, 0.0, 0.0, 0.0, 1.6689768295656831E9, 0.0, 2022-11-20 15:40:29.565
160.0, -19032.66686590515, 24436.625771120285, -34651.66355987353, -33559.33380834267, -26957.991952656743, -27416.04625177935, -23388.19484569965, -2092.212687994562, -25611.88049458033, -2773.091527592126, -27490.656374771166, -32402.74279150281, -26946.503156006715, -9250.962346906943, -21666.887005196455, -33942.93444668465, 0.032125, 0.9424375, -0.2295625, 192.0, 0.0, 0.0, 0.0, 0.0, 0.0, 0.0, 0.0, 0.0, 0.0, 1.6689768295656905E9, 0.0, 2022-11-20 15:40:29.565
162.0, -19126.1642129617, 24593.28914800753, -34740.22117140546, -33657.32385603474, -27051.243430524282, -27512.270511659448, -23479.971108433143, -2185.374758884282, -25622.11759354086, -2768.1294403230477, -27512.806953526375, -32411.996413707308, -26975.493368565247, -9274.610492540658, -21681.974432703788, -33956.47960382457, 0.032125, 0.9424375, -0.2295625, 192.0, 0.0, 0.0, 0.0, 0.0, 0.0, 0.0, 0.0, 0.0, 0.0, 1.6689768295656977E9, 0.0, 2022-11-20 15:40:29.565
164.0, -19034.991447328503, 24389.530645552954, -34654.45752793044, -33564.5194130563, -26960.38358931346, -27418.23672273597, -23387.09961022134, -2093.7102548730677, -25623.50340169709, -2785.608504487098, -27502.189874910102, -32414.164532919473, -26962.708170736812, -9269.69310876049, -21680.678031525378, -33955.741996257544, 0.032125, 0.9424375, -0.2295625, 192.0, 0.0, 0.0, 0.0, 0.0, 0.0, 0.0, 0.0, 0.0, 0.0, 1.6689768295657048E9, 0.0, 2022-11-20 15:40:29.565
166.0, -19134.300247943433, 24631.197706603733, -34749.67595931005, -33667.00216138389, -27052.83040438061, -27511.421145370146, -23475.07607639743, -2180.47972684857, -25617.200209760693, -2768.576475212154, -27511.085869203314, -32411.817599751666, -26973.124083652983, -9271.615358783647, -21672.251423865728, -33946.5107257975, 0.0320625, 0.9442187500000001, -0.22978125, 192.0, 0.5, 0.0, 14.5, 72.0, 124.0, 104.0, 0.0, 0.0, 0.0, 1.6689768295657117E9, 0.0, 2022-11-20 15:40:29.565
0.0, -9576.493153154035, 12236.082522402112, -17376.80493316709, -16837.077359804793, -13517.306866324767, -13763.265462310967, -11731.000152945537, -1087.300609028412, -12802.229857710583, -1385.8305079734932, -13739.371447488244, -16196.409308482327, -13470.301147735257, -4620.932593456816, -10823.675790271258, -16961.01778280947, 0.02903125, 0.942109375, -0.225890625, 192.0, 0.0, 104.0, 14.5, 48.0, 124.5, 8.0, 0.0, 0.0, 0.0, 1.6689768301349144E9, 0.0, 2022-11-20 15:40:30.134
2.0, -19062.1488168417, 24273.927423230103, -34663.10765303465, -33576.61170680663, -26949.05125487462, -27440.923743358107, -23378.494188606048, -2092.7938333504003, -25647.397416519812, -2830.17788293098, -27539.763157339476, -32444.89818154552, -26979.360220356015, -9286.903951991077, -21705.421412637403, -33994.343458931864, 0.02903125, 0.942109375, -0.225890625, 192.0, 0.0, 0.0, 0.0, 0.0, 0.0, 0.0, 0.0, 0.0, 0.0, 1.6689768301349237E9, 0.0, 2022-11-20 15:40:30.134
4.0, -19154.93090807568, 24609.225941804165, -34740.3999853611, -33663.02355087084, -27039.5311164297, -27531.06832874636, -23466.649468737778, -2178.9151047366986, -25614.361538214867, -2780.601713729109, -27515.01977622745, -32407.034326438228, -26960.38358931346, -9256.326765576216, -21670.396229075937, -33960.8158422489, 0.02903125, 0.942109375, -0.225890625, 192.0, 0.0, 0.0, 0.0, 0.0, 0.0, 0.0, 0.0, 0.0, 0.0, 1.6689768301349404E9, 0.0, 2022-11-20 15:40:30.134
6.0, -19070.933052412638, 24260.33756260128, -34659.79959485526, -33562.75362524434, -26960.361237569006, -27442.264848025425, -23385.266767176006, -2099.991095065009, -25670.576175519967, -2834.4247143774887, -27565.445311718624, -32454.732949105855, -27007.545770114157, -9296.559905595768, -21709.06474698362, -33997.852682811346, 0.02903125, 0.942109375, -0.225890625, 192.0, 0.0, 0.0, 0.0, 0.0, 0.0, 0.0, 0.0, 0.0, 0.0, 1.668976830134947E9, 0.0, 2022-11-20 15:40:30.134
8.0, -19132.489756642553, 24648.922639956792, -34713.287319336814, -33626.210227752956, -27022.38732843248, -27496.646642285188, -23446.912878383744, -2154.2387788580395, -25603.476238665135, -2757.0206233287604, -27502.100467932283, -32379.18405284692, -26947.307818807105, -9229.057637340742, -21637.919144382377, -33920.180370829155, 0.024, 0.932, -0.224, 192.0, 0.0, 96.0, 14.5, 16.0, 124.5, 0.0, 0.0, 0.0, 0.0, 1.668976830134952E9, 0.0, 2022-11-20 15:40:30.134
10.0, -19093.798886990415, 24242.90320192614, -34684.207699800456, -33579.36097137463, -26995.29701415265, -27446.422272494114, -23416.045119290964, -2120.7111621750787, -25676.767608734084, -2833.3965341325443, -27567.211099530592, -32448.22859146936, -27017.089964996572, -9292.424832871537, -21707.701290571844, -33975.03155172247, 0.024, 0.932, -0.224, 192.0, 0.0, 0.0, 0.0, 0.0, 0.0, 0.0, 0.0, 0.0, 0.0, 1.6689768301349573E9, 0.0, 2022-11-20 15:40:30.134
12.0, -19128.667608340696, 24640.674846252783, -34710.15807511307, -33623.617425396136, -27023.236694721785, -27474.786636207897, -23441.235535292093, -2144.605176997802, -25611.008776546572, -2767.6600536894866, -27498.166560908146, -32378.424093535436, -26953.94628691033, -9225.63782043908, -21647.105711353506, -33905.204702044095, 0.024, 0.932, -0.224, 192.0, 0.0, 0.0, 0.0, 0.0, 0.0, 0.0, 0.0, 0.0, 0.0, 1.668976830134962E9, 0.0, 2022-11-20 15:40:30.134
14.0, -19105.555904573906, 24235.728291955984, -34692.41079001556, -33598.47171288392, -26997.845113020554, -27453.70894118654, -23413.92170356771, -2122.7898744094223, -25682.288489614548, -2850.093287240659, -27577.112922324293, -32464.075978288172, -27024.466040666826, -9305.947638266998, -21717.513706387726, -33981.64766808125, 0.024, 0.932, -0.224, 192.0, 0.0, 0.0, 0.0, 0.0, 0.0, 0.0, 0.0, 0.0, 0.0, 1.668976830134967E9, 0.0, 2022-11-20 15:40:30.134
16.0, -19141.139881746756, 24611.081136593955, -34724.17261888655, -33650.93125712052, -27028.82463083561, -27492.10923816076, -23448.6339627068, -2155.512828291992, -25610.092355023906, -2783.6862544639416, -27506.235540656515, -32398.808884478676, -26946.838432173543, -9235.78551242179, -21643.842356663034, -33917.14053358323, 0.024, 0.932, -0.224, 192.0, 0.0, 0.0, 0.0, 0.0, 0.0, 0.0, 0.0, 0.0, 0.0, 1.6689768301349723E9, 0.0, 2022-11-20 15:40:30.134
18.0, -19127.237096695557, 24239.32692281329, -34724.30672935328, -33636.9390650915, -27024.890723811477, -27488.10827590326, -23442.844860892877, -2150.193113111629, -25706.584835837464, -2878.122374787614, -27609.254730851026, -32497.536539737768, -27048.36005548955, -9340.36932472817, -21743.19586076687, -34015.71172663113, 0.03, 0.93, -0.222, 192.0, 0.0, 120.0, 14.5, 8.0, 124.5, 8.0, 0.0, 0.0, 0.0, 1.668976830134977E9, 0.0, 2022-11-20 15:40:30.134
20.0, -19094.223570135066, 24614.992691873635, -34688.00749635786, -33614.453210169464, -26994.49235135226, -27466.024752381418, -23417.58738965838, -2123.0357435984306, -25606.225503233138, -2778.992388128327, -27499.06063068636, -32390.87401519704, -26941.988103626743, -9237.461893255937, -21654.124159112474, -33927.578798243856, 0.03, 0.93, -0.222, 192.0, 0.0, 0.0, 0.0, 0.0, 0.0, 0.0, 0.0, 0.0, 0.0, 1.6689768301349823E9, 0.0, 2022-11-20 15:40:30.134
22.0, -19105.01946270698, 24303.65524335566, -34708.593453001195, -33615.771963092324, -27013.513685883725, -27483.48146480101, -23432.6301136768, -2139.3972205397154, -25666.105826628904, -2829.7084962974186, -27562.249012261513, -32446.19458272393, -27014.00542426174, -9306.998170256396, -21724.465098913326, -33995.25988045453, 0.03, 0.93, -0.222, 192.0, 0.0, 0.0, 0.0, 0.0, 0.0, 0.0, 0.0, 0.0, 0.0, 1.6689768301349876E9, 0.0, 2022-11-20 15:40:30.134
24.0, -19086.176942131155, 24588.59528167192, -34683.06776083324, -33593.353163403655, -26995.5205315972, -27461.15207209016, -23412.044157033462, -2117.671324929157, -25599.944663041195, -2762.9885390983272, -27484.53199679041, -32369.68456145341, -26942.837469916045, -9232.142178075574, -21663.601298761525, -33928.04818487742, 0.03, 0.93, -0.222, 192.0, 0.0, 0.0, 0.0, 0.0, 0.0, 0.0, 0.0, 0.0, 0.0, 1.6689768301349926E9, 0.0, 2022-11-20 15:40:30.134
26.0, -19130.29928568593, 24334.81357512636, -34719.38934557311, -33614.02852702481, -27034.814898349632, -27495.77492425143, -23450.69032319669, -2158.8432382158326, -25672.185501120748, -2820.9466124709384, -27566.607602430297, -32437.61151285309, -27025.136593000483, -9301.298475420293, -21727.303770459148, -33988.129673973286, 0.03, 0.93, -0.222, 192.0, 0.0, 0.0, 0.0, 0.0, 0.0, 0.0, 0.0, 0.0, 0.0, 1.6689768301349976E9, 0.0, 2022-11-20 15:40:30.134
28.0, -19085.215817119577, 24546.90927826277, -34665.76751062483, -33574.22007014991, -26986.512778581713, -27449.663275440133, -23403.416383673717, -2112.0163335819643, -25617.848410349896, -2771.124574080059, -27499.842941742296, -32379.31816331365, -26947.41957752938, -9227.738884417879, -21654.258269579204, -33923.309615052895, 0.032, 0.932, -0.23, 192.0, 0.5, 0.0, 14.5, 16.0, 124.0, 104.0, 0.0, 0.0, 0.0, 1.6689768301350029E9, 0.0, 2022-11-20 15:40:30.135
30.0, -19134.88139329927, 24387.11665715178, -34722.4962380524, -33628.13247777611, -27040.224020507816, -27491.39398233819, -23453.864270909344, -2159.4243835716707, -25673.03486741005, -2818.867900236595, -27574.721285667576, -32447.155707735506, -27018.96751153082, -9290.100251448184, -21708.30478767214, -33975.456234867124, 0.032, 0.932, -0.23, 192.0, 0.0, 0.0, 0.0, 0.0, 0.0, 0.0, 0.0, 0.0, 0.0, 1.6689768301350076E9, 0.0, 2022-11-20 15:40:30.135
32.0, -19065.43452327663, 24507.36904232133, -34659.86665008863, -33573.907145727535, -26974.62165053149, -27429.99374031946, -23393.827485302387, -2100.1475572761965, -25613.467468436655, -2774.164411325981, -27502.25693014347, -32388.08004714013, -26941.89869664892, -9220.832195381188, -21653.073627123074, -33919.17454232866, 0.032, 0.932, -0.23, 192.0, 0.0, 0.0, 0.0, 0.0, 0.0, 0.0, 0.0, 0.0, 0.0, 1.6689768301350129E9, 0.0, 2022-11-20 15:40:30.135
34.0, -19139.061169512413, 24429.78613731696, -34743.43982260702, -33656.38508276762, -27053.45625322536, -27511.4434971146, -23475.813683964454, -2179.563305325902, -25658.64034398083, -2813.3693711005894, -27565.02062857397, -32443.020635011275, -27007.47871488079, -9291.374300882138, -21717.29018894317, -33980.843005280854, 0.032, 0.932, -0.23, 192.0, 0.0, 0.0, 0.0, 0.0, 0.0, 0.0, 0.0, 0.0, 0.0, 1.6689768301350179E9, 0.0, 2022-11-20 15:40:30.135
36.0, -19059.466607507064, 24458.105797541833, -34660.13487102209, -33573.57186956071, -26971.29124060765, -27433.681778154587, -23399.191903971663, -2104.215574767062, -25615.434421948725, -2788.7153969663855, -27504.62621505573, -32396.730172244334, -26946.883135662454, -9246.044963126775, -21680.454514080826, -33940.8110309614, 0.032, 0.932, -0.23, 192.0, 0.0, 0.0, 0.0, 0.0, 0.0, 0.0, 0.0, 0.0, 0.0, 1.6689768301350243E9, 0.0, 2022-11-20 15:40:30.135
38.0, -19149.365323706308, 24488.0794868564, -34743.79745051831, -33659.536678735814, -27055.11028231505, -27517.81374428436, -23479.099390399384, -2182.7149012941004, -25646.659808952787, -2813.3023158672236, -27552.861279590285, -32433.297626173215, -26996.7722292867, -9293.944751494499, -21713.691558085866, -33970.494147598045, 0.028, 0.932, -0.226, 192.0, 0.0, 112.0, 14.5, 16.0, 124.0, 120.0, 0.0, 0.0, 0.0, 1.6689768301350312E9, 0.0, 2022-11-20 15:40:30.135
40.0, -19052.738732426016, 24415.30220690992, -34647.439080171476, -33567.08986366867, -26959.33305732406, -27423.958769316527, -23387.658403832724, -2092.190336250107, -25632.846430879406, -2812.4082460890113, -27518.797221040397, -32411.07999218464, -26964.026923659676, -9266.74267849239, -21692.68091829788, -33955.898458468735, 0.028, 0.932, -0.226, 192.0, 0.0, 0.0, 0.0, 0.0, 0.0, 0.0, 0.0, 0.0, 0.0, 1.668976830135036E9, 0.0, 2022-11-20 15:40:30.135
42.0, -19124.711349572106, 24569.52924365154, -34712.99674665889, -33644.04691982829, -27029.696348869365, -27495.841979484798, -23455.093616854385, -2160.1172876497853, -25618.720128383655, -2779.1712020839695, -27517.098488461794, -32398.048925167197, -26968.117292894996, -9263.479323801914, -21678.778133246677, -33949.25999036551, 0.028, 0.932, -0.226, 192.0, 0.0, 0.0, 0.0, 0.0, 0.0, 0.0, 0.0, 0.0, 0.0, 1.6689768301350412E9, 0.0, 2022-11-20 15:40:30.135
44.0, -19052.694028937105, 24382.087514649334, -34644.3768911811, -33570.35321835914, -26958.99778115723, -27422.48355418248, -23387.43488638817, -2094.4702141845482, -25624.799802875496, -2795.0856441361484, -27508.046031957394, -32402.899253713997, -26958.081359634565, -9250.269442828829, -21676.67706926788, -33954.87027822379, 0.028, 0.932, -0.226, 192.0, 0.0, 0.0, 0.0, 0.0, 0.0, 0.0, 0.0, 0.0, 0.0, 1.6689768301350462E9, 0.0, 2022-11-20 15:40:30.135
46.0, -19137.74241658955, 24607.951892370213, -34729.06765092226, -33656.07215834525, -27040.91692458593, -27504.357994122267, -23469.532843772515, -2172.5895610558464, -25625.35859648688, -2778.679463705953, -27526.374462410746, -32402.496922313803, -26974.19696738684, -9254.739791719889, -21677.459380323813, -33956.88193522477, 0.028, 0.932, -0.226, 192.0, 0.0, 0.0, 0.0, 0.0, 0.0, 0.0, 0.0, 0.0, 0.0, 1.6689768301350513E9, 0.0, 2022-11-20 15:40:30.135
48.0, -19058.125502839746, 24344.2460112865, -34657.497365176365, -33568.56507880272, -26967.80436847262, -27429.14437403016, -23400.86828480581, -2106.7413218905117, -25644.469337996168, -2804.898059952028, -27529.861334545774, -32412.5999108076, -26976.499197065736, -9257.086724887697, -21689.86459849651, -33965.08502543986, 0.03, 0.9380000000000001, -0.232, 192.0, 0.0, 120.0, 14.5, 40.0, 124.0, 96.0, 0.0, 0.0, 0.0, 1.6689768301350565E9, 0.0, 2022-11-20 15:40:30.135
50.0, -19149.20886149512, 24631.10829962591, -34747.3513778867, -33664.83404217172, -27057.658381182955, -27519.803049540886, -23488.665937026257, -2191.2979711649386, -25622.475221452147, -2776.5336962382435, -27521.5464856084, -32397.02074492225, -26968.966659184298, -9246.603756738157, -21677.369973345994, -33947.89653395373, 0.03, 0.9380000000000001, -0.232, 192.0, 0.0, 0.0, 0.0, 0.0, 0.0, 0.0, 0.0, 0.0, 0.0, 1.6689768301350613E9, 0.0, 2022-11-20 15:40:30.135
52.0, -19060.80771217438, 24309.71256610305, -34664.47110944642, -33565.16761364551, -26970.10659815152, -27427.445641451555, -23393.53691262447, -2099.2087840090735, -25664.116521372383, -2827.026286962782, -27554.627067402253, -32439.734928576345, -26999.18621768787, -9280.086669932207, -21716.038491253676, -33983.54756635995, 0.03, 0.9380000000000001, -0.232, 192.0, 0.0, 0.0, 0.0, 0.0, 0.0, 0.0, 0.0, 0.0, 0.0, 1.6689768301350665E9, 0.0, 2022-11-20 15:40:30.135
54.0, -19129.584029863363, 24664.613564564417, -34723.010328174874, -33640.805916882266, -27034.457270438346, -27492.332755605312, -23451.807910419455, -2154.8422759583327, -25599.475276407633, -2753.869027360562, -27499.55236906438, -32376.83711967911, -26946.838432173543, -9221.458044225938, -21650.436121277347, -33917.76638242798, 0.03, 0.9380000000000001, -0.232, 192.0, 0.0, 0.0, 0.0, 0.0, 0.0, 0.0, 0.0, 0.0, 0.0, 1.6689768301350715E9, 0.0, 2022-11-20 15:40:30.135
56.0, -19070.709534968082, 24290.668879827128, -34660.3807402111, -33568.4756718249, -26979.740200011754, -27430.306664741835, -23391.48055213458, -2097.197127008096, -25665.569384761977, -2828.903833497028, -27554.560012168888, -32436.56098086369, -27003.500104367748, -9279.818448998743, -21706.270778926704, -33972.25993541002, 0.03, 0.9380000000000001, -0.232, 192.0, 0.0, 0.0, 0.0, 0.0, 0.0, 0.0, 0.0, 0.0, 0.0, 1.6689768301350763E9, 0.0, 2022-11-20 15:40:30.135
58.0, -19138.256506712023, 24665.954669231734, -34701.97733664243, -33633.3404342342, -27028.48935466878, -27487.750647991976, -23442.286067281493, -2146.192150854129, -25604.884398565817, -2766.028376344249, -27498.188912652604, -32376.07716036763, -26946.39139728444, -9228.364733262628, -21641.22720256176, -33912.46901899207, 0.028, 0.9410000000000001, -0.232, 192.0, 0.0, 104.0, 14.5, 64.0, 124.0, 96.0, 0.0, 0.0, 0.0, 1.6689768301350815E9, 0.0, 2022-11-20 15:40:30.135
60.0, -19085.796962475415, 24276.229652909, -34651.50709766235, -33570.196756147954, -26977.14739765494, -27434.978179332997, -23394.565092869412, -2102.7627113774674, -25676.78996047854, -2841.6890313254635, -27564.238317518037, -32448.116832747084, -27008.328081170093, -9291.284893904316, -21700.213456179317, -33977.78081629048, 0.028, 0.9410000000000001, -0.232, 192.0, 0.0, 0.0, 0.0, 0.0, 0.0, 0.0, 0.0, 0.0, 0.0, 1.6689768301350865E9, 0.0, 2022-11-20 15:40:30.135
62.0, -19123.392596649242, 24669.79916927805, -34693.4389702605, -33622.432782940006, -27018.431069663893, -27476.597127508776, -23438.240401535084, -2144.8510461868104, -25596.72601183963, -2762.094469320115, -27486.990688680493, -32371.763273687757, -26934.254400045207, -9217.188861034974, -21626.922086110364, -33908.71392592358, 0.028, 0.9410000000000001, -0.232, 192.0, 0.0, 0.0, 0.0, 0.0, 0.0, 0.0, 0.0, 0.0, 0.0, 1.6689768301350915E9, 0.0, 2022-11-20 15:40:30.135
64.0, -19094.849418979815, 24284.589205335287, -34685.81702540124, -33592.36968664762, -27008.618653848014, -27463.14137734668, -23426.237514762583, -2136.7150112050786, -25686.691783272243, -2845.377069160589, -27573.380181000255, -32455.04587352823, -27027.371767446017, -9306.774652811844, -21723.63808436848, -34002.88182531379, 0.028, 0.9410000000000001, -0.232, 192.0, 0.0, 0.0, 0.0, 0.0, 0.0, 0.0, 0.0, 0.0, 0.0, 1.6689768301350975E9, 0.0, 2022-11-20 15:40:30.135
66.0, -19100.996148705024, 24680.282137427588, -34697.10465635117, -33615.012003780845, -27020.934465042887, -27469.71279021654, -23437.994532346074, -2142.8617409302883, -25591.62981410382, -2752.907902348984, -27479.56990952133, -32358.553392714668, -26940.982275126255, -9217.188861034974, -21642.858879907, -33920.67210920717, 0.028, 0.9410000000000001, -0.232, 192.0, 0.0, 0.0, 0.0, 0.0, 0.0, 0.0, 0.0, 0.0, 0.0, 1.6689768301351025E9, 0.0, 2022-11-20 15:40:30.135
68.0, -19103.141916172735, 24310.696042859083, -34709.57692975723, -33610.89928280107, -27032.06563378163, -27474.026676896417, -23444.45418649366, -2150.1037061338075, -25675.73942848914, -2836.570481845198, -27572.5084629665, -32446.66396935749, -27035.753671616756, -9308.585144112723, -21732.601133895056, -34002.01010728003, 0.027000000000000003, 0.9395, -0.228, 192.0, 0.0, 104.0, 14.5, 40.0, 124.5, 0.0, 0.0, 0.0, 0.0, 1.6689768301351092E9, 0.0, 2022-11-20 15:40:30.135
70.0, -19084.522913041463, 24660.45614009573, -34680.787882898796, -33600.84099779618, -27010.607959104535, -27463.119025602227, -23424.739947884078, -2132.2670140584723, -25593.395601915792, -2764.5531612101986, -27484.800217723874, -32363.336666028103, -26948.872440918978, -9227.11303557313, -21652.738350956246, -33926.528266254456, 0.027000000000000003, 0.9395, -0.228, 192.0, 0.0, 0.0, 0.0, 0.0, 0.0, 0.0, 0.0, 0.0, 0.0, 1.6689768301351144E9, 0.0, 2022-11-20 15:40:30.135
72.0, -19080.611357761783, 24373.57150001186, -34678.03861833079, -33592.16852094752, -27009.602130604046, -27471.053894883862, -23427.176288029706, -2139.576034495358, -25642.100053083905, -2809.569574543187, -27541.752462595996, -32415.103306186596, -27008.216322447817, -9287.909780491565, -21705.53317135968, -33989.06844724041, 0.027000000000000003, 0.9395, -0.228, 192.0, 0.0, 0.0, 0.0, 0.0, 0.0, 0.0, 0.0, 0.0, 0.0, 1.6689768301351192E9, 0.0, 2022-11-20 15:40:30.135
74.0, -19055.175072571645, 24653.50474757013, -34641.47116440191, -33570.10734917013, -26973.52641505318, -27447.204583550047, -23397.11319173732, -2111.9716300930536, -25567.333467880904, -2738.5580824086765, -27454.424197009113, -32333.11710752453, -26916.17183878086, -9204.96245681792, -21624.821022131568, -33917.83343766134, 0.027000000000000003, 0.9395, -0.228, 192.0, 0.0, 0.0, 0.0, 0.0, 0.0, 0.0, 0.0, 0.0, 0.0, 1.6689768301351244E9, 0.0, 2022-11-20 15:40:30.135
76.0, -19111.54617208793, 24397.19729390112, -34701.887929664605, -33616.062535770245, -27031.97622680381, -27505.05089820038, -23453.283125553506, -2168.342729609338, -25643.01647460657, -2810.50834781031, -27539.60669512829, -32408.75541076129, -27006.405831146938, -9291.776632282334, -21702.58274109158, -33998.67969735619, 0.027000000000000003, 0.9395, -0.228, 192.0, 0.0, 0.0, 0.0, 0.0, 0.0, 0.0, 0.0, 0.0, 0.0, 1.6689768301351295E9, 0.0, 2022-11-20 15:40:30.135
78.0, -19060.20421507409, 24591.72452589566, -34635.86087654363, -33560.67491300999, -26972.498234808238, -27443.67300792611, -23396.353232425838, -2111.9045748596877, -25595.563721127957, -2767.8835711340394, -27474.29489782988, -32351.87022112253, -26939.171783825375, -9224.833157638688, -21647.642153220433, -33941.05690015041, 0.026500000000000003, 0.9397500000000001, -0.229, 192.0, 0.0, 104.0, 14.5, 48.0, 124.0, 104.0, 0.0, 0.0, 0.0, 1.6689768301351345E9, 0.0, 2022-11-20 15:40:30.135
80.0, -19121.895029770738, 24444.89591656875, -34698.55751974077, -33619.25883522735, -27032.937351815388, -27502.078116187826, -23452.74668368658, -2168.6333022872573, -25645.765739174574, -2804.2498593628243, -27539.58434338383, -32408.151913660997, -27001.019060733208, -9279.058489687264, -21687.428258350883, -33983.234641937575, 0.026500000000000003, 0.9397500000000001, -0.229, 192.0, 0.0, 0.0, 0.0, 0.0, 0.0, 0.0, 0.0, 0.0, 0.0, 1.6689768301351397E9, 0.0, 2022-11-20 15:40:30.135
82.0, -19052.850491148292, 24551.75960680957, -34634.296254431756, -33564.184136889475, -26974.867519720498, -27447.51750797242, -23398.029613259987, -2115.5255574614475, -25602.582168886922, -2778.2324288168466, -27481.715676989043, -32362.50965148326, -26944.469147261283, -9232.611564709136, -21645.76460668619, -33945.48254555256, 0.026500000000000003, 0.9397500000000001, -0.229, 192.0, 0.0, 0.0, 0.0, 0.0, 0.0, 0.0, 0.0, 0.0, 0.0, 1.6689768301351445E9, 0.0, 2022-11-20 15:40:30.135
84.0, -19117.692901813138, 24505.737364976092, -34705.62067098864, -33633.5863034232, -27046.50486069976, -27520.16067745217, -23467.56589026045, -2184.6147995728015, -25639.574305960454, -2804.9204116964834, -27534.666959603663, -32403.927433958943, -27004.707098568335, -9289.764975281356, -21691.988014219765, -33992.55531937544, 0.026500000000000003, 0.9397500000000001, -0.229, 192.0, 0.0, 0.0, 0.0, 0.0, 0.0, 0.0, 0.0, 0.0, 0.0, 1.6689768301351497E9, 0.0, 2022-11-20 15:40:30.135
86.0, -19037.025456073938, 24514.767469736038, -34626.96488225042, -33553.47765129538, -26961.702342236324, -27439.604990435244, -23386.58552009887, -2105.221403267551, -25597.038936262004, -2772.197457813914, -27474.116083874236, -32356.5864392026, -26939.060025103096, -9234.39970426556, -21644.915240396887, -33949.304693854414, 0.026500000000000003, 0.9397500000000001, -0.229, 192.0, 0.0, 0.0, 0.0, 0.0, 0.0, 0.0, 0.0, 0.0, 0.0, 1.6689768301351547E9, 0.0, 2022-11-20 15:40:30.135
88.0, -19128.39938740723, 24551.312571920465, -34720.61869151815, -33645.54448670679, -27048.382407234003, -27525.055709487882, -23470.248099595083, -2186.380587384771, -25635.707454169686, -2797.186708114947, -27530.800107812895, -32401.155817646482, -26991.966604228808, -9282.344196122194, -21682.913205970908, -33986.18507220568, 0.030250000000000003, 0.9428750000000001, -0.2285, 192.0, 0.5, 8.0, 14.5, 72.0, 124.0, 112.0, 0.0, 0.0, 0.0, 1.6689768301351597E9, 0.0, 2022-11-20 15:40:30.135
90.0, -19047.53077596793, 24454.84244285136, -34649.38368193909, -33570.42027359251, -26970.017191173698, -27444.6788364266, -23390.564130611914, -2103.9473538335983, -25621.245875507102, -2795.644437747531, -27501.78754350991, -32384.816692449655, -26958.841318946044, -9248.883634672598, -21668.80925521961, -33962.738092272055, 0.030250000000000003, 0.9428750000000001, -0.2285, 192.0, 0.0, 0.0, 0.0, 0.0, 0.0, 0.0, 0.0, 0.0, 0.0, 1.6689768301351664E9, 0.0, 2022-11-20 15:40:30.135
92.0, -19124.97957050557, 24603.928578368257, -34723.47971480843, -33652.60763795467, -27045.163756032438, -27517.523171606445, -23463.319058813937, -2172.701319778123, -25627.59377093241, -2792.5151935237877, -27527.536753122422, -32396.41724782196, -26984.143493669453, -9268.240245370895, -21689.14934267394, -33971.49997609854, 0.030250000000000003, 0.9428750000000001, -0.2285, 192.0, 0.0, 0.0, 0.0, 0.0, 0.0, 0.0, 0.0, 0.0, 0.0, 1.6689768301351717E9, 0.0, 2022-11-20 15:40:30.135
94.0, -19042.166357298658, 24410.854209763314, -34632.977501508896, -33564.474709567396, -26955.779129955667, -27432.13950778717, -23376.90721474972, -2085.998903035987, -25617.02139580505, -2793.02928364626, -27499.932348720118, -32378.513500513258, -26946.413749028892, -9236.813692666734, -21670.463284309302, -33952.188068889154, 0.030250000000000003, 0.9428750000000001, -0.2285, 192.0, 0.0, 0.0, 0.0, 0.0, 0.0, 0.0, 0.0, 0.0, 0.0, 1.668976830135177E9, 0.0, 2022-11-20 15:40:30.135
96.0, -19157.1213790323, 24617.518438997085, -34741.87520049515, -33677.865109189166, -27060.653514939968, -27544.59113414182, -23482.809779978965, -2189.599238586335, -25627.124384298848, -2793.006931901805, -27528.31906417836, -32394.830273965632, -26967.558499283612, -9257.757277221355, -21680.7674385032, -33974.09277845535, 0.030250000000000003, 0.9428750000000001, -0.2285, 192.0, 0.0, 0.0, 0.0, 0.0, 0.0, 0.0, 0.0, 0.0, 0.0, 1.668976830135182E9, 0.0, 2022-11-20 15:40:30.135
98.0, -19068.362601800276, 24339.350979250787, -34659.86665008863, -33581.35027663115, -26972.92291795289, -27455.96646737653, -23395.05683124743, -2103.768539877956, -25667.08930338494, -2839.4315051354774, -27559.589154671332, -32430.235437182837, -26988.94911872734, -9283.55119032278, -21714.406813908437, -34009.095610272365, 0.030125, 0.9434375000000002, -0.23125, 192.0, 0.0, 120.0, 14.5, 64.0, 124.0, 88.0, 0.0, 0.0, 0.0, 1.668976830135187E9, 0.0, 2022-11-20 15:40:30.135
100.0, -19141.83278582487, 24652.700084769738, -34728.464153821966, -33663.76115843787, -27041.006331563753, -27527.648511844698, -23459.139282600794, -2164.8111539853994, -25620.731785384633, -2790.2353155893466, -27526.329758921835, -32391.388105319515, -26957.90254567892, -9246.491998015881, -21671.04442966514, -33966.40377836273, 0.030125, 0.9434375000000002, -0.23125, 192.0, 0.0, 0.0, 0.0, 0.0, 0.0, 0.0, 0.0, 0.0, 0.0, 1.668976830135193E9, 0.0, 2022-11-20 15:40:30.135
102.0, -19072.005936146492, 24317.826249340327, -34669.72376939342, -33591.00623023584, -26976.029810432174, -27461.10736860125, -23395.168589969708, -2102.963877077565, -25661.724884715666, -2839.0068219908267, -27556.54931742541, -32431.08480347214, -26990.40198211694, -9285.294626390294, -21713.8256685526, -34002.74771484706, 0.030125, 0.9434375000000002, -0.23125, 192.0, 0.0, 0.0, 0.0, 0.0, 0.0, 0.0, 0.0, 0.0, 0.0, 1.6689768301351984E9, 0.0, 2022-11-20 15:40:30.135
104.0, -19119.145765202735, 24691.99445152217, -34709.39811580159, -33641.54352444929, -27022.186162732385, -27503.86625574425, -23440.006189347052, -2143.219368841573, -25608.706546867677, -2774.902018893006, -27510.370613380746, -32378.200576090883, -26951.77816769817, -9239.741771190378, -21673.167845388394, -33953.97620844558, 0.030125, 0.9434375000000002, -0.23125, 192.0, 0.0, 0.0, 0.0, 0.0, 0.0, 0.0, 0.0, 0.0, 0.0, 1.6689768301352034E9, 0.0, 2022-11-20 15:40:30.135
106.0, -19062.48409300853, 24318.250932484978, -34653.451699429956, -33572.40957884903, -26971.201833629828, -27447.852784139253, -23385.95967125412, -2089.8434030822996, -25650.03492236554, -2821.6171648045975, -27538.15383173869, -32416.064431198174, -26987.451551848837, -9271.54830355028, -21716.53022963169, -33986.945031517156, 0.030125, 0.9434375000000002, -0.23125, 192.0, 0.0, 0.0, 0.0, 0.0, 0.0, 0.0, 0.0, 0.0, 0.0, 1.6689768301352084E9, 0.0, 2022-11-20 15:40:30.135
108.0, -19108.506334842008, 24714.949693077768, -34687.091074835196, -33624.2879777298, -27011.34556667156, -27490.991650937995, -23426.841011862878, -2126.388505266727, -25588.433514646713, -2753.4443442159113, -27476.753589719963, -32354.865354879545, -26928.53235346465, -9212.852622610644, -21652.827757934065, -33924.89658890922, 0.029062499999999998, 0.94071875, -0.23262500000000003, 192.0, 0.0, 112.0, 14.5, 40.0, 124.0, 88.0, 0.0, 0.0, 0.0, 1.6689768301352136E9, 0.0, 2022-11-20 15:40:30.135
110.0, -19068.67552622265, 24319.435574941108, -34648.5790191387, -33573.415407349516, -26967.223223116784, -27447.629266694697, -23383.948014253143, -2088.8375745818107, -25657.36629454688, -2822.6900485384526, -27541.372482940256, -32420.624187067056, -26990.24551990575, -9278.656158287067, -21710.227037695295, -33988.73317107358, 0.029062499999999998, 0.94071875, -0.23262500000000003, 192.0, 0.0, 0.0, 0.0, 0.0, 0.0, 0.0, 0.0, 0.0, 0.0, 1.6689768301352186E9, 0.0, 2022-11-20 15:40:30.135
112.0, -19109.1098319423, 24707.707727874247, -34681.21256604345, -33613.626195624616, -26989.686726294367, -27471.679743728608, -23411.26184597753, -2114.743246405512, -25586.265395434548, -2749.8457133586066, -27472.707923973554, -32346.01406407524, -26912.729670134744, -9202.459061438925, -21633.6052577025, -33918.36987952827, 0.029062499999999998, 0.94071875, -0.23262500000000003, 192.0, 0.0, 0.0, 0.0, 0.0, 0.0, 0.0, 0.0, 0.0, 0.0, 1.6689768301352236E9, 0.0, 2022-11-20 15:40:30.135
114.0, -19089.619110777272, 24312.238313226502, -34676.451644474466, -33583.69720979896, -26973.14643539744, -27447.96454286153, -23393.35809866883, -2101.086330543319, -25666.977544662663, -2825.4169613619997, -27559.902079093707, -32429.296663915717, -26995.699345552846, -9279.594931554191, -21713.088060985574, -33992.8235403089, 0.029062499999999998, 0.94071875, -0.23262500000000003, 192.0, 0.0, 0.0, 0.0, 0.0, 0.0, 0.0, 0.0, 0.0, 0.0, 1.6689768301352286E9, 0.0, 2022-11-20 15:40:30.135
116.0, -19111.568523832386, 24687.099419486454, -34690.376781270126, -33611.34631769017, -26996.10167695304, -27463.208432580046, -23415.128697768298, -2120.0853133303303, -25591.69686933719, -2750.6280244145423, -27481.335697333303, -32351.78081414471, -26917.66940565937, -9198.301636970238, -21646.0104758752, -33921.61088247429, 0.029062499999999998, 0.94071875, -0.23262500000000003, 192.0, 0.0, 0.0, 0.0, 0.0, 0.0, 0.0, 0.0, 0.0, 0.0, 1.6689768301352336E9, 0.0, 2022-11-20 15:40:30.135
118.0, -19102.381956861253, 24332.556048936374, -34687.269888790834, -33592.81672153672, -26995.76640078621, -27457.285220299393, -23409.92074131021, -2114.340915005316, -25678.17576863477, -2828.70266779693, -27568.37339024227, -32433.02940523975, -27011.613787605023, -9284.914646734554, -21736.847965341567, -34003.507674158536, 0.02653125, 0.939359375, -0.22831250000000003, 192.0, 0.0, 96.0, 14.5, 40.0, 124.5, 0.0, 0.0, 0.0, 0.0, 1.668976830135239E9, 0.0, 2022-11-20 15:40:30.135
120.0, -19083.67354675216, 24669.508596600128, -34660.44779544447, -33581.372628375604, -26976.879176721475, -27444.321208515314, -23392.039345745965, -2092.480908928026, -25584.320793666935, -2742.514341177266, -27466.740008203986, -32339.241485505285, -26910.248626500208, -9190.657340366524, -21647.083359609052, -33907.797504400914, 0.02653125, 0.939359375, -0.22831250000000003, 192.0, 0.0, 0.0, 0.0, 0.0, 0.0, 0.0, 0.0, 0.0, 0.0, 1.6689768306161041E9, 0.0, 2022-11-20 15:40:30.616
122.0, -19103.678358039662, 24376.49957853551, -34683.17951955552, -33597.01884949432, -26998.58272058758, -27464.86246166974, -23409.33959595437, -2111.6140021817687, -25660.920221915272, -2812.3411908556454, -27550.26847723347, -32417.383184121038, -26995.319365897103, -9272.26355937285, -21718.050148254653, -33975.14331044475, 0.02653125, 0.939359375, -0.22831250000000003, 192.0, 0.0, 0.0, 0.0, 0.0, 0.0, 0.0, 0.0, 0.0, 0.0, 1.6689768306162295E9, 0.0, 2022-11-20 15:40:30.616
124.0, -19080.700764739606, 24628.91782866929, -34653.04936802976, -33589.151035446055, -26975.895699965444, -27448.858612639742, -23388.64188058876, -2092.0785775278305, -25595.049631005484, -2761.1109925640812, -27473.892566429684, -32354.418319990436, -26921.51390570568, -9201.855564338633, -21646.546917742126, -33909.51858872397, 0.02653125, 0.939359375, -0.22831250000000003, 192.0, 0.0, 0.0, 0.0, 0.0, 0.0, 0.0, 0.0, 0.0, 0.0, 1.6689768306162999E9, 0.0, 2022-11-20 15:40:30.616
126.0, -19107.29934064142, 24413.514067353495, -34675.24465027388, -33610.65341361206, -27004.9753195018, -27481.58156652231, -23417.34152046937, -2126.9696506225646, -25653.03005612255, -2811.3577140996117, -27539.494936406012, -32418.299605643704, -26996.928691497887, -9281.02544319933, -21700.593435835057, -33974.5174616, 0.02653125, 0.939359375, -0.22831250000000003, 192.0, 0.0, 0.0, 0.0, 0.0, 0.0, 0.0, 0.0, 0.0, 0.0, 1.66897683061634E9, 0.0, 2022-11-20 15:40:30.616
128.0, -19059.86893890726, 24589.19877877221, -34628.66361482902, -33572.297820126754, -26958.77426371268, -27442.555420703346, -23377.6671740612, -2087.65293212568, -25594.602596116376, -2761.3345100086344, -27462.67199071312, -32351.64670367798, -26927.548876708614, -9216.652419168046, -21635.95219087031, -33922.43789701914, 0.02653125, 0.939359375, -0.22831250000000003, 192.0, 0.0, 0.0, 0.0, 0.0, 0.0, 0.0, 0.0, 0.0, 0.0, 1.6689768306163807E9, 0.0, 2022-11-20 15:40:30.616
130.0, -19125.136032716757, 24448.047512536945, -34698.66927846304, -33633.60865516766, -27025.516572656226, -27510.728241292032, -23444.029503349007, -2154.5517032804137, -25648.671465953765, -2803.0205134177822, -27533.92935203664, -32413.248111396806, -26996.995746731252, -9284.646425801091, -21695.54194158816, -33988.10732222883, 0.026000000000000002, 0.9380000000000001, -0.23, 192.0, 0.0, 104.0, 14.5, 40.0, 124.0, 104.0, 0.0, 0.0, 0.0, 1.6689768306163893E9, 0.0, 2022-11-20 15:40:30.616
132.0, -19046.659057934172, 24544.294124161497, -34624.170914193506, -33559.55732578723, -26952.538127009648, -27436.6769119116, -23373.107418192318, -2083.808432079367, -25600.570511885944, -2764.4637542323776, -27469.221051838525, -32360.654456693468, -26928.554705209102, -9221.547451203758, -21650.436121277347, -33942.21919086209, 0.026000000000000002, 0.9380000000000001, -0.23, 192.0, 0.0, 0.0, 0.0, 0.0, 0.0, 0.0, 0.0, 0.0, 0.0, 1.668976830616414E9, 0.0, 2022-11-20 15:40:30.616
134.0, -19116.910590757205, 24507.592559765882, -34703.16197909856, -33629.67474814352, -27029.226962235807, -27504.469752844543, -23443.649523693268, -2150.349575322816, -25629.605427933388, -2783.127460852559, -27517.120840206248, -32394.673811754445, -26981.10365642353, -9262.272329601328, -21695.608996821524, -33980.8206535364, 0.026000000000000002, 0.9380000000000001, -0.23, 192.0, 0.0, 0.0, 0.0, 0.0, 0.0, 0.0, 0.0, 0.0, 0.0, 1.6689768306164222E9, 0.0, 2022-11-20 15:40:30.616
136.0, -19022.18389775561, 24510.364176078343, -34616.683079800976, -33539.41840403299, -26937.42834775786, -27409.56424588731, -23353.259069116008, -2060.9202457571323, -25594.468485649646, -2766.7659839112744, -27464.661295969643, -32353.188974045395, -26927.57122845307, -9215.266611011817, -21659.019191148185, -33940.6098652613, 0.026000000000000002, 0.9380000000000001, -0.23, 192.0, 0.0, 0.0, 0.0, 0.0, 0.0, 0.0, 0.0, 0.0, 0.0, 1.6689768306164308E9, 0.0, 2022-11-20 15:40:30.616
138.0, -19103.76776501748, 24573.641964631315, -34701.6420604756, -33613.71560260244, -27017.53699988568, -27484.263775856947, -23432.674817165713, -2134.859816415288, -25608.72889861213, -2765.7601554107855, -27493.3385841058, -32362.59905846108, -26962.976391670276, -9242.491035758381, -21681.48269432577, -33950.377577588275, 0.026000000000000002, 0.9380000000000001, -0.23, 192.0, 0.0, 0.0, 0.0, 0.0, 0.0, 0.0, 0.0, 0.0, 0.0, 1.668976830616439E9, 0.0, 2022-11-20 15:40:30.616
140.0, -19042.56868869885, 24443.398349690244, -34634.69858583195, -33549.02965414878, -26944.916182150388, -27417.56617040231, -23365.932508222166, -2070.732661573012, -25601.598692130887, -2779.037091617238, -27473.24436584048, -32360.20742180436, -26940.199964070318, -9226.73305591739, -21672.184368632363, -33934.61959774728, 0.028, 0.9440000000000001, -0.228, 192.0, 0.0, 112.0, 14.5, 64.0, 124.0, 112.0, 0.0, 0.0, 0.0, 1.6689768306164482E9, 0.0, 2022-11-20 15:40:30.616
142.0, -19126.87946878427, 24596.977185842657, -34700.61388023065, -33636.71554764695, -27017.49229639677, -27495.752572506975, -23440.140299813786, -2144.761639208989, -25615.32266322645, -2788.3577690551006, -27504.961491222562, -32391.7457332308, -26967.491444050247, -9259.143085377586, -21677.638194279458, -33950.62344677728, 0.028, 0.9440000000000001, -0.228, 192.0, 0.0, 0.0, 0.0, 0.0, 0.0, 0.0, 0.0, 0.0, 0.0, 1.6689768306164565E9, 0.0, 2022-11-20 15:40:30.616
144.0, -19053.521043481953, 24397.77843925696, -34617.26422515681, -33561.47957581039, -26941.8092896711, -27426.61862690671, -23367.519482078493, -2076.8570395537663, -25616.64141614931, -2801.5900017726426, -27494.992613195493, -32394.517349543257, -26945.497327506226, -9247.721343960922, -21665.47884529577, -33950.265818866, 0.028, 0.9440000000000001, -0.228, 192.0, 0.0, 0.0, 0.0, 0.0, 0.0, 0.0, 0.0, 0.0, 0.0, 1.668976830616465E9, 0.0, 2022-11-20 15:40:30.616
146.0, -19125.65012283923, 24648.296791112043, -34691.404961515065, -33645.90211461808, -27025.315406956128, -27512.87400875974, -23451.003247619064, -2157.7927062264334, -25605.666709621753, -2778.7912224282295, -27500.33468012031, -32384.950802916388, -26947.553687996115, -9253.935128919498, -21659.53328127066, -33951.60692353331, 0.028, 0.9440000000000001, -0.228, 192.0, 0.0, 0.0, 0.0, 0.0, 0.0, 0.0, 0.0, 0.0, 0.0, 1.6689768306164727E9, 0.0, 2022-11-20 15:40:30.616
148.0, -19054.571575471353, 24363.222642329056, -34635.36913816561, -33563.80415723374, -26969.23488011776, -27447.51750797242, -23393.179284713184, -2099.8569845982774, -25628.666654666264, -2811.8494524776283, -27514.148058193692, -32401.31227985767, -26962.886984692454, -9270.542475049791, -21693.15030493144, -33977.44554012365, 0.028, 0.9440000000000001, -0.228, 192.0, 0.0, 0.0, 0.0, 0.0, 0.0, 0.0, 0.0, 0.0, 0.0, 1.6689768306164804E9, 0.0, 2022-11-20 15:40:30.616
150.0, -19122.207954193113, 24673.330744901985, -34706.090057622205, -33626.92548357552, -27039.9334478299, -27505.67674704513, -23454.870099409833, -2158.373851582271, -25598.6929653517, -2765.2013617994025, -27494.545578306388, -32367.717607941344, -26951.934629909352, -9241.373448535616, -21672.989031432753, -33940.63221700576, 0.026000000000000002, 0.9440000000000001, -0.234, 192.0, 0.0, 104.0, 14.5, 64.0, 124.0, 88.0, 0.0, 0.0, 0.0, 1.6689768306164875E9, 0.0, 2022-11-20 15:40:30.616
152.0, -19041.629915431728, 24345.229488042532, -34638.543085878264, -33536.289159809254, -26959.57892651307, -27418.437888436067, -23372.548624580937, -2079.539248888403, -25631.237105278626, -2799.3101238382014, -27513.768078537953, -32392.08100939763, -26979.7178482673, -9259.411306311049, -21702.448630624847, -33958.3124468699, 0.026000000000000002, 0.9440000000000001, -0.234, 192.0, 0.0, 0.0, 0.0, 0.0, 0.0, 0.0, 0.0, 0.0, 0.0, 1.6689768306164951E9, 0.0, 2022-11-20 15:40:30.616
154.0, -19115.390672134243, 24698.722326603216, -34703.497255265385, -33618.230654982406, -27013.424278905903, -27481.00042116647, -23434.753529400055, -2140.894787418221, -25581.683287821208, -2740.9497190653947, -27470.3833425502, -32342.571895429122, -26934.70143493431, -9212.58440167718, -21650.27965906616, -33912.536074225434, 0.026000000000000002, 0.9440000000000001, -0.234, 192.0, 0.0, 0.0, 0.0, 0.0, 0.0, 0.0, 0.0, 0.0, 0.0, 1.6689768306165025E9, 0.0, 2022-11-20 15:40:30.616
156.0, -19054.571575471353, 24324.710586632562, -34649.741309850375, -33553.81292746221, -26946.61491472899, -27421.120097770705, -23374.895557748743, -2086.2447722249954, -25642.301218784003, -2810.3965890880336, -27530.77775606844, -32409.493018328314, -26983.696458780345, -9269.78251573831, -21705.6225783375, -33979.926583758184, 0.026000000000000002, 0.9440000000000001, -0.234, 192.0, 0.0, 0.0, 0.0, 0.0, 0.0, 0.0, 0.0, 0.0, 0.0, 1.66897683061651E9, 0.0, 2022-11-20 15:40:30.616
158.0, -19121.716215815093, 24698.029422525102, -34712.90733968107, -33631.015852810844, -27007.143438713963, -27488.979993937017, -23438.35216025736, -2144.8286944423553, -25583.471427377634, -2744.838922600618, -27478.608784509754, -32347.511630953748, -26927.750042408712, -9212.606753421636, -21646.05517936411, -33926.64002497673, 0.026000000000000002, 0.9440000000000001, -0.234, 192.0, 0.0, 0.0, 0.0, 0.0, 0.0, 0.0, 0.0, 0.0, 0.0, 1.6689768306165175E9, 0.0, 2022-11-20 15:40:30.616
160.0, -19080.16432287268, 24304.973996278524, -34671.5342606943, -33580.635020808586, -26974.420484831393, -27454.446548753567, -23404.556322640936, -2112.485720215526, -25662.35073356041, -2820.4325223484666, -27554.627067402253, -32424.17811443545, -27004.930616012887, -9286.83689675771, -21724.934485546888, -34002.97123229161, 0.034, 0.9420000000000001, -0.232, 192.0, 0.5, 8.0, 14.5, 56.0, 124.0, 96.0, 0.0, 0.0, 0.0, 1.6689768306165252E9, 0.0, 2022-11-20 15:40:30.616
162.0, -19117.379977390763, 24691.99445152217, -34692.12021733764, -33628.66891964304, -27009.468020137316, -27492.220996883036, -23438.30745676845, -2143.666403730679, -25588.76879081354, -2751.2091697703804, -27476.619479253233, -32354.373616501525, -26932.354501766506, -9219.602849436147, -21656.962830658296, -33935.71483322559, 0.034, 0.9420000000000001, -0.232, 192.0, 0.0, 0.0, 0.0, 0.0, 0.0, 0.0, 0.0, 0.0, 0.0, 1.6689768306165328E9, 0.0, 2022-11-20 15:40:30.616
164.0, -19079.069087394368, 24328.666845401152, -34664.64992340207, -33585.708866799934, -26977.594432544047, -27453.127795830704, -23403.550494140447, -2108.864737613766, -25660.160262603793, -2825.1487404285363, -27549.419110944167, -32429.207256937894, -27002.024889233697, -9292.491888104903, -21725.560334391634, -33999.43965666767, 0.034, 0.9420000000000001, -0.232, 192.0, 0.0, 0.0, 0.0, 0.0, 0.0, 0.0, 0.0, 0.0, 0.0, 1.6689768306165428E9, 0.0, 2022-11-20 15:40:30.616
166.0, -19093.083631167847, 24699.45993417024, -34679.67029567603, -33615.59314913668, -26987.272737893196, -27467.656429726652, -23412.53589541148, -2117.7160284180677, -25577.659973819256, -2748.035222057727, -27467.142339604183, -32347.06459606464, -26913.310815490582, -9205.476546940392, -21643.37297002947, -33919.24159756203, 0.034, 0.9420000000000001, -0.232, 192.0, 0.0, 0.0, 0.0, 0.0, 0.0, 0.0, 0.0, 0.0, 0.0, 1.6689768306165504E9, 0.0, 2022-11-20 15:40:30.616
168.0, -19094.469439324075, 24350.996238112002, -34696.791731928795, -33611.32396594572, -26996.16873218641, -27475.09956063027, -23418.146183269764, -2127.37198202276, -25656.6063352354, -2818.085589180659, -27558.516270937478, -32429.050794726707, -27002.404868889436, -9288.64738805859, -21722.274627956704, -34001.339554946375, 0.034, 0.9420000000000001, -0.232, 192.0, 0.0, 0.0, 0.0, 0.0, 0.0, 0.0, 0.0, 0.0, 0.0, 1.6689768306165586E9, 0.0, 2022-11-20 15:40:30.616
170.0, -19087.92037819867, 24662.17722441879, -34691.38260977061, -33612.30744270175, -26986.423371603894, -27466.337676803792, -23410.97127329961, -2120.7335139195343, -25594.200264716183, -2757.847637873607, -27488.935290448106, -32363.515479983747, -26934.47791748976, -9220.96630584792, -21661.544938271636, -33943.53794378495, 0.03, 0.9420000000000001, -0.23600000000000002, 192.0, 0.0, 120.0, 14.5, 56.0, 124.0, 80.0, 0.0, 0.0, 0.0, 1.668976830616566E9, 0.0, 2022-11-20 15:40:30.616
172.0, -19099.029195192958, 24385.3061658509, -34707.78879020081, -33612.26273921284, -27003.76832530121, -27472.99849665147, -23425.231686262094, -2131.7752756804557, -25657.813329435987, -2814.9563449569164, -27561.60081167231, -32430.146030205018, -27014.854790551042, -9292.715405549456, -21733.428148439903, -34010.16849400622, 0.03, 0.9420000000000001, -0.23600000000000002, 192.0, 0.0, 0.0, 0.0, 0.0, 0.0, 0.0, 0.0, 0.0, 0.0, 1.668976830616574E9, 0.0, 2022-11-20 15:40:30.616
174.0, -19066.954441899594, 24641.524212542085, -34662.52650767881, -33586.96056448943, -26971.224185374285, -27439.806156135342, -23396.666156848212, -2100.058150298375, -25582.890282021795, -2745.35301272309, -27461.085016856792, -32344.20357277436, -26925.760737152188, -9204.671884140002, -21655.800539946624, -33925.209513331596, 0.03, 0.9420000000000001, -0.23600000000000002, 192.0, 0.0, 0.0, 0.0, 0.0, 0.0, 0.0, 0.0, 0.0, 0.0, 1.6689768306165824E9, 0.0, 2022-11-20 15:40:30.616
176.0, -19122.409119893207, 24416.017462732492, -34712.505008280874, -33635.46384995745, -27023.01317727723, -27496.780752751918, -23446.756416172557, -2151.288348589939, -25668.251594096615, -2822.7794555162736, -27553.241259246024, -32432.336501161637, -27023.594322633067, -9301.142013209106, -21737.406758952948, -34006.32399395991, 0.03, 0.9420000000000001, -0.23600000000000002, 192.0, 0.0, 0.0, 0.0, 0.0, 0.0, 0.0, 0.0, 0.0, 0.0, 1.6689768306165917E9, 0.0, 2022-11-20 15:40:30.616
178.0, -19064.406343031686, 24587.34358398242, -34649.450737172454, -33575.67293353951, -26961.277659091673, -27442.15308930315, -23386.987851499063, -2092.235039739018, -25604.146790998795, -2763.5920361986205, -27475.25602284146, -32359.134538070506, -26940.267019303683, -9226.934221617488, -21659.421522548382, -33931.490353523535, 0.03, 0.9420000000000001, -0.23600000000000002, 192.0, 0.0, 0.0, 0.0, 0.0, 0.0, 0.0, 0.0, 0.0, 0.0, 1.668976830616599E9, 0.0, 2022-11-20 15:40:30.616
180.0, -19114.809526778405, 24475.026068094503, -34703.497255265385, -33618.52122766033, -27014.474810895303, -27497.29484287439, -23439.35798875785, -2146.3933165542267, -25657.858032924898, -2805.702722752419, -27547.988599299028, -32414.343346875114, -27012.619616105512, -9292.335425893716, -21713.06570924112, -33987.570880361905, 0.032, 0.9420000000000001, -0.24, 192.0, 0.5, 0.0, 14.5, 56.0, 124.0, 64.0, 0.0, 0.0, 0.0, 1.6689768306166067E9, 0.0, 2022-11-20 15:40:30.616
182.0, -19038.031284574423, 24567.18231048373, -34622.18160893698, -33538.949017399435, -26933.539144222636, -27420.024862292394, -23363.205595398616, -2072.0737662403308, -25585.10310472287, -2744.8836260895287, -27456.43585401009, -32334.748784869767, -26923.302045262106, -9210.438634209471, -21635.929839125853, -33916.537036482936, 0.032, 0.9420000000000001, -0.24, 192.0, 0.0, 0.0, 0.0, 0.0, 0.0, 0.0, 0.0, 0.0, 0.0, 1.668976830616614E9, 0.0, 2022-11-20 15:40:30.616
184.0, -19123.638465838252, 24528.402033853774, -34703.16197909856, -33608.50764614435, -27009.78094455969, -27492.511569560957, -23439.246230035573, -2147.1085723767965, -25635.707454169686, -2782.4122050299893, -27522.261741430968, -32387.78947446221, -26989.418505360904, -9269.089611660196, -21685.953043216832, -33966.0685021959, 0.032, 0.9420000000000001, -0.24, 192.0, 0.0, 0.0, 0.0, 0.0, 0.0, 0.0, 0.0, 0.0, 0.0, 1.6689768306166215E9, 0.0, 2022-11-20 15:40:30.616
186.0, -19049.564784713362, 24496.2825770715, -34632.128135219595, -33527.773145171785, -26930.409899998893, -27411.553551143832, -23363.38440935426, -2070.486792384004, -25605.532599155023, -2765.2013617994025, -27477.625307753722, -32351.579648444615, -26936.15429832391, -9217.792358135266, -21652.246612578227, -33922.77317318597, 0.032, 0.9420000000000001, -0.24, 192.0, 0.0, 0.0, 0.0, 0.0, 0.0, 0.0, 0.0, 0.0, 0.0, 1.668976830616629E9, 0.0, 2022-11-20 15:40:30.616
188.0, -19151.2205184961, 24551.62549634284, -34731.70515676799, -33634.48037320142, -27028.35524420205, -27508.291901146404, -23457.798177933477, -2161.838371972844, -25630.857125622886, -2778.2771323057573, -27529.235485701025, -32389.97994541883, -26983.271775635694, -9258.226663854917, -21688.47879034028, -33950.936371199656, 0.032, 0.9420000000000001, -0.24, 192.0, 0.0, 0.0, 0.0, 0.0, 0.0, 0.0, 0.0, 0.0, 0.0, 1.6689768306166365E9, 0.0, 2022-11-20 15:40:30.616
190.0, -19062.394686030708, 24431.417814662196, -34636.41967015501, -33546.570962258695, -26942.47984200476, -27415.956844801527, -23371.14046468025, -2075.024196508431, -25627.325549998946, -2790.0788533781592, -27509.051860457883, -32386.515425028258, -26961.56823176959, -9247.207253838451, -21681.72856351478, -33942.398004817725, 0.028, 0.9420000000000001, -0.234, 192.0, 0.0, 112.0, 14.5, 56.0, 124.0, 88.0, 0.0, 0.0, 0.0, 1.6689768306166437E9, 0.0, 2022-11-20 15:40:30.616
192.0, -19145.587878893362, 24604.934406868746, -34706.89472042259, -33636.55908543576, -27026.29888371216, -27501.58637780981, -23451.15970983025, -2153.434116057648, -25621.78231737403, -2781.0711003626707, -27517.83609602882, -32388.258861095772, -26977.080342421574, -9264.865131958144, -21682.041487937153, -33947.04716766443, 0.028, 0.9420000000000001, -0.234, 192.0, 0.0, 0.0, 0.0, 0.0, 0.0, 0.0, 0.0, 0.0, 0.0, 1.668976830616651E9, 0.0, 2022-11-20 15:40:30.616
194.0, -19039.48414796402, 24415.838648776848, -34616.61602456761, -33537.473802265384, -26933.025054100162, -27412.38056568868, -23361.685676775658, -2068.095155727286, -25618.78718361702, -2789.0059696443045, -27497.160732407658, -32379.5416807582, -26959.57892651307, -9257.198483609973, -21673.369011088493, -33946.9130571977, 0.028, 0.9420000000000001, -0.234, 192.0, 0.0, 0.0, 0.0, 0.0, 0.0, 0.0, 0.0, 0.0, 0.0, 1.6689768306166584E9, 0.0, 2022-11-20 15:40:30.616
196.0, -19126.298323428433, 24665.88761399837, -34712.48265653642, -33634.27920750132, -27023.661377866436, -27500.804066753873, -23449.908012140753, -2153.054136401908, -25595.943700783697, -2756.7300506508413, -27488.957642192563, -32357.905192125465, -26956.561441011603, -9248.63776548359, -21659.53328127066, -33934.12785936926, 0.028, 0.9420000000000001, -0.234, 192.0, 0.0, 0.0, 0.0, 0.0, 0.0, 0.0, 0.0, 0.0, 0.0, 1.6689768306166685E9, 0.0, 2022-11-20 15:40:30.616
198.0, -19054.951555127092, 24367.96121215358, -34654.52458316381, -33560.51845079881, -26953.00751364321, -27431.156031031136, -23382.85277877483, -2089.374016448738, -25634.321646013457, -2807.60262103112, -27518.88662801822, -32395.992564677308, -26982.355354113028, -9274.655196029567, -21696.614825322013, -33969.95770573112, 0.028, 0.9420000000000001, -0.234, 192.0, 0.0, 0.0, 0.0, 0.0, 0.0, 0.0, 0.0, 0.0, 0.0, 1.6689768306166768E9, 0.0, 2022-11-20 15:40:30.616
200.0, -19130.411044408207, 24694.36373643443, -34724.55259854229, -33637.453155213974, -27020.35331968705, -27499.887645231207, -23447.5834307174, -2151.2659968454836, -25602.805686331474, -2765.9166176219724, -27503.553331321877, -32368.63402946401, -26964.026923659676, -9248.615413739135, -21668.965717430798, -33941.32512108387, 0.028999999999999998, 0.9390000000000001, -0.239, 192.0, 0.0, 120.0, 14.5, 32.0, 124.0, 48.0, 0.0, 0.0, 0.0, 1.668976830616685E9, 0.0, 2022-11-20 15:40:30.616
202.0, -19058.840758662314, 24345.497708975996, -34658.07851053221, -33555.89163969656, -26956.89671717843, -27431.781879875885, -23385.557339853924, -2090.2010309935845, -25640.11074782738, -2810.597754788131, -27527.40264265569, -32397.69129725591, -26990.804313517132, -9273.023518684331, -21702.426278880394, -33968.01310396351, 0.028999999999999998, 0.9390000000000001, -0.239, 192.0, 0.0, 0.0, 0.0, 0.0, 0.0, 0.0, 0.0, 0.0, 0.0, 1.668976830616693E9, 0.0, 2022-11-20 15:40:30.616
204.0, -19139.35174219033, 24699.817562081524, -34725.13374389813, -33634.435669712504, -27025.248351722763, -27509.96828198055, -23455.965334888144, -2163.38064234026, -25599.743497341096, -2767.280074033746, -27493.316232361347, -32358.17341305893, -26962.28348759216, -9243.608622981146, -21664.562423773103, -33935.51366752549, 0.028999999999999998, 0.9390000000000001, -0.239, 192.0, 0.0, 0.0, 0.0, 0.0, 0.0, 0.0, 0.0, 0.0, 0.0, 1.6689768306167011E9, 0.0, 2022-11-20 15:40:30.616
206.0, -19069.43548553413, 24329.918543090647, -34658.65965588804, -33558.19386937546, -26958.438987545847, -27438.42034797911, -23388.172493955197, -2100.326371231839, -25664.965887661685, -2836.8387027786616, -27549.821442344364, -32422.971120234863, -27011.658491093935, -9298.660969574568, -21716.15024997595, -33996.19865372165, 0.028999999999999998, 0.9390000000000001, -0.239, 192.0, 0.0, 0.0, 0.0, 0.0, 0.0, 0.0, 0.0, 0.0, 0.0, 1.668976830616709E9, 0.0, 2022-11-20 15:40:30.616
208.0, -19116.620018079284, 24721.23053326971, -34694.33304003871, -33617.64950962657, -27000.840246777567, -27481.738028733496, -23433.121852054817, -2139.464275773081, -25579.71633430914, -2750.382155225534, -27469.444569283078, -32342.884819851497, -26930.36519650998, -9215.467776711916, -21635.259286792196, -33915.687670193634, 0.028999999999999998, 0.9390000000000001, -0.239, 192.0, 0.0, 0.0, 0.0, 0.0, 0.0, 0.0, 0.0, 0.0, 0.0, 1.6689768306167169E9, 0.0, 2022-11-20 15:40:30.616
210.0, -19081.416020562177, 24322.85539184277, -34661.274809989314, -33578.22103240741, -26966.217394616295, -27444.05298758185, -23395.414459158714, -2105.1319962897296, -25662.12721611586, -2838.0456969792485, -27553.3530179683, -32431.50948661679, -27010.11622072652, -9297.453975373981, -21714.764441819723, -33994.701086843146, 0.0295, 0.9405000000000001, -0.2425, 192.0, 0.0, 120.0, 14.5, 56.0, 124.0, 40.0, 0.0, 0.0, 0.0, 1.6689768306167247E9, 0.0, 2022-11-20 15:40:30.616
212.0, -19114.11662270029, 24713.899161088368, -34689.10273183617, -33623.952701562965, -26995.073496708097, -27480.419275810633, -23425.365796728827, -2133.272842558961, -25581.81739828794, -2760.507495463788, -27474.3843048077, -32352.719587411833, -26929.985216854242, -9221.59215469267, -21635.929839125853, -33918.347527783815, 0.0295, 0.9405000000000001, -0.2425, 192.0, 0.0, 0.0, 0.0, 0.0, 0.0, 0.0, 0.0, 0.0, 0.0, 1.6689768306167328E9, 0.0, 2022-11-20 15:40:30.616
214.0, -19097.933959714646, 24330.097357046292, -34689.169787069535, -33601.19862570747, -26990.916072239408, -27469.086941371792, -23422.54947692746, -2129.2942320459165, -25666.351695817913, -2839.476208624388, -27563.478358206554, -32434.124640718062, -27018.855752808544, -9311.714388336468, -21728.39900593746, -34003.95470904764, 0.0295, 0.9405000000000001, -0.2425, 192.0, 0.0, 0.0, 0.0, 0.0, 0.0, 0.0, 0.0, 0.0, 0.0, 1.6689768306167407E9, 0.0, 2022-11-20 15:40:30.616
216.0, -19103.25367489501, 24696.06246901303, -34695.808255172764, -33615.66020437005, -26991.20664491733, -27468.259926826948, -23427.980950830097, -2130.389467524227, -25585.192511700694, -2761.0439373307154, -27477.312383331348, -32350.327950755116, -26935.32728377906, -9224.430826238493, -21659.421522548382, -33928.6069784888, 0.0295, 0.9405000000000001, -0.2425, 192.0, 0.0, 0.0, 0.0, 0.0, 0.0, 0.0, 0.0, 0.0, 0.0, 1.6689768306167488E9, 0.0, 2022-11-20 15:40:30.616
218.0, -19111.25559941001, 24362.48503476203, -34716.371860071646, -33614.20734098045, -27001.600206089046, -27472.350296062268, -23431.914857854234, -2139.151351350707, -25672.207852865202, -2838.4256766349886, -27569.82625363186, -32436.382166908046, -27028.35524420205, -9310.552097624792, -21743.978171822808, -34014.81765685292, 0.0295, 0.9405000000000001, -0.2425, 192.0, 0.0, 0.0, 0.0, 0.0, 0.0, 0.0, 0.0, 0.0, 0.0, 1.668976830616757E9, 0.0, 2022-11-20 15:40:30.616
220.0, -19085.841665964326, 24682.852588039947, -34678.44094973099, -33587.40759937854, -26966.99970567223, -27442.935400359085, -23396.934377781676, -2106.875432357244, -25588.411162902255, -2756.6853471619306, -27476.261851341947, -32347.77985188721, -26935.416690756883, -9212.606753421636, -21653.453606778814, -33928.65168197771, 0.03075, 0.9392500000000001, -0.24025000000000002, 192.0, 0.5, 0.0, 14.5, 40.0, 124.0, 72.0, 0.0, 0.0, 0.0, 1.6689768306167655E9, 0.0, 2022-11-20 15:40:30.616
222.0, -19122.386768148754, 24398.292529379432, -34715.656604249074, -33613.22386422442, -27002.74014505627, -27473.467883285033, -23426.43868046268, -2136.200921082607, -25662.462492282688, -2828.3226881411897, -27561.73492213904, -32426.7038615589, -27021.470906909813, -9295.621132328646, -21718.72070058831, -33997.51740664452, 0.03075, 0.9392500000000001, -0.24025000000000002, 192.0, 0.0, 0.0, 0.0, 0.0, 0.0, 0.0, 0.0, 0.0, 0.0, 1.6689768306167736E9, 0.0, 2022-11-20 15:40:30.616
224.0, -19070.30720356789, 24646.35218934443, -34657.631475643095, -33571.426102093, -26953.365141554492, -27427.75856587393, -23380.125865951286, -2088.122318759241, -25588.813494302452, -2763.614387943076, -27473.06555188484, -32349.567991443637, -26931.058100588096, -9211.220945265406, -21636.019246103675, -33914.57008297087, 0.03075, 0.9392500000000001, -0.24025000000000002, 192.0, 0.0, 0.0, 0.0, 0.0, 0.0, 0.0, 0.0, 0.0, 0.0, 1.6689768306167812E9, 0.0, 2022-11-20 15:40:30.616
226.0, -19123.571410604884, 24440.17969848868, -34709.04048789031, -33621.49400967288, -27013.424278905903, -27491.125761404724, -23438.17334630172, -2150.6848514896456, -25653.052407867006, -2824.969926472894, -27550.804919100396, -32421.652367312, -27012.73137482779, -9294.056510216775, -21704.39323239246, -33981.51355761451, 0.03075, 0.9392500000000001, -0.24025000000000002, 192.0, 0.0, 0.0, 0.0, 0.0, 0.0, 0.0, 0.0, 0.0, 0.0, 1.6689768306168177E9, 0.0, 2022-11-20 15:40:30.616
228.0, -19064.62986047624, 24602.654528934305, -34642.65580685804, -33562.798328733246, -26952.739292709746, -27437.43687122308, -23379.902348506734, -2098.404121208682, -25592.188607715205, -2770.0740420906595, -27474.20549085206, -32350.573819944126, -26938.724748936267, -9223.514404715825, -21639.081435094053, -33917.34169928333, 0.03075, 0.9392500000000001, -0.24025000000000002, 192.0, 0.0, 0.0, 0.0, 0.0, 0.0, 0.0, 0.0, 0.0, 0.0, 1.6689768306168272E9, 0.0, 2022-11-20 15:40:30.616
230.0, -19127.102986228823, 24496.103763115858, -34702.96081339846, -33619.54940790527, -27007.88104628099, -27494.63498528421, -23436.407558489747, -2156.9209881926763, -25645.385759518835, -2803.2440308623354, -27542.02068352946, -32402.049887424695, -27007.143438713963, -9288.245056658394, -21684.00844144922, -33974.830386022375, 0.034375, 0.936625, -0.23512500000000003, 192.0, 0.5, 24.0, 14.5, 24.0, 124.0, 104.0, 0.0, 0.0, 0.0, 1.6689768306168349E9, 0.0, 2022-11-20 15:40:30.616
232.0, -19052.269345792454, 24558.040447001513, -34631.03289974128, -33552.00243616133, -26932.555667466604, -27416.42623143509, -23360.8139587419, -2077.2370192095063, -25595.094334494395, -2772.420975258467, -27477.58060426481, -32352.227849033818, -26936.80249891311, -9226.464834983926, -21627.302065766107, -33923.51078075299, 0.034375, 0.936625, -0.23512500000000003, 192.0, 0.0, 0.0, 0.0, 0.0, 0.0, 0.0, 0.0, 0.0, 0.0, 1.668976830616842E9, 0.0, 2022-11-20 15:40:30.616
234.0, -19148.135977761267, 24537.18626942471, -34729.91701721156, -33647.98082685242, -27032.378558204004, -27509.565950580356, -23455.004209876563, -2164.9676161965867, -25638.613180948876, -2804.5627837851985, -27537.058596260384, -32403.27923336974, -26999.029755476688, -9284.936998479008, -21678.822836735588, -33968.52719408598, 0.034375, 0.936625, -0.23512500000000003, 192.0, 0.0, 0.0, 0.0, 0.0, 0.0, 0.0, 0.0, 0.0, 0.0, 1.6689768306168494E9, 0.0, 2022-11-20 15:40:30.616
236.0, -19084.29939559691, 24476.56833846192, -34661.408920456044, -33580.14328243057, -26970.173653384885, -27445.461147482532, -23395.168589969708, -2104.0144090669646, -25631.550029701, -2808.764911742796, -27511.711718048064, -32389.68937274091, -26975.940403454355, -9267.033251170309, -21676.43120007887, -33959.49708932604, 0.034375, 0.936625, -0.23512500000000003, 192.0, 0.0, 0.0, 0.0, 0.0, 0.0, 0.0, 0.0, 0.0, 0.0, 1.6689768306168575E9, 0.0, 2022-11-20 15:40:30.616
238.0, -19143.26329747001, 24588.237653760632, -34715.70130773799, -33631.64170165559, -27026.63415987899, -27496.892511474194, -23447.65048595077, -2154.574055024869, -25644.290524040523, -2807.692028008941, -27538.15383173869, -32403.860378725578, -27008.506895125734, -9288.178001425029, -21694.178485176384, -33970.650609809236, 0.034375, 0.936625, -0.23512500000000003, 192.0, 0.0, 0.0, 0.0, 0.0, 0.0, 0.0, 0.0, 0.0, 0.0, 1.6689768306168664E9, 0.0, 2022-11-20 15:40:30.616
240.0, -19070.77659020145, 24452.160233516723, -34651.46239417343, -33557.59037227516, -26955.42150204438, -27424.316397227813, -23379.14238919525, -2086.647103625191, -25629.49366921111, -2802.0146849172934, -27507.15196217918, -32384.07908488263, -26975.940403454355, -9252.035230640797, -21675.470075067293, -33945.16962113018, 0.0341875, 0.9393125, -0.2325625, 192.0, 0.5, 8.0, 14.5, 56.0, 124.0, 104.0, 0.0, 0.0, 0.0, 1.6689768310957546E9, 0.0, 2022-11-20 15:40:31.095
242.0, -19151.578146407384, 24634.84104094995, -34737.80718300428, -33645.87976287362, -27034.993712305273, -27505.45322960058, -23455.317134298937, -2163.6935667626344, -25630.87947736734, -2789.117728366581, -27528.25200894499, -32391.7457332308, -26996.079325208586, -9264.775724980322, -21677.392325090448, -33949.63997002125, 0.0341875, 0.9393125, -0.2325625, 192.0, 0.0, 0.0, 0.0, 0.0, 0.0, 0.0, 0.0, 0.0, 0.0, 1.66897683109597E9, 0.0, 2022-11-20 15:40:31.095
244.0, -19068.42965703364, 24411.2118376746, -34662.21358325644, -33562.1724798885, -26962.775225970177, -27431.67012115361, -23383.076296219388, -2092.547964161392, -25641.273038539057, -2809.346057098634, -27523.625197842743, -32395.299660599194, -26992.01130771772, -9265.379222080615, -21685.90833972792, -33960.94995271563, 0.0341875, 0.9393125, -0.2325625, 192.0, 0.0, 0.0, 0.0, 0.0, 0.0, 0.0, 0.0, 0.0, 0.0, 1.668976831095976E9, 0.0, 2022-11-20 15:40:31.095
246.0, -19149.27591672849, 24675.252994925144, -34734.27560738035, -33646.28209427382, -27046.34839848857, -27511.957587237073, -23460.97212564613, -2167.180438897662, -25630.767718645064, -2787.418995787978, -27521.211209441568, -32382.425055792937, -26997.44278162036, -9266.563864536747, -21682.24265363725, -33957.19485964714, 0.0341875, 0.9393125, -0.2325625, 192.0, 0.0, 0.0, 0.0, 0.0, 0.0, 0.0, 0.0, 0.0, 0.0, 1.6689768310959823E9, 0.0, 2022-11-20 15:40:31.095
248.0, -19053.409284759677, 24391.810523487395, -34640.06300450123, -33545.7662994583, -26953.85687993251, -27413.38639418917, -23368.078275689873, -2075.359472675261, -25647.59858221991, -2813.9728682008827, -27523.06640423136, -32393.422114064946, -26999.096810710053, -9276.465687330448, -21693.552636331635, -33964.570935317395, 0.0341875, 0.9393125, -0.2325625, 192.0, 0.0, 0.0, 0.0, 0.0, 0.0, 0.0, 0.0, 0.0, 0.0, 1.6689768310959888E9, 0.0, 2022-11-20 15:40:31.095
250.0, -19135.283724699464, 24716.134335533898, -34713.0414501478, -33637.1402307916, -27027.59528489057, -27491.125761404724, -23445.54942197197, -2149.7013747336123, -25602.582168886922, -2766.542466466721, -27492.06453467185, -32357.905192125465, -26963.7139992373, -9244.815617181734, -21651.9113364114, -33923.98016738655, 0.032093750000000004, 0.94065625, -0.23328125, 192.0, 0.0, 120.0, 14.5, 56.0, 124.0, 88.0, 0.0, 0.0, 0.0, 1.6689768310959947E9, 0.0, 2022-11-20 15:40:31.095
252.0, -19056.471473750054, 24374.711438979084, -34642.07466150221, -33547.80030820374, -26952.448720031825, -27409.027804020385, -23372.615679814302, -2078.6675308546464, -25642.524736228555, -2820.2313566483685, -27526.73209032203, -32400.73113450183, -26992.950080984843, -9281.651292044078, -21692.569159575603, -33956.01021719101, 0.032093750000000004, 0.94065625, -0.23328125, 192.0, 0.0, 0.0, 0.0, 0.0, 0.0, 0.0, 0.0, 0.0, 0.0, 1.668976831096001E9, 0.0, 2022-11-20 15:40:31.096
254.0, -19114.69776805613, 24755.85338543098, -34693.05899060476, -33608.06061125524, -27008.43983989237, -27468.90812741615, -23432.607761932348, -2136.156217593696, -25579.179892442215, -2748.839884858118, -27472.082075128805, -32336.87220059302, -26940.736405937245, -9216.495956956858, -21637.673275193367, -33897.80627462939, 0.032093750000000004, 0.94065625, -0.23328125, 192.0, 0.0, 0.0, 0.0, 0.0, 0.0, 0.0, 0.0, 0.0, 0.0, 1.6689768310960069E9, 0.0, 2022-11-20 15:40:31.096
0.0, -19064.808674431883, 24371.626898244253, -34638.99012076737, -33545.47572678039, -26960.7635689692, -27424.741080372463, -23383.210406686117, -2096.0795397853303, -25642.65884669529, -2810.7318652548634, -27528.25200894499, -32394.807922221178, -26997.15220894244, -9269.69310876049, -21693.887912498467, -33967.990752219055, 0.032093750000000004, 0.94065625, -0.23328125, 192.0, 0.0, 0.0, 0.0, 0.0, 0.0, 0.0, 0.0, 0.0, 0.0, 1.6689768310960124E9, 0.0, 2022-11-20 15:40:31.096
2.0, -19119.793965791938, 24748.72317894974, -34676.98808634139, -33607.2335967104, -27007.523418369703, -27478.698191487576, -23435.155860800252, -2149.0308223999527, -25587.71825882414, -2749.935120336428, -27469.891604172186, -32335.7322616258, -26940.71405419279, -9214.573706933703, -21627.592638444024, -33918.43693476164, 0.032093750000000004, 0.94065625, -0.23328125, 192.0, 0.0, 0.0, 0.0, 0.0, 0.0, 0.0, 0.0, 0.0, 0.0, 1.6689768310960188E9, 0.0, 2022-11-20 15:40:31.096
4.0, -19084.67937525265, 24350.862127645272, -34656.245667486866, -33569.21327939192, -26982.95885121332, -27451.33965627428, -23413.228799489596, -2129.473046001559, -25659.623820736866, -2827.808598018718, -27539.383177683732, -32409.537721817225, -27010.11622072652, -9293.11773694965, -21699.028813723187, -33994.94695603215, 0.030046875, 0.9393281250000001, -0.233640625, 192.0, 0.0, 112.0, 14.5, 40.0, 124.0, 88.0, 0.0, 0.0, 0.0, 1.668976831096033E9, 0.0, 2022-11-20 15:40:31.096
6.0, -19115.92711400117, 24732.831088642015, -34686.934612624005, -33609.89345430058, -27009.825648048598, -27482.945022934084, -23443.02367484852, -2159.0444039159306, -25589.864026291852, -2760.999233841805, -27470.651563483665, -32340.895514594977, -26939.551763481115, -9228.074160584709, -21635.482804236748, -33927.69055696613, 0.030046875, 0.9393281250000001, -0.233640625, 192.0, 0.0, 0.0, 0.0, 0.0, 0.0, 0.0, 0.0, 0.0, 0.0, 1.6689768310960393E9, 0.0, 2022-11-20 15:40:31.096
8.0, -19102.78428826145, 24361.63566847273, -34682.06193233275, -33581.663201053525, -26999.610900832526, -27460.928554645605, -23425.45520370665, -2140.179531595651, -25676.722905245177, -2848.036926750771, -27560.460872705087, -32422.881713257044, -27031.193915747874, -9313.189603470517, -21721.849944812053, -33999.68552585668, 0.030046875, 0.9393281250000001, -0.233640625, 192.0, 0.0, 0.0, 0.0, 0.0, 0.0, 0.0, 0.0, 0.0, 0.0, 1.668976831096046E9, 0.0, 2022-11-20 15:40:31.096
10.0, -19097.35281435881, 24728.56190545105, -34660.60425765565, -33578.28808764077, -26983.38353435797, -27449.596220206764, -23404.601026129847, -2115.391446994716, -25583.806703544466, -2756.1489052950033, -27457.218165066024, -32319.706060851346, -26934.52262097867, -9213.523174944303, -21623.56932444207, -33893.91707109417, 0.030046875, 0.9393281250000001, -0.233640625, 192.0, 0.0, 0.0, 0.0, 0.0, 0.0, 0.0, 0.0, 0.0, 0.0, 1.6689768310960517E9, 0.0, 2022-11-20 15:40:31.096
12.0, -19094.692956768627, 24402.96404397059, -34662.81708035673, -33569.302686369745, -26978.644964533447, -27441.236667780482, -23394.945072525155, -2106.2719352569507, -25655.51109975709, -2827.4286183629774, -27536.87978230474, -32401.73696300232, -27014.96654927332, -9292.849516016187, -21692.524456086692, -33961.08406318237, 0.030046875, 0.9393281250000001, -0.233640625, 192.0, 0.0, 0.0, 0.0, 0.0, 0.0, 0.0, 0.0, 0.0, 0.0, 1.6689768310960567E9, 0.0, 2022-11-20 15:40:31.096
14.0, -19092.748355001015, 24688.55228287605, -34652.64703662956, -33577.14814867356, -26974.845167976044, -27445.349388760256, -23395.99560451455, -2106.6966184016014, -25573.748418539577, -2758.4287832294444, -27449.81973765132, -32324.176409742406, -26922.698548161814, -9210.975076076398, -21614.33805398203, -33891.145454781705, 0.030046875, 0.9393281250000001, -0.233640625, 192.0, 0.0, 0.0, 0.0, 0.0, 0.0, 0.0, 0.0, 0.0, 0.0, 1.6689768310960617E9, 0.0, 2022-11-20 15:40:31.096
16.0, -19100.370299860275, 24440.64908512224, -34665.409882713546, -33579.47273009691, -26989.418505360904, -27458.358104033246, -23411.306549466437, -2125.9191186331655, -25648.336189786936, -2821.438350848955, -27534.845773559307, -32399.255919367784, -27006.42818289139, -9292.469536360448, -21690.512799085715, -33974.405702877724, 0.026000000000000002, 0.9400000000000001, -0.242, 192.0, 0.0, 104.0, 14.5, 48.0, 124.0, 56.0, 0.0, 0.0, 0.0, 1.6689768310960667E9, 0.0, 2022-11-20 15:40:31.096
18.0, -19071.938880913127, 24670.35796288943, -34631.61404509712, -33554.55053502924, -26959.690685235346, -27431.401900220146, -23387.054906732432, -2102.963877077565, -25566.282935891504, -2743.0284312997383, -27439.85085962425, -32310.430086902394, -26908.393431710414, -9196.669959625002, -21605.687928877822, -33895.16876878366, 0.026000000000000002, 0.9400000000000001, -0.242, 192.0, 0.0, 0.0, 0.0, 0.0, 0.0, 0.0, 0.0, 0.0, 0.0, 1.6689768310960715E9, 0.0, 2022-11-20 15:40:31.096
20.0, -19134.546117132442, 24472.32150701541, -34699.228072074424, -33611.301614201264, -27021.672072609912, -27490.92459570463, -23448.052817350963, -2164.0958981628296, -25655.13112010135, -2818.2420513918464, -27541.663055618177, -32397.624242022546, -27009.982110259785, -9292.089556704708, -21691.228054908283, -33980.75359830303, 0.026000000000000002, 0.9400000000000001, -0.242, 192.0, 0.0, 0.0, 0.0, 0.0, 0.0, 0.0, 0.0, 0.0, 0.0, 1.6689768310960765E9, 0.0, 2022-11-20 15:40:31.096
22.0, -19083.315918840875, 24604.554427213006, -34640.82296381271, -33564.83233747868, -26963.959868426307, -27438.62151367921, -23397.44846790415, -2110.116435303263, -25609.73472711262, -2785.161469597992, -27480.128703132716, -32349.679750165913, -26945.38556878395, -9234.287945543283, -21643.28356305165, -33929.63515873375, 0.026000000000000002, 0.9400000000000001, -0.242, 192.0, 0.0, 0.0, 0.0, 0.0, 0.0, 0.0, 0.0, 0.0, 0.0, 1.6689768310960827E9, 0.0, 2022-11-20 15:40:31.096
24.0, -19134.88139329927, 24527.32915011992, -34695.27181330584, -33616.26370147034, -27012.44080214987, -27481.91684268914, -23442.21901204813, -2154.5293515359585, -25652.135986344336, -2812.967039700394, -27537.93031429414, -32397.579538533635, -27005.467057879814, -9287.842725258199, -21690.043412452153, -33967.566069074404, 0.026000000000000002, 0.9400000000000001, -0.242, 192.0, 0.0, 0.0, 0.0, 0.0, 0.0, 0.0, 0.0, 0.0, 0.0, 1.6689768310960877E9, 0.0, 2022-11-20 15:40:31.096
26.0, -19068.519064011463, 24565.282412205033, -34633.938626520474, -33558.08211065318, -26943.686836205346, -27412.291158710857, -23374.850854259832, -2085.6636268691573, -25599.475276407633, -2777.74069043883, -27472.707923973554, -32345.70113965287, -26935.059062845598, -9225.570765205714, -21637.293295537627, -33913.05016434791, 0.036000000000000004, 0.9420000000000001, -0.242, 192.0, 0.5, 16.0, 14.5, 56.0, 124.0, 56.0, 0.0, 0.0, 0.0, 1.6689768310960927E9, 0.0, 2022-11-20 15:40:31.096
28.0, -19136.825995066883, 24583.789656614026, -34710.60511000217, -33628.26658824284, -27022.29792145466, -27487.527130547423, -23445.6835324387, -2154.5517032804137, -25639.149622815803, -2805.5239087967766, -27532.40943341368, -32392.30452684218, -26998.15803744293, -9284.422908356537, -21681.974432703788, -33963.63216205027, 0.036000000000000004, 0.9420000000000001, -0.242, 192.0, 0.0, 0.0, 0.0, 0.0, 0.0, 0.0, 0.0, 0.0, 0.0, 1.6689768310960977E9, 0.0, 2022-11-20 15:40:31.096
30.0, -19049.229508546534, 24529.698435032184, -34626.78606829477, -33538.479630765876, -26946.056121117606, -27410.48066740998, -23367.25126114503, -2077.3040744428727, -25607.276035222538, -2778.3665392835783, -27479.05581939886, -32345.902305352964, -26949.72180720828, -9236.21019556644, -21642.545955484624, -33927.19881858812, 0.036000000000000004, 0.9420000000000001, -0.242, 192.0, 0.0, 0.0, 0.0, 0.0, 0.0, 0.0, 0.0, 0.0, 0.0, 1.6689768310961027E9, 0.0, 2022-11-20 15:40:31.096
32.0, -19137.74241658955, 24629.610732747406, -34712.929691425525, -33628.98184406541, -27036.088947783584, -27509.096563946794, -23456.88175641081, -2172.8354302448547, -25627.146736043305, -2783.3956817860226, -27507.95662497957, -32364.186032317408, -26988.680897793878, -9269.804867482766, -21662.684877238855, -33952.612752033805, 0.036000000000000004, 0.9420000000000001, -0.242, 192.0, 0.0, 0.0, 0.0, 0.0, 0.0, 0.0, 0.0, 0.0, 0.0, 1.6689768310961075E9, 0.0, 2022-11-20 15:40:31.096
34.0, -19045.317953266855, 24481.68688794218, -34623.522713604296, -33532.22114231839, -26947.017246129188, -27425.34457747276, -23370.604022813324, -2093.598496150791, -25615.277959737537, -2787.5978097436205, -27481.67097350013, -32350.104433310564, -26963.266964348193, -9253.175169608017, -21648.938554398843, -33951.00342643302, 0.036000000000000004, 0.9420000000000001, -0.242, 192.0, 0.0, 0.0, 0.0, 0.0, 0.0, 0.0, 0.0, 0.0, 0.0, 1.6689768310961125E9, 0.0, 2022-11-20 15:40:31.096
36.0, -19113.44607036663, 24699.303471959054, -34687.9404411245, -33605.870140298626, -27015.9276742849, -27493.96443295055, -23441.6825701812, -2162.1289446507626, -25601.241064219605, -2760.5298472082436, -27486.901281702674, -32339.55440992766, -26969.525452795682, -9253.890425430587, -21645.250516563716, -33952.63510377826, 0.03, 0.9400000000000001, -0.23800000000000002, 192.0, 0.0, 120.0, 14.5, 48.0, 124.0, 72.0, 0.0, 0.0, 0.0, 1.6689768310961192E9, 0.0, 2022-11-20 15:40:31.096
38.0, -19034.231488017023, 24455.334181229377, -34608.010602952316, -33520.352366012616, -26937.8083274136, -27411.79942033284, -23365.351362866328, -2086.960028047565, -25605.01850903255, -2773.2703415477686, -27478.7875984654, -32342.14721228447, -26957.52256602318, -9244.659154970546, -21652.5595370006, -33953.99856019003, 0.03, 0.9400000000000001, -0.23800000000000002, 192.0, 0.0, 0.0, 0.0, 0.0, 0.0, 0.0, 0.0, 0.0, 0.0, 1.668976831096124E9, 0.0, 2022-11-20 15:40:31.096
40.0, -19110.249770909522, 24741.123585834932, -34676.094016563184, -33595.90126227156, -27002.941310756363, -27472.86438618474, -23425.678721151202, -2144.448714786615, -25574.10604645086, -2729.9750125378387, -27460.213298823037, -32314.49810439326, -26935.863725645988, -9221.59215469267, -21623.390510486428, -33916.179408571654, 0.03, 0.9400000000000001, -0.23800000000000002, 192.0, 0.0, 0.0, 0.0, 0.0, 0.0, 0.0, 0.0, 0.0, 0.0, 1.668976831096129E9, 0.0, 2022-11-20 15:40:31.096
42.0, -19045.85439513378, 24421.046605234937, -34611.56453032071, -33518.608929945105, -26927.928856364353, -27394.27565267988, -23355.181319139163, -2076.4100046646604, -25613.22159924765, -2775.5502194822097, -27487.862406714252, -32350.685578666402, -26955.175632855375, -9243.809788681245, -21652.648943978424, -33937.03358614846, 0.03, 0.9400000000000001, -0.23800000000000002, 192.0, 0.0, 0.0, 0.0, 0.0, 0.0, 0.0, 0.0, 0.0, 0.0, 1.668976831096134E9, 0.0, 2022-11-20 15:40:31.096
44.0, -19133.58499212086, 24735.714463676748, -34689.52741498082, -33610.94398628998, -27003.209531689827, -27472.462054784544, -23433.434776477192, -2150.550741022914, -25591.20513095917, -2746.180027267936, -27474.361953063246, -32330.658415634447, -26938.456528002804, -9225.503709972347, -21626.18447854334, -33910.36795501327, 0.03, 0.9400000000000001, -0.23800000000000002, 192.0, 0.0, 0.0, 0.0, 0.0, 0.0, 0.0, 0.0, 0.0, 0.0, 1.6689768310961387E9, 0.0, 2022-11-20 15:40:31.096
46.0, -19058.617241217762, 24377.72892448055, -34632.08343173068, -33535.28333130876, -26938.36712102498, -27398.23191144847, -23368.413551856705, -2083.4061006791712, -25640.826003649952, -2803.6240105180755, -27519.758346051975, -32379.496977269293, -26980.231938389774, -9267.390879081593, -21673.436066321858, -33950.444632821636, 0.032, 0.9440000000000001, -0.23600000000000002, 192.0, 0.5, 0.0, 14.5, 64.0, 124.0, 80.0, 0.0, 0.0, 0.0, 1.6689768310961437E9, 0.0, 2022-11-20 15:40:31.096
48.0, -19125.65012283923, 24748.678475460827, -34699.96567964145, -33622.94687306248, -27005.8246857911, -27480.19575836608, -23434.284142766493, -2149.634319500246, -25581.035087232005, -2744.5930534116096, -27473.892566429684, -32324.48933416478, -26932.17568781086, -9215.937163345476, -21626.251533776707, -33902.56719619837, 0.032, 0.9440000000000001, -0.23600000000000002, 192.0, 0.0, 0.0, 0.0, 0.0, 0.0, 0.0, 0.0, 0.0, 0.0, 1.6689768310961487E9, 0.0, 2022-11-20 15:40:31.096
50.0, -19067.803808188895, 24360.696895205605, -34651.350635451156, -33561.90425895504, -26956.561441011603, -27432.363025231723, -23380.10351420683, -2097.0183130524533, -25651.5548409885, -2819.2255281478797, -27539.36082593928, -32392.952727431388, -26996.90633975343, -9290.524934592835, -21697.486543355768, -33978.22785117958, 0.032, 0.9440000000000001, -0.23600000000000002, 192.0, 0.0, 0.0, 0.0, 0.0, 0.0, 0.0, 0.0, 0.0, 0.0, 1.6689768310961535E9, 0.0, 2022-11-20 15:40:31.096
52.0, -19123.54905886043, 24749.52784175013, -34694.15422608307, -33625.07028878573, -27002.226054933795, -27483.704982245563, -23423.845878105865, -2135.150389093207, -25572.34025863889, -2749.35397498059, -27464.840109925284, -32319.68370910689, -26922.698548161814, -9218.798186635755, -21627.95026635531, -33910.792638157924, 0.032, 0.9440000000000001, -0.23600000000000002, 192.0, 0.0, 0.0, 0.0, 0.0, 0.0, 0.0, 0.0, 0.0, 0.0, 1.6689768310961585E9, 0.0, 2022-11-20 15:40:31.096
54.0, -19096.235227136043, 24350.750368922996, -34670.8860601051, -33585.61945982212, -26975.538072054158, -27450.177365562602, -23394.900369036244, -2105.1096445452745, -25667.46928304068, -2840.7502580583405, -27558.046884303916, -32415.215064908873, -27007.791639303166, -9309.680379591035, -21717.29018894317, -33995.617508365816, 0.032, 0.9440000000000001, -0.23600000000000002, 192.0, 0.0, 0.0, 0.0, 0.0, 0.0, 0.0, 0.0, 0.0, 0.0, 1.6689768310961635E9, 0.0, 2022-11-20 15:40:31.096
56.0, -19109.646273809227, 24746.80092892658, -34676.317534007736, -33608.865274055635, -26985.43989484786, -27461.5320517459, -23405.271578463507, -2112.575127193347, -25584.63371808931, -2754.159600038481, -27470.76332220594, -32328.557351655647, -26916.909446347887, -9219.49109071387, -21637.449757748815, -33912.49137073653, 0.034, 0.9440000000000001, -0.23, 192.0, 0.5, 8.0, 14.5, 64.0, 124.0, 104.0, 0.0, 0.0, 0.0, 1.6689768310961688E9, 0.0, 2022-11-20 15:40:31.096
58.0, -19096.950482958615, 24377.706572736093, -34673.45651071746, -33591.60972733614, -26978.6673162779, -27450.467938240523, -23398.074316748898, -2105.6237346677467, -25661.50136727111, -2827.2945078962457, -27551.520174922967, -32410.118867173063, -26997.040450220164, -9299.063300974763, -21715.166773219917, -33992.53296763098, 0.034, 0.9440000000000001, -0.23, 192.0, 0.0, 0.0, 0.0, 0.0, 0.0, 0.0, 0.0, 0.0, 0.0, 1.6689768310961735E9, 0.0, 2022-11-20 15:40:31.096
60.0, -19090.513180555485, 24732.31699851954, -34662.593562912174, -33589.910994757534, -26972.43117957487, -27448.76920566192, -23396.129714981285, -2102.896821844199, -25569.590994070888, -2740.5026841762883, -27450.66910394062, -32315.39217417147, -26901.240873484716, -9201.989674805365, -21629.13490881144, -33906.746972411514, 0.034, 0.9440000000000001, -0.23, 192.0, 0.0, 0.0, 0.0, 0.0, 0.0, 0.0, 0.0, 0.0, 0.0, 1.6689768310961785E9, 0.0, 2022-11-20 15:40:31.096
62.0, -19105.332387129354, 24411.234189419054, -34680.02792358732, -33588.659297068036, -26990.491389094757, -27468.326982060313, -23414.10051752335, -2123.3486680208052, -25660.719056215177, -2821.9077374825165, -27548.770910354964, -32405.804980493187, -27003.05306947864, -9302.7960422988, -21721.20174422285, -33994.745790332054, 0.034, 0.9440000000000001, -0.23, 192.0, 0.0, 0.0, 0.0, 0.0, 0.0, 0.0, 0.0, 0.0, 0.0, 1.6689768310961835E9, 0.0, 2022-11-20 15:40:31.096
64.0, -19082.24303510702, 24702.052736527057, -34640.644149857064, -33563.53593630027, -26959.57892651307, -27441.5272404584, -23383.545682852946, -2090.7598246049674, -25577.101180207872, -2744.3024807336906, -27452.278429541402, -32319.81781957362, -26908.7510596217, -9211.802090621244, -21635.616914703478, -33904.17652179915, 0.034, 0.9440000000000001, -0.23, 192.0, 0.0, 0.0, 0.0, 0.0, 0.0, 0.0, 0.0, 0.0, 0.0, 1.6689768310961895E9, 0.0, 2022-11-20 15:40:31.096
66.0, -19110.11566044279, 24451.06499803841, -34670.997818827374, -33586.04414296677, -26983.76351401371, -27464.281316313904, -23406.769145342012, -2114.005638838487, -25643.84348915142, -2802.3946645730334, -27528.184953711625, -32391.49986404179, -26988.569139071602, -9281.897161233088, -21698.648834067444, -33963.14042367225, 0.032, 0.9380000000000001, -0.226, 192.0, 0.5, 0.0, 14.5, 40.0, 124.0, 120.0, 0.0, 0.0, 0.0, 1.6689768310961945E9, 0.0, 2022-11-20 15:40:31.096
68.0, -19089.06031716589, 24644.228773621177, -34643.23695221388, -33573.147186416056, -26948.201888585318, -27435.67108341111, -23377.890691505756, -2083.808432079367, -25583.00204074407, -2757.9146931069727, -27456.212336565535, -32331.574837157114, -26910.628606155948, -9211.936201087976, -21632.510022224193, -33897.78392288493, 0.032, 0.9380000000000001, -0.226, 192.0, 0.0, 0.0, 0.0, 0.0, 0.0, 0.0, 0.0, 0.0, 0.0, 1.6689768310962007E9, 0.0, 2022-11-20 15:40:31.096
70.0, -19149.544137661953, 24467.98526859108, -34711.454476291474, -33629.58534116571, -27003.34364215656, -27486.54365379139, -23427.578619429903, -2138.413743783682, -25661.389608548834, -2820.4325223484666, -27546.803956842898, -32412.46580034087, -26996.81693277561, -9294.54824859479, -21704.639101581466, -33975.79151103395, 0.032, 0.9380000000000001, -0.226, 192.0, 0.0, 0.0, 0.0, 0.0, 0.0, 0.0, 0.0, 0.0, 0.0, 1.6689768310962057E9, 0.0, 2022-11-20 15:40:31.096
72.0, -19075.939843170625, 24593.222092774166, -34642.00760626884, -33565.74875900135, -26936.869554146477, -27417.499115168946, -23357.349438351328, -2070.2856266839062, -25606.471372422144, -2778.0089113722934, -27479.704019988065, -32354.10539556806, -26926.565399952582, -9225.369599505615, -21648.37976078746, -33924.27074006447, 0.032, 0.9380000000000001, -0.226, 192.0, 0.0, 0.0, 0.0, 0.0, 0.0, 0.0, 0.0, 0.0, 0.0, 1.6689768310962107E9, 0.0, 2022-11-20 15:40:31.096
74.0, -19129.49462288554, 24526.435080341707, -34697.95402264047, -33621.717527117435, -27000.214397932818, -27474.898394930173, -23414.189924501174, -2125.8744151442547, -25640.468375738667, -2796.002065658816, -27528.520229878453, -32390.538739030213, -26984.165845413907, -9274.141105907096, -21689.75283977423, -33969.26480165301, 0.032, 0.9380000000000001, -0.226, 192.0, 0.0, 0.0, 0.0, 0.0, 0.0, 0.0, 0.0, 0.0, 0.0, 1.6689768310962155E9, 0.0, 2022-11-20 15:40:31.096
76.0, -19055.376238271743, 24557.883984790325, -34624.41678338251, -33548.962598915416, -26929.96286510979, -27408.536065642365, -23347.738188235544, -2059.4003271341717, -25594.021450760538, -2767.0118531002827, -27463.38724653569, -32342.01310181774, -26924.911370862887, -9224.363771005126, -21645.47403400827, -33926.86354242129, 0.032, 0.9380000000000001, -0.23600000000000002, 192.0, 0.5, 0.0, 14.5, 40.0, 124.0, 80.0, 0.0, 0.0, 0.0, 1.6689768310962207E9, 0.0, 2022-11-20 15:40:31.096
78.0, -19133.942620032147, 24582.783828113537, -34698.311650551754, -33619.79527709428, -27006.62934859149, -27487.683592758607, -23423.465898450126, -2135.955051893598, -25621.804669118486, -2784.7591381977963, -27507.174313923635, -32372.36677078805, -26971.7159237523, -9265.26746335834, -21675.693592511845, -33959.944124215144, 0.032, 0.9380000000000001, -0.23600000000000002, 192.0, 0.0, 0.0, 0.0, 0.0, 0.0, 0.0, 0.0, 0.0, 0.0, 1.6689768310962255E9, 0.0, 2022-11-20 15:40:31.096
80.0, -19061.00887787448, 24503.52454227502, -34623.14273394856, -33539.35134879963, -26934.321455278572, -27417.5214669134, -23352.454406315614, -2069.50331562797, -25598.335337440414, -2773.471507247866, -27467.47761577101, -32340.40377621696, -26926.073661574563, -9229.817596652221, -21649.586754988046, -33937.078289637364, 0.032, 0.9380000000000001, -0.23600000000000002, 192.0, 0.0, 0.0, 0.0, 0.0, 0.0, 0.0, 0.0, 0.0, 0.0, 1.6689768310962305E9, 0.0, 2022-11-20 15:40:31.096
82.0, -19145.87845157128, 24615.97616862967, -34698.4904645074, -33617.94008230449, -27008.953930014843, -27491.662203271655, -23426.05870080694, -2139.419572284171, -25624.196305775204, -2781.942818396428, -27511.06351745886, -32369.75161668678, -26964.09397889304, -9262.7864197238, -21673.34665934404, -33958.84888873684, 0.032, 0.9380000000000001, -0.23600000000000002, 192.0, 0.0, 0.0, 0.0, 0.0, 0.0, 0.0, 0.0, 0.0, 0.0, 1.6689768310962355E9, 0.0, 2022-11-20 15:40:31.096
84.0, -19082.06422115138, 24433.049492007434, -34631.23406544138, -33548.046177392745, -26943.128042593962, -27423.690548383063, -23361.95389770912, -2077.572295376336, -25626.878515109842, -2798.348998826623, -27497.317194618845, -32372.45617776587, -26946.48080426226, -9249.800056195267, -21666.507025540715, -33951.74103400004, 0.032, 0.9380000000000001, -0.23600000000000002, 192.0, 0.0, 0.0, 0.0, 0.0, 0.0, 0.0, 0.0, 0.0, 0.0, 1.6689768310962403E9, 0.0, 2022-11-20 15:40:31.096
86.0, -19150.907594073724, 24656.07519818249, -34691.963755126446, -33616.64368112608, -27001.376688644494, -27480.553386277366, -23417.96736931412, -2131.7976274249113, -25627.325549998946, -2787.9554376549054, -27508.850694757784, -32377.641782479503, -26961.456473047314, -9260.327727833715, -21664.67418249538, -33950.60109503283, 0.033, 0.9390000000000001, -0.233, 192.0, 0.5, 8.0, 14.5, 48.0, 124.0, 104.0, 0.0, 0.0, 0.0, 1.6689768310962453E9, 0.0, 2022-11-20 15:40:31.096
88.0, -19083.11475314078, 24391.184674642645, -34633.603350353646, -33548.046177392745, -26937.71892043578, -27411.95588254403, -23351.515633048493, -2065.189428948096, -25637.093262325918, -2805.79212973024, -27504.15682842217, -32382.000372648286, -26954.6615427329, -9249.777704450811, -21665.434141806858, -33944.18614437415, 0.033, 0.9390000000000001, -0.233, 192.0, 0.0, 0.0, 0.0, 0.0, 0.0, 0.0, 0.0, 0.0, 0.0, 1.6689768310962503E9, 0.0, 2022-11-20 15:40:31.096
90.0, -19161.099989545346, 24677.577576348493, -34708.258176834366, -33640.381233737615, -27016.128839984995, -27493.003307938972, -23426.997474074065, -2137.832598427844, -25619.88241909533, -2777.807745672196, -27498.948871964083, -32367.561145730157, -26955.510909022203, -9244.59209973718, -21655.018228890687, -33934.53019076946, 0.033, 0.9390000000000001, -0.233, 192.0, 0.0, 0.0, 0.0, 0.0, 0.0, 0.0, 0.0, 0.0, 0.0, 1.6689768310962553E9, 0.0, 2022-11-20 15:40:31.096
92.0, -19084.43350606364, 24368.564709253875, -34641.40410916854, -33562.59716303315, -26950.504118264213, -27425.657501895133, -23360.09870291933, -2073.5936848632914, -25656.896907913317, -2823.8076357612176, -27523.558142609378, -32400.820541479654, -26982.712982024314, -9278.007957697864, -21691.920958986397, -33974.67392381119, 0.033, 0.9390000000000001, -0.233, 192.0, 0.0, 0.0, 0.0, 0.0, 0.0, 0.0, 0.0, 0.0, 0.0, 1.6689768310962603E9, 0.0, 2022-11-20 15:40:31.096
94.0, -19161.59172792336, 24705.047870284066, -34710.87333093564, -33646.01387334036, -27026.857677323544, -27505.654395300677, -23437.234573034595, -2149.0308223999527, -25615.032090548528, -2775.103184593104, -27488.309441603356, -32358.419282247938, -26953.18632759885, -9247.453123027459, -21655.7111329688, -33939.22405710507, 0.033, 0.9390000000000001, -0.233, 192.0, 0.0, 0.0, 0.0, 0.0, 0.0, 0.0, 0.0, 0.0, 0.0, 1.6689768310962653E9, 0.0, 2022-11-20 15:40:31.096
96.0, -19065.032191876435, 24366.731866208538, -34625.08733571617, -33546.32509306969, -26941.026978615166, -27414.99571978995, -23351.493281304036, -2066.3964231486825, -25654.192346834225, -2819.024362447782, -27517.366709395257, -32397.55718678918, -26985.328136125583, -9278.589103053702, -21693.932615987374, -33977.423188379194, 0.0305, 0.9425000000000001, -0.2325, 192.0, 0.0, 112.0, 14.5, 72.0, 124.0, 96.0, 0.0, 0.0, 0.0, 1.6689768310962703E9, 0.0, 2022-11-20 15:40:31.096
98.0, -19118.050529724424, 24748.56671673855, -34672.96477233944, -33604.90901528705, -26986.691592537358, -27462.001438379462, -23400.73417433908, -2113.3350865048274, -25582.711468066154, -2743.2966522332017, -27452.524298730412, -32329.20555224485, -26924.41963248487, -9213.009084821831, -21631.034807090142, -33915.71002193809, 0.0305, 0.9425000000000001, -0.2325, 192.0, 0.0, 0.0, 0.0, 0.0, 0.0, 0.0, 0.0, 0.0, 0.0, 1.668976831096275E9, 0.0, 2022-11-20 15:40:31.096
100.0, -19070.06133437888, 24362.596793484307, -34632.35165266415, -33545.69924422494, -26935.61785645698, -27410.07833600978, -23351.940316193144, -2067.6034173492694, -25635.01455009157, -2794.6833127359528, -27505.430877856124, -32384.056733138175, -26971.648868518936, -9260.238320855895, -21683.270833882194, -33965.82263300689, 0.0305, 0.9425000000000001, -0.2325, 192.0, 0.0, 0.0, 0.0, 0.0, 0.0, 0.0, 0.0, 0.0, 0.0, 1.6689768310962815E9, 0.0, 2022-11-20 15:40:31.096
102.0, -19127.393558906744, 24734.99920785418, -34677.39041774159, -33603.00911700835, -26980.34369711205, -27459.542746489376, -23402.119982495307, -2116.1514063061963, -25574.57543308442, -2731.9643177943612, -27449.43975799558, -32322.745898097266, -26910.539199178125, -9195.552372402237, -21620.060100562587, -33907.19400730062, 0.0305, 0.9425000000000001, -0.2325, 192.0, 0.0, 0.0, 0.0, 0.0, 0.0, 0.0, 0.0, 0.0, 0.0, 1.6689768310962868E9, 0.0, 2022-11-20 15:40:31.096
104.0, -19104.97475921807, 24342.882554874726, -34656.938571564984, -33563.133604900075, -26958.617801501492, -27430.463126953022, -23377.354249638825, -2094.492565929004, -25667.782207463053, -2824.1652636725025, -27542.333607951834, -32412.242282896317, -26997.800409531643, -9284.735832778912, -21701.375746890993, -33987.995563506556, 0.0305, 0.9425000000000001, -0.2325, 192.0, 0.0, 0.0, 0.0, 0.0, 0.0, 0.0, 0.0, 0.0, 0.0, 1.668976831576631E9, 0.0, 2022-11-20 15:40:31.576
106.0, -19119.25752392501, 24726.349082749974, -34662.14652802307, -33580.50091034185, -26971.87238596349, -27444.410615493136, -23390.094743978352, -2105.288458500917, -25587.986479757605, -2741.910844076973, -27455.787653420884, -32323.461153919838, -26915.32247249156, -9197.564029403215, -21619.546010440114, -33901.56136769788, 0.03325, 0.94425, -0.23325, 192.0, 0.5, 16.0, 14.5, 72.0, 124.0, 88.0, 0.0, 0.0, 0.0, 1.66897683157673E9, 0.0, 2022-11-20 15:40:31.576
108.0, -19126.03010249497, 24356.09243584781, -34675.71403690744, -33583.94307898797, -26981.371877356993, -27457.15110983266, -23400.935340039177, -2121.158197064185, -25672.587832520945, -2820.611336304109, -27542.981808541037, -32409.023631694752, -27008.886874781478, -9289.429699114526, -21703.16388644742, -33983.636973337765, 0.03325, 0.94425, -0.23325, 192.0, 0.0, 0.0, 0.0, 0.0, 0.0, 0.0, 0.0, 0.0, 0.0, 1.668976831576736E9, 0.0, 2022-11-20 15:40:31.576
110.0, -19121.26918092599, 24684.439561896274, -34666.39335946958, -33599.298727428766, -26975.76158949871, -27456.99464762147, -23395.101534736343, -2114.1397493052186, -25599.408221174268, -2754.383117483034, -27466.963525648538, -32341.186087272894, -26930.879286632455, -9222.039189581776, -21633.202926302307, -33921.11914409627, 0.03325, 0.94425, -0.23325, 192.0, 0.0, 0.0, 0.0, 0.0, 0.0, 0.0, 0.0, 0.0, 0.0, 1.668976831576742E9, 0.0, 2022-11-20 15:40:31.576
112.0, -19119.771614047484, 24386.73667749604, -34672.09305430568, -33600.37161116262, -26983.24942389124, -27463.789577935884, -23401.71765109511, -2124.9132901326766, -25671.78316972055, -2836.1457987005474, -27551.654285389697, -32429.967216249373, -27016.35235742955, -9310.216821457961, -21707.67893882739, -34000.04315376796, 0.03325, 0.94425, -0.23325, 192.0, 0.0, 0.0, 0.0, 0.0, 0.0, 0.0, 0.0, 0.0, 0.0, 1.6689768315767477E9, 0.0, 2022-11-20 15:40:31.576
114.0, -19082.01951766247, 24678.426942637798, -34632.28459743078, -33570.97906720389, -26947.57603974057, -27429.949036830552, -23366.62541230028, -2086.065958269353, -25566.81937775843, -2737.574605652643, -27434.75466188844, -32319.81781957362, -26900.57032115106, -9196.759366602822, -21605.062080033076, -33898.789751385426, 0.03325, 0.94425, -0.23325, 192.0, 0.0, 0.0, 0.0, 0.0, 0.0, 0.0, 0.0, 0.0, 0.0, 1.6689768315767536E9, 0.0, 2022-11-20 15:40:31.576
116.0, -19132.199183964633, 24422.097137224333, -34692.41079001556, -33615.861370070146, -27002.49427586726, -27480.709848488554, -23418.481459436593, -2137.474970516559, -25652.784186933543, -2816.096283924137, -27536.388043926723, -32409.045983439206, -27004.617691590513, -9295.777594539833, -21700.593435835057, -33987.81674955091, 0.035625000000000004, 0.939125, -0.23362500000000003, 192.0, 0.5, 24.0, 14.5, 24.0, 124.0, 88.0, 0.0, 0.0, 0.0, 1.668976831576759E9, 0.0, 2022-11-20 15:40:31.576
118.0, -19075.53751177043, 24625.58741874545, -34636.33026317719, -33564.83233747868, -26943.418615271883, -27424.226990249994, -23360.031647685963, -2080.545077388892, -25587.20416870167, -2761.6250826865535, -27461.979086635005, -32340.582590172602, -26925.67133017437, -9222.44152098197, -21642.791824673634, -33928.271702321974, 0.035625000000000004, 0.939125, -0.23362500000000003, 192.0, 0.0, 0.0, 0.0, 0.0, 0.0, 0.0, 0.0, 0.0, 0.0, 1.668976831576765E9, 0.0, 2022-11-20 15:40:31.576
