%OpenBCI Raw EEG Data
%Number of channels = 16
%Sample Rate = 125 Hz
%Board = OpenBCI_GUI$BoardCytonSerialDaisy
Sample Index, EXG Channel 0, EXG Channel 1, EXG Channel 2, EXG Channel 3, EXG Channel 4, EXG Channel 5, EXG Channel 6, EXG Channel 7, EXG Channel 8, EXG Channel 9, EXG Channel 10, EXG Channel 11, EXG Channel 12, EXG Channel 13, EXG Channel 14, EXG Channel 15, Accel Channel 0, Accel Channel 1, Accel Channel 2, Other, Other, Other, Other, Other, Other, Other, Analog Channel 0, Analog Channel 1, Analog Channel 2, Timestamp, Other, Timestamp (Formatted)
44.0, -30200.492465554773, -4730.009106398715, -49825.52526301447, -49851.47563832708, -38102.23646190602, -40903.02180087827, -37977.84900401223, -20388.27781537507, -39101.87352918071, -13018.482985315679, -42714.54128200308, -46398.57815487125, -39665.40571038792, -25523.00995862603, -37278.529975239035, -47969.88343833488, 0.0, 0.0, 0.0, 192.0, 0.0, 0.0, 0.0, 0.0, 0.0, 0.0, 0.0, 0.0, 0.0, 1.6689762994509375E9, 0.0, 2022-11-20 15:31:39.450
46.0, -30238.669245084435, -4838.169197817945, -49851.43093483817, -49860.818667509404, -38122.129514471235, -40918.66802199698, -37997.764408321906, -20405.265141161104, -39147.20286693607, -13066.226311472215, -42770.93473326382, -46450.56831247429, -39720.748629659254, -25576.96706974114, -37324.03812695004, -48016.64328773538, 0.012, 0.9560000000000001, -0.106, 192.0, 0.0, 48.0, 14.5, 112.0, 126.0, 88.0, 0.0, 0.0, 0.0, 1.6689762994509437E9, 0.0, 2022-11-20 15:31:39.450
48.0, -30181.73935195677, -4721.828367928072, -49804.268754037475, -49824.34062055834, -38081.181118629116, -40877.31729475466, -37954.93846594554, -20367.334230820445, -39081.578145215295, -12999.148726361838, -42688.121520056906, -46372.53837258081, -39641.623454287466, -25497.730135647078, -37246.63403590131, -47937.87574027488, 0.012, 0.9560000000000001, -0.106, 192.0, 0.0, 0.0, 0.0, 0.0, 0.0, 0.0, 0.0, 0.0, 0.0, 1.6689762994509485E9, 0.0, 2022-11-20 15:31:39.450
50.0, -30251.23092546832, -4835.1517123164795, -49858.29292038595, -49874.54263860496, -38132.18779947612, -40927.92164420148, -38009.07439101629, -20417.960932011716, -39156.63530309621, -13060.101933491462, -42770.01831174115, -46446.43323975006, -39722.53676921568, -25577.92819475272, -37315.07507742346, -48011.25651732165, 0.012, 0.9560000000000001, -0.106, 192.0, 0.0, 0.0, 0.0, 0.0, 0.0, 0.0, 0.0, 0.0, 0.0, 1.668976299450953E9, 0.0, 2022-11-20 15:31:39.450
52.0, -30176.93372689888, -4738.458065802821, -49789.158974785685, -49819.5573472449, -38063.61264748724, -40859.860582335066, -37941.81799195027, -20351.732713190642, -39081.80166265985, -12999.036967639562, -42688.9261828573, -46375.6452650601, -39636.594311785026, -25495.00322282353, -37236.75456485207, -47933.830074528465, 0.012, 0.9560000000000001, -0.106, 192.0, 0.0, 0.0, 0.0, 0.0, 0.0, 0.0, 0.0, 0.0, 0.0, 1.6689762994509578E9, 0.0, 2022-11-20 15:31:39.450
54.0, -30265.536041919717, -4840.605537963574, -49874.0732519714, -49896.38029293779, -38142.69311937012, -40933.0625454262, -38016.986908553474, -20424.197068714748, -39157.149393218686, -13062.91825329283, -42779.11547173446, -46459.15138234513, -39719.631042436486, -25575.670668562732, -37310.560025043495, -48005.80269167456, 0.012, 0.9560000000000001, -0.106, 192.0, 0.0, 0.0, 0.0, 0.0, 0.0, 0.0, 0.0, 0.0, 0.0, 1.6689762994509628E9, 0.0, 2022-11-20 15:31:39.450
56.0, -30158.940572612355, -4733.630089000474, -49778.85482059179, -49794.255172521494, -38040.65740593164, -40829.305747664665, -37909.78794214582, -20318.92035233025, -39100.39831404666, -13014.347912591447, -42709.95917438975, -46392.38672165712, -39646.8090590011, -25503.7204031611, -37248.51158243556, -47936.13230420736, 0.014, 0.9580000000000001, -0.10400000000000001, 192.0, 0.0, 56.0, 14.5, 120.0, 126.0, 96.0, 0.0, 0.0, 0.0, 1.6689762994509676E9, 0.0, 2022-11-20 15:31:39.450
58.0, -30256.818861582145, -4814.09636903958, -49878.96828400711, -49889.80888006793, -38138.580398390346, -40924.300661599715, -38005.00637352543, -20412.842382531453, -39125.208750392056, -13026.507261575134, -42747.0407184411, -46417.89006208063, -39687.73510309876, -25536.95744716614, -37280.72044619566, -47964.34020570996, 0.014, 0.9580000000000001, -0.10400000000000001, 192.0, 0.0, 0.0, 0.0, 0.0, 0.0, 0.0, 0.0, 0.0, 0.0, 1.6689762994509723E9, 0.0, 2022-11-20 15:31:39.450
60.0, -30162.986238358768, -4750.058621175125, -49784.91214333918, -49798.83728013483, -38047.07235659032, -40836.05597449016, -37917.78986666082, -20325.268247755557, -39102.09704662526, -13007.552982277035, -42715.41300003684, -46392.02909374584, -39660.778899285666, -25508.973063108097, -37267.488213478115, -47946.39175491235, 0.014, 0.9580000000000001, -0.10400000000000001, 192.0, 0.0, 0.0, 0.0, 0.0, 0.0, 0.0, 0.0, 0.0, 0.0, 1.668976299450977E9, 0.0, 2022-11-20 15:31:39.450
62.0, -30261.60213489558, -4810.43068294891, -49882.11987997531, -49908.76315936603, -38146.85054383881, -40945.423060109984, -38018.93151032108, -20430.522612395598, -39127.17570390412, -13028.138938920372, -42748.113602174955, -46423.12037028318, -39692.11604501201, -25543.126528635807, -37288.92353641076, -47979.60644717293, 0.014, 0.9580000000000001, -0.10400000000000001, 192.0, 0.0, 0.0, 0.0, 0.0, 0.0, 0.0, 0.0, 0.0, 0.0, 1.668976299450982E9, 0.0, 2022-11-20 15:31:39.450
64.0, -30181.582889745583, -4790.068243750125, -49790.500079453006, -49814.52820474246, -38055.07428110531, -40856.284303222215, -37930.77623018935, -20344.200175309204, -39127.82390449332, -13043.181662938794, -42739.59758753748, -46427.38955347414, -39685.61168737551, -25544.7805577255, -37286.91187940978, -47981.55104894055, 0.014, 0.9580000000000001, -0.10400000000000001, 192.0, 0.0, 0.0, 0.0, 0.0, 0.0, 0.0, 0.0, 0.0, 0.0, 1.6689762994509866E9, 0.0, 2022-11-20 15:31:39.450
66.0, -30257.735283104812, -4797.041988020181, -49875.03437698298, -49902.0799877739, -38143.318968214866, -40944.48428684286, -38015.77991435288, -20430.164984484316, -39116.3351078433, -13029.7259127767, -42737.94355844779, -46422.91920458308, -39680.761358828706, -25543.528860036, -37269.90220187929, -47968.989368556664, 0.014, 0.96, -0.10200000000000001, 192.0, 0.0, 56.0, 15.0, 0.0, 126.0, 104.0, 0.0, 0.0, 0.0, 1.6689762994509914E9, 0.0, 2022-11-20 15:31:39.450
68.0, -30165.132005826476, -4780.904028523449, -49774.00449204499, -49785.09095729482, -38044.23368504449, -40834.960739011854, -37916.09113408222, -20325.78233787803, -39131.623701050725, -13039.828901270497, -42741.542189305095, -46428.93182384155, -39683.73414084127, -25543.864136202832, -37279.53580373953, -47976.45485120474, 0.014, 0.96, -0.10200000000000001, 192.0, 0.0, 0.0, 0.0, 0.0, 0.0, 0.0, 0.0, 0.0, 0.0, 1.668976299450996E9, 0.0, 2022-11-20 15:31:39.450
70.0, -30239.540963118194, -4764.3637376265215, -49859.32110063089, -49883.617446853816, -38134.244159966016, -40932.19082739244, -38005.36400143671, -20419.302036679037, -39094.229232576996, -12989.984511135162, -42710.65207846786, -46387.022302987854, -39656.576771328066, -25513.063432343417, -37242.968349810646, -47940.93792926525, 0.014, 0.96, -0.10200000000000001, 192.0, 0.0, 0.0, 0.0, 0.0, 0.0, 0.0, 0.0, 0.0, 0.0, 1.6689762994510024E9, 0.0, 2022-11-20 15:31:39.451
72.0, -30169.132968083977, -4791.074072250613, -49777.692529880114, -49786.74498638451, -38045.239513544984, -40845.48841065031, -37921.41084926258, -20333.851317626395, -39133.992985962985, -13043.047552472062, -42743.08445967251, -46421.44398944903, -39693.03246653467, -25547.798043226965, -37286.26367882057, -47984.63558967538, 0.014, 0.96, -0.10200000000000001, 192.0, 0.0, 0.0, 0.0, 0.0, 0.0, 0.0, 0.0, 0.0, 0.0, 1.6689762994510071E9, 0.0, 2022-11-20 15:31:39.451
74.0, -30230.64496882498, -4747.376411840488, -49855.05191743993, -49883.59509510936, -38126.06342149537, -40938.15874316201, -38003.4193996691, -20423.66062684782, -39073.84444163376, -12979.47919124117, -42692.21188929223, -46361.65307303108, -39640.30470136461, -25497.90894960272, -37230.07139325993, -47934.54533035104, 0.014, 0.96, -0.10200000000000001, 192.0, 0.0, 0.0, 0.0, 0.0, 0.0, 0.0, 0.0, 0.0, 0.0, 1.668976299451012E9, 0.0, 2022-11-20 15:31:39.451
76.0, -30206.9297679579, -4831.083694825613, -49816.852786165815, -49834.465960796595, -38084.01979017494, -40891.46594899487, -37963.25331488292, -20377.437219314244, -39151.5391053604, -13065.533407394101, -42769.772442552145, -46444.488637982446, -39714.601899934045, -25578.464636619647, -37311.72231575517, -48018.45377903626, 0.024, 0.9540000000000001, -0.10400000000000001, 192.0, 0.0, 96.0, 14.5, 104.0, 126.0, 96.0, 0.0, 0.0, 0.0, 1.66897629945102E9, 0.0, 2022-11-20 15:31:39.451
78.0, -30232.768384548235, -4749.879807219482, -49862.80797276592, -49896.179127237694, -38132.59013087632, -40938.15874316201, -38007.822693326794, -20424.28647569257, -39101.78412220289, -13008.33529333297, -42717.84934018247, -46393.70547457999, -39664.04225397614, -25526.51918250551, -37264.02369308755, -47968.83290634548, 0.024, 0.9540000000000001, -0.10400000000000001, 192.0, 0.0, 0.0, 0.0, 0.0, 0.0, 0.0, 0.0, 0.0, 0.0, 1.6689762994510248E9, 0.0, 2022-11-20 15:31:39.451
80.0, -30199.30782309864, -4827.797988390683, -49814.66231520919, -49825.8605391813, -38076.286086593405, -40873.137518541516, -37950.89280019913, -20363.065047629483, -39149.661558826156, -13066.315718450036, -42764.58683783851, -46445.13683857165, -39713.01492607772, -25570.619174315834, -37317.265548380085, -48018.3867238029, 0.024, 0.9540000000000001, -0.10400000000000001, 192.0, 0.0, 0.0, 0.0, 0.0, 0.0, 0.0, 0.0, 0.0, 0.0, 1.6689762994510293E9, 0.0, 2022-11-20 15:31:39.451
82.0, -30218.999709963766, -4734.79237971215, -49845.06068766841, -49871.63691182577, -38112.78648528892, -40916.075219640166, -37982.27464941438, -20399.408984113812, -39070.8716596212, -12977.065202839996, -42689.08264506848, -46362.636549787116, -39632.682756505346, -25489.214121009605, -37235.23464622911, -47933.695964061735, 0.024, 0.9540000000000001, -0.10400000000000001, 192.0, 0.0, 0.0, 0.0, 0.0, 0.0, 0.0, 0.0, 0.0, 0.0, 1.668976299451034E9, 0.0, 2022-11-20 15:31:39.451
84.0, -30216.69748028487, -4846.327584544133, -49818.55151874442, -49826.95577465961, -38080.21999361754, -40880.51359421177, -37947.96472167548, -20360.44989352821, -39168.10174800178, -13072.909483064352, -42786.67036136036, -46458.07849861128, -39727.29769078466, -25583.560834355456, -37318.874873980865, -48017.380895302405, 0.024, 0.9540000000000001, -0.10400000000000001, 192.0, 0.0, 0.0, 0.0, 0.0, 0.0, 0.0, 0.0, 0.0, 0.0, 1.6689762994510388E9, 0.0, 2022-11-20 15:31:39.451
86.0, -30199.620747521014, -4724.421170284888, -49823.91593741369, -49851.63210053827, -38093.16165365716, -40899.26670780977, -37960.39229159264, -20377.213701869692, -39070.96106659902, -12983.726022687677, -42689.529679957595, -46363.55297130978, -39628.547683781115, -25486.978946564075, -37218.42613439872, -47917.22272839818, 0.023, 0.9560000000000001, -0.10500000000000001, 192.0, 0.0, 88.0, 14.5, 120.0, 126.0, 88.0, 0.0, 0.0, 0.0, 1.6689762994510448E9, 0.0, 2022-11-20 15:31:39.451
88.0, -30198.190235875874, -4827.730933157317, -49811.33190528535, -49825.637021736744, -38075.637886004195, -40883.844004135615, -37948.88114319815, -20362.93093716275, -39149.97448324853, -13063.29823294857, -42769.88420127442, -46447.68493743955, -39710.17625453189, -25572.72023829463, -37303.362763328885, -48003.254592806654, 0.023, 0.9560000000000001, -0.10500000000000001, 192.0, 0.0, 0.0, 0.0, 0.0, 0.0, 0.0, 0.0, 0.0, 0.0, 1.6689762994510496E9, 0.0, 2022-11-20 15:31:39.451
90.0, -30155.699569666336, -4693.173431536368, -49789.09191955232, -49823.73712345805, -38054.20256307156, -40870.63412316253, -37929.99391913342, -20348.4023032668, -39034.2147987145, -12955.696935140722, -42654.504496396126, -46338.586072753205, -39594.26010778667, -25462.99552476353, -37199.181282422694, -47900.86125145689, 0.023, 0.9560000000000001, -0.10500000000000001, 192.0, 0.0, 0.0, 0.0, 0.0, 0.0, 0.0, 0.0, 0.0, 0.0, 1.6689762994510543E9, 0.0, 2022-11-20 15:31:39.451
92.0, -30215.825762251112, -4835.2411192943, -49831.15790261721, -49856.3706703628, -38088.937173955106, -40906.37456254656, -37969.95883821951, -20386.55673105201, -39134.79764876338, -13050.021296742118, -42759.624750569434, -46442.99107110394, -39700.341486971556, -25569.613345815345, -37301.48521679464, -48008.17197658682, 0.023, 0.9560000000000001, -0.10500000000000001, 192.0, 0.0, 0.0, 0.0, 0.0, 0.0, 0.0, 0.0, 0.0, 0.0, 1.6689762994510593E9, 0.0, 2022-11-20 15:31:39.451
94.0, -30182.432256034885, -4732.333687822066, -49806.43687324964, -49845.70888825761, -38073.000380158475, -40890.77304491676, -37952.63623626664, -20372.497483789622, -39066.06603456331, -12985.134182588361, -42683.8746886104, -46370.19143941301, -39626.62543375795, -25494.578539678878, -37226.69627984718, -47938.05455423052, 0.023, 0.9560000000000001, -0.10500000000000001, 192.0, 0.0, 0.0, 0.0, 0.0, 0.0, 0.0, 0.0, 0.0, 0.0, 1.668976299451064E9, 0.0, 2022-11-20 15:31:39.451
96.0, -30234.75768980476, -4846.126418844035, -49843.339603345354, -49864.55140883344, -38103.2422904065, -40917.01399290729, -37985.02391398238, -20399.543094580546, -39155.540067617905, -13068.886169062396, -42779.003713012185, -46457.60911197771, -39720.63687093698, -25582.420895388233, -37306.40260057481, -48015.10101736797, 0.0205, 0.9570000000000001, -0.10550000000000001, 192.0, 0.0, 72.0, 14.5, 120.0, 126.0, 88.0, 0.0, 0.0, 0.0, 1.668976299451069E9, 0.0, 2022-11-20 15:31:39.451
98.0, -30178.140721099466, -4733.115998878003, -49798.34554175682, -49827.93925141564, -38057.28710380639, -40873.09281505261, -37941.03568089434, -20355.376047536858, -39070.40227298764, -12988.531647745569, -42690.53550845808, -46371.085509191216, -39631.4534105603, -25494.80205712343, -37223.03059375651, -47922.18481566725, 0.0205, 0.9570000000000001, -0.10550000000000001, 192.0, 0.0, 0.0, 0.0, 0.0, 0.0, 0.0, 0.0, 0.0, 0.0, 1.6689762994510741E9, 0.0, 2022-11-20 15:31:39.451
100.0, -30241.977303263822, -4833.609441949063, -49848.97224294809, -49874.028548482485, -38104.181063673626, -40921.57374877617, -37989.49426287344, -20403.65581556032, -39143.76069828996, -13055.519825878124, -42773.01344549817, -46450.74712642993, -39711.22678652129, -25574.463674362145, -37295.98668765863, -47994.872688635915, 0.0205, 0.9570000000000001, -0.10550000000000001, 192.0, 0.0, 0.0, 0.0, 0.0, 0.0, 0.0, 0.0, 0.0, 0.0, 1.6689762994510791E9, 0.0, 2022-11-20 15:31:39.451
102.0, -30156.101901066533, -4724.801149940628, -49771.79166934391, -49808.29206803943, -38032.34255699427, -40856.17254449994, -37918.52747422784, -20336.533526961033, -39070.71519741001, -12993.024348381085, -42689.84260437997, -46375.8464307602, -39626.84895120251, -25497.931301347173, -37222.069468744936, -47928.15273143682, 0.0205, 0.9570000000000001, -0.10550000000000001, 192.0, 0.0, 0.0, 0.0, 0.0, 0.0, 0.0, 0.0, 0.0, 0.0, 1.668976299451084E9, 0.0, 2022-11-20 15:31:39.451
104.0, -30228.54390484618, -4814.029313806214, -49845.574777790884, -49872.26276067052, -38104.91867124065, -40928.10045815712, -37994.1657774646, -20410.875429019383, -39117.1844741326, -13037.213747169228, -42747.71127077476, -46426.56253892929, -39683.220050718795, -25558.079845676406, -37276.47361474915, -47989.39651124436, 0.0205, 0.9570000000000001, -0.10550000000000001, 192.0, 0.0, 0.0, 0.0, 0.0, 0.0, 0.0, 0.0, 0.0, 0.0, 1.668976299451089E9, 0.0, 2022-11-20 15:31:39.451
106.0, -30153.30793300962, -4736.558167524119, -49775.50205892349, -49797.51852721197, -38033.46014421703, -40854.65262587698, -37922.39432601861, -20339.059274084484, -39067.451842719536, -12986.229418066672, -42690.26728752462, -46370.459660346474, -39624.054983145594, -25493.595062922846, -37234.54174215099, -47941.40731589882, 0.018250000000000002, 0.9585, -0.10775000000000001, 192.0, 0.0, 64.0, 15.0, 0.0, 126.0, 72.0, 0.0, 0.0, 0.0, 1.6689762994510937E9, 0.0, 2022-11-20 15:31:39.451
108.0, -30234.623579338026, -4802.5181654117305, -49857.62236805229, -49879.907057274235, -38118.285014424924, -40935.700051271924, -38003.73232409148, -20419.190277956757, -39122.92887245761, -13027.513090075623, -42747.86773298594, -46422.31570748278, -39682.19187047385, -25552.20133688466, -37284.16261484178, -47988.569496699514, 0.018250000000000002, 0.9585, -0.10775000000000001, 192.0, 0.0, 0.0, 0.0, 0.0, 0.0, 0.0, 0.0, 0.0, 0.0, 1.6689762994511003E9, 0.0, 2022-11-20 15:31:39.451
110.0, -30150.782185886168, -4749.142199652458, -49762.02395701694, -49786.58852417333, -38031.76141163843, -40840.41456465895, -37915.10765732618, -20328.375140234846, -39085.93673538408, -12999.327540317481, -42701.80078766356, -46384.4965558644, -39637.66719551888, -25510.984720109074, -37245.9411318232, -47943.79895255553, 0.018250000000000002, 0.9585, -0.10775000000000001, 192.0, 0.0, 0.0, 0.0, 0.0, 0.0, 0.0, 0.0, 0.0, 0.0, 1.6689762994511054E9, 0.0, 2022-11-20 15:31:39.451
112.0, -30230.80143103617, -4783.407423902443, -49843.87604521228, -49868.664129813216, -38115.558101601375, -40913.7059347279, -37993.56228036431, -20406.025100472583, -39096.91144191163, -13007.754147977132, -42728.68993624329, -46403.67435260706, -39663.61757083149, -25530.56484825192, -37252.8925243488, -47944.40244965583, 0.018250000000000002, 0.9585, -0.10775000000000001, 192.0, 0.0, 0.0, 0.0, 0.0, 0.0, 0.0, 0.0, 0.0, 0.0, 1.6689762994511101E9, 0.0, 2022-11-20 15:31:39.451
114.0, -30132.990197299743, -4749.499827563743, -49744.634299830715, -49757.59831161479, -38013.3212224628, -40803.020096185224, -37890.61014540317, -20297.485029397612, -39080.974648115, -12996.779441449577, -42704.058313853544, -46380.65205581809, -39638.58361704154, -25496.23256876857, -37232.038346772, -47912.77473125157, 0.018250000000000002, 0.9585, -0.10775000000000001, 192.0, 0.0, 0.0, 0.0, 0.0, 0.0, 0.0, 0.0, 0.0, 0.0, 1.668976299451115E9, 0.0, 2022-11-20 15:31:39.451
116.0, -30227.202800178864, -4764.453144604343, -49856.72829827408, -49879.95176076314, -38126.21988370656, -40920.81378946469, -38000.60307986773, -20410.361338896913, -39080.61702020372, -12982.876656398375, -42712.35081104646, -46379.13213719513, -39651.16764916988, -25501.686394415665, -37233.13358225031, -47919.52495807707, 0.017125, 0.96225, -0.106875, 192.0, 0.0, 64.0, 15.0, 24.0, 126.0, 88.0, 0.0, 0.0, 0.0, 1.66897629945112E9, 0.0, 2022-11-20 15:31:39.451
118.0, -30126.597598385528, -4740.894405948449, -49746.35538415377, -49772.61868388876, -38015.869321330705, -40819.76155278225, -37895.9969158169, -20305.755174846076, -39101.851177436256, -13011.308075345527, -42717.64817448237, -46395.40420715859, -39663.8634400205, -25523.18877258167, -37256.26763776155, -47958.57345564049, 0.017125, 0.96225, -0.106875, 192.0, 0.0, 0.0, 0.0, 0.0, 0.0, 0.0, 0.0, 0.0, 0.0, 1.668976299451125E9, 0.0, 2022-11-20 15:31:39.451
120.0, -30209.83549473709, -4738.681583247374, -49837.8634259538, -49886.88080154429, -38116.407467890676, -40931.922606458975, -37994.85868154272, -20411.590684841954, -39054.15255476863, -12963.90002535582, -42674.35284547244, -46352.60061652668, -39626.53602678014, -25494.891464101252, -37214.82750354141, -47937.741629808144, 0.017125, 0.96225, -0.106875, 192.0, 0.0, 0.0, 0.0, 0.0, 0.0, 0.0, 0.0, 0.0, 0.0, 1.6689762994511297E9, 0.0, 2022-11-20 15:31:39.451
122.0, -30159.901697623933, -4794.225668218812, -49767.72365185305, -49797.18325104514, -38041.037385587384, -40855.41258518846, -37921.299090540306, -20335.237125782627, -39114.077581653306, -13038.040761714074, -42730.23220661071, -46417.66654463608, -39681.65542860692, -25556.269354375527, -37272.606762958385, -48000.460624749736, 0.017125, 0.96225, -0.106875, 192.0, 0.0, 0.0, 0.0, 0.0, 0.0, 0.0, 0.0, 0.0, 0.0, 1.6689762994511344E9, 0.0, 2022-11-20 15:31:39.451
124.0, -30225.74993678927, -4749.544531052653, -49841.90909170021, -49874.29676941595, -38116.56393010187, -40931.74379250334, -37992.84702454174, -20408.70730980722, -39059.15934552662, -12977.489885984647, -42684.23231652169, -46362.32362536474, -39629.03942215913, -25505.486190973068, -37211.988831995586, -47932.712487305704, 0.017125, 0.96225, -0.106875, 192.0, 0.0, 0.0, 0.0, 0.0, 0.0, 0.0, 0.0, 0.0, 0.0, 1.6689762994511392E9, 0.0, 2022-11-20 15:31:39.451
126.0, -30197.29616609766, -4829.429665735921, -49791.550611442406, -49806.86155639429, -38057.264752061936, -40864.50974518177, -37937.39234654813, -20347.21766081067, -39137.81513426485, -13062.851198059465, -42765.70442506128, -46443.81808564879, -39700.18502476037, -25579.805741286964, -37288.63296373284, -47998.73954042668, 0.0175625, 0.963125, -0.1054375, 192.0, 0.0, 72.0, 15.0, 16.0, 126.0, 96.0, 0.0, 0.0, 0.0, 1.668976299451144E9, 0.0, 2022-11-20 15:31:39.451
128.0, -30223.581817577106, -4741.386144326466, -49834.734181730055, -49863.36676637731, -38111.69124981061, -40913.19184460543, -37987.214384939005, -20398.783135269063, -39073.330351511286, -12991.99616813614, -42694.22354629321, -46372.627779558636, -39630.604044271, -25508.39191775226, -37217.12973322031, -47918.65324004331, 0.0175625, 0.963125, -0.1054375, 192.0, 0.0, 0.0, 0.0, 0.0, 0.0, 0.0, 0.0, 0.0, 0.0, 1.668976299451149E9, 0.0, 2022-11-20 15:31:39.451
130.0, -30194.16692187392, -4824.735799400306, -49786.4544137066, -49793.09288180982, -38059.09759510727, -40854.56321889916, -37938.353471559705, -20344.535451476033, -39151.15912570466, -13072.77537259762, -42771.4935268752, -46450.009518862906, -39709.90803359843, -25581.683287821208, -37291.87396667885, -47987.250743776654, 0.0175625, 0.963125, -0.1054375, 192.0, 0.0, 0.0, 0.0, 0.0, 0.0, 0.0, 0.0, 0.0, 0.0, 1.6689762994511538E9, 0.0, 2022-11-20 15:31:39.451
132.0, -30191.663526494925, -4710.317219533589, -49801.78771040293, -49827.08988512634, -38084.55623204187, -40885.52038496976, -37962.69452127153, -20374.08445764595, -39043.49077266345, -12969.75618240311, -42665.68036862378, -46344.2857675893, -39608.475817260245, -25482.32978371737, -37188.0277619395, -47882.66693147027, 0.0175625, 0.963125, -0.1054375, 192.0, 0.0, 0.0, 0.0, 0.0, 0.0, 0.0, 0.0, 0.0, 0.0, 1.6689762994511585E9, 0.0, 2022-11-20 15:31:39.451
134.0, -30180.487654267272, -4814.319886484133, -49776.41848044616, -49781.2017537596, -38047.00530135695, -40844.549637383185, -37926.7529161874, -20336.600582194398, -39124.06881142483, -13052.591747354478, -42748.42652659733, -46428.350678485716, -39691.91487931191, -25569.099255692872, -37268.270524534055, -47962.90969406482, 0.0175625, 0.963125, -0.1054375, 192.0, 0.0, 0.0, 0.0, 0.0, 0.0, 0.0, 0.0, 0.0, 0.0, 1.6689762994511635E9, 0.0, 2022-11-20 15:31:39.451
136.0, -30180.420599033907, -4703.701103174818, -49803.73231217055, -49827.42516129317, -38078.34244708329, -40873.45044296389, -37953.7091200005, -20366.663678486788, -39029.78915331235, -12967.789228891043, -42658.19253423125, -46337.82611344172, -39601.9491078793, -25473.299678957424, -37181.0763694139, -47877.16840233427, 0.01878125, 0.9615625, -0.10671875, 192.0, 0.0, 80.0, 15.0, 0.0, 126.0, 80.0, 0.0, 0.0, 0.0, 1.6689762994511683E9, 0.0, 2022-11-20 15:31:39.451
138.0, -30189.182482860386, -4815.146901028979, -49801.58654470283, -49812.24832680802, -38065.31138006585, -40852.238637475806, -37941.66152973909, -20352.112692846382, -39133.61300630725, -13053.843445043976, -42762.82105002654, -46438.36426000169, -39708.87985335349, -25574.59778482888, -37288.56590849947, -47983.58505768598, 0.01878125, 0.9615625, -0.10671875, 192.0, 0.0, 0.0, 0.0, 0.0, 0.0, 0.0, 0.0, 0.0, 0.0, 1.6689762994511733E9, 0.0, 2022-11-20 15:31:39.451
140.0, -30166.16018607142, -4690.379463479455, -49799.53018421295, -49830.24148109454, -38064.596124243275, -40857.31248346716, -37942.5555995173, -20356.963021393185, -39024.871769532176, -12941.74944660061, -42648.31306318201, -46323.67745920151, -39593.56720370855, -25457.765216560987, -37186.463139827625, -47883.918629159765, 0.01878125, 0.9615625, -0.10671875, 192.0, 0.0, 0.0, 0.0, 0.0, 0.0, 0.0, 0.0, 0.0, 0.0, 1.6689762994511795E9, 0.0, 2022-11-20 15:31:39.451
142.0, -30230.533210102705, -4839.107971085068, -49844.70305975712, -49861.444516354146, -38105.11983694075, -40896.80801591969, -37987.773178550386, -20399.431335858266, -39146.442907624594, -13064.102895748962, -42776.92500077785, -46449.584835718255, -39717.9770133468, -25587.58414835741, -37312.504626811104, -48018.900813925364, 0.01878125, 0.9615625, -0.10671875, 192.0, 0.0, 0.0, 0.0, 0.0, 0.0, 0.0, 0.0, 0.0, 0.0, 1.6689762994511845E9, 0.0, 2022-11-20 15:31:39.451
144.0, -30162.9191831254, -4701.64474268493, -49788.041387562924, -49814.125873342266, -38054.180211327104, -40855.524343910736, -37938.12995411515, -20354.75019869211, -39060.47809844949, -12985.245941310639, -42684.478185710694, -46360.535485808316, -39625.91017793539, -25498.601853680833, -37225.2881199465, -47932.75719079461, 0.01878125, 0.9615625, -0.10671875, 192.0, 0.0, 0.0, 0.0, 0.0, 0.0, 0.0, 0.0, 0.0, 0.0, 1.6689762994511893E9, 0.0, 2022-11-20 15:31:39.451
146.0, -30212.92003547192, -4810.207165504356, -49823.71477171359, -49841.037373666455, -38092.62521179023, -40894.34932402961, -37975.07738769977, -20388.613091541898, -39117.69856425507, -13035.805587268542, -42746.23605564071, -46417.5547859138, -39693.680667123874, -25567.735799281098, -37277.47944324964, -47989.70943566674, 0.018390625, 0.95978125, -0.10835937500000001, 192.0, 0.0, 72.0, 14.5, 120.0, 126.0, 72.0, 0.0, 0.0, 0.0, 1.668976299451194E9, 0.0, 2022-11-20 15:31:39.451
148.0, -30153.017360331698, -4700.21423103979, -49767.7460035975, -49802.0559313364, -38048.77108916892, -40861.33579746912, -37930.84328542272, -20348.514061989077, -39046.30709246482, -12972.259577782104, -42660.49476391015, -46341.156523365564, -39616.18716909733, -25496.389030979757, -37201.97525047961, -47915.0099056971, 0.018390625, 0.95978125, -0.10835937500000001, 192.0, 0.0, 0.0, 0.0, 0.0, 0.0, 0.0, 0.0, 0.0, 0.0, 1.6689762994511988E9, 0.0, 2022-11-20 15:31:39.451
150.0, -30238.02104449523, -4817.136206285501, -49831.940213673144, -49855.27543488448, -38118.55323535839, -40929.687432013445, -37997.496187388446, -20413.4682313762, -39134.73059353001, -13058.716125335231, -42754.193276666796, -46429.177693030564, -39716.09946681255, -25594.267319949548, -37279.245231061606, -47995.94557236977, 0.018390625, 0.95978125, -0.10835937500000001, 192.0, 0.0, 0.0, 0.0, 0.0, 0.0, 0.0, 0.0, 0.0, 0.0, 1.6689762994512036E9, 0.0, 2022-11-20 15:31:39.451
152.0, -30143.182592771365, -4699.566030450586, -49737.39233462719, -49758.045346503895, -38032.029632571895, -40836.726526823826, -37908.73741015642, -20321.982541320627, -39052.94556056804, -12978.674528440777, -42665.00981629012, -46340.01658439834, -39625.48549479074, -25502.826333382887, -37188.564203806425, -47894.17807986475, 0.018390625, 0.95978125, -0.10835937500000001, 192.0, 0.0, 0.0, 0.0, 0.0, 0.0, 0.0, 0.0, 0.0, 0.0, 1.6689762994512084E9, 0.0, 2022-11-20 15:31:39.451
154.0, -30237.305788672664, -4803.702807867862, -49828.40863804921, -49835.13651313025, -38114.999307989994, -40910.48728352634, -37989.874242529186, -20399.27487364708, -39117.720915999525, -13032.095197688961, -42737.85415146997, -46403.54024214033, -39693.211280490315, -25565.634735302297, -37247.86338184636, -47938.00985074161, 0.018390625, 0.95978125, -0.10835937500000001, 192.0, 0.0, 0.0, 0.0, 0.0, 0.0, 0.0, 0.0, 0.0, 0.0, 1.6689762994512131E9, 0.0, 2022-11-20 15:31:39.451
156.0, -30143.29435149364, -4715.547527736131, -49743.024974229935, -49747.38356439872, -38021.747830122455, -40812.519587578725, -37898.50031119589, -20307.006872535574, -39069.888182865165, -12991.549133247034, -42680.45487170874, -46354.56757003875, -39633.353308839, -25504.323900261392, -37201.41645686823, -47876.54255348952, 0.018390625, 0.95978125, -0.10835937500000001, 192.0, 0.0, 0.0, 0.0, 0.0, 0.0, 0.0, 0.0, 0.0, 0.0, 1.668976299451218E9, 0.0, 2022-11-20 15:31:39.451
158.0, -30228.141573445988, -4775.025519731703, -49843.04903066743, -49848.88283597027, -38114.664031823166, -40904.89934741251, -37994.88103328717, -20404.192257427247, -39096.88909016718, -13013.632656768877, -42722.36439256244, -46390.84445128971, -39675.12871922597, -25544.53468853649, -37242.834239343916, -47917.60270805391, 0.014, 0.96, -0.11, 192.0, 0.0, 56.0, 15.0, 0.0, 126.0, 72.0, 0.0, 0.0, 0.0, 1.6689762994512243E9, 0.0, 2022-11-20 15:31:39.451
160.0, -30133.794860100137, -4720.867242916494, -49752.7926865569, -49760.39227967171, -38012.85183582924, -40809.993840455274, -37898.36620072916, -20311.79014584901, -39071.095177065756, -12992.689072214256, -42687.60742993444, -46364.64820678809, -39642.584579299044, -25511.029423597985, -37226.27159670253, -47917.53565282055, 0.014, 0.96, -0.11, 192.0, 0.0, 0.0, 0.0, 0.0, 0.0, 0.0, 0.0, 0.0, 0.0, 1.6689762994512308E9, 0.0, 2022-11-20 15:31:39.451
162.0, -30226.30873040065, -4758.127600923491, -49847.13939990275, -49863.72439428859, -38116.85450277979, -40913.393010305525, -37997.38442866617, -20413.51293486511, -39082.0251801044, -12994.745432704143, -42707.634592966395, -46376.6957970495, -39661.047120219126, -25532.375339552804, -37234.72055610664, -47941.42966764327, 0.014, 0.96, -0.11, 192.0, 0.0, 0.0, 0.0, 0.0, 0.0, 0.0, 0.0, 0.0, 0.0, 1.6689762994512374E9, 0.0, 2022-11-20 15:31:39.451
164.0, -30128.49749666423, -4724.845853429539, -49739.62750907273, -49753.26207319046, -38019.28913823237, -40811.40200035596, -37895.54988092779, -20308.10210801388, -39087.88133715169, -13002.121508374395, -42696.74929341666, -46374.25945690387, -39656.308550394606, -25524.731042949086, -37235.03348052901, -47943.95541476672, 0.014, 0.96, -0.11, 192.0, 0.0, 0.0, 0.0, 0.0, 0.0, 0.0, 0.0, 0.0, 0.0, 1.6689762994512439E9, 0.0, 2022-11-20 15:31:39.451
0.0, -15035.392646240312, -2380.7066536792104, -24841.2146975058, -24840.544145172138, -18980.18496992409, -20386.668489774285, -18916.54955345983, -10125.04966557618, -19568.818160154602, -6522.663715203252, -21371.32988826393, -23209.045613890365, -19858.31795433974, -12790.070508726896, -18643.433587960433, -23997.257530362313, 0.02, 0.9520000000000001, -0.10200000000000001, 192.0, 0.0, 80.0, 14.5, 96.0, 126.0, 104.0, 0.0, 0.0, 0.0, 1.668976300023204E9, 0.0, 2022-11-20 15:31:40.023
2.0, -30025.634768680906, -4611.924840441327, -49658.78124937788, -49677.6237699537, -37943.96375941799, -40762.63049395448, -37815.06124914423, -20237.738816468576, -38930.79327711979, -12887.613521529856, -42540.13062001832, -46221.23941436284, -39504.69666775426, -25399.494218766, -37094.01632476048, -47799.473738607616, 0.02, 0.9520000000000001, -0.10200000000000001, 192.0, 0.0, 0.0, 0.0, 0.0, 0.0, 0.0, 0.0, 0.0, 0.0, 1.66897630002331E9, 0.0, 2022-11-20 15:31:40.023
4.0, -30101.67540331786, -4733.987716911759, -49720.04738092988, -49726.55173856637, -38001.251280456934, -40818.64396555948, -37871.90173529407, -20293.081735739917, -39024.044754987335, -12963.341231744436, -42639.752345055625, -46312.65804918505, -39601.79264566811, -25497.976004836084, -37183.825633981905, -47895.67564674326, 0.02, 0.9520000000000001, -0.10200000000000001, 192.0, 0.0, 0.0, 0.0, 0.0, 0.0, 0.0, 0.0, 0.0, 0.0, 1.668976300023321E9, 0.0, 2022-11-20 15:31:40.023
6.0, -30043.069129356045, -4643.1502274453915, -49658.356566233226, -49679.188392065575, -37941.19214310552, -40760.75294742024, -37811.66378398702, -20237.314133323925, -38938.92931210152, -12886.428879073726, -42546.277349743534, -46223.11696089709, -39502.081513652985, -25399.114239110262, -37089.367161913775, -47803.8323287764, 0.02, 0.9520000000000001, -0.10200000000000001, 192.0, 0.0, 0.0, 0.0, 0.0, 0.0, 0.0, 0.0, 0.0, 0.0, 1.6689763000233343E9, 0.0, 2022-11-20 15:31:40.023
8.0, -30124.67534836237, -4749.723345008296, -49726.8870147332, -49753.75381156848, -38005.00637352543, -40828.948119753375, -37878.76372084185, -20303.63175912282, -39029.74444982343, -12968.683298669255, -42639.93115901127, -46316.97193586492, -39592.2931542746, -25496.165513535205, -37158.63521798077, -47886.04204488302, 0.018000000000000002, 0.96, -0.1, 192.0, 0.0, 72.0, 15.0, 0.0, 126.0, 112.0, 0.0, 0.0, 0.0, 1.6689763000233395E9, 0.0, 2022-11-20 15:31:40.023
10.0, -30042.37622527793, -4662.059803254581, -49650.62286265169, -49687.994979380965, -37922.84136090772, -40750.40408973743, -37801.94077514896, -20224.86421166232, -38962.55510599078, -12920.314123667971, -42571.24424830011, -46262.7689555608, -39515.559615559534, -25431.099585425807, -37081.745217054515, -47815.16466321524, 0.018000000000000002, 0.96, -0.1, 192.0, 0.0, 0.0, 0.0, 0.0, 0.0, 0.0, 0.0, 0.0, 0.0, 1.668976300023345E9, 0.0, 2022-11-20 15:31:40.023
12.0, -30142.534392182162, -4751.980871198281, -49755.51959938045, -49787.92962884065, -38018.70799287653, -40848.528247896225, -37902.411866475566, -20324.038901810516, -39024.58119685426, -12969.532664958557, -42646.167295714295, -46328.59484298168, -39583.35245649248, -25499.227702525583, -37136.10465956982, -47872.452184254194, 0.018000000000000002, 0.96, -0.1, 192.0, 0.0, 0.0, 0.0, 0.0, 0.0, 0.0, 0.0, 0.0, 0.0, 1.6689763000233505E9, 0.0, 2022-11-20 15:31:40.023
14.0, -30035.871867641436, -4677.214285995279, -49657.44014471056, -49686.09508110226, -37916.381706760134, -40745.285540257166, -37801.58314723768, -20220.975008127094, -38986.11384464668, -12947.18092050325, -42609.59984178541, -46294.888412343076, -39538.31369141504, -25455.597097348822, -37110.02017379048, -47844.57955891843, 0.018000000000000002, 0.96, -0.1, 192.0, 0.0, 0.0, 0.0, 0.0, 0.0, 0.0, 0.0, 0.0, 0.0, 1.6689763000233557E9, 0.0, 2022-11-20 15:31:40.023
16.0, -30105.788124297636, -4706.606829954008, -49729.882148490215, -49758.42532615964, -37997.205614710525, -40824.902454006966, -37875.94740104049, -20297.619139864342, -38980.66001899958, -12941.682391367245, -42621.53567332455, -46300.38694147908, -39550.00365376516, -25470.840987067342, -37124.10177279732, -47858.63880618082, 0.018000000000000002, 0.96, -0.1, 192.0, 0.0, 0.0, 0.0, 0.0, 0.0, 0.0, 0.0, 0.0, 0.0, 1.6689763000233612E9, 0.0, 2022-11-20 15:31:40.023
18.0, -30043.80673692307, -4695.877992615461, -49663.050432568845, -49683.97166537901, -37943.583779762244, -40769.470127757806, -37820.60448176914, -20240.085749636382, -38973.23923984042, -12932.22760346265, -42590.042065387024, -46276.53763014527, -39528.4789238547, -25446.343475144324, -37117.10567678281, -47845.33951822991, 0.018000000000000002, 0.964, -0.10400000000000001, 192.0, 0.0, 72.0, 15.0, 16.0, 126.0, 96.0, 0.0, 0.0, 0.0, 1.6689763000233667E9, 0.0, 2022-11-20 15:31:40.023
20.0, -30123.446002417328, -4709.221984055279, -49744.835465530814, -49773.17747750014, -38040.94797860956, -40868.35424522808, -37912.71602066947, -20334.07483507095, -38992.97583019445, -12938.709609354688, -42613.891376720836, -46291.26742974132, -39564.442880683295, -25479.491112171545, -37144.106584084824, -47869.52410573055, 0.018000000000000002, 0.964, -0.10400000000000001, 192.0, 0.0, 0.0, 0.0, 0.0, 0.0, 0.0, 0.0, 0.0, 0.0, 1.668976300023372E9, 0.0, 2022-11-20 15:31:40.023
22.0, -30044.81256542356, -4709.154928821913, -49654.04267955336, -49673.42164199611, -37950.5575240323, -40778.23201158429, -37825.41010682704, -20245.8301479614, -39004.57638556676, -12962.938900344241, -42614.96426045469, -46300.275182756806, -39572.958895320764, -25489.370583220792, -37154.813069678916, -47877.7495476901, 0.018000000000000002, 0.964, -0.10400000000000001, 192.0, 0.0, 0.0, 0.0, 0.0, 0.0, 0.0, 0.0, 0.0, 0.0, 1.6689763000233774E9, 0.0, 2022-11-20 15:31:40.023
24.0, -30090.99126946822, -4671.313425459079, -49714.59355528278, -49739.20282592808, -38012.516559662414, -40839.162866969455, -37881.647095876586, -20304.950512045685, -38961.61633272366, -12907.014835717064, -42578.083882103434, -46257.22572293589, -39538.31369141504, -25449.673885068165, -37106.37683944426, -47827.61458487685, 0.018000000000000002, 0.964, -0.10400000000000001, 192.0, 0.0, 0.0, 0.0, 0.0, 0.0, 0.0, 0.0, 0.0, 0.0, 1.668976300023383E9, 0.0, 2022-11-20 15:31:40.023
26.0, -30045.79604217959, -4718.855585915517, -49652.23218825248, -49660.792906378854, -37943.85200069571, -40767.39141552346, -37817.85521720114, -20236.174194356703, -38998.943745964025, -12951.986545561142, -42609.84571097443, -46297.30240074425, -39567.81799409604, -25477.881786570764, -37140.0162148495, -47856.78361139102, 0.018000000000000002, 0.964, -0.10400000000000001, 192.0, 0.0, 0.0, 0.0, 0.0, 0.0, 0.0, 0.0, 0.0, 0.0, 1.668976300023388E9, 0.0, 2022-11-20 15:31:40.023
28.0, -30106.592787098027, -4675.739070861229, -49729.99390721249, -49745.55072135338, -38019.646766143655, -40844.92961703892, -37894.387590216116, -20315.411128450767, -38960.208172822975, -12908.467699106659, -42577.90506814779, -46255.68345256847, -39535.16209544684, -25436.79928026191, -37098.732542840546, -47811.40957014675, 0.018000000000000002, 0.962, -0.10400000000000001, 192.0, 0.0, 72.0, 15.0, 8.0, 126.0, 96.0, 0.0, 0.0, 0.0, 1.6689763000233936E9, 0.0, 2022-11-20 15:31:40.023
30.0, -30042.912667144858, -4719.392027782444, -49648.27592948388, -49646.04075503835, -37928.94338714402, -40744.79380187915, -37806.90286241804, -20222.271409305504, -39016.80278978381, -12967.364545746392, -42631.415144373794, -46308.4782729719, -39579.99969482418, -25482.553301161923, -37147.83932540886, -47862.036271338024, 0.018000000000000002, 0.962, -0.10400000000000001, 192.0, 0.0, 0.0, 0.0, 0.0, 0.0, 0.0, 0.0, 0.0, 0.0, 1.6689763000233989E9, 0.0, 2022-11-20 15:31:40.023
32.0, -30100.49076086173, -4664.652605611397, -49719.242718129484, -49733.927814236624, -38004.559338636325, -40820.67797430491, -37881.714151109954, -20299.67550035423, -38945.00898659337, -12896.151887911785, -42570.797213411, -46242.808847762215, -39514.509083570134, -25412.41352706117, -37079.89002226472, -47791.76238677053, 0.018000000000000002, 0.962, -0.10400000000000001, 192.0, 0.0, 0.0, 0.0, 0.0, 0.0, 0.0, 0.0, 0.0, 0.0, 1.6689763000234041E9, 0.0, 2022-11-20 15:31:40.023
34.0, -30072.864004714967, -4750.03626943067, -49672.21464779552, -49676.7744036644, -37947.87531469767, -40763.390453265965, -37831.042746429775, -20246.657162506242, -39031.510237635404, -12983.636615709856, -42648.51422888211, -46326.31496504724, -39586.101721060484, -25486.777780863977, -37156.84707842435, -47870.23936155312, 0.018000000000000002, 0.962, -0.10400000000000001, 192.0, 0.0, 0.0, 0.0, 0.0, 0.0, 0.0, 0.0, 0.0, 0.0, 1.6689763000234096E9, 0.0, 2022-11-20 15:31:40.023
36.0, -30083.212862397777, -4645.452457124288, -49701.763653965434, -49731.87145374673, -37980.33004764677, -40802.97539269631, -37860.07766247722, -20283.805761790965, -38952.720338430445, -12900.93516122522, -42570.77486166655, -46249.11203969861, -39507.803560233544, -25412.346471827805, -37080.44881587611, -47795.45042460566, 0.018000000000000002, 0.962, -0.10400000000000001, 192.0, 0.0, 0.0, 0.0, 0.0, 0.0, 0.0, 0.0, 0.0, 0.0, 1.668976300023415E9, 0.0, 2022-11-20 15:31:40.023
38.0, -30079.636583284926, -4752.0926299205585, -49692.130052105196, -49702.00952315445, -37954.58083803426, -40772.42055802591, -37833.63554878659, -20252.80389223145, -39025.72113582148, -12981.826124408975, -42649.028319004574, -46328.14780809257, -39587.711046661265, -25490.37641172128, -37159.05990112542, -47876.18492557823, 0.02, 0.962, -0.112, 192.0, 0.0, 80.0, 15.0, 8.0, 126.0, 64.0, 0.0, 0.0, 0.0, 1.668976300023422E9, 0.0, 2022-11-20 15:31:40.023
40.0, -30067.343123834507, -4631.0579336950705, -49699.21555509753, -49724.54008156539, -37961.621637537675, -40786.859784944034, -37838.664691289036, -20260.783465001998, -38939.4881057129, -12887.83703897441, -42562.907047618275, -46237.57853955967, -39500.91922294131, -25399.337756554814, -37070.79286227142, -47787.381444857296, 0.02, 0.962, -0.112, 192.0, 0.0, 0.0, 0.0, 0.0, 0.0, 0.0, 0.0, 0.0, 0.0, 1.6689763000234272E9, 0.0, 2022-11-20 15:31:40.023
42.0, -30081.983516452732, -4752.0926299205585, -49692.7782526944, -49705.183470867094, -37949.35052983171, -40776.935610405875, -37831.75800225234, -20251.686305008687, -39036.427621415576, -12981.893179642342, -42659.26541796511, -46332.573453494726, -39595.98119210973, -25495.405554223726, -37162.30090407144, -47882.91280065928, 0.02, 0.962, -0.112, 192.0, 0.0, 0.0, 0.0, 0.0, 0.0, 0.0, 0.0, 0.0, 0.0, 1.6689763000234327E9, 0.0, 2022-11-20 15:31:40.023
44.0, -30067.14195813441, -4640.713887299763, -49700.5343080204, -49730.41859035714, -37970.51763183089, -40799.55557579465, -37849.81821177223, -20274.82036051993, -38940.87391386914, -12888.12761165233, -42554.61455042536, -46231.29769936773, -39499.01932466261, -25401.371765300246, -37071.999856472, -47793.75169202706, 0.02, 0.962, -0.112, 192.0, 0.0, 0.0, 0.0, 0.0, 0.0, 0.0, 0.0, 0.0, 0.0, 1.668976300023438E9, 0.0, 2022-11-20 15:31:40.023
46.0, -30099.574339339062, -4761.972100969804, -49718.84038672929, -49730.41859035714, -37988.331972161766, -40811.29024163369, -37866.7384823249, -20285.48214262511, -39040.942673795544, -12994.074880370485, -42664.96511280121, -46339.56954950924, -39617.148294108905, -25516.81852541191, -37193.191014908676, -47910.427798083765, 0.02, 0.962, -0.112, 192.0, 0.0, 0.0, 0.0, 0.0, 0.0, 0.0, 0.0, 0.0, 0.0, 1.6689763000234435E9, 0.0, 2022-11-20 15:31:40.023
48.0, -30055.2955335731, -4641.429143122333, -49690.96776139352, -49714.571203538326, -37969.46709984149, -40794.906412947945, -37845.794897770276, -20268.114837183337, -38945.18780054901, -12894.229637888628, -42561.83416388442, -46239.590196560646, -39517.12423767141, -25410.848904949296, -37103.8063888319, -47814.31529692594, 0.022, 0.9580000000000001, -0.11, 192.0, 0.0, 88.0, 14.5, 120.0, 126.0, 72.0, 0.0, 0.0, 0.0, 1.6689763000234487E9, 0.0, 2022-11-20 15:31:40.023
50.0, -30105.43049638635, -4759.379298612988, -49720.20384314106, -49730.19507291259, -38003.46410315801, -40819.247462659776, -37879.36721794215, -20294.2887299405, -39033.901874292125, -12980.529723230567, -42657.63374061987, -46331.00883138285, -39613.370849295956, -25506.58142645138, -37192.8780904863, -47901.9564869352, 0.022, 0.9580000000000001, -0.11, 192.0, 0.0, 0.0, 0.0, 0.0, 0.0, 0.0, 0.0, 0.0, 0.0, 1.6689763000234542E9, 0.0, 2022-11-20 15:31:40.023
52.0, -30056.390769051406, -4652.046221738604, -49679.2777990434, -49693.47115677252, -37975.32325688878, -40777.74027320627, -37844.69966229197, -20256.15665389975, -38953.90498088658, -12901.896286236799, -42565.164573808266, -46238.71847852689, -39523.740354030175, -25410.98301541603, -37109.081400523355, -47809.889651523794, 0.022, 0.9580000000000001, -0.11, 192.0, 0.0, 0.0, 0.0, 0.0, 0.0, 0.0, 0.0, 0.0, 0.0, 1.66897630002346E9, 0.0, 2022-11-20 15:31:40.023
54.0, -30110.057307488598, -4745.27534786169, -49718.6839245181, -49724.74124726549, -38014.95289980804, -40812.251366645265, -37887.34679071269, -20295.875703796828, -39030.459705646004, -12965.397592234325, -42648.000138759635, -46314.46854048593, -39609.45929401628, -25492.768048378, -37185.23379388259, -47882.33165530344, 0.022, 0.9580000000000001, -0.11, 192.0, 0.0, 0.0, 0.0, 0.0, 0.0, 0.0, 0.0, 0.0, 0.0, 1.6689763000234652E9, 0.0, 2022-11-20 15:31:40.023
56.0, -30020.024480822623, -4626.498177826188, -49634.171978732586, -49650.108772529224, -37928.6528144661, -40728.991118549246, -37801.449036770944, -20212.23547604507, -38937.40939347856, -12887.859390718866, -42546.18794276571, -46227.564958043695, -39506.685973010775, -25397.97430014304, -37092.89873753771, -47791.427110603705, 0.022, 0.9580000000000001, -0.11, 192.0, 0.0, 0.0, 0.0, 0.0, 0.0, 0.0, 0.0, 0.0, 0.0, 1.6689763000234704E9, 0.0, 2022-11-20 15:31:40.023
58.0, -30103.508246363195, -4727.706876719818, -49712.69365700408, -49727.60227055577, -37996.98209726597, -40805.65760203095, -37873.2875434503, -20284.990404247095, -38988.57253653676, -12937.100283753907, -42617.84763548942, -46291.245077996864, -39571.215459253246, -25462.6602485967, -37145.559447474414, -47850.94980608819, 0.02, 0.96, -0.11, 192.0, 0.0, 80.0, 15.0, 0.0, 126.0, 72.0, 0.0, 0.0, 0.0, 1.668976300023476E9, 0.0, 2022-11-20 15:31:40.023
60.0, -30020.73973664519, -4645.564215846564, -49636.80948457831, -49656.88135109918, -37922.28256729634, -40730.13105751647, -37796.44224601296, -20209.86619113281, -38945.16544880455, -12892.776774499032, -42558.81667838296, -46242.33946112865, -39510.79869399055, -25409.776021215443, -37097.45849340659, -47802.960610742644, 0.02, 0.96, -0.11, 192.0, 0.0, 0.0, 0.0, 0.0, 0.0, 0.0, 0.0, 0.0, 0.0, 1.6689763000234811E9, 0.0, 2022-11-20 15:31:40.023
62.0, -30115.801705813614, -4723.08006561757, -49728.09400893379, -49739.60515732827, -38009.96846079451, -40816.36408762504, -37881.98237204342, -20298.356747431368, -38988.05844641429, -12931.065312750974, -42612.88554822034, -46287.199412250455, -39564.4875841722, -25457.966382261086, -37136.93167411467, -47846.457105452675, 0.02, 0.96, -0.11, 192.0, 0.0, 0.0, 0.0, 0.0, 0.0, 0.0, 0.0, 0.0, 0.0, 1.6689763000234866E9, 0.0, 2022-11-20 15:31:40.023
64.0, -30042.487984000207, -4681.796393608617, -49644.18556024857, -49659.69767090055, -37924.51774174187, -40734.40024070743, -37799.795007681256, -20216.41525225821, -38975.36265556367, -12932.875804051853, -42589.125643864354, -46271.28497019827, -39535.51972335813, -25431.14428891472, -37108.67906912316, -47817.288078938494, 0.02, 0.96, -0.11, 192.0, 0.0, 0.0, 0.0, 0.0, 0.0, 0.0, 0.0, 0.0, 0.0, 1.6689763000234928E9, 0.0, 2022-11-20 15:31:40.023
66.0, -30112.158371467398, -4703.946972363827, -49720.852043730265, -49746.243625431496, -38000.55837637882, -40815.15709342445, -37874.1369097396, -20293.148790973282, -38987.36554233617, -12933.501652896603, -42611.45503657521, -46289.7251593739, -39553.44582241128, -25455.306524670905, -37113.46234243659, -47830.67677386723, 0.02, 0.96, -0.11, 192.0, 0.0, 0.0, 0.0, 0.0, 0.0, 0.0, 0.0, 0.0, 0.0, 1.6689763000234983E9, 0.0, 2022-11-20 15:31:40.023
68.0, -30017.52108544363, -4666.30663470109, -49632.272080453884, -49653.66269989761, -37909.40796249008, -40727.7617726042, -37785.176966807485, -20204.457068974625, -38970.15469910559, -12931.691161595721, -42589.9526584092, -46276.11294700062, -39535.430316380305, -25443.32598964286, -37105.169845243676, -47828.50865465506, 0.019000000000000003, 0.96, -0.109, 192.0, 0.0, 72.0, 15.0, 0.0, 126.0, 80.0, 0.0, 0.0, 0.0, 1.6689763000235035E9, 0.0, 2022-11-20 15:31:40.023
70.0, -30111.688984833836, -4695.7438821487285, -49743.851988774775, -49777.33490196883, -38027.17930402509, -40845.71192809486, -37899.57319492975, -20319.859125597373, -38962.28688505732, -12926.170280715261, -42590.891431676326, -46273.631903366084, -39543.946331017774, -25455.261821181994, -37110.9589470576, -47837.0917245259, 0.019000000000000003, 0.96, -0.109, 192.0, 0.0, 0.0, 0.0, 0.0, 0.0, 0.0, 0.0, 0.0, 0.0, 1.6689763000235105E9, 0.0, 2022-11-20 15:31:40.023
72.0, -30018.929245344312, -4686.69142564433, -49643.93969105955, -49661.6199209237, -37928.272834810356, -40737.12715353098, -37801.06905711521, -20215.118851079806, -38992.32762960525, -12956.99333631913, -42605.688286505734, -46295.581316421194, -39563.14647950488, -25480.09460927184, -37150.07449985439, -47867.355986518385, 0.019000000000000003, 0.96, -0.109, 192.0, 0.0, 0.0, 0.0, 0.0, 0.0, 0.0, 0.0, 0.0, 0.0, 1.668976300023516E9, 0.0, 2022-11-20 15:31:40.023
74.0, -30108.805609799103, -4682.489297686732, -49739.76161953946, -49760.213465716064, -38026.508751691435, -40837.39707915748, -37897.4944826954, -20314.539410417012, -38960.208172822975, -12910.278190407538, -42580.319056548964, -46256.26459792431, -39536.16792394733, -25446.32112339987, -37119.74318262854, -47830.453256422676, 0.019000000000000003, 0.96, -0.109, 192.0, 0.0, 0.0, 0.0, 0.0, 0.0, 0.0, 0.0, 0.0, 0.0, 1.6689763000235212E9, 0.0, 2022-11-20 15:31:40.023
76.0, -30033.837858896004, -4706.5397747206425, -49645.6160718937, -49651.56163591881, -37925.59062547572, -40736.85893259751, -37804.891205417065, -20218.91864763721, -38998.67552503056, -12958.200330519716, -42617.98174595615, -46296.4753861994, -39566.20866849526, -25476.004240036516, -37158.076424369385, -47867.95948361868, 0.019000000000000003, 0.96, -0.109, 192.0, 0.0, 0.0, 0.0, 0.0, 0.0, 0.0, 0.0, 0.0, 0.0, 1.6689763000235267E9, 0.0, 2022-11-20 15:31:40.023
78.0, -30104.491723119227, -4672.766288848673, -49735.98417472651, -49754.625529602235, -38018.596234154254, -40832.99378549979, -37898.433255962525, -20316.72988137363, -38958.732957688924, -12912.6474753198, -42584.18590833973, -46259.30443517023, -39532.65870006785, -25434.42999534965, -37116.61393840479, -47831.23556747861, 0.018500000000000003, 0.96, -0.1075, 192.0, 0.0, 72.0, 15.0, 0.0, 126.0, 88.0, 0.0, 0.0, 0.0, 1.668976300023532E9, 0.0, 2022-11-20 15:31:40.023
80.0, -30061.576373765038, -4733.585385511564, -49677.6237699537, -49679.00957810993, -37954.08909965624, -40758.40601425243, -37835.13311566509, -20247.975915429106, -39015.662850816596, -12965.531702701057, -42639.037089233054, -46315.34025851968, -39585.72174140474, -25483.38031570677, -37169.81109020842, -47884.65623672679, 0.018500000000000003, 0.96, -0.1075, 192.0, 0.0, 0.0, 0.0, 0.0, 0.0, 0.0, 0.0, 0.0, 0.0, 1.6689763000235372E9, 0.0, 2022-11-20 15:31:40.023
82.0, -30083.503435075694, -4640.847997766495, -49714.86177621625, -49735.827712515325, -37997.18326296607, -40804.80823574165, -37874.583944628714, -20290.712450827654, -38945.47837322693, -12898.945855968697, -42577.390978025316, -46249.40261237653, -39524.14268543037, -25419.946064942607, -37099.47015040757, -47815.00820100406, 0.018500000000000003, 0.96, -0.1075, 192.0, 0.0, 0.0, 0.0, 0.0, 0.0, 0.0, 0.0, 0.0, 0.0, 1.6689763000235426E9, 0.0, 2022-11-20 15:31:40.023
84.0, -30067.276068601142, -4736.044077401648, -49674.89685713016, -49687.12326134721, -37957.46421306899, -40757.80251715214, -37834.529618564804, -20244.3772845718, -39015.86401651669, -12972.885426626854, -42641.89811252333, -46318.581261465704, -39585.45352047128, -25482.486245928558, -37160.57981974838, -47877.36956803436, 0.018500000000000003, 0.96, -0.1075, 192.0, 0.0, 0.0, 0.0, 0.0, 0.0, 0.0, 0.0, 0.0, 0.0, 1.668976300023548E9, 0.0, 2022-11-20 15:31:40.023
86.0, -30076.57439429455, -4633.181349418324, -49709.40795056915, -49745.528369608925, -38002.54768163535, -40807.64690728747, -37876.39443592959, -20291.69592758369, -38939.443402223995, -12897.35888211237, -42563.063509829466, -46243.90408324052, -39514.26321438113, -25413.575817772846, -37087.131987468245, -47807.11803521133, 0.018500000000000003, 0.96, -0.1075, 192.0, 0.0, 0.0, 0.0, 0.0, 0.0, 0.0, 0.0, 0.0, 0.0, 1.6689763000235531E9, 0.0, 2022-11-20 15:31:40.023
88.0, -30061.308152831574, -4730.389086054455, -49669.755955905435, -49691.146575349165, -37958.00065493592, -40764.12806083299, -37836.854199988156, -20250.59106953038, -39019.552054351814, -12976.104077828417, -42646.457868392215, -46327.79018018129, -39602.194977068306, -25503.921568861195, -37174.81788096642, -47900.32480958996, 0.01725, 0.956, -0.10775, 192.0, 0.0, 64.0, 14.5, 96.0, 126.0, 80.0, 0.0, 0.0, 0.0, 1.6689763000235589E9, 0.0, 2022-11-20 15:31:40.023
90.0, -30071.545251792104, -4629.20273890528, -49688.710235203536, -49728.36222986725, -37985.85092852723, -40800.33788685058, -37863.341017167695, -20284.275148424524, -38922.00904154886, -12882.78554472751, -42545.80796310997, -46225.08391440915, -39500.82981596349, -25405.193913602106, -37076.53726059643, -47807.14038695579, 0.01725, 0.956, -0.10775, 192.0, 0.0, 0.0, 0.0, 0.0, 0.0, 0.0, 0.0, 0.0, 0.0, 1.6689763000235653E9, 0.0, 2022-11-20 15:31:40.023
92.0, -30082.56466180857, -4743.710725749818, -49677.48965948697, -49696.242773084974, -37968.41656785209, -40781.49536627476, -37847.046595459775, -20263.398619103267, -39020.1108479632, -12980.172095319283, -42647.575455614984, -46322.22459581192, -39597.90344213288, -25506.112039817817, -37171.35336057584, -47903.02937066906, 0.01725, 0.956, -0.10775, 192.0, 0.0, 0.0, 0.0, 0.0, 0.0, 0.0, 0.0, 0.0, 0.0, 1.668976300023572E9, 0.0, 2022-11-20 15:31:40.023
94.0, -30048.70176895878, -4611.991895674693, -49664.19037153607, -49690.74424394897, -37957.53126830236, -40770.61006672503, -37835.20017089846, -20254.122645154315, -38921.91963457104, -12887.41235582976, -42549.65246315628, -46226.06739116519, -39497.78997871756, -25406.46796303606, -37073.74329253951, -47802.066540964435, 0.01725, 0.956, -0.10775, 192.0, 0.0, 0.0, 0.0, 0.0, 0.0, 0.0, 0.0, 0.0, 0.0, 1.6689763000235791E9, 0.0, 2022-11-20 15:31:40.023
96.0, -30088.890205489424, -4739.285080347667, -49700.7801772094, -49709.117377891234, -37990.16481520711, -40794.0793984031, -37867.40903465856, -20283.269319924035, -39014.43350487155, -12970.739659159144, -42640.98169100066, -46313.35095326316, -39596.98702061022, -25493.349193733837, -37163.887877927766, -47886.69024547222, 0.01725, 0.956, -0.10775, 192.0, 0.0, 0.0, 0.0, 0.0, 0.0, 0.0, 0.0, 0.0, 0.0, 1.6689763000235868E9, 0.0, 2022-11-20 15:31:40.023
98.0, -30032.161478061855, -4605.353427571467, -49664.27977851388, -49685.11160434623, -37959.542925303336, -40759.613008453016, -37831.601540041156, -20249.562889285433, -38918.812742091744, -12876.191780113195, -42539.348308962384, -46219.00423991731, -39502.72971424219, -25396.83436117582, -37078.68302806414, -47797.41737811773, 0.016625, 0.9550000000000001, -0.107875, 192.0, 0.0, 64.0, 14.5, 104.0, 126.0, 80.0, 0.0, 0.0, 0.0, 1.668976300023594E9, 0.0, 2022-11-20 15:31:40.023
100.0, -30096.981536982246, -4737.452237302332, -49719.801511740865, -49725.03181994341, -38005.36400143671, -40803.020096185224, -37876.86382256315, -20291.785334561508, -39010.99133622543, -12964.950557345219, -42641.58518810096, -46318.91653763253, -39604.11722709146, -25495.539664690456, -37176.36015133383, -47893.03814089753, 0.016625, 0.9550000000000001, -0.107875, 192.0, 0.0, 0.0, 0.0, 0.0, 0.0, 0.0, 0.0, 0.0, 0.0, 1.6689763000236013E9, 0.0, 2022-11-20 15:31:40.023
102.0, -30027.288797770598, -4616.350485843478, -49657.864827855214, -49674.00278735194, -37951.27277985487, -40755.477935728784, -37821.610310269636, -20239.035217646982, -38926.47939043992, -12893.98376869962, -42549.51835268955, -46232.25882437931, -39511.022211435105, -25410.11129738227, -37094.06102824939, -47808.95087825667, 0.016625, 0.9550000000000001, -0.107875, 192.0, 0.0, 0.0, 0.0, 0.0, 0.0, 0.0, 0.0, 0.0, 0.0, 1.6689763000236092E9, 0.0, 2022-11-20 15:31:40.023
104.0, -30109.38675515494, -4731.327859321578, -49713.878299460215, -49720.449712330075, -38007.95680379353, -40809.97148871082, -37880.75302609838, -20295.29455844099, -38998.98844945293, -12959.675545653767, -42623.68144079226, -46296.58714492168, -39586.61581118296, -25487.515388431002, -37158.65756972523, -47872.36277727637, 0.016625, 0.9550000000000001, -0.107875, 192.0, 0.0, 0.0, 0.0, 0.0, 0.0, 0.0, 0.0, 0.0, 0.0, 1.6689763000236146E9, 0.0, 2022-11-20 15:31:40.023
106.0, -30035.782460663613, -4633.360163373967, -49638.41881017909, -49655.070859798296, -37931.424430778556, -40736.00956630821, -37808.75805720783, -20227.14408959676, -38936.73884114491, -12902.678597292734, -42556.827373126434, -46233.17524590198, -39516.610147548934, -25411.720622983055, -37087.690781079626, -47799.205517674156, 0.016625, 0.9550000000000001, -0.107875, 192.0, 0.0, 0.0, 0.0, 0.0, 0.0, 0.0, 0.0, 0.0, 0.0, 1.66897630002362E9, 0.0, 2022-11-20 15:31:40.023
108.0, -30117.81336281459, -4726.566937752597, -49719.242718129484, -49732.85493050277, -38005.05107701434, -40813.436009101395, -37884.41871218905, -20303.296482955993, -39006.47628384546, -12964.816446878487, -42636.109010709406, -46308.43356948299, -39590.21444204026, -25485.6154901523, -37146.140592830256, -47865.254922539585, 0.0173125, 0.9585, -0.10693749999999999, 192.0, 0.0, 72.0, 15.0, 8.0, 126.0, 88.0, 0.0, 0.0, 0.0, 1.6689763000236254E9, 0.0, 2022-11-20 15:31:40.023
110.0, -30029.81454489405, -4638.389305876411, -49633.43437116556, -49653.68505164207, -37922.57313997426, -40731.58392090606, -37802.56662399371, -20223.120775594805, -38942.6397016811, -12910.79228053001, -42564.158745307774, -46244.10524894062, -39516.99012720468, -25415.40866081818, -37079.89002226472, -47800.68073280821, 0.0173125, 0.9585, -0.10693749999999999, 192.0, 0.0, 0.0, 0.0, 0.0, 0.0, 0.0, 0.0, 0.0, 0.0, 1.6689763000236309E9, 0.0, 2022-11-20 15:31:40.023
112.0, -30128.63160713096, -4720.576670238575, -49737.1911689271, -49762.26982620595, -38031.739059893975, -40840.30280593668, -37907.999802589395, -20329.336265246424, -39000.418961098076, -12953.37235371737, -42624.66491754829, -46297.99530482237, -39577.362188978455, -25479.982850549564, -37129.95792984461, -47859.801096892494, 0.0173125, 0.9585, -0.10693749999999999, 192.0, 0.0, 0.0, 0.0, 0.0, 0.0, 0.0, 0.0, 0.0, 0.0, 1.668976300023636E9, 0.0, 2022-11-20 15:31:40.023
114.0, -30014.97298657572, -4635.416523863855, -49626.99706876243, -49645.280795726874, -37922.66254695208, -40725.39248769194, -37799.81735942571, -20218.695130192653, -38971.22758283944, -12928.69602783871, -42582.978914139145, -46262.99247300535, -39546.5838368635, -25453.94306825913, -37113.30588022541, -47836.48822742561, 0.0173125, 0.9585, -0.10693749999999999, 192.0, 0.0, 0.0, 0.0, 0.0, 0.0, 0.0, 0.0, 0.0, 0.0, 1.6689763000236413E9, 0.0, 2022-11-20 15:31:40.023
116.0, -30101.876569017957, -4669.994672536215, -49718.6839245181, -49740.87920676222, -38018.3727167097, -40819.89566324898, -37895.281659994325, -20313.935913316716, -38965.103204858686, -12922.683408580233, -42587.29280081902, -46260.287911926265, -39560.106642258965, -25461.587364862844, -37123.565330930396, -47839.90804432727, 0.0173125, 0.9585, -0.10693749999999999, 192.0, 0.0, 0.0, 0.0, 0.0, 0.0, 0.0, 0.0, 0.0, 0.0, 1.6689763000236475E9, 0.0, 2022-11-20 15:31:40.023
118.0, -30021.723213401227, -4647.575872847542, -49624.35956291671, -49643.11267651471, -37920.74029692892, -40725.37013594749, -37801.38198153758, -20220.796194171453, -38955.179030320534, -12929.098359238908, -42569.7466814216, -46250.74371704385, -39542.9852060062, -25448.712760056587, -37119.8102378619, -47832.42020993474, 0.01965625, 0.9592499999999999, -0.10746875, 192.0, 0.0, 88.0, 15.0, 0.0, 126.0, 80.0, 0.0, 0.0, 0.0, 1.668976300023653E9, 0.0, 2022-11-20 15:31:40.023
120.0, -30118.238045959242, -4674.509724916187, -49720.427360585614, -49747.428267887626, -38017.18807425357, -40829.97629999832, -37900.57902343023, -20322.25076225409, -38963.29271355781, -12922.973981258152, -42581.39194028282, -46253.716499056405, -39546.69559558578, -25455.19476594863, -37111.607147646806, -47830.27444246703, 0.01965625, 0.9592499999999999, -0.10746875, 192.0, 0.0, 0.0, 0.0, 0.0, 0.0, 0.0, 0.0, 0.0, 0.0, 1.668976300504146E9, 0.0, 2022-11-20 15:31:40.504
122.0, -30031.04389083909, -4666.105469000991, -49622.16909196009, -49634.2166822215, -37911.21845379096, -40721.05624926761, -37795.27995530128, -20215.05179584644, -38990.271269115365, -12956.345135729925, -42607.163501639785, -46279.979798791384, -39562.900610315875, -25469.030495766463, -37130.67318566718, -47850.435715965716, 0.01965625, 0.9592499999999999, -0.10746875, 192.0, 0.0, 0.0, 0.0, 0.0, 0.0, 0.0, 0.0, 0.0, 0.0, 1.6689763005042655E9, 0.0, 2022-11-20 15:31:40.504
124.0, -30109.878493532957, -4644.625442579441, -49722.662535031144, -49737.52644509393, -38009.74494334996, -40822.57787258361, -37891.21364250346, -20315.411128450767, -38951.245123296394, -12911.239315419116, -42575.2005070687, -46242.29475763974, -39530.08824945548, -25436.955742473096, -37090.127121225254, -47811.074293979924, 0.01965625, 0.9592499999999999, -0.10746875, 192.0, 0.0, 0.0, 0.0, 0.0, 0.0, 0.0, 0.0, 0.0, 0.0, 1.6689763005042708E9, 0.0, 2022-11-20 15:31:40.504
126.0, -30038.79994616508, -4679.181239507347, -49645.95134806053, -49637.63649912316, -37929.88216041114, -40736.054269797125, -37812.647260743055, -20232.329694310392, -39001.49184483193, -12958.267385753083, -42614.89720522132, -46284.29368547126, -39580.06675005755, -25481.815693594897, -37143.14545907325, -47860.76222190407, 0.01965625, 0.9592499999999999, -0.10746875, 192.0, 0.0, 0.0, 0.0, 0.0, 0.0, 0.0, 0.0, 0.0, 0.0, 1.6689763005042758E9, 0.0, 2022-11-20 15:31:40.504
128.0, -30090.700696790303, -4626.073494681536, -49714.05711341585, -49722.59547979778, -38000.75954207892, -40813.77128526822, -37885.715113367456, -20310.314930714958, -38940.292768513296, -12893.536733810513, -42563.24232378511, -46225.66505976499, -39528.32246164352, -25426.8527539793, -37085.20973744509, -47801.84302351988, 0.019828125000000002, 0.959625, -0.10673437499999999, 192.0, 0.0, 80.0, 15.0, 0.0, 126.0, 88.0, 0.0, 0.0, 0.0, 1.6689763005042808E9, 0.0, 2022-11-20 15:31:40.504
130.0, -30029.926303616325, -4674.263855727178, -49634.931938044065, -49635.17780723308, -37912.067820080265, -40723.35847894651, -37801.33727804867, -20222.114947094316, -38994.49574881742, -12956.434542707748, -42616.84180698894, -46284.45014768245, -39576.35636047797, -25479.401705193726, -37137.62457819278, -47855.97894859064, 0.019828125000000002, 0.959625, -0.10673437499999999, 192.0, 0.0, 0.0, 0.0, 0.0, 0.0, 0.0, 0.0, 0.0, 0.0, 1.6689763005042856E9, 0.0, 2022-11-20 15:31:40.504
132.0, -30076.23911812772, -4603.319418826034, -49698.0309126414, -49718.16983439563, -37978.251335412424, -40791.620706513015, -37864.369197412634, -20287.002061248073, -38912.44249492198, -12870.246216088084, -42537.26959672804, -46203.04509437622, -39492.4702635372, -25397.348451298294, -37051.838582973316, -47770.394119071265, 0.019828125000000002, 0.959625, -0.10673437499999999, 192.0, 0.0, 0.0, 0.0, 0.0, 0.0, 0.0, 0.0, 0.0, 0.0, 1.6689763005042903E9, 0.0, 2022-11-20 15:31:40.504
134.0, -30046.28778055761, -4691.742919891229, -49648.3206329728, -49654.04267955336, -37926.663509209575, -40735.18255176336, -37811.596728753655, -20230.25098207605, -39009.560824580294, -12959.899063098319, -42630.8116472735, -46297.50356644435, -39584.60415418198, -25490.935205332662, -37148.442822509154, -47863.62324519435, 0.019828125000000002, 0.959625, -0.10673437499999999, 192.0, 0.0, 0.0, 0.0, 0.0, 0.0, 0.0, 0.0, 0.0, 0.0, 1.668976300504302E9, 0.0, 2022-11-20 15:31:40.504
136.0, -30040.409271765864, -4571.401127743856, -49658.24480751095, -49688.486717758984, -37950.24459960993, -40766.54204923416, -37832.40620284155, -20256.469578322125, -38900.864291294136, -12856.16461708124, -42520.483436642106, -46189.00819885829, -39478.299257552535, -25389.525340738935, -37045.22246661454, -47763.330967823385, 0.019828125000000002, 0.959625, -0.10673437499999999, 192.0, 0.0, 0.0, 0.0, 0.0, 0.0, 0.0, 0.0, 0.0, 0.0, 1.668976300504307E9, 0.0, 2022-11-20 15:31:40.504
138.0, -30077.46846407276, -4721.4483882723325, -49669.755955905435, -49692.040645127374, -37966.13668991765, -40779.036674384675, -37849.81821177223, -20270.327659884413, -39003.838777999736, -12969.733830658655, -42621.04393494653, -46295.35779897664, -39585.49822396019, -25506.112039817817, -37150.20861032112, -47876.296684300505, 0.019828125000000002, 0.959625, -0.10673437499999999, 192.0, 0.0, 0.0, 0.0, 0.0, 0.0, 0.0, 0.0, 0.0, 0.0, 1.6689763005043118E9, 0.0, 2022-11-20 15:31:40.504
140.0, -30056.167251606854, -4590.333055297501, -49660.70349940104, -49697.47211903002, -37968.93065797456, -40780.8248139411, -37849.86291526114, -20273.926290741718, -38928.78162011881, -12892.93323671022, -42537.71663161715, -46211.695219480425, -39508.518816056116, -25424.148192900204, -37072.4021878722, -47797.81970951793, 0.018000000000000002, 0.9540000000000001, -0.106, 192.0, 0.0, 72.0, 14.5, 104.0, 126.0, 88.0, 0.0, 0.0, 0.0, 1.6689763005043168E9, 0.0, 2022-11-20 15:31:40.504
142.0, -30077.200243139298, -4711.725379434273, -49664.659758169626, -49680.75301417745, -37964.4603090835, -40773.582848737584, -37849.32647339421, -20270.01473546204, -39011.5054263479, -12969.33149925846, -42628.39765887233, -46297.23534551088, -39597.277593288134, -25512.079955587382, -37158.05407262493, -47880.23059132464, 0.018000000000000002, 0.9540000000000001, -0.106, 192.0, 0.0, 0.0, 0.0, 0.0, 0.0, 0.0, 0.0, 0.0, 0.0, 1.6689763005043216E9, 0.0, 2022-11-20 15:31:40.504
144.0, -30042.063300855556, -4586.3320930400005, -49654.13208653118, -49681.915304889124, -37954.53613454534, -40766.98908412327, -37839.692871533975, -20262.839825491887, -38917.71750661344, -12879.276320848026, -42532.37456469233, -46201.413417030984, -39496.18065311678, -25415.006329417985, -37063.640304045715, -47785.906229723245, 0.018000000000000002, 0.9540000000000001, -0.106, 192.0, 0.0, 0.0, 0.0, 0.0, 0.0, 0.0, 0.0, 0.0, 0.0, 1.6689763005043263E9, 0.0, 2022-11-20 15:31:40.504
146.0, -30087.616156055472, -4713.669981201885, -49692.7782526944, -49700.04256964238, -37978.92188774609, -40786.2786395882, -37863.25161018987, -20282.107029212362, -39010.79017052534, -12966.068144567984, -42633.650318819324, -46297.950601333454, -39592.91900311935, -25508.99541485255, -37151.929694644175, -47875.38026277784, 0.018000000000000002, 0.9540000000000001, -0.106, 192.0, 0.0, 0.0, 0.0, 0.0, 0.0, 0.0, 0.0, 0.0, 0.0, 1.668976300504331E9, 0.0, 2022-11-20 15:31:40.504
148.0, -30043.76203343416, -4598.379683301411, -49672.37111000671, -49683.16700257862, -37954.93846594554, -40765.84914515605, -37834.26139763134, -20257.363648100334, -38930.3909457196, -12892.21798088765, -42548.26665500005, -46215.38325731555, -39508.071781167004, -25422.963550444074, -37064.690836035115, -47786.59913380136, 0.018000000000000002, 0.9540000000000001, -0.106, 192.0, 0.0, 0.0, 0.0, 0.0, 0.0, 0.0, 0.0, 0.0, 0.0, 1.668976300504336E9, 0.0, 2022-11-20 15:31:40.504
150.0, -30084.643374042917, -4699.0295885836595, -49701.3836743097, -49694.231116083996, -37983.52634710388, -40787.999723911256, -37859.138889210095, -20279.648337322276, -39017.42863862856, -12977.7134034292, -42641.80870554551, -46303.91851710302, -39607.4476370153, -25515.63388295578, -37156.17652609069, -47874.217972066166, 0.018000000000000002, 0.9580000000000001, -0.106, 192.0, 0.0, 72.0, 14.5, 120.0, 126.0, 88.0, 0.0, 0.0, 0.0, 1.668976300504341E9, 0.0, 2022-11-20 15:31:40.504
152.0, -29998.74562010117, -4563.399203228856, -49617.944612258034, -49620.62682159267, -37903.14947404259, -40710.10389448451, -37778.20322253743, -20202.557170695924, -38906.13930298559, -12873.464867289647, -42523.56797737694, -46188.42705350245, -39487.754045457135, -25397.25904432047, -37044.417803814154, -47760.15702011073, 0.018000000000000002, 0.9580000000000001, -0.106, 192.0, 0.0, 0.0, 0.0, 0.0, 0.0, 0.0, 0.0, 0.0, 0.0, 1.6689763005043457E9, 0.0, 2022-11-20 15:31:40.504
154.0, -30106.279862675652, -4699.45427172831, -49708.759749979945, -49701.16015686514, -37990.32127741829, -40792.805348969145, -37864.70447357946, -20286.555026358965, -38982.157585878085, -12938.955478543698, -42608.973992940664, -46263.52891487228, -39567.14744176238, -25472.964402790596, -37112.41181044719, -47825.98290753161, 0.018000000000000002, 0.9580000000000001, -0.106, 192.0, 0.0, 0.0, 0.0, 0.0, 0.0, 0.0, 0.0, 0.0, 0.0, 1.6689763005043504E9, 0.0, 2022-11-20 15:31:40.504
156.0, -30026.439431481296, -4603.274715337124, -49636.18363573356, -49647.046583538846, -37921.07557309575, -40728.365269704496, -37799.45973151443, -20221.690263949666, -38946.774774405334, -12902.611542059369, -42558.302588260485, -46222.84873996362, -39515.492560326165, -25425.35518710079, -37080.135891453734, -47784.989808200575, 0.018000000000000002, 0.9580000000000001, -0.106, 192.0, 0.0, 0.0, 0.0, 0.0, 0.0, 0.0, 0.0, 0.0, 0.0, 1.6689763005043554E9, 0.0, 2022-11-20 15:31:40.504
158.0, -30094.589900325525, -4677.929541817849, -49696.533345762895, -49718.907441962656, -37982.69933255903, -40793.6770670029, -37860.34588341068, -20283.44813387968, -38993.73578950594, -12947.784417603543, -42608.19168188473, -46275.35298768914, -39573.875316843434, -25485.503731430024, -37128.61682517729, -47843.35021297338, 0.018000000000000002, 0.9580000000000001, -0.106, 192.0, 0.0, 0.0, 0.0, 0.0, 0.0, 0.0, 0.0, 0.0, 0.0, 1.6689763005043604E9, 0.0, 2022-11-20 15:31:40.504
160.0, -30022.41611747934, -4616.506948054665, -49620.20213844802, -49650.19817950704, -37911.151398557595, -40724.163141746896, -37787.702713930936, -20214.403595257234, -38935.77771613332, -12914.189745687218, -42545.11505903186, -46227.8108272327, -39512.29626086906, -25434.117070927274, -37071.57517332735, -47794.22107866062, 0.022, 0.962, -0.10400000000000001, 192.0, 0.0, 88.0, 15.0, 8.0, 126.0, 96.0, 0.0, 0.0, 0.0, 1.6689763005043652E9, 0.0, 2022-11-20 15:31:40.504
162.0, -30118.327452937065, -4684.992693065727, -49715.35351459426, -49742.91321550766, -38010.14727475015, -40818.2863376482, -37882.96584879945, -20309.085584769917, -38986.09149290222, -12951.405400205304, -42608.348144095915, -46283.04198778176, -39570.813127853056, -25495.47260945709, -37120.59254891784, -47844.2442827516, 0.022, 0.962, -0.10400000000000001, 192.0, 0.0, 0.0, 0.0, 0.0, 0.0, 0.0, 0.0, 0.0, 0.0, 1.66897630050437E9, 0.0, 2022-11-20 15:31:40.504
164.0, -30018.795134877582, -4624.82179699204, -49619.01749599189, -49640.13989450216, -37916.87344513815, -40721.59269113454, -37789.580260465176, -20214.71651967961, -38957.45890825497, -12930.171242972761, -42567.1985825537, -46249.022632720786, -39532.36812738993, -25455.99942874902, -37091.13294972575, -47809.37556140132, 0.022, 0.962, -0.10400000000000001, 192.0, 0.0, 0.0, 0.0, 0.0, 0.0, 0.0, 0.0, 0.0, 0.0, 1.6689763005043747E9, 0.0, 2022-11-20 15:31:40.504
166.0, -30122.86485706149, -4674.912056316382, -49732.07261944683, -49747.338860909804, -38032.11903954972, -40831.94325351039, -37898.3438489847, -20322.898962843297, -38978.8495276987, -12938.03905702103, -42595.71940847867, -46267.08284224068, -39561.335988204, -25482.88857732875, -37111.58479590235, -47830.63207037831, 0.022, 0.962, -0.10400000000000001, 192.0, 0.0, 0.0, 0.0, 0.0, 0.0, 0.0, 0.0, 0.0, 0.0, 1.668976300504382E9, 0.0, 2022-11-20 15:31:40.504
168.0, -30010.27912024011, -4628.845110993995, -49621.789112304345, -49616.46939712398, -37915.93467187103, -40710.37211541797, -37784.32760051818, -20207.787478898463, -38973.39570205161, -12941.03419077804, -42582.12954784984, -46254.72232755689, -39552.283531699606, -25470.61746962279, -37114.69168838164, -47825.64763136478, 0.022, 0.962, -0.10400000000000001, 192.0, 0.0, 0.0, 0.0, 0.0, 0.0, 0.0, 0.0, 0.0, 0.0, 1.668976300504387E9, 0.0, 2022-11-20 15:31:40.504
170.0, -30090.47717934575, -4630.812064506062, -49713.27480235992, -49712.984229682, -38005.27459445889, -40804.383552597, -37872.68404635001, -20301.083660254917, -38950.82044015174, -12912.043978219508, -42569.14318432131, -46228.36962084408, -39539.140705959886, -25452.13257695825, -37100.543034141425, -47805.195785188174, 0.022, 0.964, -0.112, 192.0, 0.0, 88.0, 15.0, 16.0, 126.0, 64.0, 0.0, 0.0, 0.0, 1.6689763005043917E9, 0.0, 2022-11-20 15:31:40.504
172.0, -30004.154742259354, -4627.526358071132, -49621.319725670786, -49610.81440577679, -37902.12129379765, -40708.561624117094, -37778.82907138218, -20206.222856786593, -38955.179030320534, -12932.853452307398, -42572.67475994525, -46232.10236216812, -39536.324386158514, -25452.26668742498, -37112.098886024825, -47818.04803824998, 0.022, 0.964, -0.112, 192.0, 0.0, 0.0, 0.0, 0.0, 0.0, 0.0, 0.0, 0.0, 0.0, 1.6689763005043964E9, 0.0, 2022-11-20 15:31:40.504
174.0, -30052.278048071632, -4581.7499854266625, -49684.3292932903, -49682.764671178425, -37964.08032942776, -40778.053197628644, -37838.70939477794, -20271.7358197851, -38917.11400951314, -12872.615501000346, -42535.36969844934, -46184.02375984476, -39499.91339444082, -25412.815858461367, -37070.412882615674, -47780.78768024298, 0.022, 0.964, -0.112, 192.0, 0.0, 0.0, 0.0, 0.0, 0.0, 0.0, 0.0, 0.0, 0.0, 1.6689763005044012E9, 0.0, 2022-11-20 15:31:40.504
176.0, -30002.21014049174, -4639.372782632445, -49610.277963909866, -49601.27021089438, -37885.33513371171, -40700.20207169081, -37761.10413802912, -20191.671871146187, -38959.60467572268, -12920.157661456784, -42567.265637787066, -46223.653402764015, -39528.63538606589, -25439.32502738536, -37107.1591505002, -47819.00916326156, 0.022, 0.964, -0.112, 192.0, 0.0, 0.0, 0.0, 0.0, 0.0, 0.0, 0.0, 0.0, 0.0, 1.668976300504406E9, 0.0, 2022-11-20 15:31:40.504
178.0, -30077.982554195234, -4610.047293907081, -49689.93958114858, -49704.915249933634, -37971.38934986464, -40789.36318032303, -37847.82890651571, -20280.453000122667, -38910.721410598926, -12876.862332446854, -42527.27836695652, -46189.321123280664, -39480.48972850916, -25396.230864075525, -37056.97948419803, -47769.902380693246, 0.022, 0.964, -0.112, 192.0, 0.0, 0.0, 0.0, 0.0, 0.0, 0.0, 0.0, 0.0, 0.0, 1.668976300504411E9, 0.0, 2022-11-20 15:31:40.504
180.0, -30024.360719246954, -4674.3756144494555, -49620.80563554831, -49628.159359474106, -37898.20973851797, -40710.2603566957, -37777.37620799258, -20203.47359221859, -38984.683333001536, -12960.010821820597, -42601.26264110359, -46273.408385921524, -39549.467211898234, -25464.314277686393, -37127.52158969898, -47832.21904423464, 0.016, 0.962, -0.10400000000000001, 192.0, 0.0, 64.0, 15.0, 8.0, 126.0, 96.0, 0.0, 0.0, 0.0, 1.668976300504416E9, 0.0, 2022-11-20 15:31:40.504
182.0, -30072.014638425666, -4614.160014886858, -49685.15630783514, -49721.25437513046, -37973.62452431018, -40787.88796518898, -37849.572342583226, -20276.697907054175, -38912.80012283327, -12880.885646448809, -42530.1393902468, -46205.10145486611, -39474.92414413979, -25394.666241963656, -37055.70543476408, -47756.98307239808, 0.016, 0.962, -0.10400000000000001, 192.0, 0.0, 0.0, 0.0, 0.0, 0.0, 0.0, 0.0, 0.0, 0.0, 1.6689763005044208E9, 0.0, 2022-11-20 15:31:40.504
184.0, -30054.8932021729, -4718.587364982052, -49651.49458068545, -49674.33806351877, -37935.71596571398, -40742.58097917807, -37813.65308924355, -20234.117833866818, -39011.57248158127, -12976.729926673166, -42623.10029543642, -46303.270316513815, -39569.606133652465, -25489.683507643167, -37154.43309002317, -47851.91093109977, 0.016, 0.962, -0.10400000000000001, 192.0, 0.0, 0.0, 0.0, 0.0, 0.0, 0.0, 0.0, 0.0, 0.0, 1.6689763005044255E9, 0.0, 2022-11-20 15:31:40.504
186.0, -30075.23328962723, -4625.134721414414, -49702.14363362118, -49734.240738659, -37987.32614366128, -40793.27473560271, -37861.239953188895, -20284.521017613533, -38933.65430041007, -12896.040129189507, -42547.14906777729, -46221.977021929866, -39496.404170561334, -25406.870294436252, -37082.88515602174, -47778.843078475365, 0.016, 0.962, -0.10400000000000001, 192.0, 0.0, 0.0, 0.0, 0.0, 0.0, 0.0, 0.0, 0.0, 0.0, 1.6689763005044308E9, 0.0, 2022-11-20 15:31:40.504
188.0, -30049.640542225905, -4712.686504445852, -49671.18646755058, -49677.04262459787, -37943.382614062146, -40744.32441524559, -37819.5763015242, -20238.85640369134, -39024.13416196515, -12977.556941218012, -42637.58422584346, -46309.774674150314, -39589.90151761789, -25488.61062390931, -37174.795529221956, -47869.76997491956, 0.016, 0.962, -0.10400000000000001, 192.0, 0.0, 0.0, 0.0, 0.0, 0.0, 0.0, 0.0, 0.0, 0.0, 1.6689763005044355E9, 0.0, 2022-11-20 15:31:40.504
190.0, -30026.730004159213, -4589.595447730476, -49670.69472917256, -49682.049415355854, -37942.86852393967, -40751.45462172683, -37818.90574919054, -20242.857365948843, -38901.15486397206, -12859.763247938545, -42518.807055807956, -46187.68944593542, -39471.90665863832, -25363.150282281673, -37058.320588865354, -47753.607958985325, 0.018000000000000002, 0.962, -0.11, 192.0, 0.0, 72.0, 15.0, 8.0, 126.0, 72.0, 0.0, 0.0, 0.0, 1.6689763005044403E9, 0.0, 2022-11-20 15:31:40.504
192.0, -30044.969027634746, -4711.725379434273, -49673.86867688521, -49663.0727843133, -37939.381651804644, -40748.32537750308, -37818.14578987906, -20239.169328113716, -39008.89027224664, -12965.218778278682, -42626.07307744898, -46291.55800241924, -39575.21642151075, -25462.95082127462, -37159.283418569976, -47854.5931404344, 0.018000000000000002, 0.962, -0.11, 192.0, 0.0, 0.0, 0.0, 0.0, 0.0, 0.0, 0.0, 0.0, 0.0, 1.6689763005044453E9, 0.0, 2022-11-20 15:31:40.504
194.0, -30001.450181180262, -4578.866610391929, -49641.39159219165, -49649.39351670665, -37914.03477359233, -40733.77439186268, -37792.173062821996, -20218.136336581272, -38894.5834511022, -12844.899337875764, -42507.38531439129, -46172.73612889482, -39459.83671663245, -25346.744101851476, -37045.33422533682, -47740.73335417907, 0.018000000000000002, 0.962, -0.11, 192.0, 0.0, 0.0, 0.0, 0.0, 0.0, 0.0, 0.0, 0.0, 0.0, 1.66897630050445E9, 0.0, 2022-11-20 15:31:40.504
196.0, -30053.306228316575, -4715.793396925139, -49672.70638617354, -49676.9755693645, -37946.78007921935, -40770.74417719176, -37825.946548693966, -20250.59106953038, -38986.784396980336, -12940.408341933293, -42603.81073997149, -46270.68147309798, -39559.79371783659, -25449.56212634589, -37139.03273809347, -47837.851683837376, 0.018000000000000002, 0.962, -0.11, 192.0, 0.0, 0.0, 0.0, 0.0, 0.0, 0.0, 0.0, 0.0, 0.0, 1.668976300504455E9, 0.0, 2022-11-20 15:31:40.504
198.0, -30002.768934103126, -4597.351503056468, -49627.600565862725, -49653.70740338653, -37907.68687816702, -40741.46339195531, -37787.970934864396, -20217.152859825237, -38896.25983193634, -12869.6874224767, -42504.79251203448, -46184.82842264514, -39466.92221962479, -25366.614802672244, -37054.0961091633, -47761.25225558904, 0.018000000000000002, 0.962, -0.11, 192.0, 0.0, 0.0, 0.0, 0.0, 0.0, 0.0, 0.0, 0.0, 0.0, 1.6689763005044618E9, 0.0, 2022-11-20 15:31:40.504
200.0, -30070.494719802708, -4719.816710927094, -49684.59751422376, -49702.92594467711, -37956.458384568505, -40782.09886337505, -37835.982481954394, -20261.409313846747, -38999.74840876441, -12964.727039900667, -42612.01383018659, -46289.993380307365, -39567.54977316258, -25468.13642598825, -37147.63815970876, -47860.27048352605, 0.018000000000000002, 0.9560000000000001, -0.10400000000000001, 192.0, 0.0, 72.0, 14.5, 112.0, 126.0, 96.0, 0.0, 0.0, 0.0, 1.6689763005044668E9, 0.0, 2022-11-20 15:31:40.504
202.0, -29977.533814613085, -4588.410805274344, -49612.46843486648, -49638.28469971236, -37882.51881391035, -40707.15346421641, -37762.62405665208, -20189.95078682313, -38901.15486397206, -12871.632024244313, -42513.50969237205, -46196.160757083984, -39459.59084744345, -25361.563308425346, -37055.52662080844, -47768.36011032583, 0.018000000000000002, 0.9560000000000001, -0.10400000000000001, 192.0, 0.0, 0.0, 0.0, 0.0, 0.0, 0.0, 0.0, 0.0, 0.0, 1.6689763005044715E9, 0.0, 2022-11-20 15:31:40.504
204.0, -30061.91164993187, -4703.701103174818, -49686.56446773583, -49703.32827607731, -37952.50212579991, -40775.28158131619, -37832.562665052734, -20257.58716554489, -38971.13817586162, -12932.875804051853, -42595.004152656096, -46268.178077718985, -39539.52068561562, -25437.022797706464, -37126.15813328721, -47840.60094840538, 0.018000000000000002, 0.9560000000000001, -0.10400000000000001, 192.0, 0.0, 0.0, 0.0, 0.0, 0.0, 0.0, 0.0, 0.0, 0.0, 1.6689763005044763E9, 0.0, 2022-11-20 15:31:40.504
206.0, -29984.060523994034, -4617.736293999707, -49606.94755398602, -49626.79590306234, -37882.004723787875, -40702.63841183644, -37759.3607019616, -20186.150990265727, -38906.452227407965, -12875.387117312805, -42516.10249472887, -46198.753559440804, -39466.81046090251, -25364.044352059886, -37053.917295207655, -47764.582665512884, 0.018000000000000002, 0.9560000000000001, -0.10400000000000001, 192.0, 0.0, 0.0, 0.0, 0.0, 0.0, 0.0, 0.0, 0.0, 0.0, 1.6689763005044813E9, 0.0, 2022-11-20 15:31:40.504
208.0, -30081.603536796993, -4712.977077123771, -49693.49350851697, -49709.6314680137, -37969.82472775278, -40789.519642534215, -37843.67148204702, -20269.81356976194, -38972.34517006221, -12937.972001787664, -42588.991533397624, -46266.45699339593, -39542.001729250165, -25434.899381983207, -37110.1095807683, -47820.84200630689, 0.018000000000000002, 0.9560000000000001, -0.10400000000000001, 192.0, 0.0, 0.0, 0.0, 0.0, 0.0, 0.0, 0.0, 0.0, 0.0, 1.668976300504486E9, 0.0, 2022-11-20 15:31:40.504
210.0, -29990.475474652707, -4628.10750342697, -49601.96311497249, -49618.928089014065, -37876.70736035197, -40697.810435034095, -37753.28102746976, -20176.048001771927, -38933.27432075433, -12901.829231003432, -42538.56599790645, -46224.63687952005, -39491.06210363652, -25383.177445313628, -37070.59169657132, -47773.79158422847, 0.016, 0.9570000000000001, -0.10200000000000001, 192.0, 0.0, 56.0, 14.5, 120.0, 126.0, 112.0, 0.0, 0.0, 0.0, 1.668976300504491E9, 0.0, 2022-11-20 15:31:40.504
212.0, -30091.952394479802, -4701.5553357071085, -49708.44682555757, -49725.814130999344, -37983.68280931507, -40805.59054679758, -37861.17289795553, -20284.409258891257, -38970.847603183705, -12924.404492903292, -42584.76705369557, -46262.25486543833, -39529.10477269945, -25423.812916733375, -37106.57800514436, -47810.22492769062, 0.016, 0.9570000000000001, -0.10200000000000001, 192.0, 0.0, 0.0, 0.0, 0.0, 0.0, 0.0, 0.0, 0.0, 0.0, 1.668976300504496E9, 0.0, 2022-11-20 15:31:40.504
214.0, -30002.45600968075, -4658.662338097374, -49615.12829245666, -49626.81825480679, -37890.5430901698, -40710.930909029354, -37767.496736943336, -20191.515408935, -38955.35784427617, -12927.958420271687, -42567.310341275974, -46247.94974898693, -39510.41871433482, -25409.016061903963, -37099.11252249629, -47804.45817762115, 0.016, 0.9570000000000001, -0.10200000000000001, 192.0, 0.0, 0.0, 0.0, 0.0, 0.0, 0.0, 0.0, 0.0, 0.0, 1.668976300504501E9, 0.0, 2022-11-20 15:31:40.504
216.0, -30076.596746039006, -4676.186105750336, -49697.293305074374, -49711.24079361449, -37974.09391094374, -40796.49338680427, -37848.47710710491, -20274.19451167518, -38952.742690174906, -12916.871955021854, -42577.81566116997, -46249.87199901009, -39522.08632494049, -25418.135573641728, -37101.034772519444, -47810.20257594616, 0.016, 0.9570000000000001, -0.10200000000000001, 192.0, 0.0, 0.0, 0.0, 0.0, 0.0, 0.0, 0.0, 0.0, 0.0, 1.668976300504506E9, 0.0, 2022-11-20 15:31:40.504
218.0, -29986.27334669511, -4656.49421888521, -49606.545222585824, -49612.7590075444, -37878.20492723047, -40696.49168211123, -37751.47053616888, -20173.52225464848, -38953.65911169757, -12918.682446322733, -42562.504716218085, -46240.707783783415, -39509.23407187868, -25401.818800189354, -37096.74323758403, -47802.334761897895, 0.016, 0.9570000000000001, -0.10200000000000001, 192.0, 0.0, 0.0, 0.0, 0.0, 0.0, 0.0, 0.0, 0.0, 0.0, 1.6689763005045109E9, 0.0, 2022-11-20 15:31:40.504
220.0, -30076.261469872174, -4662.082154999037, -49711.19609012557, -49726.46233158855, -37981.46998661399, -40800.6284595285, -37852.34395889568, -20277.569625087934, -38941.65622492507, -12895.347225111393, -42563.130565062835, -46231.52121681228, -39509.65875502333, -25400.67886122213, -37086.72965606805, -47794.73516878309, 0.018000000000000002, 0.9615, -0.10400000000000001, 192.0, 0.0, 80.0, 15.0, 24.0, 126.0, 88.0, 0.0, 0.0, 0.0, 1.6689763005045156E9, 0.0, 2022-11-20 15:31:40.504
222.0, -29995.191692732777, -4673.2580272266905, -49625.58890886175, -49631.53447288686, -37891.995953559395, -40707.89107178344, -37765.93211483146, -20188.09559203334, -38972.88161192914, -12932.98756277413, -42589.63973398683, -46261.98664450487, -39537.71019431474, -25429.93729471413, -37121.5089704405, -47829.64859362228, 0.018000000000000002, 0.9615, -0.10400000000000001, 192.0, 0.0, 0.0, 0.0, 0.0, 0.0, 0.0, 0.0, 0.0, 0.0, 1.6689763005045204E9, 0.0, 2022-11-20 15:31:40.504
224.0, -30047.02538812463, -4628.889814482905, -49691.34774104926, -49709.74322673598, -37967.25427714041, -40779.14843310695, -37836.18364765449, -20261.141092913284, -38914.476503667414, -12873.196646356184, -42541.42702119673, -46207.649553734016, -39492.15733911483, -25382.97627961353, -37066.34486512481, -47776.11616565182, 0.018000000000000002, 0.9615, -0.10400000000000001, 192.0, 0.0, 0.0, 0.0, 0.0, 0.0, 0.0, 0.0, 0.0, 0.0, 1.6689763005045254E9, 0.0, 2022-11-20 15:31:40.504
226.0, -30004.847646337468, -4690.312408246089, -49624.06899023879, -49630.57334787528, -37904.04354382081, -40710.595632862525, -37775.744530647346, -20196.164571781705, -38965.61729498116, -12929.143062727817, -42583.2024315837, -46255.30347291273, -39535.76559254713, -25427.16567840167, -37114.98226105956, -47820.372619673326, 0.018000000000000002, 0.9615, -0.10400000000000001, 192.0, 0.0, 0.0, 0.0, 0.0, 0.0, 0.0, 0.0, 0.0, 0.0, 1.6689763005045302E9, 0.0, 2022-11-20 15:31:40.504
228.0, -30051.56279224906, -4629.381552860922, -49676.72970017549, -49701.40602605415, -37962.69452127153, -40775.10276736054, -37834.37315635361, -20257.58716554489, -38919.93032931451, -12878.717527236644, -42540.13062001832, -46213.95274567041, -39490.883289680874, -25383.35625926927, -37066.90365873619, -47772.562238283426, 0.018000000000000002, 0.9615, -0.10400000000000001, 192.0, 0.0, 0.0, 0.0, 0.0, 0.0, 0.0, 0.0, 0.0, 0.0, 1.6689763005045352E9, 0.0, 2022-11-20 15:31:40.504
230.0, -30010.45793419575, -4699.0295885836595, -49624.00193500542, -49628.04760075183, -37900.69078215251, -40711.24383345173, -37775.588068436155, -20195.739888637054, -38986.225603368955, -12943.448179179213, -42597.865175946376, -46275.91178130052, -39545.7344705742, -25440.08498669684, -37124.99584257553, -47828.32984069942, 0.015000000000000001, 0.96275, -0.10400000000000001, 192.0, 0.0, 48.0, 15.0, 16.0, 126.0, 96.0, 0.0, 0.0, 0.0, 1.668976300504542E9, 0.0, 2022-11-20 15:31:40.504
232.0, -30049.774652692635, -4621.357276601467, -49689.179621837095, -49705.07171214482, -37965.063806183796, -40779.371950551504, -37836.407165099045, -20262.01281094704, -38907.569814630726, -12870.805009699467, -42529.781762335515, -46201.94985889791, -39473.67244645029, -25368.805273628866, -37055.52662080844, -47759.8217439439, 0.015000000000000001, 0.96275, -0.10400000000000001, 192.0, 0.0, 0.0, 0.0, 0.0, 0.0, 0.0, 0.0, 0.0, 0.0, 1.668976300504547E9, 0.0, 2022-11-20 15:31:40.504
234.0, -30012.156666774354, -4707.210327054301, -49631.936804287056, -49631.646231609135, -37899.03675306282, -40706.549967116116, -37773.643466668545, -20194.37643222528, -38985.71151324648, -12952.031249050051, -42613.08671392044, -46283.33256045968, -39553.311711944545, -25443.951838487606, -37135.34470025834, -47840.84681759439, 0.015000000000000001, 0.96275, -0.10400000000000001, 192.0, 0.0, 0.0, 0.0, 0.0, 0.0, 0.0, 0.0, 0.0, 0.0, 1.668976300504552E9, 0.0, 2022-11-20 15:31:40.504
236.0, -30046.28778055761, -4632.309631384567, -49678.38372926518, -49699.34966556426, -37954.84905896772, -40765.2232963113, -37823.711374248436, -20247.52888054, -38901.758361072345, -12869.39684979878, -42528.28419545701, -46199.66998096347, -39465.08937657945, -25355.193061255584, -37045.84831545929, -47750.92574965069, 0.015000000000000001, 0.96275, -0.10400000000000001, 192.0, 0.0, 0.0, 0.0, 0.0, 0.0, 0.0, 0.0, 0.0, 0.0, 1.668976300504557E9, 0.0, 2022-11-20 15:31:40.504
238.0, -30022.214951779242, -4713.871146901983, -49638.12823750118, -49641.302185213826, -37911.50902646888, -40715.87064455398, -37778.0691120707, -20197.684490404667, -39000.620126798174, -12967.766877146589, -42622.116818680384, -46297.0788832997, -39562.81120333805, -25451.059693224397, -37137.5128194705, -47843.573730417935, 0.015000000000000001, 0.96275, -0.10400000000000001, 192.0, 0.0, 0.0, 0.0, 0.0, 0.0, 0.0, 0.0, 0.0, 0.0, 1.668976300504562E9, 0.0, 2022-11-20 15:31:40.504
240.0, -29986.586271117485, -4571.33407251049, -49623.64430709414, -49640.54222590235, -37902.09894205319, -40710.57328111807, -37766.580315420666, -20190.12960077877, -38872.45522409144, -12849.772018167021, -42497.21527066413, -46174.83719287362, -39444.27990249156, -25329.82383129881, -37017.26043430095, -47721.309688247406, 0.0155, 0.9593750000000001, -0.10600000000000001, 192.0, 0.0, 64.0, 14.5, 112.0, 126.0, 80.0, 0.0, 0.0, 0.0, 1.6689763009853275E9, 0.0, 2022-11-20 15:31:40.985
242.0, -30017.677547654814, -4698.493146716732, -49641.83862708076, -49639.11171425721, -37914.012421847874, -40719.98336553376, -37782.47240572839, -20201.350176495336, -38955.67076869855, -12920.805862045987, -42578.66502745927, -46249.514371098805, -39526.73548778719, -25410.53598052692, -37097.39143817323, -47799.00435197406, 0.0155, 0.9593750000000001, -0.10600000000000001, 192.0, 0.0, 0.0, 0.0, 0.0, 0.0, 0.0, 0.0, 0.0, 0.0, 1.6689763009854093E9, 0.0, 2022-11-20 15:31:40.985
244.0, -29979.612526847428, -4575.893828379372, -49619.17395820308, -49627.77937981837, -37897.74035188441, -40705.29826942662, -37763.9651613194, -20186.17334201018, -38873.93043922549, -12846.709829176645, -42493.75075027356, -46167.59522767011, -39443.698757135724, -25328.30391267585, -37025.396469282685, -47722.78490338146, 0.0155, 0.9593750000000001, -0.10600000000000001, 192.0, 0.0, 0.0, 0.0, 0.0, 0.0, 0.0, 0.0, 0.0, 0.0, 1.668976300985416E9, 0.0, 2022-11-20 15:31:40.985
246.0, -30057.32954231853, -4730.523196521187, -49677.1767350646, -49675.18742980807, -37956.36897759068, -40765.84914515605, -37828.53935105078, -20247.998267173563, -38979.698893988, -12951.092475782929, -42607.34231559543, -46278.88456331308, -39553.75874683366, -25441.35903613079, -37135.38940374725, -47836.01884079204, 0.0155, 0.9593750000000001, -0.10600000000000001, 192.0, 0.0, 0.0, 0.0, 0.0, 0.0, 0.0, 0.0, 0.0, 0.0, 1.668976300985422E9, 0.0, 2022-11-20 15:31:40.985
248.0, -29974.762198300625, -4584.0969185944705, -49596.5092893254, -49617.92226051358, -37892.95707857097, -40712.204958463306, -37766.20033576493, -20192.498885691035, -38886.55917484274, -12869.553312009968, -42504.21136667864, -46181.073329576655, -39453.66763516279, -25345.7829768399, -37045.02130091444, -47752.82564792939, 0.0155, 0.9593750000000001, -0.10600000000000001, 192.0, 0.0, 0.0, 0.0, 0.0, 0.0, 0.0, 0.0, 0.0, 0.0, 1.6689763009854279E9, 0.0, 2022-11-20 15:31:40.985
250.0, -30043.56086773406, -4701.935315362849, -49650.801676607334, -49665.911455859125, -37939.62752099366, -40759.322435775095, -37812.8260746987, -20238.38701705778, -38966.3996060371, -12934.954516286198, -42583.62711472835, -46252.375394389084, -39534.98328149119, -25427.120974912763, -37113.95408081461, -47827.3910674323, 0.01675, 0.9576875, -0.10800000000000001, 192.0, 0.0, 72.0, 14.5, 112.0, 126.0, 72.0, 0.0, 0.0, 0.0, 1.6689763009854336E9, 0.0, 2022-11-20 15:31:40.985
252.0, -29974.002238989146, -4595.183383844303, -49603.23716440644, -49626.751199573424, -37882.49646216589, -40703.15250195891, -37755.9632368044, -20182.015917541496, -38886.62623007611, -12861.394925283781, -42502.84791026687, -46177.94408535291, -39446.04569030353, -25342.49727040497, -37039.36630956725, -47746.20953157062, 0.01675, 0.9576875, -0.10800000000000001, 192.0, 0.0, 0.0, 0.0, 0.0, 0.0, 0.0, 0.0, 0.0, 0.0, 1.6689763009854393E9, 0.0, 2022-11-20 15:31:40.985
254.0, -30066.113777889466, -4712.865318401494, -49692.08534861629, -49710.79375872538, -37957.95595144701, -40781.40595929694, -37832.6297202861, -20258.615345789833, -38970.691140972514, -12943.984621046142, -42602.1567108818, -46274.54832488875, -39535.18444719129, -25434.60880930529, -37120.81606636239, -47826.47464590963, 0.01675, 0.9576875, -0.10800000000000001, 192.0, 0.0, 0.0, 0.0, 0.0, 0.0, 0.0, 0.0, 0.0, 0.0, 1.668976300985445E9, 0.0, 2022-11-20 15:31:40.985
0.0, -29973.778721544593, -4611.455453807766, -49611.84258602173, -49633.34496418774, -37873.64517136159, -40697.69867631182, -37747.87190531158, -20175.690373860645, -38911.12374199912, -12896.263646634061, -42537.78368685051, -46220.8594347071, -39470.31968478199, -25372.15803529716, -37066.009588957975, -47773.54571503946, 0.01675, 0.9576875, -0.10800000000000001, 192.0, 0.0, 0.0, 0.0, 0.0, 0.0, 0.0, 0.0, 0.0, 0.0, 1.6689763009854507E9, 0.0, 2022-11-20 15:31:40.985
2.0, -30050.199335837286, -4681.572876164064, -49689.09021485928, -49705.65285750066, -37951.54100078833, -40773.60520048204, -37825.723031249414, -20252.043932919973, -38940.51628595785, -12913.474489864648, -42575.021693113056, -46252.68831881146, -39511.089266668474, -25408.03258514793, -37093.211661960086, -47803.76527354304, 0.01675, 0.9576875, -0.10800000000000001, 192.0, 0.0, 0.0, 0.0, 0.0, 0.0, 0.0, 0.0, 0.0, 0.0, 1.6689763009854565E9, 0.0, 2022-11-20 15:31:40.985
4.0, -29986.183939717288, -4637.025849464637, -49624.516025127894, -49639.02230727939, -37891.52656692584, -40710.41681890689, -37765.99917006483, -20191.89538859074, -38928.17812301852, -12902.008044959075, -42547.14906777729, -46226.49207430984, -39489.989219902665, -25384.339736025304, -37074.23503091753, -47789.01312220253, 0.016375, 0.9558437500000001, -0.10700000000000001, 192.0, 0.0, 64.0, 14.5, 104.0, 126.0, 88.0, 0.0, 0.0, 0.0, 1.668976300985462E9, 0.0, 2022-11-20 15:31:40.985
6.0, -30066.717274989758, -4686.892591344427, -49702.79183421038, -49713.4312645711, -37974.496242343936, -40787.82090995561, -37846.5325053373, -20271.48995059609, -38953.88262914212, -12926.729074326644, -42589.21505084218, -46258.34331015865, -39529.9317872443, -25421.421280076658, -37104.36518244329, -47810.62725909081, 0.016375, 0.9558437500000001, -0.10700000000000001, 192.0, 0.0, 0.0, 0.0, 0.0, 0.0, 0.0, 0.0, 0.0, 0.0, 1.6689763009854777E9, 0.0, 2022-11-20 15:31:40.985
8.0, -29975.388047145374, -4640.088038455015, -49601.180803916555, -49610.23326042095, -37876.4391394185, -40689.60734481899, -37748.63186462306, -20171.935280792153, -38923.640718894094, -12901.18103041423, -42551.41825096825, -46226.04503942073, -39489.40807454682, -25381.12108482374, -37074.7044175511, -47770.30471209344, 0.016375, 0.9558437500000001, -0.10700000000000001, 192.0, 0.0, 0.0, 0.0, 0.0, 0.0, 0.0, 0.0, 0.0, 0.0, 1.6689763009854836E9, 0.0, 2022-11-20 15:31:40.985
10.0, -30054.960257406266, -4662.998576521704, -49685.02219736841, -49697.00273239645, -37965.44378583953, -40780.55659300764, -37837.14477266607, -20260.62700279081, -38941.5891696917, -12913.340379397916, -42572.85357390089, -46244.887559996554, -39512.005688191144, -25407.540846769913, -37090.23887994753, -47788.40962510224, 0.016375, 0.9558437500000001, -0.10700000000000001, 192.0, 0.0, 0.0, 0.0, 0.0, 0.0, 0.0, 0.0, 0.0, 0.0, 1.6689763009854891E9, 0.0, 2022-11-20 15:31:40.985
12.0, -29968.034323219577, -4643.686669312318, -49588.21679213247, -49596.82221374777, -37873.622819617136, -40687.34981862901, -37749.07889951216, -20170.929452291664, -38927.015832306846, -12910.188783429718, -42541.739945619105, -46222.468760307886, -39493.09611238195, -25384.45149474758, -37077.207812930086, -47774.663302262226, 0.016375, 0.9558437500000001, -0.10700000000000001, 192.0, 0.0, 0.0, 0.0, 0.0, 0.0, 0.0, 0.0, 0.0, 0.0, 1.668976300985495E9, 0.0, 2022-11-20 15:31:40.985
14.0, -30033.45787924026, -4626.989916204205, -49658.78124937788, -49685.22336306851, -37956.54779154632, -40773.35933129303, -37827.44411557247, -20255.463749821636, -38915.90701531256, -12892.150925654285, -42535.34734670488, -46212.410475303, -39495.934783927776, -25390.061782605862, -37069.60821981528, -47776.78671798548, 0.0151875, 0.953921875, -0.11050000000000001, 192.0, 0.0, 56.0, 14.5, 96.0, 126.0, 56.0, 0.0, 0.0, 0.0, 1.6689763009855008E9, 0.0, 2022-11-20 15:31:40.985
16.0, -29964.994485973657, -4646.637099580419, -49565.06038487678, -49588.663827021584, -37859.04948223227, -40676.93390571283, -37733.76795456028, -20159.7088765751, -38928.13341952961, -12909.875859007343, -42539.05773628446, -46225.0615626647, -39498.68404849578, -25397.728430954034, -37071.95515298309, -47788.18610765769, 0.0151875, 0.953921875, -0.11050000000000001, 192.0, 0.0, 0.0, 0.0, 0.0, 0.0, 0.0, 0.0, 0.0, 0.0, 1.6689763009855063E9, 0.0, 2022-11-20 15:31:40.985
18.0, -30034.687225185306, -4622.765436502152, -49658.53538018887, -49692.28651431639, -37946.78007921935, -40766.385587022975, -37817.96697592342, -20247.417121817725, -38899.18791045999, -12868.100448620373, -42517.823579051925, -46196.607791973096, -39462.47422247818, -25364.267869504438, -37026.64816697218, -47750.79163918396, 0.0151875, 0.953921875, -0.11050000000000001, 192.0, 0.0, 0.0, 0.0, 0.0, 0.0, 0.0, 0.0, 0.0, 0.0, 1.668976300985512E9, 0.0, 2022-11-20 15:31:40.985
20.0, -29948.096567165445, -4639.998631477193, -49560.32181505225, -49578.42672806105, -37840.69870003447, -40653.46457403476, -37711.32680312715, -20135.300771629903, -38936.76119288936, -12915.352036398894, -42554.726309147634, -46238.00322270432, -39497.70057173975, -25400.7459164555, -37069.27294364845, -47787.33674136839, 0.0151875, 0.953921875, -0.11050000000000001, 192.0, 0.0, 0.0, 0.0, 0.0, 0.0, 0.0, 0.0, 0.0, 0.0, 1.6689763009855177E9, 0.0, 2022-11-20 15:31:40.985
22.0, -30017.163457532344, -4598.133814112403, -49652.79098186386, -49684.7763281794, -37934.50897151339, -40748.39243273645, -37801.672554215496, -20229.33456055338, -38867.76135775582, -12844.854634386855, -42489.01218044903, -46169.33866373762, -39434.825114586965, -25339.122156992216, -37005.52576846192, -47719.65565915772, 0.0151875, 0.953921875, -0.11050000000000001, 192.0, 0.0, 0.0, 0.0, 0.0, 0.0, 0.0, 0.0, 0.0, 0.0, 1.6689763009855237E9, 0.0, 2022-11-20 15:31:40.985
24.0, -29990.877806052904, -4686.937294833338, -49607.43929236404, -49618.88338552516, -37888.419674446544, -40695.68701931084, -37758.891315328045, -20182.4629524306, -38961.21400132347, -12947.538548414535, -42581.14607109381, -46265.942903273455, -39530.08824945548, -25431.479565081547, -37106.86857782228, -47815.32112542643, 0.01359375, 0.9559609375, -0.11025000000000001, 192.0, 0.0, 48.0, 14.5, 120.0, 126.0, 72.0, 0.0, 0.0, 0.0, 1.6689763009855292E9, 0.0, 2022-11-20 15:31:40.985
26.0, -30022.103193056966, -4595.853936177961, -49653.617996408706, -49676.21561005302, -37935.4030412916, -40755.410880495416, -37809.24979558585, -20241.53861302598, -38879.808948017235, -12853.30359379096, -42500.65743931025, -46179.32989350914, -39449.085527549454, -25348.532241407902, -37027.31871930584, -47736.97826111058, 0.01359375, 0.9559609375, -0.11025000000000001, 192.0, 0.0, 0.0, 0.0, 0.0, 0.0, 0.0, 0.0, 0.0, 0.0, 1.668976300985535E9, 0.0, 2022-11-20 15:31:40.985
28.0, -30020.158591289353, -4709.780777666661, -49629.34400193024, -49632.20502522052, -37900.668430408055, -40723.53729290215, -37781.08659757216, -20211.76608941151, -38986.069141157765, -12960.077877053962, -42602.827263215455, -46276.984665034375, -39542.1805432058, -25448.5562978454, -37120.8607698513, -47840.46683793865, 0.01359375, 0.9559609375, -0.11025000000000001, 192.0, 0.0, 0.0, 0.0, 0.0, 0.0, 0.0, 0.0, 0.0, 0.0, 1.6689763009855406E9, 0.0, 2022-11-20 15:31:40.985
30.0, -30013.028384808113, -4593.238782076691, -49643.42560093709, -49663.341005246766, -37917.40988700508, -40747.92304610289, -37796.30813554623, -20234.29664782246, -38891.65537257855, -12870.313271321449, -42512.593270849386, -46187.17535581295, -39450.538390939044, -25355.215413000038, -37025.28471056041, -47756.8713136758, 0.01359375, 0.9559609375, -0.11025000000000001, 192.0, 0.0, 0.0, 0.0, 0.0, 0.0, 0.0, 0.0, 0.0, 0.0, 1.6689763009855464E9, 0.0, 2022-11-20 15:31:40.985
32.0, -30016.42584996532, -4705.511594475698, -49633.613185121205, -49638.17294099009, -37902.59068043121, -40725.571301647586, -37777.91264985951, -20210.201467299637, -38969.28298107183, -12950.198406004716, -42595.361780567386, -46271.48613589837, -39534.15626694635, -25439.57089657437, -37103.404057431704, -47840.712707127655, 0.01359375, 0.9559609375, -0.11025000000000001, 192.0, 0.0, 0.0, 0.0, 0.0, 0.0, 0.0, 0.0, 0.0, 0.0, 1.668976300985552E9, 0.0, 2022-11-20 15:31:40.985
34.0, -29997.628032878405, -4585.482726750699, -49632.137969987154, -49654.28854874236, -37913.14070381412, -40736.92598783088, -37784.43935924046, -20217.376377269793, -38878.69136079447, -12865.708811963656, -42503.80903527845, -46183.39791100001, -39446.31391123699, -25346.766453595934, -37020.5908442248, -47750.054031616935, 0.01359375, 0.9559609375, -0.11025000000000001, 192.0, 0.0, 0.0, 0.0, 0.0, 0.0, 0.0, 0.0, 0.0, 0.0, 1.6689763009855578E9, 0.0, 2022-11-20 15:31:40.985
36.0, -30024.02544308012, -4699.4989752172205, -49629.545167630335, -49642.48682766996, -37918.08043933874, -40738.53531343166, -37790.76490292131, -20219.05275810394, -38974.98267590794, -12957.663888652789, -42598.17810036875, -46279.06337726872, -39547.05322349706, -25448.824518778863, -37116.837455849345, -47839.77393386054, 0.01, 0.9580000000000001, -0.108, 192.0, 0.0, 40.0, 14.5, 120.0, 126.0, 80.0, 0.0, 0.0, 0.0, 1.6689763009855635E9, 0.0, 2022-11-20 15:31:40.985
38.0, -29990.810750819535, -4582.420537760322, -49602.074873694764, -49636.58596713376, -37901.02605831934, -40722.754981846214, -37772.101196301126, -20202.22189452909, -38872.43287234699, -12854.778808925012, -42488.09575892636, -46170.925637593944, -39438.244931488625, -25343.39134018318, -37011.918367376136, -47731.233862785564, 0.01, 0.9580000000000001, -0.108, 192.0, 0.0, 0.0, 0.0, 0.0, 0.0, 0.0, 0.0, 0.0, 0.0, 1.668976300985571E9, 0.0, 2022-11-20 15:31:40.985
40.0, -30030.283931527607, -4692.167603035879, -49635.89306305564, -49653.43918245306, -37922.349622529706, -40737.238912253255, -37793.24594655585, -20219.119813337304, -38962.935085646524, -12944.454007679702, -42591.27141133206, -46265.786441062264, -39533.955101246254, -25443.057768709394, -37102.48763590904, -47818.89740453928, 0.01, 0.9580000000000001, -0.108, 192.0, 0.0, 0.0, 0.0, 0.0, 0.0, 0.0, 0.0, 0.0, 0.0, 1.6689763009855769E9, 0.0, 2022-11-20 15:31:40.985
42.0, -29980.50659662564, -4580.945322626272, -49612.89311801113, -49634.663717110605, -37891.191290759, -40705.074751982065, -37759.450108939425, -20187.64855714423, -38872.16465141352, -12857.908053148754, -42494.57776481841, -46169.94216083791, -39438.3566902109, -25343.21252622754, -37012.45480924306, -47719.52154869099, 0.01, 0.9580000000000001, -0.108, 192.0, 0.0, 0.0, 0.0, 0.0, 0.0, 0.0, 0.0, 0.0, 0.0, 1.6689763009855824E9, 0.0, 2022-11-20 15:31:40.985
44.0, -30050.288742815108, -4698.761367650195, -49680.50714498844, -49690.18545033759, -37950.42341356557, -40763.1222323325, -37818.726935234896, -20243.48321479359, -38970.065292127765, -12955.22754850716, -42610.22569063016, -46282.55024940375, -39552.39529042188, -25457.496995627524, -37119.005575061514, -47823.881843552816, 0.01, 0.9580000000000001, -0.108, 192.0, 0.0, 0.0, 0.0, 0.0, 0.0, 0.0, 0.0, 0.0, 0.0, 1.668976300985588E9, 0.0, 2022-11-20 15:31:40.985
46.0, -29945.190840386254, -4560.158200282836, -49582.8523734632, -49604.891193496136, -37858.60244734317, -40679.9513912143, -37729.83404753614, -20162.502844632014, -38873.84103224767, -12864.993556141086, -42498.5787270759, -46182.257972032785, -39440.99419605663, -25353.24845948797, -37022.82601867033, -47733.17846455317, 0.016, 0.9560000000000001, -0.10400000000000001, 192.0, 0.0, 64.0, 14.5, 112.0, 126.0, 96.0, 0.0, 0.0, 0.0, 1.668976300985594E9, 0.0, 2022-11-20 15:31:40.985
48.0, -30044.85726891247, -4681.528172675154, -49674.650987941146, -49688.486717758984, -37952.07744265526, -40773.806366182136, -37824.739554493375, -20256.402523088756, -38933.90016959908, -12921.632876590835, -42568.450280243196, -46246.787458275256, -39513.23503413618, -25423.567047544366, -37089.210699702584, -47806.91686951123, 0.016, 0.9560000000000001, -0.10400000000000001, 192.0, 0.0, 0.0, 0.0, 0.0, 0.0, 0.0, 0.0, 0.0, 0.0, 1.6689763009855995E9, 0.0, 2022-11-20 15:31:40.985
50.0, -29963.765140028616, -4595.116328610937, -49596.17401315857, -49609.18272843155, -37877.042636518796, -40697.05047572261, -37752.09638501363, -20183.3123187199, -38888.66023882154, -12883.07611740543, -42515.230776695105, -46198.46298676288, -39460.060234077006, -25370.705171907568, -37050.2963126059, -47764.42620330169, 0.016, 0.9560000000000001, -0.10400000000000001, 192.0, 0.0, 0.0, 0.0, 0.0, 0.0, 0.0, 0.0, 0.0, 0.0, 1.6689763009856052E9, 0.0, 2022-11-20 15:31:40.985
52.0, -30065.420873811352, -4684.679768643352, -49693.78408119489, -49703.41768305513, -37974.11626268819, -40791.79952046866, -37846.71131929295, -20278.195473932683, -38933.721355643436, -12921.834042290931, -42577.167460580764, -46249.916702499, -39519.560577817036, -25423.27647486645, -37098.039638762435, -47811.11899746883, 0.016, 0.9560000000000001, -0.10400000000000001, 192.0, 0.0, 0.0, 0.0, 0.0, 0.0, 0.0, 0.0, 0.0, 0.0, 1.668976300985611E9, 0.0, 2022-11-20 15:31:40.985
54.0, -29986.496864139663, -4627.906337726872, -49612.1108069552, -49624.516025127894, -37893.940555327004, -40717.927005043864, -37767.832013110165, -20202.37835674028, -38925.20534100597, -12913.005103231086, -42552.66994865775, -46232.34823135713, -39495.68891473877, -25406.6467769917, -37081.83462403234, -47801.26187816404, 0.016, 0.9560000000000001, -0.10400000000000001, 192.0, 0.0, 0.0, 0.0, 0.0, 0.0, 0.0, 0.0, 0.0, 0.0, 1.6689763009856167E9, 0.0, 2022-11-20 15:31:40.985
56.0, -30074.249812871196, -4678.756556362696, -49700.243735342476, -49717.164005895145, -37988.19786169504, -40811.491407333786, -37856.92606650902, -20293.86404679585, -38947.73589941691, -12937.234394220639, -42584.74470195112, -46261.40549914903, -39532.07755471201, -25442.767196031476, -37102.28647020894, -47832.397858190285, 0.02, 0.9580000000000001, -0.10200000000000001, 192.0, 0.0, 80.0, 14.5, 120.0, 126.0, 104.0, 0.0, 0.0, 0.0, 1.6689763009856224E9, 0.0, 2022-11-20 15:31:40.985
58.0, -29966.670866807806, -4620.127930656425, -49582.8523734632, -49599.370312615676, -37883.189366244005, -40699.1068362125, -37750.46470766839, -20184.94399606514, -38922.47842818242, -12925.455024892692, -42545.025652054035, -46232.19176914594, -39504.56255728752, -25416.258027107484, -37077.833661774835, -47804.81580553244, 0.02, 0.9580000000000001, -0.10200000000000001, 192.0, 0.0, 0.0, 0.0, 0.0, 0.0, 0.0, 0.0, 0.0, 0.0, 1.6689763009856281E9, 0.0, 2022-11-20 15:31:40.985
60.0, -30037.883524642413, -4626.587584804009, -49656.83664761027, -49688.33025554779, -37962.33689336025, -40785.83160469909, -37830.84158072968, -20266.34904937137, -38898.1820819595, -12892.30738786547, -42526.96544253414, -46208.834196190146, -39487.4187692903, -25404.65747173518, -37054.56549579686, -47780.094776164864, 0.02, 0.9580000000000001, -0.10200000000000001, 192.0, 0.0, 0.0, 0.0, 0.0, 0.0, 0.0, 0.0, 0.0, 0.0, 1.6689763009856339E9, 0.0, 2022-11-20 15:31:40.985
62.0, -29962.267573150108, -4625.58175630352, -49573.26347509187, -49591.27898112285, -37866.29144743579, -40687.84155700702, -37736.316053428185, -20168.068429001385, -38909.17914023151, -12914.726187554144, -42534.76620134905, -46219.786550973244, -39488.11167336842, -25406.423259547148, -37059.95226621059, -47784.67688377821, 0.02, 0.9580000000000001, -0.10200000000000001, 192.0, 0.0, 0.0, 0.0, 0.0, 0.0, 0.0, 0.0, 0.0, 0.0, 1.6689763009856396E9, 0.0, 2022-11-20 15:31:40.985
64.0, -30054.2450015837, -4626.744047015196, -49678.96487462102, -49702.4342062991, -37964.08032942776, -40790.10078789006, -37833.8814179756, -20269.277127895013, -38911.213148976945, -12896.375405356337, -42544.17628576473, -46215.8079404602, -39489.497481524646, -25400.902378666688, -37051.3468445953, -47773.612770272826, 0.02, 0.9580000000000001, -0.10200000000000001, 192.0, 0.0, 0.0, 0.0, 0.0, 0.0, 0.0, 0.0, 0.0, 0.0, 1.668976300985646E9, 0.0, 2022-11-20 15:31:40.985
66.0, -29980.394837903365, -4643.485503612221, -49589.781414244346, -49601.40432136111, -37871.54410738279, -40694.54708034362, -37741.30049244172, -20175.913891305197, -38940.51628595785, -12929.835966805931, -42565.3433877639, -46244.619339063094, -39512.18450214678, -25422.27064636596, -37073.40801637268, -47800.56897408593, 0.016, 0.9560000000000001, -0.10200000000000001, 192.0, 0.0, 64.0, 14.5, 112.0, 126.0, 104.0, 0.0, 0.0, 0.0, 1.668976300985652E9, 0.0, 2022-11-20 15:31:40.985
68.0, -30034.642521696394, -4596.569192000531, -49666.202028537045, -49686.519764246914, -37959.744091003435, -40776.35446505004, -37822.61613877012, -20259.263546379036, -38898.629116848606, -12883.791373228, -42527.948919290175, -46202.62041123157, -39483.686027966265, -25391.78286692892, -37039.50042003398, -47765.83436320238, 0.016, 0.9560000000000001, -0.10200000000000001, 192.0, 0.0, 0.0, 0.0, 0.0, 0.0, 0.0, 0.0, 0.0, 0.0, 1.6689763009856577E9, 0.0, 2022-11-20 15:31:40.985
70.0, -29972.974058744203, -4643.261986167668, -49589.37908284415, -49591.882478223146, -37881.40122668758, -40692.02133322017, -37746.150820988514, -20176.5620918944, -38941.052727824776, -12936.183862231239, -42562.88469587382, -46238.36085061561, -39522.62276680741, -25435.36876861677, -37087.422560146166, -47810.1355207128, 0.016, 0.9560000000000001, -0.10200000000000001, 192.0, 0.0, 0.0, 0.0, 0.0, 0.0, 0.0, 0.0, 0.0, 0.0, 1.6689763009856648E9, 0.0, 2022-11-20 15:31:40.985
72.0, -30024.360719246954, -4580.542991226076, -49650.84638009625, -49665.620883181204, -37944.2543320959, -40759.255380541734, -37806.41112404002, -20240.935115925684, -38877.66318054953, -12860.724372950122, -42500.50097709906, -46170.456250960386, -39456.79687938653, -25371.55453819687, -37020.635547713704, -47741.85094140183, 0.016, 0.9560000000000001, -0.10200000000000001, 192.0, 0.0, 0.0, 0.0, 0.0, 0.0, 0.0, 0.0, 0.0, 0.0, 1.6689763009856703E9, 0.0, 2022-11-20 15:31:40.985
74.0, -30001.69605036927, -4672.341605704022, -49611.61906857718, -49604.310048140294, -37895.013439060865, -40700.71616181328, -37757.0137687938, -20183.267615230994, -38958.107108844175, -12946.219795491672, -42581.14607109381, -46252.75537404482, -39529.082420955, -25443.03541696494, -37093.68104859365, -47812.08012248041, 0.016, 0.9560000000000001, -0.10200000000000001, 192.0, 0.0, 0.0, 0.0, 0.0, 0.0, 0.0, 0.0, 0.0, 0.0, 1.668976300985676E9, 0.0, 2022-11-20 15:31:40.985
76.0, -30014.97298657572, -4577.391395257878, -49646.219568994, -49660.949368590045, -37937.32529131476, -40746.15725829092, -37796.4198942685, -20227.412310530224, -38870.868250235115, -12864.702983463167, -42501.283288155, -46177.161774296976, -39449.37610022737, -25360.915107836143, -37016.90280638967, -47729.64688892924, 0.012, 0.96, -0.108, 192.0, 0.0, 48.0, 15.0, 0.0, 126.0, 80.0, 0.0, 0.0, 0.0, 1.6689763009856818E9, 0.0, 2022-11-20 15:31:40.985
78.0, -30008.80390510606, -4691.429995468855, -49613.8095395338, -49623.80076930532, -37904.95996534347, -40718.843426566535, -37771.7659201343, -20201.90897010672, -38968.23244908243, -12963.162417788795, -42594.49006253363, -46277.9234383015, -39545.95798801875, -25462.28026894096, -37111.33892671334, -47829.670945366735, 0.012, 0.96, -0.108, 192.0, 0.0, 0.0, 0.0, 0.0, 0.0, 0.0, 0.0, 0.0, 0.0, 1.6689763009856875E9, 0.0, 2022-11-20 15:31:40.985
80.0, -30006.814599849535, -4575.737366168185, -49621.029152992865, -49660.63644416767, -37922.99782311891, -40748.79476413665, -37793.60357446713, -20229.96040939813, -38871.918782224515, -12872.369631811338, -42494.91304098524, -46181.27449527675, -39444.92810308076, -25371.97922134152, -37016.031088355914, -47742.74501118005, 0.012, 0.96, -0.108, 192.0, 0.0, 0.0, 0.0, 0.0, 0.0, 0.0, 0.0, 0.0, 0.0, 1.6689763009856932E9, 0.0, 2022-11-20 15:31:40.985
82.0, -29990.74369558617, -4662.238617210223, -49593.6035625462, -49610.479129609965, -37883.5916976442, -40705.92411827137, -37760.74651011783, -20193.057679302416, -38949.65814944007, -12951.025420549562, -42576.63101871384, -46260.422022392995, -39528.21070292124, -25449.696236812622, -37094.888042794235, -47822.00429701857, 0.012, 0.96, -0.108, 192.0, 0.0, 0.0, 0.0, 0.0, 0.0, 0.0, 0.0, 0.0, 0.0, 1.6689763009856987E9, 0.0, 2022-11-20 15:31:40.985
84.0, -29979.612526847428, -4549.317604222012, -49608.28865865334, -49637.14476074514, -37903.17182578705, -40726.040688281144, -37775.7668823918, -20212.95073186764, -38846.66131099001, -12841.948907607664, -42471.488412796076, -46149.93734955041, -39423.11280049238, -25344.240706472483, -36994.014620067435, -47715.47588294457, 0.012, 0.96, -0.108, 192.0, 0.0, 0.0, 0.0, 0.0, 0.0, 0.0, 0.0, 0.0, 0.0, 1.6689763009857047E9, 0.0, 2022-11-20 15:31:40.985
86.0, -30017.364623232443, -4682.109318030992, -49633.56848163229, -49645.12433351569, -37921.008517862385, -40735.51782793019, -37789.80377790973, -20221.19852557165, -38956.788355921315, -12946.488016425135, -42586.93517290773, -46261.047871237744, -39539.99007224919, -25455.395931648723, -37101.12417949727, -47821.87018655184, 0.014, 0.9520000000000001, -0.108, 192.0, 0.0, 56.0, 14.5, 96.0, 126.0, 80.0, 0.0, 0.0, 0.0, 1.6689763009857104E9, 0.0, 2022-11-20 15:31:40.985
88.0, -29975.633916334384, -4560.337014238478, -49606.38876037464, -49627.98054551847, -37896.533357683824, -40712.78610381915, -37760.43358569546, -20194.734060136565, -38864.34154085416, -12867.675765475722, -42492.56610781743, -46170.54565793821, -39449.53256243856, -25361.943288081085, -37013.795913910384, -47733.35727850882, 0.014, 0.9520000000000001, -0.108, 192.0, 0.0, 0.0, 0.0, 0.0, 0.0, 0.0, 0.0, 0.0, 0.0, 1.668976300985716E9, 0.0, 2022-11-20 15:31:40.985
90.0, -30014.078916797513, -4664.227922466746, -49630.327478686275, -49633.83670256576, -37921.67907019604, -40734.646109896436, -37786.629830197075, -20214.604760957332, -38951.245123296394, -12951.248937994116, -42580.0508356155, -46254.02942347878, -39539.967720504734, -25451.864356024787, -37094.35160092731, -47816.885747538305, 0.014, 0.9520000000000001, -0.108, 192.0, 0.0, 0.0, 0.0, 0.0, 0.0, 0.0, 0.0, 0.0, 0.0, 1.6689763009857216E9, 0.0, 2022-11-20 15:31:40.985
92.0, -29958.154852170333, -4545.562511153521, -49587.16626014307, -49596.15166141411, -37887.48090117942, -40700.91732751338, -37751.47053616888, -20181.434772185657, -38854.03738666027, -12853.616518213335, -42473.20949711913, -46150.85377107308, -39439.18370475575, -25349.29220071938, -37002.35182074927, -47720.057990557914, 0.014, 0.9520000000000001, -0.108, 192.0, 0.0, 0.0, 0.0, 0.0, 0.0, 0.0, 0.0, 0.0, 0.0, 1.6689763009857273E9, 0.0, 2022-11-20 15:31:40.985
94.0, -30033.793155407093, -4666.30663470109, -49651.42752545208, -49646.84541783875, -37954.156154889606, -40759.14362181945, -37817.34112707867, -20243.974953171608, -38938.90696035707, -12931.89232729582, -42565.87982963084, -46238.36085061561, -39535.81029603604, -25441.157870430696, -37091.13294972575, -47803.944087498676, 0.014, 0.9520000000000001, -0.108, 192.0, 0.0, 0.0, 0.0, 0.0, 0.0, 0.0, 0.0, 0.0, 0.0, 1.6689763009857333E9, 0.0, 2022-11-20 15:31:40.985
96.0, -29962.267573150108, -4562.61689217292, -49579.209039116984, -49587.0545014208, -37883.5916976442, -40693.78712103214, -37749.54828614572, -20179.46781867359, -38879.250154405854, -12880.080983648419, -42497.774064275516, -46172.87023936155, -39466.631646946866, -25372.135683552708, -37031.699661219085, -47741.716830935104, 0.016, 0.9560000000000001, -0.114, 192.0, 0.0, 64.0, 14.5, 112.0, 126.0, 56.0, 0.0, 0.0, 0.0, 1.6689763009857388E9, 0.0, 2022-11-20 15:31:40.985
98.0, -30026.819411137036, -4640.53507334412, -49636.36244968921, -49642.73269685897, -37934.39721279111, -40746.22431352429, -37800.48791175937, -20230.80977568743, -38932.15673353156, -12926.594963859912, -42557.453221971184, -46226.022687676275, -39521.16990341782, -25430.205515647594, -37079.86767052027, -47793.9305059827, 0.016, 0.9560000000000001, -0.114, 192.0, 0.0, 0.0, 0.0, 0.0, 0.0, 0.0, 0.0, 0.0, 0.0, 1.6689763009857445E9, 0.0, 2022-11-20 15:31:40.985
100.0, -29937.21126761571, -4544.981365797683, -49543.4462479885, -49560.701794707995, -37843.3809093691, -40656.57146651405, -37713.293756639214, -20143.570917078367, -38849.65644474703, -12851.291936789983, -42468.046244149955, -46146.673994859935, -39433.148733752816, -25345.693569862076, -37005.01167833945, -47712.48074918756, 0.016, 0.9560000000000001, -0.114, 192.0, 0.0, 0.0, 0.0, 0.0, 0.0, 0.0, 0.0, 0.0, 0.0, 1.6689763009857502E9, 0.0, 2022-11-20 15:31:40.985
102.0, -30049.349969547984, -4648.20172169229, -49645.280795726874, -49670.76178440593, -37951.04926241031, -40762.11640383201, -37820.693888746966, -20248.087674151382, -38914.11887575613, -12916.313161410471, -42538.25307348408, -46217.68548699444, -39501.030981663585, -25420.706024254087, -37060.46635633306, -47773.88099120629, 0.016, 0.9560000000000001, -0.114, 192.0, 0.0, 0.0, 0.0, 0.0, 0.0, 0.0, 0.0, 0.0, 0.0, 1.6689763009857576E9, 0.0, 2022-11-20 15:31:40.985
104.0, -29957.238430647663, -4584.2757325501125, -49556.03028011684, -49579.365501328175, -37860.21177294395, -40670.36249284297, -37730.88457952554, -20156.266707928982, -38891.45420687845, -12903.12563218184, -42509.50873011455, -46195.3560942836, -39470.16322257081, -25387.021945359942, -37034.22540834253, -47749.38347928327, 0.016, 0.9560000000000001, -0.114, 192.0, 0.0, 0.0, 0.0, 0.0, 0.0, 0.0, 0.0, 0.0, 0.0, 1.6689763009857633E9, 0.0, 2022-11-20 15:31:40.985
106.0, -30056.70369347378, -4636.467055853254, -49662.424583724096, -49683.30111304535, -37959.6099805367, -40771.9735231368, -37826.974728938905, -20255.597860288366, -38914.968242045434, -12913.6980073092, -42541.02468979653, -46216.54554802723, -39502.81912122001, -25415.252198606995, -37049.91633295016, -47774.1268603953, 0.019, 0.9550000000000001, -0.111, 192.0, 0.0, 88.0, 14.5, 104.0, 126.0, 80.0, 0.0, 0.0, 0.0, 1.6689763014653275E9, 0.0, 2022-11-20 15:31:41.465
108.0, -29955.74086376916, -4583.515773238632, -49567.56378025577, -49577.97969317195, -37860.01060724385, -40677.02331269065, -37731.01868999228, -20163.329859176858, -38911.95075654397, -12913.340379397916, -42524.50675064406, -46201.45812051989, -39487.37406580139, -25402.467000778557, -37043.18845786911, -47776.13851739628, 0.019, 0.9550000000000001, -0.111, 192.0, 0.0, 0.0, 0.0, 0.0, 0.0, 0.0, 0.0, 0.0, 0.0, 1.6689763014654312E9, 0.0, 2022-11-20 15:31:41.465
110.0, -30058.33537081902, -4619.815006234051, -49682.29528454486, -49695.907496918146, -37980.10653020222, -40798.817968227624, -37849.147659438575, -20283.179912946216, -38905.35699192965, -12905.561972327469, -42532.2404542256, -46197.792434429226, -39500.85216770794, -25417.107393396785, -37055.996007442, -47789.21428790263, 0.019, 0.9550000000000001, -0.111, 192.0, 0.0, 0.0, 0.0, 0.0, 0.0, 0.0, 0.0, 0.0, 0.0, 1.6689763014654372E9, 0.0, 2022-11-20 15:31:41.465
112.0, -29958.110148681422, -4600.10076762447, -49565.730937210436, -49562.378175542144, -37864.793880557285, -40677.93973421332, -37736.65132959501, -20167.12965573426, -38924.46773343894, -12925.432673148236, -42540.264730485054, -46212.47753053636, -39514.48673182568, -25429.46790808057, -37080.15824319819, -47798.22204091812, 0.019, 0.9550000000000001, -0.111, 192.0, 0.0, 0.0, 0.0, 0.0, 0.0, 0.0, 0.0, 0.0, 0.0, 1.6689763014654448E9, 0.0, 2022-11-20 15:31:41.465
114.0, -30024.539533202595, -4578.777203414107, -49637.99412703444, -49636.831836322766, -37939.47105878247, -40746.78310713567, -37809.20509209694, -20237.872926935306, -38877.64082880507, -12873.59897775638, -42497.192918919674, -46166.00825381378, -39467.48101323617, -25382.149265068685, -37027.497533261485, -47729.78099939597, 0.019, 0.9550000000000001, -0.111, 192.0, 0.0, 0.0, 0.0, 0.0, 0.0, 0.0, 0.0, 0.0, 0.0, 1.6689763014654527E9, 0.0, 2022-11-20 15:31:41.465
116.0, -29965.59798307395, -4617.691590510797, -49567.49672502241, -49548.609500957675, -37863.09514797868, -40660.23715260472, -37729.76699230278, -20155.03736198394, -38922.545483415786, -12917.766024800067, -42534.07329727093, -46205.190861843934, -39497.23118510618, -25408.010233403475, -37061.539240066915, -47751.26102581752, 0.0175, 0.9565000000000001, -0.10750000000000001, 192.0, 0.0, 64.0, 14.5, 120.0, 126.0, 96.0, 0.0, 0.0, 0.0, 1.6689763014654615E9, 0.0, 2022-11-20 15:31:41.465
118.0, -30024.360719246954, -4565.992005585672, -49643.80558059282, -49638.77643809038, -37946.26598909688, -40748.34772924754, -37810.79206595327, -20242.432682804192, -38880.300686395254, -12868.011041642552, -42505.91009925724, -46166.16471602496, -39467.59277195844, -25379.645869689688, -37023.76479193745, -47720.28150800247, 0.0175, 0.9565000000000001, -0.10750000000000001, 192.0, 0.0, 0.0, 0.0, 0.0, 0.0, 0.0, 0.0, 0.0, 0.0, 1.668976301465469E9, 0.0, 2022-11-20 15:31:41.465
120.0, -29963.854547006435, -4615.791692232096, -49557.08081210623, -49550.218826558455, -37861.798746800276, -40667.613228274975, -37730.28108242525, -20164.08981848834, -38921.56200665975, -12914.256800920582, -42541.248207241086, -46206.040228133235, -39505.76955148811, -25423.544695799912, -37064.28850463492, -47772.919866194716, 0.0175, 0.9565000000000001, -0.10750000000000001, 192.0, 0.0, 0.0, 0.0, 0.0, 0.0, 0.0, 0.0, 0.0, 0.0, 1.6689763014654768E9, 0.0, 2022-11-20 15:31:41.465
