%OpenBCI Raw EEG Data
%Number of channels = 16
%Sample Rate = 125 Hz
%Board = OpenBCI_GUI$BoardCytonSerialDaisy
Sample Index, EXG Channel 0, EXG Channel 1, EXG Channel 2, EXG Channel 3, EXG Channel 4, EXG Channel 5, EXG Channel 6, EXG Channel 7, EXG Channel 8, EXG Channel 9, EXG Channel 10, EXG Channel 11, EXG Channel 12, EXG Channel 13, EXG Channel 14, EXG Channel 15, Accel Channel 0, Accel Channel 1, Accel Channel 2, Other, Other, Other, Other, Other, Other, Other, Analog Channel 0, Analog Channel 1, Analog Channel 2, Timestamp, Other, Timestamp (Formatted)
134.0, -12442.903213847067, -20958.42611294104, -26011.596740674584, -11265.502722919313, -1858.5251997143268, -13072.037765030595, 44458.13381172822, -14340.588669847093, -19470.403429317885, -2814.50931006781, -31431.380680964077, -24996.492266236815, 6775.059613592579, 20477.796551918575, 1145.6833655456742, -20095.760535688467, 0.0, 0.0, 0.0, 192.0, 0.0, 0.0, 0.0, 0.0, 0.0, 0.0, 0.0, 0.0, 0.0, 1.6620646884309769E9, 0.0, 2022-09-01 16:38:08.430
136.0, -12328.663447935993, -20836.810271359715, -25911.349166792534, -11148.223119762317, -1767.9782829258781, -12963.18476953325, 44016.57510001363, -14230.998066782722, -19543.113654031, -2868.667586883019, -31495.597242784173, -25051.05287445222, 6689.94417070677, 20438.41277818832, 1056.9692918025603, -20170.41536216919, 0.0, 0.0, 0.0, 192.0, 0.0, 0.0, 0.0, 0.0, 0.0, 0.0, 0.0, 0.0, 0.0, 1.6620646884309814E9, 0.0, 2022-09-01 16:38:08.430
138.0, -12426.27351597232, -20936.119071974645, -25987.90389155196, -11247.84484479962, -1832.977155801911, -13038.48779660318, 44388.06109286083, -14313.900686967456, -19456.478292522228, -2787.93308591045, -31409.475971397875, -24966.831501344623, 6778.814706661071, 20484.09974385497, 1156.9709964956041, -20087.713907684556, 0.0, 0.0, 0.0, 192.0, 0.0, 0.0, 0.0, 0.0, 0.0, 0.0, 0.0, 0.0, 0.0, 1.6620646884309852E9, 0.0, 2022-09-01 16:38:08.430
140.0, -12352.557462758716, -20857.642097192063, -25927.218905355803, -11169.054945594662, -1774.4155853290065, -12959.273214253571, 44088.547717159716, -14234.686104617847, -19555.071837314586, -2875.3284067307004, -31505.767286511338, -25055.52322334328, 6677.002510667147, 20428.980342028182, 1061.7302133715407, -20177.076182016874, 0.066, 0.439, -0.201, 192.0, 2.0, 16.0, 13.5, 56.0, 121.5, 56.0, 0.0, 0.0, 0.0, 1.662064688430989E9, 0.0, 2022-09-01 16:38:08.430
142.0, -12441.338591735195, -20952.614659382663, -25992.150722998467, -11255.869121059075, -1827.2327574768972, -13032.765750022621, 44311.32755414576, -14307.999826431254, -19465.016658904155, -2786.83785043214, -31416.136791245557, -24974.453446203883, 6760.620386674451, 20489.978252646717, 1156.8592377733275, -20081.991861103998, 0.066, 0.439, -0.201, 192.0, 0.0, 0.0, 0.0, 0.0, 0.0, 0.0, 0.0, 0.0, 0.0, 1.6620646884309928E9, 0.0, 2022-09-01 16:38:08.430
144.0, -12384.54280907426, -20887.213455106434, -25945.18970789787, -11192.121945872539, -1810.3348386686848, -12982.451973253725, 44176.85945950264, -14250.600546670026, -19578.228244570284, -2895.4673284849323, -31532.701138579985, -25087.910901059022, 6660.50692325913, 20408.394385384847, 1053.013033033971, -20190.28606298996, 0.066, 0.439, -0.201, 192.0, 0.0, 0.0, 0.0, 0.0, 0.0, 0.0, 0.0, 0.0, 0.0, 1.6620646884309967E9, 0.0, 2022-09-01 16:38:08.430
146.0, -12409.800280308758, -20914.571990319728, -25959.025437715703, -11221.31332413117, -1808.434940389984, -13020.159366149828, 44225.1392275261, -14282.407079029928, -19451.873833164434, -2763.726146665352, -31398.12128521458, -24954.582745383115, 6794.706796968794, 20496.169685860837, 1163.520057621009, -20062.411732961147, 0.066, 0.439, -0.201, 192.0, 0.0, 0.0, 0.0, 0.0, 0.0, 0.0, 0.0, 0.0, 0.0, 1.6620646884310005E9, 0.0, 2022-09-01 16:38:08.431
148.0, -12413.398911166063, -20908.738185016893, -25975.073990234614, -11216.574754306646, -1839.5038651828606, -13022.551002806546, 44261.214943076964, -14283.770535441701, -19579.099962604043, -2888.694749914974, -31530.309501923264, -25077.78556082077, 6658.450562769242, 20399.677205047275, 1051.8730940667504, -20191.403650212724, 0.066, 0.439, -0.201, 192.0, 0.0, 0.0, 0.0, 0.0, 0.0, 0.0, 0.0, 0.0, 0.0, 1.662064688431005E9, 0.0, 2022-09-01 16:38:08.431
150.0, -12408.637989597082, -20910.12399317312, -25951.582306812088, -11214.540745561213, -1789.234791902875, -13002.590895007956, 44142.41542129701, -14270.873578890989, -19468.65999325037, -2775.2819985487463, -31411.487628398852, -24959.142501251998, 6767.8623518779705, 20484.926758399815, 1152.3441853933557, -20074.034640077905, 0.098, 0.6575, -0.3015, 192.0, 2.0, 8.0, 13.5, 48.0, 121.5, 56.0, 0.0, 0.0, 0.0, 1.6620646884310088E9, 0.0, 2022-09-01 16:38:08.431
152.0, -12442.187958024497, -20936.543755119295, -25988.82031307463, -11232.802120781198, -1836.1958070034752, -13010.90574394533, 44348.677319130584, -14288.866733177512, -19580.552825993636, -2892.04751158327, -31531.76236531286, -25078.21024396542, 6656.662423212818, 20383.807466484006, 1070.335634986834, -20188.363812966803, 0.098, 0.6575, -0.3015, 192.0, 0.0, 0.0, 0.0, 0.0, 0.0, 0.0, 0.0, 0.0, 0.0, 1.6620646884310124E9, 0.0, 2022-09-01 16:38:08.431
154.0, -12416.617562367626, -20911.24158039589, -25945.18970789787, -11205.510640801269, -1789.9500477254448, -12997.360586805415, 44067.26885643826, -14259.63065142997, -19487.122534170456, -2784.535620753243, -31425.345709961144, -24971.637126402515, 6742.202549243278, 20502.942264430796, 1150.2431214145568, -20077.812084890855, 0.098, 0.6575, -0.3015, 192.0, 0.0, 0.0, 0.0, 0.0, 0.0, 0.0, 0.0, 0.0, 0.0, 1.6620646884310164E9, 0.0, 2022-09-01 16:38:08.431
156.0, -12445.89834760408, -20931.53696436131, -25993.76004859925, -11239.12766446205, -1858.301682269774, -13027.20016565325, 44421.946337455076, -14301.36135832803, -19586.431334785382, -2900.205898309457, -31541.172449728543, -25083.90993880152, 6663.658519227329, 20394.826876500472, 1070.3803384757446, -20188.073240288883, 0.098, 0.6575, -0.3015, 192.0, 0.0, 0.0, 0.0, 0.0, 0.0, 0.0, 0.0, 0.0, 0.0, 1.66206468843102E9, 0.0, 2022-09-01 16:38:08.431
158.0, -12408.772100063814, -20896.9811674334, -25949.123614922002, -11209.131623403027, -1801.59530658666, -12990.230380324172, 43992.79284391318, -14256.859035117512, -19475.879606709434, -2769.671710690464, -31422.954073304427, -24961.981172797823, 6753.110200537468, 20500.416517307345, 1140.4754090875876, -20071.30772725436, 0.098, 0.6575, -0.3015, 192.0, 0.0, 0.0, 0.0, 0.0, 0.0, 0.0, 0.0, 0.0, 0.0, 1.6620646884310236E9, 0.0, 2022-09-01 16:38:08.431
160.0, -12493.798135971801, -20974.139389293123, -26035.80367991968, -11288.189743541448, -1891.4493192969942, -13055.899805533863, 44481.2008120061, -14327.334085385095, -19593.62859649999, -2908.4313402690104, -31558.964438314968, -25102.171314021507, 6639.809207893516, 20375.09028614644, 1049.1908847321135, -20201.03725207296, 0.114, 0.7617499999999999, -0.35075, 192.0, 2.0, 8.0, 13.5, 8.0, 121.5, 64.0, 0.0, 0.0, 0.0, 1.6620646884310277E9, 0.0, 2022-09-01 16:38:08.431
162.0, -12405.754614562347, -20890.700327241462, -25936.584286282574, -11196.838163952609, -1769.2746841042858, -12958.647365408822, 43934.186569951366, -14225.544241135627, -19498.499572098204, -2785.474394020366, -31449.440890483966, -24987.57392019915, 6733.1724444833335, 20493.196903848282, 1123.8010077239285, -20085.21051230556, 0.114, 0.7617499999999999, -0.35075, 192.0, 0.0, 0.0, 0.0, 0.0, 0.0, 0.0, 0.0, 0.0, 0.0, 1.6620646884310324E9, 0.0, 2022-09-01 16:38:08.431
164.0, -12547.419970920084, -21032.186869643556, -26078.897843229515, -11339.777569744298, -1908.4142933385724, -13078.832695345009, 44520.47282701407, -14368.818923094144, -19602.725756493302, -2923.854043943172, -31572.800168132806, -25115.44825022796, 6631.963745589704, 20368.474169787667, 1056.1646290021692, -20201.059603817415, 0.114, 0.7617499999999999, -0.35075, 192.0, 0.0, 0.0, 0.0, 0.0, 0.0, 0.0, 0.0, 0.0, 0.0, 1.662064688431036E9, 0.0, 2022-09-01 16:38:08.431
166.0, -12390.26485565482, -20879.65856548054, -25924.156716365425, -11189.126812115528, -1776.337835352163, -12959.653193909311, 43888.34314207353, -14226.639476613936, -19547.114616288498, -2847.746354072852, -31496.446609073475, -25037.798289990224, 6691.75466200765, 20440.625600889398, 1084.4172339936774, -20133.020893695462, 0.114, 0.7617499999999999, -0.35075, 192.0, 0.0, 0.0, 0.0, 0.0, 0.0, 0.0, 0.0, 0.0, 0.0, 1.6620646884310417E9, 0.0, 2022-09-01 16:38:08.431
168.0, -12493.462859804971, -20979.794380640316, -26029.031101349727, -11292.458926732414, -1895.204412365486, -13069.959052796252, 44526.306632316904, -14337.325315156617, -19554.311878003107, -2881.3857294780887, -31517.56900758374, -25063.793368791747, 6695.867382987426, 20397.643196301844, 1093.559097475898, -20162.033457998452, 0.114, 0.7617499999999999, -0.35075, 192.0, 0.0, 0.0, 0.0, 0.0, 0.0, 0.0, 0.0, 0.0, 0.0, 1.6620646884310453E9, 0.0, 2022-09-01 16:38:08.431
170.0, -12347.260099322808, -20830.59648640114, -25890.27147177118, -11149.474817451814, -1766.3466055806407, -12930.41711216177, 43858.257694036685, -14195.90582798789, -19509.541333859128, -2797.544336026232, -31451.452547484943, -24989.38441150003, 6719.537880365597, 20482.982156632206, 1112.0663418848924, -20099.090945612304, 0.125, 0.8138749999999999, -0.373375, 192.0, 2.0, 32.0, 13.5, 8.0, 121.5, 80.0, 0.0, 0.0, 0.0, 1.662064688431049E9, 0.0, 2022-09-01 16:38:08.431
172.0, -12486.08678413472, -20970.607813669183, -26023.465516980355, -11293.37534825508, -1905.1285869036421, -13051.407104898348, 44519.80227468041, -14331.938544742889, -19521.454813653807, -2840.906720269528, -31481.33682982169, -25027.918818940976, 6712.1841564398, 20416.910400022316, 1120.202376866624, -20133.35616986229, 0.125, 0.8138749999999999, -0.373375, 192.0, 0.0, 0.0, 0.0, 0.0, 0.0, 0.0, 0.0, 0.0, 0.0, 1.6620646884310527E9, 0.0, 2022-09-01 16:38:08.431
174.0, -12358.033640150266, -20840.163033028013, -25901.290881787645, -11159.466047223335, -1782.1269371660874, -12925.477376637147, 43869.947656386816, -14195.81642101007, -19526.506307900705, -2809.860147221106, -31465.154166836044, -25002.728402939847, 6690.257095129144, 20479.003546119162, 1089.9828183630489, -20119.45338481109, 0.125, 0.8138749999999999, -0.373375, 192.0, 0.0, 0.0, 0.0, 0.0, 0.0, 0.0, 0.0, 0.0, 0.0, 1.6620646884310565E9, 0.0, 2022-09-01 16:38:08.431
176.0, -12494.982778427933, -20975.748714893904, -26015.30713025417, -11285.239313273349, -1898.8924502006116, -13041.170005937816, 44502.94905936111, -14327.669361551925, -19520.359578175496, -2836.950461500938, -31471.345600050165, -25014.597179245615, 6697.968446966225, 20423.28064719208, 1119.8223972108838, -20121.50974530098, 0.125, 0.8138749999999999, -0.373375, 192.0, 0.0, 0.0, 0.0, 0.0, 0.0, 0.0, 0.0, 0.0, 0.0, 1.66206468843106E9, 0.0, 2022-09-01 16:38:08.431
178.0, -12368.49425655535, -20844.74514064135, -25895.70294567382, -11150.882977352498, -1789.1900884139645, -12920.023550990052, 43904.16817714789, -14198.85625825599, -19543.806558109114, -2825.7298857843743, -31475.61478324113, -25010.14918209901, 6681.60697002494, 20467.537101213587, 1082.0255973369597, -20121.152117389694, 0.125, 0.8138749999999999, -0.373375, 192.0, 0.0, 0.0, 0.0, 0.0, 0.0, 0.0, 0.0, 0.0, 0.0, 1.662064688431064E9, 0.0, 2022-09-01 16:38:08.431
180.0, -12504.415214588073, -20981.91779636357, -26021.319749512644, -11295.05172908923, -1903.8321857252345, -13055.609232855944, 44456.36802391625, -14334.888975010988, -19517.476203140763, -2821.058371193215, -31460.16972782251, -25000.247359305307, 6718.643810587384, 20444.17952825779, 1125.879719958272, -20103.069556125352, 0.1275, 0.8419375, -0.3856875, 192.0, 2.0, 8.0, 13.5, 24.0, 121.5, 72.0, 0.0, 0.0, 0.0, 1.6620646884310677E9, 0.0, 2022-09-01 16:38:08.431
182.0, -12402.155983705043, -20874.2270915779, -25930.012873412714, -11198.291027342204, -1806.490338622372, -12948.99141180413, 43953.58788413857, -14236.362485451995, -19585.134933606976, -2871.9979968068596, -31520.295920407287, -25055.702037298925, 6637.708143914717, 20415.3681296549, 1044.1840939741248, -20160.960574264594, 0.1275, 0.8419375, -0.3856875, 192.0, 0.0, 0.0, 0.0, 0.0, 0.0, 0.0, 0.0, 0.0, 0.0, 1.6620646884310713E9, 0.0, 2022-09-01 16:38:08.431
184.0, -12482.912836422067, -20958.00142979639, -26000.62203414703, -11289.352034253125, -1873.076185354732, -13043.427532127802, 44391.16798534012, -14322.12612892701, -19500.71239479928, -2812.7882257447513, -31444.389396237064, -24988.42328648845, 6717.503871620163, 20446.61586840342, 1136.2285776410793, -20091.424297264137, 0.1275, 0.8419375, -0.3856875, 192.0, 0.0, 0.0, 0.0, 0.0, 0.0, 0.0, 0.0, 0.0, 0.0, 1.662064688431075E9, 0.0, 2022-09-01 16:38:08.431
186.0, -12398.64675982556, -20869.756742686837, -25925.65428324393, -11195.184134862917, -1824.17056848652, -12959.094400297929, 44016.530396524715, -14228.069988259076, -19571.366259022507, -2862.8114298357286, -31510.37174586913, -25048.37066511758, 6647.542911475052, 20412.618865086897, 1045.4804951525325, -20157.451350385112, 0.1275, 0.8419375, -0.3856875, 192.0, 0.0, 0.0, 0.0, 0.0, 0.0, 0.0, 0.0, 0.0, 0.0, 1.662064688431079E9, 0.0, 2022-09-01 16:38:08.431
188.0, -12508.170307656565, -20984.063563831278, -26015.128316298524, -11305.199421071939, -1904.323924103251, -13049.998944997662, 44326.951423520026, -14333.145538943476, -19498.834848265036, -2804.741597740841, -31441.103689802134, -24983.058867819174, 6715.156938452356, 20450.14744402736, 1123.398676323733, -20083.19885530458, 0.1275, 0.8419375, -0.3856875, 192.0, 0.0, 0.0, 0.0, 0.0, 0.0, 0.0, 0.0, 0.0, 0.0, 1.6620646884310825E9, 0.0, 2022-09-01 16:38:08.431
190.0, -12427.36875145063, -20894.99186217688, -25945.301466620145, -11216.373588606548, -1836.9557663149556, -12953.171188017272, 44091.81107185019, -14244.252651244718, -19610.280646119198, -2912.409950782055, -31554.181165001533, -25090.794276093755, 6613.88118432536, 20388.590739797444, 1006.0743696778262, -20191.984795568562, 0.12975, 0.8569687500000001, -0.39684375000000005, 192.0, 2.0, 16.0, 13.5, 32.0, 121.5, 32.0, 0.0, 0.0, 0.0, 1.6620646884310863E9, 0.0, 2022-09-01 16:38:08.431
192.0, -12478.286025319818, -20951.38531343762, -25979.32082168112, -11271.448286944424, -1861.7885544048017, -13009.184659622271, 44234.884588108616, -14298.58974201557, -19481.512246312173, -2790.190612100436, -31425.926855316982, -24968.574937412137, 6737.307517207565, 20477.4836274962, 1135.7144875186073, -20065.652735907166, 0.12975, 0.8569687500000001, -0.39684375000000005, 192.0, 0.0, 0.0, 0.0, 0.0, 0.0, 0.0, 0.0, 0.0, 0.0, 1.66206468843109E9, 0.0, 2022-09-01 16:38:08.431
194.0, -12428.016952039832, -20893.918978443024, -25946.75433000974, -11215.300704872692, -1841.5825774172042, -12943.001144290107, 44166.30943611973, -14243.850319844523, -19586.96777665231, -2887.3089417587453, -31536.25506594838, -25071.035333995263, 6628.990963577147, 20398.38080386887, 1039.0208410049488, -20166.772027822975, 0.12975, 0.8569687500000001, -0.39684375000000005, 192.0, 0.0, 0.0, 0.0, 0.0, 0.0, 0.0, 0.0, 0.0, 0.0, 1.6620646884310937E9, 0.0, 2022-09-01 16:38:08.431
196.0, -12464.629109457626, -20934.2415254404, -25966.602679086052, -11253.343373935626, -1829.1773592445088, -12960.122580542873, 44139.46499102891, -14270.985337613267, -19473.398563074894, -2770.0516903462044, -31418.059041268712, -24954.828614572125, 6749.600976657985, 20497.86841843944, 1146.8233045128948, -20044.172709485618, 0.12975, 0.8569687500000001, -0.39684375000000005, 192.0, 0.0, 0.0, 0.0, 0.0, 0.0, 0.0, 0.0, 0.0, 0.0, 1.6620646884310975E9, 0.0, 2022-09-01 16:38:08.431
198.0, -12490.154801625587, -20951.027685526336, -26001.583159158607, -11268.073173531673, -1864.783688161813, -12999.484002528668, 44246.93217837002, -14291.280721578685, -19617.41085260044, -2917.5955554956863, -31570.497938453907, -25106.798125123754, 6588.310788668488, 20366.5072162756, 1020.0889134513037, -20185.01105129851, 0.12975, 0.8569687500000001, -0.39684375000000005, 192.0, 0.0, 0.0, 0.0, 0.0, 0.0, 0.0, 0.0, 0.0, 0.0, 1.6620646884311023E9, 0.0, 2022-09-01 16:38:08.431
200.0, -12447.105341804665, -20916.27072289833, -25940.629952028987, -11234.612612082079, -1816.4368649049838, -12967.90098761332, 44044.514780582766, -14250.555843181115, -19494.58801681853, -2791.777585956763, -31432.36415772011, -24975.503978193283, 6730.780807826616, 20489.24064507969, 1129.2771851154787, -20051.59348864478, 0.13087500000000002, 0.8634843750000001, -0.40042187500000004, 192.0, 2.0, 16.0, 13.5, 24.0, 121.5, 48.0, 0.0, 0.0, 0.0, 1.662064688431106E9, 0.0, 2022-09-01 16:38:08.431
202.0, -12477.861342175167, -20943.562202878264, -25986.562786884642, -11270.330699721659, -1867.9352841300113, -12994.454860026224, 44312.08751345724, -14285.625730231492, -19588.890026675468, -2899.3565320201556, -31541.284208450823, -25088.6708603705, 6628.253356010122, 20398.917245735796, 1054.3094342123788, -20164.358039421804, 0.13087500000000002, 0.8634843750000001, -0.40042187500000004, 192.0, 0.0, 0.0, 0.0, 0.0, 0.0, 0.0, 0.0, 0.0, 0.0, 1.6620646884311097E9, 0.0, 2022-09-01 16:38:08.431
204.0, -12430.69916137447, -20901.51857155783, -25928.112975134012, -11235.864309771576, -1818.3367631836848, -12945.303373969004, 43963.266189487724, -14239.983468053755, -19479.9476242003, -2772.443327002922, -31418.573131391186, -24966.250355988785, 6734.088866006001, 20489.39710729088, 1131.9817461945709, -20054.901546824163, 0.13087500000000002, 0.8634843750000001, -0.40042187500000004, 192.0, 0.0, 0.0, 0.0, 0.0, 0.0, 0.0, 0.0, 0.0, 0.0, 1.6620646884311135E9, 0.0, 2022-09-01 16:38:08.431
206.0, -12489.886580692122, -20956.727380362438, -25988.686202607896, -11293.531810466267, -1877.5018307568826, -12993.091403614451, 44382.49550849146, -14297.159230370431, -19593.248616844252, -2910.6441629700857, -31544.458156163473, -25102.931273332986, 6624.498262941631, 20374.620899512876, 1044.631128863231, -20182.15002800823, 0.13087500000000002, 0.8634843750000001, -0.40042187500000004, 192.0, 0.0, 0.0, 0.0, 0.0, 0.0, 0.0, 0.0, 0.0, 0.0, 1.6620646884311173E9, 0.0, 2022-09-01 16:38:08.431
208.0, -12427.256992728353, -20893.069612153722, -25911.88560865946, -11231.438664369425, -1803.3834461430845, -12940.385990188837, 43908.88439522796, -14236.653058129914, -19484.753249258192, -2781.4734317628663, -31417.768468590795, -24979.348478239594, 6723.717656578739, 20512.86643896895, 1125.4997403025318, -20056.7343898695, 0.13087500000000002, 0.8634843750000001, -0.40042187500000004, 192.0, 0.0, 0.0, 0.0, 0.0, 0.0, 0.0, 0.0, 0.0, 0.0, 1.6620646884311209E9, 0.0, 2022-09-01 16:38:08.431
210.0, -12516.887487994134, -20980.509636462884, -26006.81346736115, -11323.013761402817, -1915.4774445864493, -13023.623886540401, 44451.67415758064, -14336.878280267512, -19582.855055672535, -2905.8385379121946, -31533.014063002356, -25098.68444188648, 6644.257205040122, 20380.90173970482, 1052.4542394225884, -20173.678716859667, 0.13087500000000002, 0.8634843750000001, -0.40042187500000004, 192.0, 0.0, 0.0, 0.0, 0.0, 0.0, 0.0, 0.0, 0.0, 0.0, 1.6620646884311247E9, 0.0, 2022-09-01 16:38:08.431
212.0, -12415.835251311692, -20883.011327148837, -25904.21896031129, -11225.537803833224, -1804.9927717438666, -12931.959382529187, 43875.5579442451, -14238.86588083099, -19510.547162359617, -2805.702722752419, -31446.26694277131, -25007.51167625328, 6711.580659339507, 20463.71495291173, 1094.8331469098505, -20095.291149054905, 0.124, 0.878, -0.406, 192.0, 1.5, 112.0, 13.5, 56.0, 121.5, 40.0, 0.0, 0.0, 0.0, 1.6620646884311285E9, 0.0, 2022-09-01 16:38:08.431
214.0, -12524.688246809035, -20986.20933129899, -26010.277987751724, -11323.952534669941, -1913.8010637523014, -13039.605383825945, 44492.08611155583, -14343.829672793112, -19568.460532243316, -2891.9134011165384, -31522.46403961945, -25085.452209168936, 6661.959786648726, 20368.98825991014, 1070.849725109306, -20165.83325455585, 0.124, 0.878, -0.406, 192.0, 0.0, 0.0, 0.0, 0.0, 0.0, 0.0, 0.0, 0.0, 0.0, 1.662064688431132E9, 0.0, 2022-09-01 16:38:08.431
216.0, -12384.520457329805, -20843.78401562977, -25870.64664013942, -11181.326053300627, -1750.5886257396492, -12886.920617451742, 43856.82718239155, -14191.547237819104, -19519.532563630648, -2810.4859960658546, -31447.876268372092, -25000.225007560854, 6697.722577777216, 20461.882109866394, 1105.8972604152275, -20080.226073292026, 0.124, 0.878, -0.406, 192.0, 0.0, 0.0, 0.0, 0.0, 0.0, 0.0, 0.0, 0.0, 0.0, 1.662064688431136E9, 0.0, 2022-09-01 16:38:08.431
218.0, -12523.972990986465, -20980.979023096446, -26007.729888883816, -11326.880613193585, -1885.0343686383212, -13026.306095875037, 44521.72452470357, -14332.922021498922, -19545.751159876723, -2864.5101624143317, -31490.14341713708, -25042.87213598158, 6674.141487376868, 20407.81324002901, 1110.881699428761, -20117.75465223249, 0.124, 0.878, -0.406, 192.0, 0.0, 0.0, 0.0, 0.0, 0.0, 0.0, 0.0, 0.0, 0.0, 1.6620646884311397E9, 0.0, 2022-09-01 16:38:08.431
220.0, -12379.848942738647, -20837.726692882385, -25864.902241814405, -11181.795439934187, -1769.9452364379451, -12880.639777259801, 43863.55505747259, -14192.731880275236, -19518.683197341346, -2814.531661812265, -31450.066739328715, -24996.961652870377, 6693.699263775261, 20474.555548972556, 1102.8797749137611, -20082.193026804092, 0.124, 0.878, -0.406, 192.0, 0.0, 0.0, 0.0, 0.0, 0.0, 0.0, 0.0, 0.0, 0.0, 1.6620646884311433E9, 0.0, 2022-09-01 16:38:08.431
222.0, -12548.023468020376, -21003.129601851655, -26022.68320592442, -11350.037020449285, -1929.2684709153739, -13035.336200634982, 44523.5573677489, -14353.195053719886, -19539.693837129336, -2874.993130563871, -31492.356239838155, -25043.29681912623, 6690.413557340331, 20391.161190409803, 1104.1985278366242, -20119.118108644263, 0.126, 0.878, -0.406, 192.0, 1.5, 120.0, 13.5, 56.0, 121.5, 40.0, 0.0, 0.0, 0.0, 1.662064688431147E9, 0.0, 2022-09-01 16:38:08.431
224.0, -12389.147268432054, -20844.74514064135, -25876.771018120173, -11190.065585382652, -1773.8120882287133, -12887.88174246332, 43890.62302000797, -14194.676482042847, -19556.39059023745, -2857.4917146553653, -31497.541844551786, -25042.358045859106, 6653.063792355513, 20432.154289740836, 1063.563056416876, -20117.55348653239, 0.126, 0.878, -0.406, 192.0, 0.0, 0.0, 0.0, 0.0, 0.0, 0.0, 0.0, 0.0, 0.0, 1.662064688431151E9, 0.0, 2022-09-01 16:38:08.431
226.0, -12526.14111019863, -20982.364831252675, -26003.39365045949, -11329.227546361393, -1892.7010169864914, -13013.967932935708, 44493.33780924533, -14329.099873197065, -19514.458717639296, -2836.414019634011, -31468.37281803761, -25020.47568803736, 6691.933475963292, 20440.580897400487, 1122.5716617788867, -20090.060840852362, 0.126, 0.878, -0.406, 192.0, 0.0, 0.0, 0.0, 0.0, 0.0, 0.0, 0.0, 0.0, 0.0, 1.6620646884311547E9, 0.0, 2022-09-01 16:38:08.431
228.0, -12421.736111847891, -20873.534187499787, -25905.448306256334, -11221.782710764732, -1811.5641846137269, -12907.975960728641, 43927.21282568131, -14224.270191701675, -19578.54116899266, -2870.165153761525, -31522.151115197077, -25065.648563581537, 6613.143576758334, 20419.5702576125, 1040.853684050284, -20140.776949021452, 0.126, 0.878, -0.406, 192.0, 0.0, 0.0, 0.0, 0.0, 0.0, 0.0, 0.0, 0.0, 0.0, 1.6620646884311583E9, 0.0, 2022-09-01 16:38:08.431
230.0, -12544.201319718519, -20997.385203526643, -26003.371298715032, -11345.343154113669, -1911.4764823289495, -13026.95429646424, 44428.517750324936, -14346.489530383293, -19515.598656606515, -2836.279909167279, -31467.65756221504, -25021.57092351567, 6695.442699842775, 20420.978417513183, 1122.3704960787888, -20086.395154761693, 0.126, 0.878, -0.406, 192.0, 0.0, 0.0, 0.0, 0.0, 0.0, 0.0, 0.0, 0.0, 0.0, 1.6620646884311633E9, 0.0, 2022-09-01 16:38:08.431
232.0, -12430.900327074567, -20882.2290160929, -25896.485256729753, -11228.242364912316, -1808.3678851566178, -12909.182954929229, 43967.20009651186, -14230.238107471241, -19592.131029621487, -2891.2428487828793, -31535.584513614718, -25087.910901059022, 6630.1532542888235, 20406.673301061786, 1034.72930606953, -20157.294888173925, 0.13, 0.88, -0.40800000000000003, 192.0, 2.0, 8.0, 13.5, 64.0, 121.5, 32.0, 0.0, 0.0, 0.0, 1.662064688431167E9, 0.0, 2022-09-01 16:38:08.431
234.0, -12547.844654064735, -21006.571770497772, -25994.85528407756, -11351.914566983529, -1901.9322874465333, -13006.703615987733, 44355.22638025598, -14341.303925669663, -19507.686139069338, -2828.277984652279, -31456.70520743194, -25022.53204852725, 6714.598144840974, 20433.830670574986, 1130.8865107162608, -20079.019079091442, 0.13, 0.88, -0.40800000000000003, 192.0, 0.0, 0.0, 0.0, 0.0, 0.0, 0.0, 0.0, 0.0, 0.0, 1.6620646884311707E9, 0.0, 2022-09-01 16:38:08.431
236.0, -12477.61547298616, -20929.86058352716, -25943.289809619167, -11276.52213293578, -1854.5689409457375, -12924.94093477022, 44040.35735611407, -14267.431410244872, -19623.535230581194, -2931.8783202026275, -31571.01202857638, -25136.324779549217, 6585.539172356031, 20374.5091407906, 1015.9091372381613, -20185.882769332264, 0.13, 0.88, -0.40800000000000003, 192.0, 0.0, 0.0, 0.0, 0.0, 0.0, 0.0, 0.0, 0.0, 0.0, 1.6620646884311745E9, 0.0, 2022-09-01 16:38:08.431
238.0, -12521.938982241034, -20973.06650555927, -25979.007897258747, -11327.729979482887, -1877.524182501338, -12991.347967546937, 44276.391777562116, -14316.314675368629, -19516.20215370681, -2833.1953684324467, -31463.65659995754, -25035.25019112232, 6681.383452580387, 20434.76944384211, 1127.8243217258837, -20078.34852675778, 0.13, 0.88, -0.40800000000000003, 192.0, 0.0, 0.0, 0.0, 0.0, 0.0, 0.0, 0.0, 0.0, 0.0, 1.662064688431178E9, 0.0, 2022-09-01 16:38:08.431
240.0, -12462.729211178925, -20907.173562905024, -25941.23344912928, -11263.669879873978, -1861.7662026603464, -12931.489995895625, 44123.55054897673, -14263.72102066529, -19603.06103266013, -2915.025104883326, -31550.96251379997, -25116.141154306075, 6579.973587986659, 20390.356527609412, 1038.6855648381193, -20164.626260355268, 0.13, 0.88, -0.40800000000000003, 192.0, 0.0, 0.0, 0.0, 0.0, 0.0, 0.0, 0.0, 0.0, 0.0, 1.662064688431182E9, 0.0, 2022-09-01 16:38:08.431
242.0, -12492.412327815573, -20942.064635999755, -25953.66101904643, -11300.080871591672, -1877.0771476122318, -12958.736772386645, 44201.28991619228, -14297.315692581618, -19490.922330727855, -2800.7853389722513, -31435.89573334405, -25006.1035163526, 6706.663275559339, 20465.123112812416, 1130.0818479158697, -20056.421465447125, 0.13, 0.878, -0.404, 192.0, 2.0, 8.0, 13.5, 56.0, 121.5, 48.0, 0.0, 0.0, 0.0, 1.6620646884311855E9, 0.0, 2022-09-01 16:38:08.431
244.0, -12469.725307193436, -20910.77219376233, -25938.126556649993, -11271.157714266505, -1869.2763887973297, -12935.98269653114, 44226.79325661579, -14267.54316896715, -19589.35941330903, -2900.9658576209376, -31541.75359508438, -25111.000253081354, 6607.980323789159, 20387.02611768557, 1032.5388351129097, -20162.502844632014, 0.13, 0.878, -0.404, 192.0, 0.0, 0.0, 0.0, 0.0, 0.0, 0.0, 0.0, 0.0, 0.0, 1.6620646884311895E9, 0.0, 2022-09-01 16:38:08.431
246.0, -12484.745679467402, -20927.692464314994, -25932.40451006943, -11286.736880151855, -1846.3434989861846, -12938.217870976672, 44139.62145324009, -14268.884273634467, -19478.94179569981, -2780.378196284556, -31421.478858170376, -24993.452428990895, 6725.394037412887, 20490.604101491466, 1133.6804787731742, -20044.64209611918, 0.13, 0.878, -0.404, 192.0, 0.0, 0.0, 0.0, 0.0, 0.0, 0.0, 0.0, 0.0, 0.0, 1.662064688431193E9, 0.0, 2022-09-01 16:38:08.431
248.0, -12512.886525736634, -20947.13848199111, -25975.14104546798, -11311.010874630318, -1901.4629008129718, -12966.179903290262, 44335.959176535514, -14299.729680982791, -19611.755861253245, -2925.664535244052, -31564.507670939885, -25139.87870691761, 6582.700500810207, 20364.562614507988, 1024.5369105979098, -20181.99356579704, 0.13, 0.878, -0.404, 192.0, 0.0, 0.0, 0.0, 0.0, 0.0, 0.0, 0.0, 0.0, 0.0, 1.662064688431197E9, 0.0, 2022-09-01 16:38:08.431
250.0, -12468.227740314931, -20904.60311229266, -25918.70289071833, -11272.252949744816, -1835.8828825811008, -12930.148891228306, 44078.73530134384, -14251.941651337345, -19492.688118539827, -2785.2061730869023, -31431.157163519525, -25010.81973443267, 6688.84893522846, 20467.537101213587, 1124.493911802043, -20056.10854102475, 0.13, 0.878, -0.404, 192.0, 0.0, 0.0, 0.0, 0.0, 0.0, 0.0, 0.0, 0.0, 0.0, 1.6620646884312007E9, 0.0, 2022-09-01 16:38:08.431
252.0, -12530.8573282787, -20958.180243752035, -25992.86597882104, -11332.602659774144, -1927.7932557813235, -12992.063223369507, 44428.383639858206, -14310.659684021437, -19599.9764919253, -2910.7782734368175, -31553.331798712232, -25131.943837635976, 6594.099890482413, 20372.251614600613, 1043.692355596108, -20176.651498872223, 0.13, 0.872, -0.402, 192.0, 2.0, 8.0, 13.5, 32.0, 121.5, 56.0, 0.0, 0.0, 0.0, 1.6620646884312043E9, 0.0, 2022-09-01 16:38:08.431
254.0, -12493.082880149232, -20920.09287120019, -25942.865126474517, -11291.363691254102, -1876.0266156228324, -12944.99044954663, 44026.94630944089, -14262.961061353812, -19530.10493875801, -2821.4830543378657, -31468.261059315333, -25038.71471151289, 6665.290196572566, 20444.112473024426, 1076.4600129675882, -20108.210457350073, 0.13, 0.872, -0.402, 192.0, 0.0, 0.0, 0.0, 0.0, 0.0, 0.0, 0.0, 0.0, 0.0, 1.662064688431208E9, 0.0, 2022-09-01 16:38:08.431
0.0, -7610.232545165128, -10486.969111796512, -12805.426157167693, -6321.095683705293, -1807.8761467786012, -6980.025110247745, 21147.231298355022, -7071.130820647576, -9816.84146128195, -1471.7506136596935, -15794.480239686996, -12576.432535223072, 3272.876533612792, 10181.420765092465, 494.4205873513922, -10113.918496837437, 0.11, 0.886, -0.37, 192.0, 1.0, 104.0, 14.0, 16.0, 122.5, 56.0, 0.0, 0.0, 0.0, 1.6620646889934487E9, 0.0, 2022-09-01 16:38:08.993
2.0, -15158.394295977867, -20918.640007810594, -25518.986644624074, -12593.330454031284, -3643.1108287704983, -13960.296089684498, 41936.27589181375, -14080.012032987122, -20608.84482966004, -2961.181457183535, -32128.84451494748, -26544.95406686712, 2743.6542801444866, 17578.66353734297, -413.6637346343678, -20096.699308955587, 0.11, 0.886, -0.37, 192.0, 0.0, 0.0, 0.0, 0.0, 0.0, 0.0, 0.0, 0.0, 0.0, 1.662064688993492E9, 0.0, 2022-09-01 16:38:08.993
4.0, -15269.54952115411, -21020.698072993528, -25655.73461720164, -12710.297132765905, -3591.433595589828, -14026.412549783296, 42487.78283450399, -14190.653168040893, -20685.511313141742, -3070.660301525629, -32223.75002190471, -26650.588411162906, 2708.651448327476, 17404.454041058307, -443.63742394893455, -20211.65433068923, 0.11, 0.886, -0.37, 192.0, 0.0, 0.0, 0.0, 0.0, 0.0, 0.0, 0.0, 0.0, 0.0, 1.6620646889935987E9, 0.0, 2022-09-01 16:38:08.993
6.0, -15157.276708755102, -20909.207571650455, -25530.117813362816, -12598.784279678379, -3617.3839709024396, -14023.193898581732, 41908.425618222434, -14096.261751206132, -20627.285018835668, -2968.8034020427945, -32150.03396869111, -26561.62846823078, 2744.7271638783413, 17548.66749628395, -437.84832213501005, -20134.965495463075, 0.11, 0.886, -0.37, 192.0, 0.0, 0.0, 0.0, 0.0, 0.0, 0.0, 0.0, 0.0, 0.0, 1.6620646889936097E9, 0.0, 2022-09-01 16:38:08.993
8.0, -15278.289053236134, -21023.961427684, -25662.261326582593, -12728.290287052429, -3703.6393527554696, -14012.666226943282, 42519.45525639716, -14201.33730189053, -20668.680449566895, -3057.338661830266, -32208.528483930648, -26635.433928422204, 2705.075169214627, 17388.852523428504, -452.4216595198703, -20212.257827789526, 0.078, 0.91, -0.294, 192.0, 1.0, 56.0, 14.0, 56.0, 123.0, 104.0, 0.0, 0.0, 0.0, 1.6620646889936135E9, 0.0, 2022-09-01 16:38:08.993
10.0, -15130.208746219725, -20872.014268876825, -25536.488060532578, -12568.452962452528, -3560.1635050968534, -13972.366031690364, 41903.172958275434, -14055.469817575196, -20647.17807140089, -2976.402995157599, -32170.441111378805, -26570.63622124627, 2700.873041257029, 17547.1922811499, -460.89297066843164, -20154.858548028296, 0.078, 0.91, -0.294, 192.0, 0.0, 0.0, 0.0, 0.0, 0.0, 0.0, 0.0, 0.0, 0.0, 1.6620646889936173E9, 0.0, 2022-09-01 16:38:08.993
12.0, -15269.54952115411, -21013.54551476783, -25663.557727761, -12715.750958413, -3770.98515879931, -14126.0342748206, 42517.622413351826, -14204.041862969621, -20640.51725155321, -3009.952963585015, -32188.03193426513, -26607.181323430697, 2773.9855973703384, 17430.538526837652, -424.2808132506387, -20173.99164128204, 0.078, 0.91, -0.294, 192.0, 0.0, 0.0, 0.0, 0.0, 0.0, 0.0, 0.0, 0.0, 0.0, 1.662064688993621E9, 0.0, 2022-09-01 16:38:08.993
14.0, -15147.106665027937, -20891.46028655294, -25561.991400956085, -12608.373178049706, -3588.66197927737, -13987.811087108981, 41907.35273448858, -14073.910006750824, -20681.42094390642, -3019.720675911984, -32215.94926308981, -26626.068547495433, 2701.7000558018754, 17512.74824294427, -493.7053315288224, -20183.692298375645, 0.078, 0.91, -0.294, 192.0, 0.0, 0.0, 0.0, 0.0, 0.0, 0.0, 0.0, 0.0, 0.0, 1.6620646889936247E9, 0.0, 2022-09-01 16:38:08.993
16.0, -15243.509738863677, -20986.499903976906, -25640.960114116686, -12725.786891673433, -3722.1242454200087, -14004.396081494819, 42503.11613120033, -14171.251853853686, -20630.056635148125, -3031.276527795378, -32188.210748220772, -26625.37564341732, 2760.7533646527963, 17431.901983249427, -427.5888714300241, -20178.61845238429, 0.078, 0.91, -0.294, 192.0, 0.0, 0.0, 0.0, 0.0, 0.0, 0.0, 0.0, 0.0, 0.0, 1.6620646889936287E9, 0.0, 2022-09-01 16:38:08.993
18.0, -15125.760749073119, -20855.965716357914, -25550.81552872843, -12603.187573336074, -3599.1449474269093, -14025.451424771718, 41943.2496360838, -14056.520349564595, -20657.191652916867, -2994.016169788381, -32200.839483838023, -26616.41259389074, 2654.00143313425, 17537.044589167188, -484.02702617967446, -20185.525141420978, 0.062, 0.92, -0.276, 192.0, 0.5, 120.0, 14.0, 96.0, 123.5, 48.0, 0.0, 0.0, 0.0, 1.6620646889936323E9, 0.0, 2022-09-01 16:38:08.993
20.0, -15244.761436553174, -20982.275424274856, -25660.249669581615, -12736.895708667722, -3734.015373470232, -14226.997104525222, 42475.93640994268, -14200.175011178853, -20613.114012851, -2994.373797699666, -32177.660724837868, -26619.675948581214, 2789.4977080223216, 17456.623012616994, -447.14664782841777, -20169.253071457515, 0.062, 0.92, -0.276, 192.0, 0.0, 0.0, 0.0, 0.0, 0.0, 0.0, 0.0, 0.0, 0.0, 1.6620646889936361E9, 0.0, 2022-09-01 16:38:08.993
22.0, -15111.098004710437, -20846.086245308667, -25556.783444497996, -12620.845451455767, -3631.3985146759173, -14144.474463996228, 42000.38069491157, -14071.54072183856, -20664.0759902091, -3018.4466264780317, -32227.013376595187, -26662.300725257486, 2700.9177447459397, 17541.984324691814, -529.1328464904841, -20219.34333078186, 0.062, 0.92, -0.276, 192.0, 0.0, 0.0, 0.0, 0.0, 0.0, 0.0, 0.0, 0.0, 0.0, 1.66206468899364E9, 0.0, 2022-09-01 16:38:08.993
24.0, -15213.893677460395, -20955.855662328682, -25646.07866359695, -12752.899557697721, -3701.2253643542963, -14050.440675072752, 42433.28928152195, -14166.669746240348, -20573.149093764914, -2978.3923004141216, -32156.5383263276, -26625.50975388405, 2781.093452107126, 17501.61707420553, -440.172903558362, -20165.83325455585, 0.062, 0.92, -0.276, 192.0, 0.0, 0.0, 0.0, 0.0, 0.0, 0.0, 0.0, 0.0, 0.0, 1.6620646889936435E9, 0.0, 2022-09-01 16:38:08.993
26.0, -15108.348740142435, -20845.929783097483, -25585.01369774505, -12635.552899307359, -3499.053835756044, -14020.377578780364, 42082.433948806996, -14068.098553192443, -20658.689219795375, -3039.4125627771095, -32250.48270827326, -26727.456060344706, 2650.8274854215965, 17438.719265308293, -528.2164249678165, -20243.885546193786, 0.062, 0.92, -0.276, 192.0, 0.0, 0.0, 0.0, 0.0, 0.0, 0.0, 0.0, 0.0, 0.0, 1.662064688993648E9, 0.0, 2022-09-01 16:38:08.993
28.0, -15202.740156977197, -20927.647760826083, -25653.588849733933, -12724.46813875057, -3736.1834926823967, -14295.460497791828, 42377.43227212814, -14176.973900434245, -20548.4504161418, -2960.2873874053225, -32148.670512279336, -26650.923687329734, 2745.2636057452687, 17505.863905652037, -440.8881593809318, -20142.118053688773, 0.046, 0.916, -0.27, 192.0, 0.5, 56.0, 14.0, 80.0, 123.5, 72.0, 0.0, 0.0, 0.0, 1.6620646889936519E9, 0.0, 2022-09-01 16:38:08.993
30.0, -15166.016240837127, -20857.88796638107, -25635.953323358695, -12660.36333565275, -3737.4798938608046, -14187.278054628141, 42155.837077598226, -14128.60472543296, -20657.973963972803, -3076.4941068284643, -32267.67119975939, -26781.72609588219, 2667.680700740898, 17481.947539084857, -532.262090714227, -20256.73779925559, 0.046, 0.916, -0.27, 192.0, 0.0, 0.0, 0.0, 0.0, 0.0, 0.0, 0.0, 0.0, 0.0, 1.6620646889936557E9, 0.0, 2022-09-01 16:38:08.993
32.0, -15213.066662915548, -20904.245484381376, -25675.51591104459, -12701.669359406158, -3694.8327654400787, -14191.56958956356, 42309.4382654951, -14170.044859653099, -20557.994611024216, -2980.7839370708393, -32168.98824798921, -26696.744763463113, 2736.099390518593, 17529.71321698585, -456.06499386608533, -20154.56797535038, 0.046, 0.916, -0.27, 192.0, 0.0, 0.0, 0.0, 0.0, 0.0, 0.0, 0.0, 0.0, 0.0, 1.6620646889936604E9, 0.0, 2022-09-01 16:38:08.993
34.0, -15182.333014289501, -20860.59252746016, -25660.204966092704, -12643.331306377806, -3684.305093801629, -14188.529752317638, 42254.341215412765, -14133.589164446494, -20665.819426276616, -3078.5504673183523, -32278.44474058685, -26806.134200827386, 2658.00239539175, 17441.624992087483, -566.5943701975788, -20256.96131670014, 0.046, 0.916, -0.27, 192.0, 0.0, 0.0, 0.0, 0.0, 0.0, 0.0, 0.0, 0.0, 0.0, 1.662064688993664E9, 0.0, 2022-09-01 16:38:08.993
36.0, -15193.665348728342, -20876.909300912535, -25645.92220138576, -12665.459533388559, -3657.214779521797, -14223.711398090292, 42243.16534318511, -14146.888452397401, -20534.502927601687, -2970.9938729994146, -32143.283741865605, -26691.603862238393, 2761.9156553644725, 17538.676266512426, -433.8026563885995, -20131.79154775042, 0.046, 0.916, -0.27, 192.0, 0.0, 0.0, 0.0, 0.0, 0.0, 0.0, 0.0, 0.0, 0.0, 1.6620646889936678E9, 0.0, 2022-09-01 16:38:08.993
38.0, -15176.745078175674, -20846.734445897873, -25649.83375666544, -12639.129178420208, -3671.050509339632, -14186.831019739035, 42343.18939962261, -14137.74658891518, -20636.337475340068, -3082.238505153478, -32252.315551318596, -26807.855285150443, 2640.165703316415, 17436.126462951477, -518.9404510188641, -20246.23247936159, 0.052000000000000005, 0.918, -0.266, 192.0, 0.5, 80.0, 14.0, 88.0, 123.5, 88.0, 0.0, 0.0, 0.0, 1.6620646889936724E9, 0.0, 2022-09-01 16:38:08.993
40.0, -15188.658557970353, -20864.92876588449, -25649.677294454254, -12661.145646708686, -3596.5297933256384, -14144.161539573854, 42179.5075749764, -14134.304420269063, -20527.372721120446, -2951.793724512306, -32131.75024172667, -26690.776847693545, 2731.5843381386208, 17562.41381912396, -435.92607211185367, -20123.87903021324, 0.052000000000000005, 0.918, -0.266, 192.0, 0.0, 0.0, 0.0, 0.0, 0.0, 0.0, 0.0, 0.0, 0.0, 1.662064688993676E9, 0.0, 2022-09-01 16:38:08.993
42.0, -15230.478671846233, -20901.94325470248, -25697.84530375544, -12688.057147032876, -3719.1291116629973, -14215.329493919551, 42439.27954903598, -14175.744554489203, -20651.17903365839, -3106.333685676299, -32274.667295773903, -26845.07093966853, 2632.767275901708, 17400.095450889523, -547.5953874105677, -20260.492892324077, 0.052000000000000005, 0.918, -0.266, 192.0, 0.0, 0.0, 0.0, 0.0, 0.0, 0.0, 0.0, 0.0, 0.0, 1.6620646889936798E9, 0.0, 2022-09-01 16:38:08.993
44.0, -15173.682889185297, -20853.529376212286, -25628.957227344185, -12648.74042853599, -3595.0098747026773, -14064.276404890586, 42120.81189403676, -14099.88273380789, -20541.074340471547, -2970.3233206657555, -32147.374111100926, -26715.877856716856, 2728.7903700817074, 17541.0902549136, -462.3905375469372, -20127.254143625993, 0.052000000000000005, 0.918, -0.266, 192.0, 0.0, 0.0, 0.0, 0.0, 0.0, 0.0, 0.0, 0.0, 0.0, 1.6620646889936836E9, 0.0, 2022-09-01 16:38:08.993
46.0, -15254.998535513705, -20925.256124169366, -25701.62274856839, -12701.267028005961, -3774.874362334533, -14259.742410152247, 42507.85470102486, -14192.821287253057, -20650.307315624636, -3116.034342769902, -32273.929688206877, -26853.765768261645, 2647.6982411978533, 17392.987596152736, -541.5604164076349, -20252.848595720363, 0.052000000000000005, 0.918, -0.266, 192.0, 0.0, 0.0, 0.0, 0.0, 0.0, 0.0, 0.0, 0.0, 0.0, 1.6620646889936872E9, 0.0, 2022-09-01 16:38:08.993
48.0, -15160.875339612407, -20837.145547526547, -25605.309081710468, -12622.812404967834, -3615.282906923641, -14163.808722950069, 42054.740137426874, -14095.434736661284, -20547.53399461913, -2972.737309066929, -32158.79585251759, -26726.85256324441, 2728.96918403735, 17593.996834039313, -467.30792132710474, -20133.6020390513, 0.049, 0.921, -0.266, 192.0, 0.5, 56.0, 14.0, 112.0, 123.5, 88.0, 0.0, 0.0, 0.0, 1.6620646889936907E9, 0.0, 2022-09-01 16:38:08.993
50.0, -15262.419314672867, -20936.454348141473, -25714.5197051191, -12727.798548674411, -3700.554812020637, -14180.058441169078, 42555.150992292285, -14188.797973251103, -20615.684463463363, -3087.46881335602, -32248.85103092802, -26836.711387242245, 2637.5729009595993, 17368.646546440905, -527.814093567621, -20240.91276418123, 0.049, 0.921, -0.266, 192.0, 0.0, 0.0, 0.0, 0.0, 0.0, 0.0, 0.0, 0.0, 0.0, 1.6620646889936948E9, 0.0, 2022-09-01 16:38:08.993
52.0, -15153.342801730967, -20839.246611505343, -25597.038936262004, -12614.966942664021, -3597.37915961494, -14125.386074231395, 42005.61100311411, -14084.236512689176, -20543.62243933945, -2979.3534254256997, -32158.348817628485, -26742.789357041045, 2720.8555008000735, 17524.862888439045, -483.6023430350236, -20153.629202083255, 0.049, 0.921, -0.266, 192.0, 0.0, 0.0, 0.0, 0.0, 0.0, 0.0, 0.0, 0.0, 0.0, 1.6620646889936984E9, 0.0, 2022-09-01 16:38:08.993
54.0, -15291.007195831204, -20972.61947067016, -25729.42831867079, -12733.252374321506, -3718.3468006070616, -14281.669471462903, 42586.21991708517, -14219.688084088337, -20610.185934327357, -3077.3211213733107, -32231.66253944189, -26822.78625044659, 2628.0510578216386, 17404.677558502863, -515.3865236504703, -20230.25098207605, 0.049, 0.921, -0.266, 192.0, 0.0, 0.0, 0.0, 0.0, 0.0, 0.0, 0.0, 0.0, 0.0, 1.662064688993702E9, 0.0, 2022-09-01 16:38:08.993
56.0, -15176.298043286568, -20855.563384957717, -25603.610349131864, -12608.708454216536, -3609.314991154074, -14126.011923076145, 41995.93269776496, -14094.227742460698, -20603.860390646507, -3028.102580082724, -32205.71216412928, -26770.661982376812, 2655.230779079292, 17515.296341812176, -520.0803899860847, -20182.217083241594, 0.049, 0.921, -0.266, 192.0, 0.0, 0.0, 0.0, 0.0, 0.0, 0.0, 0.0, 0.0, 0.0, 1.6620646889937055E9, 0.0, 2022-09-01 16:38:08.993
58.0, -15287.095640551524, -20963.43290369903, -25712.46334462921, -12706.98907458652, -3748.812228299645, -14277.176770827386, 42610.78448424154, -14210.300351417107, -20609.64949246043, -3078.8633917407265, -32227.885094628942, -26805.620110704913, 2671.324035087113, 17359.57173819205, -496.4769478412805, -20212.034310344974, 0.0475, 0.9235, -0.265, 192.0, 0.5, 56.0, 14.0, 120.0, 123.5, 96.0, 0.0, 0.0, 0.0, 1.6620646889937093E9, 0.0, 2022-09-01 16:38:08.993
60.0, -15166.463275726233, -20842.957001084924, -25604.996157288097, -12586.468468483505, -3617.7192470692694, -14138.819472649035, 41990.74709305133, -14095.211219216731, -20596.93134986536, -3012.3669519861883, -32196.436190180328, -26754.76989206909, 2672.0839943985934, 17535.122339144033, -519.074561485596, -20173.32108894838, 0.0475, 0.9235, -0.265, 192.0, 0.0, 0.0, 0.0, 0.0, 0.0, 0.0, 0.0, 0.0, 0.0, 1.6620646889937131E9, 0.0, 2022-09-01 16:38:08.993
62.0, -15286.3580329845, -20967.210348511977, -25719.52649587709, -12713.247563034007, -3684.5062595017266, -14197.068118699566, 42593.41717879977, -14209.495688616717, -20585.286091004145, -3052.823609450294, -32202.80643735009, -26780.608508659425, 2680.4658985693336, 17372.334584276032, -489.5032035712247, -20198.310339249416, 0.0475, 0.9235, -0.265, 192.0, 0.0, 0.0, 0.0, 0.0, 0.0, 0.0, 0.0, 0.0, 0.0, 1.6620646889937167E9, 0.0, 2022-09-01 16:38:08.993
64.0, -15163.71401115823, -20839.559535927718, -25592.367421670846, -12568.63177640817, -3599.4131683603728, -14182.80770573708, 41996.49149137634, -14101.246190219665, -20615.326835552078, -3024.861577136705, -32204.929853073343, -26764.761121840613, 2630.912081111918, 17513.0835191111, -536.7100878608331, -20189.190827511648, 0.0475, 0.9235, -0.265, 192.0, 0.0, 0.0, 0.0, 0.0, 0.0, 0.0, 0.0, 0.0, 0.0, 1.6620646889937203E9, 0.0, 2022-09-01 16:38:08.993
66.0, -15309.715605940297, -20989.96442436748, -25703.388536380357, -12720.08719683733, -3742.956071252355, -14283.859942419524, 42560.269541772555, -14241.883366332457, -20580.569872924076, -3048.397964048143, -32176.02904749263, -26763.24120321765, 2681.739948003286, 17382.59403498102, -475.55571503111304, -20180.786571596454, 0.0475, 0.9235, -0.265, 192.0, 0.0, 0.0, 0.0, 0.0, 0.0, 0.0, 0.0, 0.0, 0.0, 1.662064688993724E9, 0.0, 2022-09-01 16:38:08.993
68.0, -15177.505037487155, -20853.283507023276, -25579.224595931126, -12580.589959691759, -3667.0942505710427, -14163.540502016605, 42032.03076506028, -14116.311265982542, -20646.552222556144, -3061.5184380434084, -32222.453620726305, -26790.242110519663, 2642.557339973133, 17451.996201514747, -549.3835269669923, -20218.89629589275, 0.05075, 0.9217500000000001, -0.2675, 192.0, 0.5, 88.0, 14.0, 96.0, 123.5, 72.0, 0.0, 0.0, 0.0, 1.6620646889937286E9, 0.0, 2022-09-01 16:38:08.993
70.0, -15280.837152104039, -20961.890633331615, -25673.28073659906, -12696.863734348266, -3705.561602778626, -14259.384782240963, 42501.75267478856, -14218.794014310124, -20549.41154115338, -3005.8402426052385, -32139.30513135256, -26725.06442368799, 2720.6543350999755, 17384.0021948817, -444.12916232695136, -20145.403760123703, 0.05075, 0.9217500000000001, -0.2675, 192.0, 0.0, 0.0, 0.0, 0.0, 0.0, 0.0, 0.0, 0.0, 0.0, 1.6620646889937332E9, 0.0, 2022-09-01 16:38:08.993
72.0, -15199.745023220185, -20873.623594477605, -25616.97669231614, -12603.813422180823, -3582.3587873409733, -14156.678516468826, 42083.976219174416, -14130.817548134035, -20660.544414585165, -3083.110223187235, -32248.80632743911, -26814.113773597932, 2587.2144207017923, 17401.34714857902, -565.0744515746178, -20238.722293224608, 0.05075, 0.9217500000000001, -0.2675, 192.0, 0.0, 0.0, 0.0, 0.0, 0.0, 0.0, 0.0, 0.0, 0.0, 1.6620646889937367E9, 0.0, 2022-09-01 16:38:08.993
74.0, -15268.007250786693, -20950.737112848416, -25667.69280048523, -12685.062013275865, -3673.978587863277, -14169.821342208546, 42442.36408977081, -14198.252761155696, -20542.035465483128, -2994.083225021747, -32136.064128406542, -26716.14607765032, 2708.4279308829227, 17424.436500601354, -453.94157814283113, -20144.174414178662, 0.05075, 0.9217500000000001, -0.2675, 192.0, 0.0, 0.0, 0.0, 0.0, 0.0, 0.0, 0.0, 0.0, 0.0, 1.6620646889937403E9, 0.0, 2022-09-01 16:38:08.993
76.0, -15199.119174375437, -20868.013306619323, -25616.149677771293, -12611.994160651466, -3546.4842374902055, -13988.414584209275, 42169.71751090497, -14104.84482107697, -20640.13727189747, -3074.5718568053076, -32229.13679231844, -26804.077840337497, 2628.0510578216386, 17386.997328638714, -534.2290442262941, -20238.61053450233, 0.05075, 0.9217500000000001, -0.2675, 192.0, 0.0, 0.0, 0.0, 0.0, 0.0, 0.0, 0.0, 0.0, 0.0, 1.6620646889937444E9, 0.0, 2022-09-01 16:38:08.993
78.0, -15287.229751018258, -20961.689467631517, -25663.200099849713, -12678.088269005808, -3721.6772105309024, -14348.277669939718, 42381.18736519663, -14220.559802122094, -20553.948945277803, -2983.823774316761, -32145.764785500145, -26722.58338005345, 2681.583485792099, 17419.720282521284, -453.1592670868954, -20146.208422924094, 0.053375000000000006, 0.9168750000000001, -0.26875000000000004, 192.0, 0.5, 96.0, 14.0, 64.0, 123.5, 72.0, 0.0, 0.0, 0.0, 1.662064688993748E9, 0.0, 2022-09-01 16:38:08.993
80.0, -15235.06077945957, -20905.586589048697, -25635.01455009157, -12619.459643299539, -3726.1922629108744, -14267.92314862289, 42228.92728196708, -14159.13720835891, -20666.400571632454, -3099.6728658286174, -32260.295124089138, -26824.775555703112, 2593.808185316108, 17378.168389578866, -544.6449571424672, -20250.993400930573, 0.053375000000000006, 0.9168750000000001, -0.26875000000000004, 192.0, 0.0, 0.0, 0.0, 0.0, 0.0, 0.0, 0.0, 0.0, 0.0, 1.6620646889937515E9, 0.0, 2022-09-01 16:38:08.993
82.0, -15278.69138463633, -20955.989772795412, -25672.83370170995, -12668.879350290223, -3725.298193132662, -14319.712140525835, 42292.026256564415, -14200.465583856772, -20556.87702380145, -2999.827623346761, -32148.69286402379, -26718.604769540405, 2740.63679464302, 17455.773646327692, -458.41192703389254, -20148.533004347446, 0.053375000000000006, 0.9168750000000001, -0.26875000000000004, 192.0, 0.0, 0.0, 0.0, 0.0, 0.0, 0.0, 0.0, 0.0, 0.0, 1.6620646889937553E9, 0.0, 2022-09-01 16:38:08.993
84.0, -15259.245366960213, -20928.966513748946, -25687.60820479491, -12638.324515619817, -3724.4488268433606, -14198.722147789258, 42312.567509718836, -14160.031278137121, -20679.409286905444, -3119.8117875828493, -32282.222185399794, -26838.164250631842, 2567.097850692016, 17347.747665375195, -588.5661349971456, -20265.611441804343, 0.053375000000000006, 0.9168750000000001, -0.26875000000000004, 192.0, 0.0, 0.0, 0.0, 0.0, 0.0, 0.0, 0.0, 0.0, 0.0, 1.6620646889937592E9, 0.0, 2022-09-01 16:38:08.993
86.0, -15252.58454711253, -20933.973304506937, -25663.289506827536, -12649.433332614104, -3734.305946148151, -14271.186503313364, 42211.64938350313, -14175.677499255837, -20556.698209845807, -2999.8723268356716, -32155.867773993945, -26714.045013671523, 2678.72246250182, 17461.0710097636, -492.90066872843136, -20140.79930076591, 0.053375000000000006, 0.9168750000000001, -0.26875000000000004, 192.0, 0.0, 0.0, 0.0, 0.0, 0.0, 0.0, 0.0, 0.0, 0.0, 1.6620646889937627E9, 0.0, 2022-09-01 16:38:08.993
88.0, -15262.531073395143, -20936.43199639702, -25690.424524596277, -12669.12521947923, -3720.1572919079417, -14147.111969841955, 42392.832624057846, -14177.28682485662, -20658.666868050917, -3113.3074299463547, -32262.82087121259, -26833.515087785137, 2598.7926243296415, 17295.42223160532, -580.7653761822434, -20262.459845836147, 0.0566875, 0.9184375, -0.27037500000000003, 192.0, 0.5, 112.0, 14.0, 96.0, 123.5, 64.0, 0.0, 0.0, 0.0, 1.662064688993767E9, 0.0, 2022-09-01 16:38:08.993
90.0, -15231.484500346722, -20914.05790019726, -25635.81921289196, -12638.570384808825, -3599.055540449088, -14234.797863340124, 42140.28026345733, -14161.439438037807, -20549.858576042483, -2987.757681340895, -32135.0359481616, -26709.37349908036, 2702.5941255800876, 17460.176939985387, -478.41673832139236, -20136.26189664148, 0.0566875, 0.9184375, -0.27037500000000003, 192.0, 0.0, 0.0, 0.0, 0.0, 0.0, 0.0, 0.0, 0.0, 0.0, 1.6620646889937708E9, 0.0, 2022-09-01 16:38:08.993
92.0, -15282.558236427098, -20957.86731932966, -25694.269024642592, -12685.03966153141, -3689.0660153706094, -14203.52777284715, 42464.559372014926, -14203.751290291702, -20668.076952466603, -3133.5804621673183, -32269.124063148985, -26850.301247871073, 2579.324254909069, 17283.03936517708, -581.5476872381792, -20275.82618902042, 0.0566875, 0.9184375, -0.27037500000000003, 192.0, 0.0, 0.0, 0.0, 0.0, 0.0, 0.0, 0.0, 0.0, 0.0, 1.6620646889937744E9, 0.0, 2022-09-01 16:38:08.993
94.0, -15220.263924630157, -20904.60311229266, -25607.767773600553, -12616.620971753713, -3718.3244488626065, -14279.814276673113, 42072.06273937973, -14160.634775237415, -20548.651581841896, -2980.6721783485627, -32138.723985996723, -26707.048917657008, 2673.6262647660096, 17503.315806784132, -468.20199110531706, -20133.534983817935, 0.0566875, 0.9184375, -0.27037500000000003, 192.0, 0.0, 0.0, 0.0, 0.0, 0.0, 0.0, 0.0, 0.0, 0.0, 1.6620646889937782E9, 0.0, 2022-09-01 16:38:08.993
96.0, -15298.472678479277, -20968.90908109058, -25710.630501583877, -12691.409908701171, -3758.98227202681, -14310.056186921143, 42522.69625934318, -14234.663752873392, -20671.13914145698, -3125.131502763212, -32273.72852250678, -26843.21574487874, 2588.9578567693065, 17293.298815882066, -555.0608700586403, -20272.29461339648, 0.0566875, 0.9184375, -0.27037500000000003, 192.0, 0.0, 0.0, 0.0, 0.0, 0.0, 0.0, 0.0, 0.0, 0.0, 1.6620646889937818E9, 0.0, 2022-09-01 16:38:08.993
98.0, -15193.687700472798, -20868.326231041698, -25604.280901465525, -12599.58894247877, -3597.692084037314, -14178.024432423645, 42017.1668549975, -14123.597934674972, -20571.338602464035, -2981.58859987123, -32152.85028849248, -26711.586321781437, 2689.473651584822, 17483.1768850299, -488.07269192608504, -20153.22687068306, 0.05534375, 0.9162187500000001, -0.2691875, 192.0, 0.5, 88.0, 14.0, 72.0, 123.5, 80.0, 0.0, 0.0, 0.0, 1.6620646889937856E9, 0.0, 2022-09-01 16:38:08.993
100.0, -15313.604809475519, -20986.365793510176, -25726.94727503625, -12724.669304450668, -3751.494437634282, -14266.20206429983, 42558.21318128266, -14242.688029132847, -20652.475434836797, -3102.2880199298884, -32251.175612351373, -26833.17981161831, 2613.321258225591, 17287.80028674606, -552.3563089795481, -20265.52203482652, 0.05534375, 0.9162187500000001, -0.2691875, 192.0, 0.0, 0.0, 0.0, 0.0, 0.0, 0.0, 0.0, 0.0, 0.0, 1.6620646889937892E9, 0.0, 2022-09-01 16:38:08.993
102.0, -15183.651767212365, -20857.84326289216, -25578.285822664002, -12597.331416288784, -3632.6725641098697, -14147.626059964427, 41977.33604637814, -14109.449280434763, -20590.181123039856, -2993.9714662994706, -32158.929962984323, -26732.82047901398, 2670.2064478643474, 17436.126462951477, -507.16108169091723, -20171.331783691858, 0.05534375, 0.9162187500000001, -0.2691875, 192.0, 0.0, 0.0, 0.0, 0.0, 0.0, 0.0, 0.0, 0.0, 0.0, 1.6620646889937937E9, 0.0, 2022-09-01 16:38:08.993
104.0, -15339.55518478813, -21008.87400017667, -25708.976472494185, -12739.466159280082, -3769.5769988986253, -14296.376919314494, 42579.44733851521, -14258.937747351856, -20647.80392024564, -3089.368711634721, -32228.9579783628, -26823.6803202248, 2646.580653975088, 17284.425173333308, -539.2134832398276, -20249.92051719672, 0.05534375, 0.9162187500000001, -0.2691875, 192.0, 0.0, 0.0, 0.0, 0.0, 0.0, 0.0, 0.0, 0.0, 0.0, 1.6620646889937975E9, 0.0, 2022-09-01 16:38:08.993
106.0, -15208.52925879112, -20880.731449214396, -25578.86696801984, -12603.276980313896, -3601.603639316993, -14140.920536627835, 41960.03579616974, -14123.84380386398, -20626.41330080191, -3012.7022281530176, -32193.37400118995, -26765.208156729717, 2638.8469503935517, 17429.21977391479, -524.5507388771462, -20191.80598161292, 0.05534375, 0.9162187500000001, -0.2691875, 192.0, 0.0, 0.0, 0.0, 0.0, 0.0, 0.0, 0.0, 0.0, 0.0, 1.662064688993801E9, 0.0, 2022-09-01 16:38:08.993
108.0, -15334.280173096678, -21008.494020520928, -25709.17763819428, -12722.61294396078, -3773.108574522564, -14345.796626305179, 42566.30451277549, -14258.781285140669, -20630.213097359312, -3086.7088540445393, -32217.871513112965, -26807.83293340599, 2654.940206401373, 17295.288121138587, -503.09306420005134, -20220.662083704723, 0.050671875, 0.918109375, -0.26859375, 192.0, 0.5, 56.0, 14.0, 96.0, 123.5, 80.0, 0.0, 0.0, 0.0, 1.6620646889938047E9, 0.0, 2022-09-01 16:38:08.993
110.0, -15215.123023405436, -20885.84999869466, -25610.53938991301, -12607.054425126842, -3673.866829141001, -14188.730918017736, 41954.17963912245, -14138.46184473775, -20642.439501576366, -3055.6846327405733, -32214.80932412259, -26785.704706395234, 2623.983040330773, 17409.10320390501, -542.812114097132, -20206.222856786593, 0.050671875, 0.918109375, -0.26859375, 192.0, 0.0, 0.0, 0.0, 0.0, 0.0, 0.0, 0.0, 0.0, 0.0, 1.6620646889938085E9, 0.0, 2022-09-01 16:38:08.993
112.0, -15336.761216731218, -21013.12083162318, -25728.601304125943, -12733.52059525497, -3752.1649899679414, -14300.10966063853, 42556.11211730386, -14266.135009066464, -20622.3676350555, -3082.149098175657, -32212.395335721416, -26800.948596113754, 2649.8887121544735, 17304.27352240962, -513.4419218828585, -20215.744699924555, 0.050671875, 0.918109375, -0.26859375, 192.0, 0.0, 0.0, 0.0, 0.0, 0.0, 0.0, 0.0, 0.0, 0.0, 1.6620646889938123E9, 0.0, 2022-09-01 16:38:08.993
114.0, -15184.702299201763, -20860.257251293333, -25583.00204074407, -12579.897055613645, -3641.635613636448, -14188.440345339817, 41969.535287563245, -14116.89241133838, -20639.690237008363, -3058.4786007974867, -32217.782106135146, -26790.420924475304, 2633.907214868929, 17372.91572963187, -559.0618323161402, -20216.638769702768, 0.050671875, 0.918109375, -0.26859375, 192.0, 0.0, 0.0, 0.0, 0.0, 0.0, 0.0, 0.0, 0.0, 0.0, 1.662064688993816E9, 0.0, 2022-09-01 16:38:08.993
116.0, -15323.663094480407, -21004.135430352144, -25706.540132348557, -12723.216441061073, -3755.204827213863, -14331.469158109327, 42509.53108185901, -14264.860959632511, -20572.992631553727, -3024.369838758688, -32159.42170136234, -26746.25387743162, 2698.548459833677, 17369.719430174762, -468.49256378323605, -20164.961536522096, 0.050671875, 0.918109375, -0.26859375, 192.0, 0.0, 0.0, 0.0, 0.0, 0.0, 0.0, 0.0, 0.0, 0.0, 1.6620646889938197E9, 0.0, 2022-09-01 16:38:08.993
118.0, -15232.020942213649, -20907.0841559272, -25624.5986371754, -12626.791015480878, -3640.607433391504, -14155.85150192398, 42012.89767180654, -14155.315060057052, -20666.825254777104, -3081.7467667754613, -32240.17855407936, -26813.376166030906, 2572.574028083566, 17346.42891245233, -573.5457627231792, -20240.018694403017, 0.050671875, 0.918109375, -0.26859375, 192.0, 0.0, 0.0, 0.0, 0.0, 0.0, 0.0, 0.0, 0.0, 0.0, 1.6620646889938235E9, 0.0, 2022-09-01 16:38:08.993
120.0, -15345.523100557699, -21023.179116628067, -25721.09111798896, -12734.101740610808, -3671.609302951015, -14239.134101764454, 42456.31157831092, -14260.792942141647, -20609.60478897152, -3049.046164637347, -32187.8978237984, -26767.309220708517, 2607.8897843229515, 17322.736063329707, -513.1289974604842, -20187.134467021762, 0.048, 0.926, -0.266, 192.0, 0.5, 64.0, 14.0, 120.0, 123.5, 88.0, 0.0, 0.0, 0.0, 1.6620646894741569E9, 0.0, 2022-09-01 16:38:09.474
122.0, -15227.260020644668, -20899.66337676804, -25602.582168886922, -12607.769680949412, -3668.658872682914, -14156.298536813085, 42080.55640227275, -14147.268432053143, -20699.883484826503, -3103.495014130475, -32262.217374112297, -26836.01848316413, 2559.0288709436504, 17283.911083210838, -594.1540711109724, -20256.179005644204, 0.048, 0.926, -0.266, 192.0, 0.0, 0.0, 0.0, 0.0, 0.0, 0.0, 0.0, 0.0, 0.0, 1.662064689474238E9, 0.0, 2022-09-01 16:38:09.474
124.0, -15326.859393937517, -21003.800154185315, -25676.92407094527, -12707.413757731172, -3760.211617971852, -14374.205693507874, 42379.421577384666, -14256.791979884147, -20577.954718822806, -3009.3494664847217, -32139.819221475034, -26723.43274634275, 2697.900259244473, 17406.912732948393, -453.9192263983758, -20151.058751470897, 0.048, 0.926, -0.266, 192.0, 0.0, 0.0, 0.0, 0.0, 0.0, 0.0, 0.0, 0.0, 0.0, 1.6620646894742508E9, 0.0, 2022-09-01 16:38:09.474
126.0, -15248.360067410478, -20918.81882176624, -25622.07289005195, -12640.760855765446, -3695.0339311401763, -14213.206078196297, 42156.41822295407, -14172.905882943378, -20700.554037160164, -3120.907023061159, -32266.687723003357, -26843.103986156464, 2571.5011443497115, 17298.99851071817, -595.2046031003717, -20270.126494184315, 0.048, 0.926, -0.266, 192.0, 0.0, 0.0, 0.0, 0.0, 0.0, 0.0, 0.0, 0.0, 0.0, 1.6620646894742565E9, 0.0, 2022-09-01 16:38:09.474
128.0, -15272.11997176647, -20947.116130246657, -25625.895038353807, -12667.426486900627, -3719.8667192300227, -14280.954215640333, 42305.169082304135, -14214.882459030445, -20547.221070196756, -2967.931684009038, -32115.187599085286, -26700.85748444289, 2708.96437274985, 17401.0565759011, -434.78613314463297, -20134.071425684862, 0.048, 0.926, -0.266, 192.0, 0.0, 0.0, 0.0, 0.0, 0.0, 0.0, 0.0, 0.0, 0.0, 1.6620646894742627E9, 0.0, 2022-09-01 16:38:09.474
130.0, -15239.128796950436, -20905.497182070874, -25618.675424894744, -12627.774492236913, -3658.0641458110986, -14167.56381601856, 42256.24111369147, -14171.56477827606, -20670.736810056784, -3097.5494501053636, -32235.9093708884, -26813.01853811962, 2579.5254206091668, 17298.439717106787, -548.6682711444224, -20245.897203194763, 0.046, 0.92, -0.264, 192.0, 0.5, 56.0, 14.0, 96.0, 123.5, 96.0, 0.0, 0.0, 0.0, 1.662064689474269E9, 0.0, 2022-09-01 16:38:09.474
132.0, -15290.090774308537, -20968.797322368304, -25650.906640399295, -12678.423545172638, -3675.520858230693, -14244.051485544622, 42250.54141885536, -14218.212868954286, -20556.49704414571, -2986.461280162487, -32118.249788075664, -26700.43280129824, 2684.19863989337, 17380.023584368657, -456.48967701073616, -20124.683693013634, 0.046, 0.92, -0.264, 192.0, 0.0, 0.0, 0.0, 0.0, 0.0, 0.0, 0.0, 0.0, 0.0, 1.662064689474276E9, 0.0, 2022-09-01 16:38:09.474
134.0, -15276.635024146442, -20948.971325036448, -25639.708416427187, -12650.327402392317, -3738.731591550302, -14249.550014680626, 42351.45954507108, -14204.690063558826, -20693.826162079116, -3132.038191799902, -32265.77130148069, -26850.100082170975, 2558.872408732463, 17296.450411850263, -587.3814925410143, -20266.14788367127, 0.046, 0.92, -0.264, 192.0, 0.0, 0.0, 0.0, 0.0, 0.0, 0.0, 0.0, 0.0, 0.0, 1.6620646894743018E9, 0.0, 2022-09-01 16:38:09.474
136.0, -15251.913994778872, -20920.18227817801, -25597.061288006462, -12629.78614923789, -3686.182640335875, -14207.036996726632, 42165.44832771401, -14167.85438869648, -20536.02284622465, -2968.8034020427945, -32101.50833147864, -26687.75936219208, 2716.452207142378, 17450.252765447232, -451.14761008591773, -20100.610864235266, 0.046, 0.92, -0.264, 192.0, 0.0, 0.0, 0.0, 0.0, 0.0, 0.0, 0.0, 0.0, 0.0, 1.6620646894743083E9, 0.0, 2022-09-01 16:38:09.474
138.0, -15303.255951792713, -20963.43290369903, -25670.285602842047, -12675.562521882359, -3733.6353938144916, -14249.907642591912, 42436.88791237926, -14226.661828358392, -20674.55895835864, -3113.039209012891, -32255.109519375506, -26833.40332906286, 2573.3339873950467, 17267.08021963599, -573.2775417897155, -20250.121682896817, 0.046, 0.92, -0.264, 192.0, 0.0, 0.0, 0.0, 0.0, 0.0, 0.0, 0.0, 0.0, 0.0, 1.6620646894743147E9, 0.0, 2022-09-01 16:38:09.474
140.0, -15265.369744940966, -20936.09672023019, -25631.237105278626, -12649.45568435856, -3698.1408236194643, -14248.63359315796, 42100.51651007134, -14203.974807736256, -20578.893492089926, -2982.3038556938, -32138.589875529993, -26703.405583310796, 2637.7964184041525, 17409.147907393923, -498.60036356453463, -20128.21526863757, 0.048, 0.922, -0.268, 192.0, 0.5, 64.0, 14.0, 104.0, 123.5, 80.0, 0.0, 0.0, 0.0, 1.662064689474321E9, 0.0, 2022-09-01 16:38:09.474
142.0, -15310.296751296133, -20975.86047361618, -25687.719963517186, -12691.298149978895, -3740.7432485512795, -14260.859997375012, 42498.55637533145, -14248.477130946772, -20698.318862714634, -3121.845796328282, -32263.80434796862, -26836.085538397496, 2558.1571529098933, 17267.70606848074, -587.3814925410143, -20259.911746968242, 0.048, 0.922, -0.268, 192.0, 0.0, 0.0, 0.0, 0.0, 0.0, 0.0, 0.0, 0.0, 0.0, 1.662064689474328E9, 0.0, 2022-09-01 16:38:09.474
144.0, -15212.999607682183, -20888.08517314019, -25573.502549350567, -12599.29836980085, -3642.8202560925793, -14210.14388920592, 42040.74794539785, -14149.66006870986, -20580.055782801603, -2984.5166783948757, -32125.961139912743, -26699.47167628666, 2657.6671192249205, 17412.187744639843, -489.2573343822163, -20131.79154775042, 0.048, 0.922, -0.268, 192.0, 0.0, 0.0, 0.0, 0.0, 0.0, 0.0, 0.0, 0.0, 0.0, 1.662064689474335E9, 0.0, 2022-09-01 16:38:09.474
146.0, -15325.36182705901, -20992.467819746475, -25675.582966277954, -12712.688769422624, -3774.494382678793, -14285.0222331312, 42565.32103601945, -14258.088381062555, -20655.336458127076, -3085.5912668217743, -32212.931777588343, -26802.93790137028, 2590.9471620258287, 17292.292987381577, -526.6294511114897, -20223.970141884107, 0.048, 0.922, -0.268, 192.0, 0.0, 0.0, 0.0, 0.0, 0.0, 0.0, 0.0, 0.0, 0.0, 1.6620646894743419E9, 0.0, 2022-09-01 16:38:09.474
148.0, -15226.768282266652, -20894.969510432424, -25571.692058049688, -12613.379968807694, -3642.1944072478304, -14171.542426531605, 42004.02402925778, -14152.968126889245, -20612.801088428627, -3013.3057252533113, -32150.995093702688, -26730.473545846173, 2648.6370144649763, 17383.085773359035, -486.30690411411575, -20161.027629497963, 0.048, 0.922, -0.268, 192.0, 0.0, 0.0, 0.0, 0.0, 0.0, 0.0, 0.0, 0.0, 0.0, 1.6620646894743483E9, 0.0, 2022-09-01 16:38:09.474
150.0, -15358.3753536195, -21021.748604982928, -25712.440992884756, -12739.600269746814, -3773.913237322955, -14335.760693044745, 42606.49294930613, -14290.118430867009, -20663.450141364356, -3096.297752415866, -32223.168876548873, -26804.63663394888, 2606.772197100186, 17255.658478219328, -526.3835819224813, -20230.228630331592, 0.04, 0.922, -0.264, 192.0, 0.5, 32.0, 14.0, 104.0, 123.5, 96.0, 0.0, 0.0, 0.0, 1.6620646894743552E9, 0.0, 2022-09-01 16:38:09.474
152.0, -15248.538881366121, -20912.04624319628, -25611.20994224667, -12628.914431204134, -3597.1556421703867, -14197.895133244412, 41992.043494229736, -14175.498685300194, -20656.856376750038, -3046.922748914093, -32200.347745460007, -26763.464720662203, 2571.523496094167, 17358.208281780277, -538.2523582282494, -20192.7671066245, 0.04, 0.922, -0.264, 192.0, 0.0, 0.0, 0.0, 0.0, 0.0, 0.0, 0.0, 0.0, 0.0, 1.6620646894743624E9, 0.0, 2022-09-01 16:38:09.474
154.0, -15357.458932096832, -21021.838011960746, -25704.640234069855, -12736.359266800793, -3812.5370517417255, -14274.963948126311, 42623.27910939206, -14288.531457010682, -20650.240260391267, -3081.724415031006, -32217.737402646235, -26794.421886732805, 2595.618676616988, 17261.380524799886, -525.4224569109031, -20214.403595257234, 0.04, 0.922, -0.264, 192.0, 0.0, 0.0, 0.0, 0.0, 0.0, 0.0, 0.0, 0.0, 0.0, 1.6620646894743698E9, 0.0, 2022-09-01 16:38:09.474
156.0, -15221.806194997573, -20889.158056874046, -25577.72702905262, -12582.981596348476, -3654.0631835535987, -14206.522906604161, 41992.244659929835, -14149.011868120655, -20641.74659749825, -3042.1618273451127, -32192.345820945004, -26759.843738060445, 2601.899516808929, 17393.904017675402, -543.2591489862382, -20192.409478713213, 0.04, 0.922, -0.264, 192.0, 0.0, 0.0, 0.0, 0.0, 0.0, 0.0, 0.0, 0.0, 0.0, 1.662064689474377E9, 0.0, 2022-09-01 16:38:09.474
158.0, -15364.365621133522, -21034.287933622352, -25702.874446257883, -12728.670266708168, -3775.6790251349244, -14329.345742386073, 42617.69117327824, -14283.88229416398, -20628.626123502985, -3067.4192985796094, -32187.60725112048, -26767.91271780881, 2602.1230342534823, 17310.308493412555, -505.28353515667146, -20192.00714731302, 0.04, 0.922, -0.264, 192.0, 0.0, 0.0, 0.0, 0.0, 0.0, 0.0, 0.0, 0.0, 0.0, 1.662064689474384E9, 0.0, 2022-09-01 16:38:09.474
160.0, -15251.15403546739, -20914.48258334191, -25583.06909597744, -12613.581134507793, -3632.8737298099677, -14165.395696806396, 42015.043439274246, -14150.598841976982, -20671.94380425737, -3070.526191058897, -32212.127114787952, -26785.034154061577, 2581.268856676681, 17332.079092512024, -558.167762537928, -20208.01099634302, 0.038, 0.928, -0.268, 192.0, 0.5, 24.0, 14.5, 0.0, 123.5, 80.0, 0.0, 0.0, 0.0, 1.6620646894743907E9, 0.0, 2022-09-01 16:38:09.474
162.0, -15371.160551447934, -21034.86907897819, -25676.56644303399, -12732.246545821017, -3750.2203882003296, -14329.256335408252, 42586.1528618518, -14282.027099374189, -20632.716492738306, -3061.630196765685, -32183.382771418426, -26767.264517219606, 2616.539909427155, 17294.639920549384, -494.0182559511967, -20183.401725697724, 0.038, 0.928, -0.268, 192.0, 0.0, 0.0, 0.0, 0.0, 0.0, 0.0, 0.0, 0.0, 0.0, 1.6620646894743967E9, 0.0, 2022-09-01 16:38:09.474
164.0, -15238.033561472126, -20892.935501686992, -25559.286839876993, -12602.561724491326, -3656.1418957879423, -14173.621138765948, 42044.190114043966, -14152.476388511228, -20679.27517643871, -3073.364862604721, -32215.77044913417, -26788.878654107888, 2572.9987112282174, 17343.187909506312, -560.2464747722715, -20212.23547604507, 0.038, 0.928, -0.268, 192.0, 0.0, 0.0, 0.0, 0.0, 0.0, 0.0, 0.0, 0.0, 0.0, 1.662064689474403E9, 0.0, 2022-09-01 16:38:09.474
166.0, -15368.254824668746, -21029.30349460882, -25696.146571176836, -12738.057999379398, -3724.270012887718, -14305.11645139652, 42534.65444262677, -14289.671395977903, -20608.35309128202, -3047.5262460143863, -32154.996055960186, -26737.827269771966, 2640.232758549781, 17315.94113301529, -494.86762224049835, -20164.715667333086, 0.038, 0.928, -0.268, 192.0, 0.0, 0.0, 0.0, 0.0, 0.0, 0.0, 0.0, 0.0, 0.0, 1.6620646894744105E9, 0.0, 2022-09-01 16:38:09.474
168.0, -15250.796407556107, -20907.4864873274, -25589.126418724827, -12614.251686841451, -3692.4187770389053, -14209.450985127805, 42100.89648972708, -14176.035127167122, -20702.297473227678, -3102.8468135412713, -32241.89963840242, -26804.860151393434, 2540.1639986233713, 17308.31918815603, -606.5369375392124, -20239.996342658564, 0.038, 0.928, -0.268, 192.0, 0.0, 0.0, 0.0, 0.0, 0.0, 0.0, 0.0, 0.0, 0.0, 1.6620646894744165E9, 0.0, 2022-09-01 16:38:09.474
170.0, -15361.705763543341, -21022.195639872032, -25676.164111633792, -12736.04634237842, -3692.2846665721736, -14257.373125239985, 42470.907267440234, -14268.481942234272, -20583.56500668109, -3027.7449521714393, -32139.908628452857, -26721.19757189722, 2643.004374862239, 17329.240420966198, -477.6120755210013, -20145.426111868157, 0.042, 0.924, -0.268, 192.0, 0.5, 40.0, 14.0, 112.0, 123.5, 80.0, 0.0, 0.0, 0.0, 1.662064689474422E9, 0.0, 2022-09-01 16:38:09.474
172.0, -15272.142323510925, -20921.90336250107, -25603.297424709493, -12633.228317884008, -3648.832875351057, -14212.222601440264, 42177.11593831968, -14181.578359792038, -20712.266351254744, -3124.7291713630166, -32256.025940898176, -26827.256599337652, 2510.8608616424635, 17290.90717922535, -595.0257891447293, -20250.72517999711, 0.042, 0.924, -0.268, 192.0, 0.0, 0.0, 0.0, 0.0, 0.0, 0.0, 0.0, 0.0, 0.0, 1.6620646894744277E9, 0.0, 2022-09-01 16:38:09.474
174.0, -15353.055638439137, -21009.477497276963, -25656.136948601838, -12716.8014904024, -3762.402088928472, -14328.809300519146, 42401.10276950631, -14270.448895746338, -20581.68746014684, -3010.6682194075847, -32119.903817165356, -26704.03143215554, 2670.4299653089006, 17358.96824109176, -445.9173018833759, -20123.56610579087, 0.042, 0.924, -0.268, 192.0, 0.0, 0.0, 0.0, 0.0, 0.0, 0.0, 0.0, 0.0, 0.0, 1.6620646894744332E9, 0.0, 2022-09-01 16:38:09.474
176.0, -15259.223015215757, -20912.649740296572, -25595.474314150135, -12625.181689880097, -3678.6501024544364, -14207.506383360194, 42257.045776491854, -14186.227522638741, -20713.272179755233, -3120.035305027402, -32243.643074469936, -26820.77459344561, 2531.1115421189716, 17269.002469659146, -570.103594077062, -20247.595935773366, 0.042, 0.924, -0.268, 192.0, 0.0, 0.0, 0.0, 0.0, 0.0, 0.0, 0.0, 0.0, 0.0, 1.6620646894744394E9, 0.0, 2022-09-01 16:38:09.474
178.0, -15316.711701954808, -20976.441618972018, -25625.40329997579, -12683.631501630725, -3720.6043267970476, -14274.740430681757, 42331.11945761675, -14236.29543021863, -20574.467846687778, -2985.6342656176407, -32094.333421508483, -26681.456170255682, 2661.2881018266803, 17337.28704897011, -451.95227288630883, -20115.295960342402, 0.042, 0.924, -0.268, 192.0, 0.0, 0.0, 0.0, 0.0, 0.0, 0.0, 0.0, 0.0, 0.0, 1.662064689474445E9, 0.0, 2022-09-01 16:38:09.474
180.0, -15298.785602901651, -20947.56316513576, -25609.131230012328, -12643.21954765553, -3687.6802072143805, -14166.46858054025, 42358.9473794636, -14194.47531634275, -20720.134165303014, -3140.5765581818296, -32240.402071523917, -26819.254674822652, 2537.817065455564, 17264.152141112347, -576.7420621802881, -20256.827206233407, 0.042, 0.93, -0.276, 192.0, 0.5, 40.0, 14.5, 8.0, 123.5, 48.0, 0.0, 0.0, 0.0, 1.6620646894744513E9, 0.0, 2022-09-01 16:38:09.474
182.0, -15302.473640736776, -20947.0937785022, -25584.186683200205, -12640.291469131884, -3644.2284159932633, -14284.374032541995, 42260.24207594897, -14197.693967544314, -20592.013966085193, -2992.4291959320544, -32100.547206467058, -26665.631135181327, 2675.6379217669873, 17395.423936298364, -458.2554648227054, -20108.79160270591, 0.042, 0.93, -0.276, 192.0, 0.0, 0.0, 0.0, 0.0, 0.0, 0.0, 0.0, 0.0, 0.0, 1.6620646894744632E9, 0.0, 2022-09-01 16:38:09.474
184.0, -15328.692236982852, -20963.745828121406, -25639.68606468273, -12682.446859174594, -3723.8453297430674, -14264.212759043308, 42450.81304917491, -14221.945610278322, -20724.15747930497, -3134.854511601271, -32245.364158792992, -26814.046718364563, 2524.0930943600056, 17253.26684156261, -573.1434313229837, -20254.703790510153, 0.042, 0.93, -0.276, 192.0, 0.0, 0.0, 0.0, 0.0, 0.0, 0.0, 0.0, 0.0, 0.0, 1.6620646894744697E9, 0.0, 2022-09-01 16:38:09.474
186.0, -15276.97030031327, -20914.48258334191, -25584.5890146004, -12633.854166728755, -3664.456744725316, -14250.555843181115, 42186.660133202095, -14174.649319010892, -20595.813762642596, -3006.5554984278083, -32114.58410198499, -26682.126722589343, 2621.725514140787, 17402.800011968615, -482.9317907013644, -20133.736149518034, 0.042, 0.93, -0.276, 192.0, 0.0, 0.0, 0.0, 0.0, 0.0, 0.0, 0.0, 0.0, 0.0, 1.6620646894744768E9, 0.0, 2022-09-01 16:38:09.474
188.0, -15332.22381260679, -20962.29296473181, -25656.941611402228, -12685.397289442693, -3718.59266979607, -14298.455631548839, 42518.40472440776, -14226.885345802946, -20703.37035696153, -3138.0955145472903, -32234.992949365733, -26803.8766746374, 2535.5818910100334, 17248.192995571255, -573.3669487675368, -20250.52401429701, 0.042, 0.93, -0.276, 192.0, 0.0, 0.0, 0.0, 0.0, 0.0, 0.0, 0.0, 0.0, 0.0, 1.6620646894744833E9, 0.0, 2022-09-01 16:38:09.474
190.0, -15250.751704067196, -20888.08517314019, -25571.513244094043, -12619.012608410432, -3615.7522935572024, -14187.792144750614, 42117.68264981302, -14141.345219772486, -20590.047012573126, -2994.1279285106575, -32101.418924500817, -26673.05191434049, 2638.37756375999, 17418.513288320697, -492.3865786059593, -20123.476698813047, 0.043, 0.93, -0.275, 192.0, 0.5, 48.0, 14.5, 8.0, 123.5, 56.0, 0.0, 0.0, 0.0, 1.66206468947449E9, 0.0, 2022-09-01 16:38:09.474
192.0, -15358.017725708214, -20985.874055132157, -25684.970698949182, -12717.047359591408, -3717.430379084394, -14298.813259460123, 42586.398731040805, -14229.902831304411, -20684.393725918977, -3122.3822381952095, -32217.37977473495, -26799.719250168713, 2558.917112221374, 17260.173530599302, -564.0015678407631, -20245.80779621694, 0.043, 0.93, -0.275, 192.0, 0.0, 0.0, 0.0, 0.0, 0.0, 0.0, 0.0, 0.0, 0.0, 1.6620646894744964E9, 0.0, 2022-09-01 16:38:09.474
194.0, -15280.390117214933, -20914.10260368617, -25597.15069498428, -12636.089341174287, -3659.606416178515, -14187.300406372597, 42075.19198360348, -14143.938022129301, -20629.631952003474, -3034.2269580634784, -32154.526669326628, -26722.985711453643, 2581.268856676681, 17379.710659946282, -546.0307652986962, -20173.499902904023, 0.043, 0.93, -0.275, 192.0, 0.0, 0.0, 0.0, 0.0, 0.0, 0.0, 0.0, 0.0, 0.0, 1.6620646894745023E9, 0.0, 2022-09-01 16:38:09.474
196.0, -15377.3296329176, -21006.839991431236, -25709.691728316753, -12722.747054427511, -3768.1688389979413, -14359.520597400737, 42634.38792638635, -14264.324517765584, -20691.121601000024, -3145.71745940655, -32243.933647147853, -26823.859134180446, 2544.2767196031477, 17246.51661473711, -575.0209778572295, -20269.38888661729, 0.043, 0.93, -0.275, 192.0, 0.0, 0.0, 0.0, 0.0, 0.0, 0.0, 0.0, 0.0, 0.0, 1.6620646894745088E9, 0.0, 2022-09-01 16:38:09.474
198.0, -15245.811968542574, -20873.869463666615, -25579.11283720885, -12578.891227113156, -3607.6609620643812, -14188.149772661898, 42041.64201517606, -14121.60862941845, -20632.42592006039, -3036.4621325090093, -32166.775425288135, -26729.71358653469, 2590.835403303552, 17372.759267420683, -564.8285823856095, -20186.218045499092, 0.043, 0.93, -0.275, 192.0, 0.0, 0.0, 0.0, 0.0, 0.0, 0.0, 0.0, 0.0, 0.0, 1.662064689474517E9, 0.0, 2022-09-01 16:38:09.474
200.0, -15366.578443834596, -20992.646633702116, -25695.52072233209, -12688.481830177527, -3734.5965188260698, -14323.891916738978, 42666.14975525734, -14243.626802399971, -20649.793225502162, -3086.686502300084, -32197.71023961428, -26772.137197510863, 2575.770327540675, 17303.29004565359, -564.6274166855117, -20225.84768841835, 0.0445, 0.925, -0.2715, 192.0, 0.5, 56.0, 14.0, 96.0, 123.5, 80.0, 0.0, 0.0, 0.0, 1.6620646894745333E9, 0.0, 2022-09-01 16:38:09.474
202.0, -15247.287183676623, -20875.43408577849, -25568.24988940357, -12576.700756156535, -3668.3235965160843, -14171.162446875865, 42048.1240210681, -14123.419120719329, -20640.249030619747, -3037.7808854318723, -32158.102948439475, -26724.930313221255, 2574.786850784642, 17381.72231694726, -568.1366405649949, -20188.43086820017, 0.0445, 0.925, -0.2715, 192.0, 0.0, 0.0, 0.0, 0.0, 0.0, 0.0, 0.0, 0.0, 0.0, 1.66206468947454E9, 0.0, 2022-09-01 16:38:09.474
204.0, -15384.750412076763, -21011.48915427794, -25695.140742676347, -12714.968647357065, -3744.4089346419496, -14321.83555624909, 42683.18178453229, -14256.188482783853, -20662.198443674857, -3103.495014130475, -32196.70441111379, -26783.514235438615, 2564.728565779754, 17282.41351633233, -565.7450039082771, -20234.162537355725, 0.0445, 0.925, -0.2715, 192.0, 0.0, 0.0, 0.0, 0.0, 0.0, 0.0, 0.0, 0.0, 0.0, 1.6620646894745464E9, 0.0, 2022-09-01 16:38:09.474
206.0, -15234.971372481748, -20855.02694309079, -25560.851461988863, -12564.988442061955, -3637.3217269565735, -14235.379008695962, 42073.694416724975, -14117.741777627682, -20663.673658808908, -3070.503839314442, -32186.22144296425, -26757.519156637092, 2525.7694751941535, 17364.220901038756, -585.7274634513216, -20211.65433068923, 0.0445, 0.925, -0.2715, 192.0, 0.0, 0.0, 0.0, 0.0, 0.0, 0.0, 0.0, 0.0, 0.0, 1.662064689474553E9, 0.0, 2022-09-01 16:38:09.474
208.0, -15366.220815923312, -20988.10922957769, -25687.876425728373, -12702.764594884467, -3763.36321394005, -14342.913251270444, 42672.7211681272, -14253.707439149313, -20621.048882132636, -3070.2803218698887, -32158.8405560065, -26745.359807653407, 2609.5438134126443, 17305.748737543672, -525.0871807440735, -20196.499847948533, 0.0445, 0.925, -0.2715, 192.0, 0.0, 0.0, 0.0, 0.0, 0.0, 0.0, 0.0, 0.0, 0.0, 1.6620646894745595E9, 0.0, 2022-09-01 16:38:09.474
210.0, -15247.06366623207, -20863.69941993945, -25583.046744232983, -12569.682308397569, -3639.5121979131936, -14182.897112714902, 42130.13257147462, -14128.22474577722, -20675.453028136853, -3068.916865458115, -32200.861835582476, -26760.33547643846, 2537.9288241778404, 17381.901130902905, -599.585545013612, -20224.41717677321, 0.04625, 0.9225000000000001, -0.27175000000000005, 192.0, 0.5, 64.0, 14.0, 96.0, 123.5, 64.0, 0.0, 0.0, 0.0, 1.662064689474566E9, 0.0, 2022-09-01 16:38:09.474
212.0, -15391.388880179988, -21011.936189167045, -25700.840437512452, -12709.626580432247, -3729.589728068081, -14314.794756745669, 42655.0185865186, -14262.469322975794, -20618.433728031367, -3066.9946154349586, -32153.02910244812, -26735.234467415154, 2600.3125429526026, 17302.306568897555, -534.5866721375791, -20192.163609524207, 0.04625, 0.9225000000000001, -0.27175000000000005, 192.0, 0.0, 0.0, 0.0, 0.0, 0.0, 0.0, 0.0, 0.0, 0.0, 1.6620646894745727E9, 0.0, 2022-09-01 16:38:09.474
214.0, -15293.443535976832, -20905.675996026515, -25596.54719788399, -12590.760003418924, -3636.852340323012, -14148.408371020363, 42193.87974666116, -14145.145016329887, -20718.457784468865, -3118.358924193254, -32235.7082051883, -26798.422848990303, 2489.939628832296, 17316.85755453796, -628.486350594324, -20262.01281094704, 0.04625, 0.9225000000000001, -0.27175000000000005, 192.0, 0.0, 0.0, 0.0, 0.0, 0.0, 0.0, 0.0, 0.0, 0.0, 1.662064689474579E9, 0.0, 2022-09-01 16:38:09.474
216.0, -15388.818429567627, -20998.212218071487, -25663.110692871895, -12677.350661438782, -3739.0892194615867, -14320.159175414941, 42608.61636502938, -14250.622898414482, -20633.94583868335, -3064.4912200559643, -32161.88039325242, -26732.61931331388, 2578.296074664125, 17290.147219913866, -529.19990172385, -20186.70978387711, 0.04625, 0.9225000000000001, -0.27175000000000005, 192.0, 0.0, 0.0, 0.0, 0.0, 0.0, 0.0, 0.0, 0.0, 0.0, 1.6620646894745855E9, 0.0, 2022-09-01 16:38:09.474
218.0, -15278.221998002768, -20881.692574225974, -25573.234328417104, -12560.875721082179, -3669.240018038752, -14148.855405909468, 42253.357738656734, -14132.89626036838, -20703.10213602807, -3104.2102699530446, -32228.689757429336, -26781.68139239328, 2531.7373909637204, 17347.032409552623, -595.0928443780953, -20245.472520050113, 0.04625, 0.9225000000000001, -0.27175000000000005, 192.0, 0.0, 0.0, 0.0, 0.0, 0.0, 0.0, 0.0, 0.0, 0.0, 1.6620646894745924E9, 0.0, 2022-09-01 16:38:09.474
220.0, -15350.932222715883, -20961.041267042314, -25633.78520414653, -12639.30799237585, -3724.717047776824, -14326.708236540348, 42531.949881547676, -14225.119557990976, -20595.992576598237, -2998.8664983351828, -32118.49565726467, -26689.18987383722, 2625.94999384284, 17365.71846791726, -491.13488091646207, -20141.26868739947, 0.044125, 0.9232500000000001, -0.27287500000000003, 192.0, 0.5, 40.0, 14.0, 112.0, 123.5, 56.0, 0.0, 0.0, 0.0, 1.6620646894745991E9, 0.0, 2022-09-01 16:38:09.474
222.0, -15296.706890667307, -20898.85871396765, -25605.174971243738, -12582.981596348476, -3632.2925844541296, -14198.073947200055, 42323.36340229075, -14161.32767931553, -20698.967063303837, -3090.5086506019416, -32216.284539256638, -26779.401514458837, 2493.6276666674216, 17318.153955716367, -605.6875712499108, -20235.19071760067, 0.044125, 0.9232500000000001, -0.27287500000000003, 192.0, 0.0, 0.0, 0.0, 0.0, 0.0, 0.0, 0.0, 0.0, 0.0, 1.662064689474606E9, 0.0, 2022-09-01 16:38:09.474
224.0, -15358.04007745267, -20969.601985168694, -25632.622913434854, -12649.209815169552, -3611.3266481550513, -14245.77256986768, 42460.46900277961, -14207.238162426731, -20607.79429767064, -3018.2007572890234, -32121.714308466235, -26699.628138497847, 2574.228057173259, 17323.56307787455, -528.685811601378, -20145.22494616806, 0.044125, 0.9232500000000001, -0.27287500000000003, 192.0, 0.0, 0.0, 0.0, 0.0, 0.0, 0.0, 0.0, 0.0, 0.0, 1.6620646894746127E9, 0.0, 2022-09-01 16:38:09.474
226.0, -15322.500803768731, -20928.18420269301, -25596.703660095176, -12603.433442525084, -3765.5983883855806, -14231.86978481648, 42401.52745265096, -14187.23335113923, -20717.3401972461, -3140.196578526089, -32229.449716740815, -26804.882503137887, 2501.3166667600476, 17284.112248910937, -618.5845278006229, -20257.564813800433, 0.044125, 0.9232500000000001, -0.27287500000000003, 192.0, 0.0, 0.0, 0.0, 0.0, 0.0, 0.0, 0.0, 0.0, 0.0, 1.6620646894746196E9, 0.0, 2022-09-01 16:38:09.474
228.0, -15341.27626911119, -20948.658400614073, -25586.041877989996, -12634.368256851229, -3709.651972013947, -14284.374032541995, 42382.01437974148, -14194.721185531758, -20587.342451494034, -3010.623515918674, -32093.618165685915, -26678.103408587387, 2643.205540562337, 17393.30052057511, -505.59645957904576, -20135.83721349683, 0.044125, 0.9232500000000001, -0.27287500000000003, 192.0, 0.0, 0.0, 0.0, 0.0, 0.0, 0.0, 0.0, 0.0, 0.0, 1.662064689474626E9, 0.0, 2022-09-01 16:38:09.474
230.0, -15347.110074414024, -20944.769197078847, -25611.075831779937, -12623.59471602377, -3726.7063530333467, -14240.922241320879, 42487.067578681424, -14195.391737865417, -20738.976685878835, -3145.136314050712, -32248.113423360996, -26821.176924845808, 2489.6937596432876, 17252.238661317668, -620.9761644573408, -20281.950567001175, 0.0440625, 0.9236250000000001, -0.2704375, 192.0, 0.5, 48.0, 14.0, 112.0, 123.5, 80.0, 0.0, 0.0, 0.0, 1.6620646894746344E9, 0.0, 2022-09-01 16:38:09.474
232.0, -15340.203385377336, -20947.51846164685, -25600.346994441392, -12618.20794561004, -3655.9630818323, -14224.33724693504, 42304.1856055481, -14186.920426716857, -20601.60286445652, -2997.3689314566773, -32105.419886758315, -26667.03929508201, 2602.838290076052, 17400.967168923282, -511.83259628207645, -20131.724492517056, 0.0440625, 0.9236250000000001, -0.2704375, 192.0, 0.0, 0.0, 0.0, 0.0, 0.0, 0.0, 0.0, 0.0, 0.0, 1.662064689474641E9, 0.0, 2022-09-01 16:38:09.474
234.0, -15387.589083622586, -20984.48824697593, -25671.60435576491, -12652.964908238044, -3755.7412690807905, -14275.165113826408, 42559.353120249885, -14243.425636699872, -20745.659857470975, -3161.3860322697205, -32265.011342169208, -26824.9320179143, 2436.809532262031, 17218.12989927887, -656.515438141279, -20281.794104789988, 0.0440625, 0.9236250000000001, -0.2704375, 192.0, 0.0, 0.0, 0.0, 0.0, 0.0, 0.0, 0.0, 0.0, 0.0, 1.662064689474648E9, 0.0, 2022-09-01 16:38:09.474
236.0, -15316.890515910449, -20927.647760826083, -25586.578319856922, -12596.459698255027, -3671.989282606755, -14281.356547040528, 42222.13235165267, -14189.870856984957, -20638.192670129858, -3033.8022749188276, -32139.46159356375, -26698.622309997358, 2569.042452459628, 17400.766003223183, -555.7984776256654, -20161.6087748538, 0.0440625, 0.9236250000000001, -0.2704375, 192.0, 0.0, 0.0, 0.0, 0.0, 0.0, 0.0, 0.0, 0.0, 0.0, 1.662064689474655E9, 0.0, 2022-09-01 16:38:09.474
238.0, -15353.41326635042, -20953.24050822741, -25636.534468714533, -12637.162224908141, -3722.5042250757488, -14268.705459678826, 42613.84667323192, -14214.390720652429, -20699.81642959314, -3130.5182731769414, -32219.369079991473, -26792.67845066529, 2496.4663382132458, 17284.33576635549, -605.3075915941706, -20250.34520034137, 0.0440625, 0.9236250000000001, -0.2704375, 192.0, 0.0, 0.0, 0.0, 0.0, 0.0, 0.0, 0.0, 0.0, 0.0, 1.6620646894746614E9, 0.0, 2022-09-01 16:38:09.474
240.0, -15260.787637327629, -20871.36606828762, -25529.313150562426, -12556.561834402304, -3563.5833219985157, -14165.909786928867, 42161.51442068988, -14118.859364850447, -20590.628157928964, -2969.9433410100155, -32085.124502792896, -26654.18704202021, 2591.5059556372116, 17470.525797668197, -501.75195953273294, -20113.21724810806, 0.03903125, 0.9278125000000002, -0.27221875, 192.0, 0.5, 8.0, 14.5, 16.0, 123.5, 56.0, 0.0, 0.0, 0.0, 1.6620646899537065E9, 0.0, 2022-09-01 16:38:09.953
242.0, -15396.105098260057, -21007.44348853153, -25674.353620332913, -12698.56246692687, -3742.3972776409723, -14270.046564346143, 42661.54529589955, -14258.289546762651, -20692.149781244967, -3116.2355084700002, -32206.807399607587, -26794.220721032707, 2512.917222132352, 17244.907289136325, -587.135623352006, -20244.667857249722, 0.03903125, 0.9278125000000002, -0.27221875, 192.0, 0.0, 0.0, 0.0, 0.0, 0.0, 0.0, 0.0, 0.0, 0.0, 1.6620646899537764E9, 0.0, 2022-09-01 16:38:09.953
244.0, -15277.819666602572, -20890.163885374535, -25543.439453058178, -12578.310081757318, -3655.0690120540876, -14250.265270503196, 42117.34737364619, -14152.364629788952, -20634.571687528096, -3021.97820210197, -32128.933921925298, -26703.874969944358, 2548.9705859387623, 17429.666808803893, -561.229951528305, -20160.245318442026, 0.03903125, 0.9278125000000002, -0.27221875, 192.0, 0.0, 0.0, 0.0, 0.0, 0.0, 0.0, 0.0, 0.0, 0.0, 1.6620646899538465E9, 0.0, 2022-09-01 16:38:09.953
246.0, -15410.521973433732, -21018.038215403347, -25666.239937095637, -12698.137783782218, -3744.565396853137, -14301.473117050306, 42690.73667415818, -14268.280776534175, -20703.280949983713, -3119.1859387381005, -32211.03187930964, -26797.081744322986, 2502.7471784051872, 17247.56714672651, -600.7478357252879, -20250.322848596912, 0.03903125, 0.9278125000000002, -0.27221875, 192.0, 0.0, 0.0, 0.0, 0.0, 0.0, 0.0, 0.0, 0.0, 0.0, 1.6620646899538512E9, 0.0, 2022-09-01 16:38:09.953
248.0, -15269.840093832028, -20875.545844500764, -25522.58527548138, -12557.411200691606, -3586.1362321539204, -14138.506548226662, 42098.169576903536, -14121.496870696172, -20653.83889124857, -3024.0569143363136, -32142.523782554126, -26702.399754810307, 2554.290301119125, 17414.758195252205, -561.8558003730536, -20162.99458301003, 0.03903125, 0.9278125000000002, -0.27221875, 192.0, 0.0, 0.0, 0.0, 0.0, 0.0, 0.0, 0.0, 0.0, 0.0, 1.662064689953856E9, 0.0, 2022-09-01 16:38:09.953
250.0, -15421.541383450198, -21024.050834661823, -25682.13202740336, -12704.865658863266, -3724.4488268433606, -14320.74032077078, 42707.6792964553, -14279.9707388843, -20685.220740463825, -3112.3463049347765, -32197.397315191905, -26770.77374109909, 2525.5683094940555, 17243.432074002278, -574.2163150568384, -20228.95458089764, 0.037515625000000004, 0.9259062500000002, -0.272109375, 192.0, 0.5, 16.0, 14.0, 112.0, 123.5, 64.0, 0.0, 0.0, 0.0, 1.6620646899538605E9, 0.0, 2022-09-01 16:38:09.953
252.0, -15283.094678294025, -20879.99384164737, -25547.06043565994, -12568.520017685893, -3660.9028173569227, -14220.224525955264, 42088.312457598746, -14151.85053966648, -20689.62403412152, -3061.406679321132, -32183.874509796446, -26735.48033660416, 2481.7365386171987, 17411.248971372723, -593.6399809885003, -20204.70293816363, 0.037515625000000004, 0.9259062500000002, -0.272109375, 192.0, 0.0, 0.0, 0.0, 0.0, 0.0, 0.0, 0.0, 0.0, 0.0, 1.6620646899538653E9, 0.0, 2022-09-01 16:38:09.953
254.0, -15416.601647925574, -21012.182058356055, -25675.538262789043, -12709.000731587497, -3769.9346268099102, -14329.278687152708, 42688.2779822681, -14280.35071854004, -20664.031286720194, -3091.7379965469836, -32173.726817813735, -26751.35007516743, 2540.275757345648, 17267.70606848074, -563.0180910847296, -20219.34333078186, 0.037515625000000004, 0.9259062500000002, -0.272109375, 192.0, 0.0, 0.0, 0.0, 0.0, 0.0, 0.0, 0.0, 0.0, 0.0, 1.66206468995387E9, 0.0, 2022-09-01 16:38:09.953
0.0, -15289.375518485967, -20883.123085871113, -25557.76692125403, -12575.314948000307, -3639.1545700019087, -14186.47339182775, 42116.65446956807, -14148.296612298085, -20690.719269599827, -3070.3026736143443, -32188.434265665328, -26744.77866229757, 2504.132986561416, 17391.132401362946, -613.1083504090727, -20227.5240692525, 0.037515625000000004, 0.9259062500000002, -0.272109375, 192.0, 0.0, 0.0, 0.0, 0.0, 0.0, 0.0, 0.0, 0.0, 0.0, 1.6620646899538748E9, 0.0, 2022-09-01 16:38:09.953
2.0, -15413.852383357571, -21010.68449147755, -25677.393457578833, -12694.8967808362, -3708.981419680288, -14330.329219142106, 42668.36257795842, -14269.39836375694, -20663.539548342174, -3077.1423074176682, -32166.395445632395, -26733.155755180807, 2510.0561988420727, 17266.811998702527, -562.0122625842408, -20205.50760096402, 0.037515625000000004, 0.9259062500000002, -0.272109375, 192.0, 0.0, 0.0, 0.0, 0.0, 0.0, 0.0, 0.0, 0.0, 0.0, 1.6620646899538794E9, 0.0, 2022-09-01 16:38:09.953
4.0, -15284.704003894807, -20883.212492848932, -25542.657142002245, -12560.875721082179, -3693.8716404285005, -14201.516115846172, 42151.567894407264, -14145.457940752261, -20704.912627328948, -3065.206475878534, -32192.256413967185, -26736.95555173821, 2492.8677073559415, 17386.81851468307, -611.6554870194777, -20215.699996435644, 0.037515625000000004, 0.9259062500000002, -0.272109375, 192.0, 0.0, 0.0, 0.0, 0.0, 0.0, 0.0, 0.0, 0.0, 0.0, 1.66206468995389E9, 0.0, 2022-09-01 16:38:09.953
6.0, -15409.873772844527, -21013.791383956835, -25661.858995182396, -12704.150403040696, -3756.6800423479135, -14330.083349953098, 42621.513321580096, -14272.818180658602, -20647.870975479007, -3062.144286888157, -32147.30705586756, -26722.181048653252, 2560.3029203776027, 17304.85466776546, -550.9705008233191, -20196.05281305943, 0.042, 0.92, -0.272, 192.0, 0.5, 40.0, 14.0, 96.0, 123.5, 64.0, 0.0, 0.0, 0.0, 1.6620646899539013E9, 0.0, 2022-09-01 16:38:09.953
8.0, -15290.82838187556, -20887.682841739996, -25552.44720607367, -12567.693003141047, -3664.5908551920484, -14214.457775885794, 42204.85445318872, -14152.185815833309, -20715.66381641195, -3095.940124504581, -32204.304004228594, -26768.15858699782, 2478.808460093553, 17352.57564217754, -630.6544698064888, -20243.058531648938, 0.042, 0.92, -0.272, 192.0, 0.0, 0.0, 0.0, 0.0, 0.0, 0.0, 0.0, 0.0, 0.0, 1.662064689953906E9, 0.0, 2022-09-01 16:38:09.953
10.0, -15392.752336591762, -20993.853627902703, -25636.199192547705, -12674.22141721504, -3678.784212921168, -14284.977529642289, 42556.64855917079, -14242.799787855123, -20620.2665710767, -3045.089905868758, -32118.96504389823, -26699.42697279775, 2576.172658940871, 17317.036368493602, -528.9763842792969, -20157.451350385112, 0.042, 0.92, -0.272, 192.0, 0.0, 0.0, 0.0, 0.0, 0.0, 0.0, 0.0, 0.0, 0.0, 1.6620646899539108E9, 0.0, 2022-09-01 16:38:09.953
12.0, -15340.583365033075, -20939.9412202765, -25608.30421546748, -12614.0281693969, -3640.361564202495, -14187.9486069618, 42284.42666344961, -14178.270301612652, -20737.747339933794, -3132.976965067025, -32234.18828656534, -26797.797000145558, 2443.358593387436, 17281.385336087387, -640.8915687670194, -20255.10612191035, 0.042, 0.92, -0.272, 192.0, 0.0, 0.0, 0.0, 0.0, 0.0, 0.0, 0.0, 0.0, 0.0, 1.662064689953915E9, 0.0, 2022-09-01 16:38:09.953
14.0, -15392.350005191567, -21000.805020428303, -25637.2497245371, -12680.368146940249, -3709.8754894585004, -14209.04865372761, 42492.0296659505, -14239.447026186828, -20636.60569627353, -3054.477638539987, -32132.711366738247, -26709.038222913532, 2519.3545245354803, 17279.1278098974, -556.2902160036822, -20172.98581278155, 0.042, 0.92, -0.272, 192.0, 0.0, 0.0, 0.0, 0.0, 0.0, 0.0, 0.0, 0.0, 0.0, 1.66206468995392E9, 0.0, 2022-09-01 16:38:09.953
16.0, -15325.808861948117, -20923.04330146829, -25582.957337255164, -12593.509267986927, -3708.1991086243524, -14279.143724339454, 42360.91433297567, -14199.236237911731, -20732.181755564423, -3108.3453426772767, -32222.81124863759, -26787.78341862958, 2433.233253149182, 17295.66810079433, -625.871196493053, -20261.029334191007, 0.042, 0.924, -0.274, 192.0, 0.5, 40.0, 14.0, 112.0, 123.5, 56.0, 0.0, 0.0, 0.0, 1.6620646899539247E9, 0.0, 2022-09-01 16:38:09.953
18.0, -15364.723249044806, -20966.539796178316, -25603.83386657642, -12644.985335467498, -3740.7432485512795, -14339.247565179774, 42414.3126504794, -14236.854223830012, -20603.435707501856, -3008.343637984233, -32095.24984303115, -26670.95085036169, 2599.6643423633986, 17394.3063490756, -520.7062388308333, -20150.47760611506, 0.042, 0.924, -0.274, 192.0, 0.0, 0.0, 0.0, 0.0, 0.0, 0.0, 0.0, 0.0, 0.0, 1.6620646899539292E9, 0.0, 2022-09-01 16:38:09.953
20.0, -15371.741696803772, -20963.00822055438, -25628.912523855273, -12635.97758245201, -3789.045368319198, -14317.186393402386, 42435.23388328956, -14233.05442727261, -20741.077749857635, -3144.912796606159, -32242.03374886915, -26809.1293345844, 2437.3459741289585, 17266.566129513518, -648.4911618818238, -20285.146866458283, 0.042, 0.924, -0.274, 192.0, 0.0, 0.0, 0.0, 0.0, 0.0, 0.0, 0.0, 0.0, 0.0, 1.662064689953934E9, 0.0, 2022-09-01 16:38:09.953
22.0, -15360.766990276217, -20964.550490921796, -25608.572436400944, -12643.666582544636, -3666.1331255594646, -14295.438146047372, 42324.23512032451, -14224.918392290878, -20626.681521735372, -3023.274603280378, -32117.26631131963, -26684.8983389018, 2553.3738795964578, 17373.96626162127, -549.7411548782773, -20156.42317014017, 0.042, 0.924, -0.274, 192.0, 0.0, 0.0, 0.0, 0.0, 0.0, 0.0, 0.0, 0.0, 0.0, 1.6620646899539385E9, 0.0, 2022-09-01 16:38:09.953
24.0, -15366.600795579052, -20964.1481595216, -25622.944608085705, -12645.030038956409, -3766.335995952606, -14264.749200910235, 42508.43584638069, -14226.661828358392, -20743.894069659003, -3143.459933216564, -32245.028882626164, -26811.856247407944, 2423.107912910928, 17236.681847176773, -657.0742317526617, -20275.87089250933, 0.042, 0.924, -0.274, 192.0, 0.0, 0.0, 0.0, 0.0, 0.0, 0.0, 0.0, 0.0, 0.0, 1.6620646899539433E9, 0.0, 2022-09-01 16:38:09.953
26.0, -15317.56106824411, -20918.438842110496, -25545.272296103514, -12606.406224537639, -3641.345040958529, -14221.632685855948, 42250.02732873289, -14170.670708497848, -20605.827344158573, -2987.1318324961467, -32091.338287751474, -26661.741931646102, 2553.5303418076446, 17392.42880254135, -517.8675672850094, -20129.422262838158, 0.04, 0.926, -0.274, 192.0, 0.5, 32.0, 14.0, 120.0, 123.5, 56.0, 0.0, 0.0, 0.0, 1.662064689953948E9, 0.0, 2022-09-01 16:38:09.953
28.0, -15401.089537273592, -20996.960520381992, -25636.02037859206, -12669.996937512988, -3729.209748412341, -14212.915505518378, 42585.92934440725, -14241.257517487707, -20728.560772962664, -3135.0333255569135, -32224.24176028273, -26796.187674544773, 2460.077698240006, 17243.27561179109, -620.5514813126899, -20259.5317673125, 0.04, 0.926, -0.274, 192.0, 0.0, 0.0, 0.0, 0.0, 0.0, 0.0, 0.0, 0.0, 0.0, 1.6620646899539523E9, 0.0, 2022-09-01 16:38:09.953
30.0, -15351.356905860534, -20950.20067098149, -25573.569604583932, -12607.680273971591, -3675.0738233415873, -14269.420715501396, 42202.23929908744, -14193.648301797904, -20649.636763290975, -3024.1686730585902, -32130.722061481723, -26687.871120914355, 2520.6062222249775, 17397.72616597726, -562.2581317732491, -20154.61267883929, 0.04, 0.926, -0.274, 192.0, 0.0, 0.0, 0.0, 0.0, 0.0, 0.0, 0.0, 0.0, 0.0, 1.662064689953957E9, 0.0, 2022-09-01 16:38:09.953
32.0, -15413.695921146384, -21001.87790416216, -25656.874556168863, -12654.93186175011, -3738.329260150106, -14288.48675352177, 42652.962226028714, -14249.371200724985, -20742.977648136337, -3141.0235930709355, -32238.680987200856, -26797.193503045262, 2435.401372361347, 17237.4194547438, -634.1413419415167, -20253.697962009664, 0.04, 0.926, -0.274, 192.0, 0.0, 0.0, 0.0, 0.0, 0.0, 0.0, 0.0, 0.0, 0.0, 1.6620646899539616E9, 0.0, 2022-09-01 16:38:09.953
34.0, -15316.331722299066, -20914.52728683082, -25552.916592707228, -12567.715354885502, -3667.697747671336, -14229.38874118194, 42161.82734511225, -14164.121647372443, -20643.266516121213, -3007.114292039191, -32121.937825910787, -26666.301687514984, 2499.327361503525, 17422.87187848948, -565.163858552439, -20127.120033159263, 0.04, 0.926, -0.274, 192.0, 0.0, 0.0, 0.0, 0.0, 0.0, 0.0, 0.0, 0.0, 0.0, 1.6620646899539664E9, 0.0, 2022-09-01 16:38:09.953
36.0, -15407.973874565825, -21001.117944850677, -25656.31576255748, -12666.666527589146, -3802.724635925846, -14306.189335130375, 42699.25268879565, -14269.353660268029, -20711.796964621182, -3117.71072360405, -32209.13198103094, -26774.998220801142, 2466.336186687492, 17224.857774359916, -603.2065276153717, -20237.80587170194, 0.044, 0.93, -0.276, 192.0, 0.5, 48.0, 14.5, 8.0, 123.5, 48.0, 0.0, 0.0, 0.0, 1.6620646899539711E9, 0.0, 2022-09-01 16:38:09.953
38.0, -15301.177239558368, -20899.0822314122, -25537.516240777524, -12569.794067119845, -3671.0058058507216, -14198.319816389063, 42128.232673195926, -14163.89812992789, -20636.628048017985, -3007.40486471711, -32122.384860799895, -26680.070362099454, 2516.7170186897542, 17421.888401733446, -569.3883382544922, -20149.114149703284, 0.044, 0.93, -0.276, 192.0, 0.0, 0.0, 0.0, 0.0, 0.0, 0.0, 0.0, 0.0, 0.0, 1.6620646899539769E9, 0.0, 2022-09-01 16:38:09.953
40.0, -15407.593894910086, -21003.3084158073, -25628.64430292181, -12673.975548026032, -3741.234986929296, -14285.40221278694, 42717.424657037816, -14261.39643924194, -20679.364583416533, -3106.914831032137, -32183.248660951696, -26765.05169451853, 2482.2282769952153, 17210.68676837525, -574.104556334562, -20220.95265638264, 0.044, 0.93, -0.276, 192.0, 0.0, 0.0, 0.0, 0.0, 0.0, 0.0, 0.0, 0.0, 0.0, 1.6620646899539816E9, 0.0, 2022-09-01 16:38:09.953
42.0, -15300.350225013523, -20892.980205175903, -25518.6737202017, -12564.876683339678, -3616.221680190764, -14156.678516468826, 42117.61559457965, -14146.709638441758, -20657.437522105876, -3021.1511875571236, -32132.89018069389, -26692.363821549872, 2488.2185445092377, 17419.36265461, -552.6021781685565, -20153.070408471875, 0.044, 0.93, -0.276, 192.0, 0.0, 0.0, 0.0, 0.0, 0.0, 0.0, 0.0, 0.0, 0.0, 1.6620646899539862E9, 0.0, 2022-09-01 16:38:09.953
44.0, -15443.759017438773, -21032.1645178991, -25653.99118113413, -12703.077519306842, -3722.7724460092127, -14285.804544187135, 42729.293433343584, -14287.726794210292, -20693.42383067892, -3091.983865735992, -32186.780236575632, -26762.347133439438, 2479.233143238204, 17204.96472179469, -563.9121608629418, -20213.6212842013, 0.044, 0.93, -0.276, 192.0, 0.0, 0.0, 0.0, 0.0, 0.0, 0.0, 0.0, 0.0, 0.0, 1.6620646899539907E9, 0.0, 2022-09-01 16:38:09.953
46.0, -15305.334664027056, -20898.121106400624, -25528.75435695104, -12554.997212290433, -3599.614334060471, -14196.308159388085, 42130.57960636373, -14152.766961189147, -20694.94374930188, -3058.813876964316, -32170.575221845535, -26724.550333565516, 2472.4829164127013, 17372.826322654048, -584.453414017369, -20182.306490219413, 0.046, 0.928, -0.272, 192.0, 0.5, 56.0, 14.5, 0.0, 123.5, 64.0, 0.0, 0.0, 0.0, 1.6620646899539957E9, 0.0, 2022-09-01 16:38:09.953
48.0, -15457.10300887859, -21051.476425108485, -25671.26907959808, -12710.364187999272, -3798.4554527348823, -14349.864643796045, 42712.84254942448, -14307.999826431254, -20677.84466479357, -3089.391063379176, -32169.94937300079, -26743.95164775272, 2473.10876525745, 17261.2240625887, -555.9772915813079, -20194.354080480825, 0.046, 0.928, -0.272, 192.0, 0.0, 0.0, 0.0, 0.0, 0.0, 0.0, 0.0, 0.0, 0.0, 1.6620646899540002E9, 0.0, 2022-09-01 16:38:09.954
50.0, -15314.945914142838, -20904.916036715036, -25544.042950158473, -12571.336337487262, -3705.6733615009025, -14199.638569311926, 42156.52998167634, -14174.51520854416, -20721.25175252578, -3093.4367291255867, -32199.833655337534, -26760.022552016086, 2410.2109563602157, 17328.122833743433, -617.8245684891425, -20223.836031417373, 0.046, 0.928, -0.272, 192.0, 0.0, 0.0, 0.0, 0.0, 0.0, 0.0, 0.0, 0.0, 0.0, 1.6620646899540048E9, 0.0, 2022-09-01 16:38:09.954
52.0, -15412.801851368173, -21006.661177475595, -25623.905733097286, -12675.830742815822, -3742.59844334107, -14303.082442651088, 42667.982598302675, -14276.036831860165, -20640.4725480643, -3061.1831618765787, -32121.490791021683, -26699.89635943131, 2521.8355681700195, 17262.60987074493, -529.0434395126629, -20165.94501327813, 0.046, 0.928, -0.272, 192.0, 0.0, 0.0, 0.0, 0.0, 0.0, 0.0, 0.0, 0.0, 0.0, 1.6620646899540093E9, 0.0, 2022-09-01 16:38:09.954
54.0, -15307.860411150505, -20891.728507486405, -25524.48517376008, -12552.382058189161, -3693.9163439174113, -14203.393662380418, 42208.3636770682, -14173.867007954957, -20716.043796067694, -3088.653455812151, -32180.65585859488, -26737.9613802387, 2445.4820091106903, 17322.847822051983, -610.1802718854275, -20213.28600803447, 0.046, 0.928, -0.272, 192.0, 0.0, 0.0, 0.0, 0.0, 0.0, 0.0, 0.0, 0.0, 0.0, 1.662064689954014E9, 0.0, 2022-09-01 16:38:09.954
56.0, -15430.973819610337, -21017.702939236515, -25633.919314613264, -12679.004690528476, -3734.9541467373547, -14294.767593713714, 42623.14499892533, -14294.678186735891, -20651.290792380667, -3056.6457577521514, -32119.300320065064, -26690.732144204634, 2507.463396485257, 17270.343574326467, -540.2416634847717, -20162.61460335429, 0.044, 0.924, -0.27, 192.0, 0.5, 48.0, 14.0, 112.0, 123.5, 72.0, 0.0, 0.0, 0.0, 1.6620646899540188E9, 0.0, 2022-09-01 16:38:09.954
58.0, -15318.723358955785, -20900.691557012982, -25538.097386133362, -12545.29655519683, -3707.5062045462378, -14220.559802122094, 42265.382977173686, -14187.501572072695, -20732.71819743135, -3105.7078368315506, -32202.761733861178, -26752.15473796782, 2426.5053780681346, 17308.788574789593, -628.3969436165028, -20229.267505320015, 0.044, 0.924, -0.27, 192.0, 0.0, 0.0, 0.0, 0.0, 0.0, 0.0, 0.0, 0.0, 0.0, 1.6620646899540231E9, 0.0, 2022-09-01 16:38:09.954
60.0, -15405.67164488693, -21000.089764605735, -25606.381965444325, -12641.185538910097, -3765.5089814077596, -14290.990148900766, 42539.37066070684, -14273.935767881367, -20617.360844297513, -3024.1910248030454, -32100.346040766963, -26662.010152579565, 2541.326289335047, 17309.704996312263, -522.6731923429004, -20129.869297727266, 0.044, 0.924, -0.27, 192.0, 0.0, 0.0, 0.0, 0.0, 0.0, 0.0, 0.0, 0.0, 0.0, 1.662064689954028E9, 0.0, 2022-09-01 16:38:09.954
62.0, -15350.015801193214, -20936.789624308305, -25582.59970934388, -12585.864971383211, -3639.1322182574536, -14190.452002340795, 42335.992137908004, -14216.111804975488, -20736.85327015558, -3128.484264431508, -32219.972577091765, -26774.193558000752, 2400.622057988889, 17262.833388189483, -643.1043914680948, -20249.451130563157, 0.044, 0.924, -0.27, 192.0, 0.0, 0.0, 0.0, 0.0, 0.0, 0.0, 0.0, 0.0, 0.0, 1.6620646899540327E9, 0.0, 2022-09-01 16:38:09.954
64.0, -15392.081784258102, -20988.600967955706, -25598.380040929325, -12646.102922690265, -3732.495454847271, -14283.502314508238, 42466.235752849076, -14278.808448172624, -20606.94493138134, -3013.752760142417, -32092.657040674338, -26658.70209440018, 2495.974599835229, 17319.740929572694, -522.9414132763641, -20134.429053596148, 0.044, 0.924, -0.27, 192.0, 0.0, 0.0, 0.0, 0.0, 0.0, 0.0, 0.0, 0.0, 0.0, 1.6620646899540372E9, 0.0, 2022-09-01 16:38:09.954
66.0, -15348.473530825799, -20934.845022540692, -25565.500624835568, -12586.893151628155, -3759.474010404827, -14258.446008973839, 42411.71984812258, -14232.272116216674, -20740.787177179718, -3130.630031899218, -32222.76654514868, -26782.083723793476, 2417.4529215637353, 17246.98600137067, -630.0509727061955, -20261.833996991398, 0.04, 0.922, -0.27, 192.0, 0.5, 32.0, 14.0, 104.0, 123.5, 72.0, 0.0, 0.0, 0.0, 1.6620646899540417E9, 0.0, 2022-09-01 16:38:09.954
68.0, -15362.443371110365, -20951.608830882175, -25567.10995043635, -12605.333340803783, -3676.504334986727, -14256.076724061577, 42392.698513591116, -14224.560764379594, -20592.41629748539, -2990.8645738201826, -32068.427749684783, -26631.790594075992, 2557.4642488317786, 17384.06925011507, -491.2466396387386, -20098.867428167752, 0.04, 0.922, -0.27, 192.0, 0.0, 0.0, 0.0, 0.0, 0.0, 0.0, 0.0, 0.0, 0.0, 1.6620646899540472E9, 0.0, 2022-09-01 16:38:09.954
70.0, -15381.867037042028, -20958.761389107873, -25602.73863109811, -12612.016512395921, -3769.3758331985277, -14225.611296368992, 42518.114151729846, -14224.158432979399, -20738.35083703409, -3133.8710348452373, -32218.787934635635, -26776.071104534996, 2402.8125289455093, 17234.692541920253, -620.3503156125922, -20245.740740983576, 0.04, 0.922, -0.27, 192.0, 0.0, 0.0, 0.0, 0.0, 0.0, 0.0, 0.0, 0.0, 0.0, 1.6620646899540527E9, 0.0, 2022-09-01 16:38:09.954
72.0, -15374.267443927223, -20960.460121686476, -25582.912633766253, -12601.86882041321, -3747.269957932229, -14278.853151661535, 42361.42842309814, -14216.558839864594, -20644.764082999718, -3005.4826146939536, -32111.79013392808, -26661.98780083511, 2485.849259596975, 17367.52895921814, -532.0162215252187, -20134.093777429316, 0.04, 0.922, -0.27, 192.0, 0.0, 0.0, 0.0, 0.0, 0.0, 0.0, 0.0, 0.0, 0.0, 1.6620646899540577E9, 0.0, 2022-09-01 16:38:09.954
74.0, -15377.061411984136, -20953.128749505133, -25600.704622352678, -12590.961169119022, -3733.590690325581, -14251.449912959328, 42619.412257601296, -14229.075816759565, -20725.990322350302, -3110.8934415451818, -32196.927928558343, -26748.332589665963, 2413.7425319841545, 17252.70804795123, -597.7079984793662, -20216.01292085802, 0.04, 0.922, -0.27, 192.0, 0.0, 0.0, 0.0, 0.0, 0.0, 0.0, 0.0, 0.0, 0.0, 1.6620646899540625E9, 0.0, 2022-09-01 16:38:09.954
76.0, -15359.939975731371, -20946.780854079825, -25556.828147986907, -12579.338262002262, -3687.4566897698273, -14240.20698549831, 42273.16138424414, -14224.001970768211, -20632.09064389356, -2993.1668034990794, -32093.193482541265, -26642.56413490345, 2490.6772363993214, 17391.422974040863, -539.1240762620064, -20118.15698363268, 0.044, 0.918, -0.27, 192.0, 0.5, 64.0, 14.0, 72.0, 123.5, 72.0, 0.0, 0.0, 0.0, 1.662064689954067E9, 0.0, 2022-09-01 16:38:09.954
78.0, -15402.162421007446, -20983.72828766445, -25595.764886828052, -12608.7755094499, -3750.4886091337935, -14264.34686951004, 42648.20130445973, -14273.309919036617, -20714.61328442255, -3127.2549184864665, -32193.7986843346, -26758.10030199293, 2407.5734505144897, 17219.64981790183, -611.2531556192822, -20238.588182757878, 0.044, 0.918, -0.27, 192.0, 0.0, 0.0, 0.0, 0.0, 0.0, 0.0, 0.0, 0.0, 0.0, 1.6620646899540715E9, 0.0, 2022-09-01 16:38:09.954
80.0, -15356.877786740994, -20943.338685433708, -25534.565810509423, -12559.53461641486, -3688.9989601372436, -14292.174791356898, 42191.53281349335, -14228.539374892638, -20616.377367541478, -3003.694475137529, -32087.560842938525, -26634.964541788646, 2507.3516377629803, 17401.43655555684, -534.7878378376768, -20128.684655271132, 0.044, 0.918, -0.27, 192.0, 0.0, 0.0, 0.0, 0.0, 0.0, 0.0, 0.0, 0.0, 0.0, 1.6620646899540763E9, 0.0, 2022-09-01 16:38:09.954
82.0, -15442.797892427194, -21010.975064155467, -25642.88236413984, -12642.057256943854, -3690.8988584159447, -14289.246712833252, 42693.41888349281, -14292.644177990458, -20721.072938570134, -3141.9400145936033, -32211.076582798552, -26758.97202002669, 2411.105026138428, 17202.394271182333, -622.809007502676, -20249.16055788524, 0.044, 0.918, -0.27, 192.0, 0.0, 0.0, 0.0, 0.0, 0.0, 0.0, 0.0, 0.0, 0.0, 1.6620646899540808E9, 0.0, 2022-09-01 16:38:09.954
84.0, -15338.41524582091, -20916.3377781317, -25539.729063478597, -12555.734819857458, -3717.49743431776, -14252.72396239328, 42161.715586389975, -14217.743482320724, -20658.108074439537, -3025.4874259814533, -32125.156477112352, -26658.523280444537, 2465.3080064425476, 17389.947758906812, -574.2833702902044, -20157.65251608521, 0.044, 0.918, -0.27, 192.0, 0.0, 0.0, 0.0, 0.0, 0.0, 0.0, 0.0, 0.0, 0.0, 1.6620646899540856E9, 0.0, 2022-09-01 16:38:09.954
86.0, -15455.426628044443, -21028.387073086153, -25667.89396618533, -12676.456591660572, -3823.265889080273, -14348.79176006219, 42735.77543923562, -14332.139710442987, -20721.87760137053, -3127.0314010419133, -32196.70441111379, -26751.014799000597, 2401.337313811459, 17186.4574773857, -600.0102281582627, -20244.846671205363, 0.041999999999999996, 0.921, -0.27, 192.0, 0.5, 32.0, 14.0, 112.0, 123.5, 72.0, 0.0, 0.0, 0.0, 1.66206468995409E9, 0.0, 2022-09-01 16:38:09.954
88.0, -15311.548448985632, -20890.074478396713, -25521.78061268099, -12540.155653972108, -3638.1934449903306, -14161.394734548896, 42144.61650188166, -14177.71150800127, -20683.253786951755, -3027.8343591492608, -32126.139953868387, -26670.235594539117, 2404.488909779657, 17377.766058178673, -564.2250852853161, -20158.546585863423, 0.041999999999999996, 0.921, -0.27, 192.0, 0.0, 0.0, 0.0, 0.0, 0.0, 0.0, 0.0, 0.0, 0.0, 1.662064689954095E9, 0.0, 2022-09-01 16:38:09.954
90.0, -15456.834787945127, -21033.349160355232, -25656.092245112926, -12679.295263206395, -3799.9306678689327, -14337.83940527909, 42753.88035224442, -14327.065864451632, -20705.04673779568, -3101.393950151676, -32166.50720435467, -26735.122708692874, 2451.762849302632, 17209.83740208595, -571.9587888668524, -20214.984740613072, 0.041999999999999996, 0.921, -0.27, 192.0, 0.0, 0.0, 0.0, 0.0, 0.0, 0.0, 0.0, 0.0, 0.0, 1.6620646899540997E9, 0.0, 2022-09-01 16:38:09.954
92.0, -15304.574704715575, -20883.950100415957, -25501.261711271014, -12524.062397964288, -3649.2575584957076, -14159.09250487, 42146.96343504947, -14162.288804327109, -20688.640557365485, -3026.9402893710485, -32131.906703937853, -26688.318155803463, 2461.5752651185117, 17377.028450611648, -586.8003471851763, -20172.583481381356, 0.041999999999999996, 0.921, -0.27, 192.0, 0.0, 0.0, 0.0, 0.0, 0.0, 0.0, 0.0, 0.0, 0.0, 1.6620646899541042E9, 0.0, 2022-09-01 16:38:09.954
94.0, -15474.067982920169, -21055.87971876618, -25670.93380343125, -12697.981321571031, -3806.949115627899, -14373.490437685305, 42751.64517779889, -14331.580916831605, -20678.246996193768, -3080.204496408045, -32144.714253510745, -26717.353071850906, 2460.524733129112, 17214.330102721466, -558.3018730046598, -20200.120830550295, 0.041999999999999996, 0.921, -0.27, 192.0, 0.0, 0.0, 0.0, 0.0, 0.0, 0.0, 0.0, 0.0, 0.0, 1.6620646899541087E9, 0.0, 2022-09-01 16:38:09.954
96.0, -15331.93323992887, -20907.2853216273, -25539.349083822857, -12545.229499963463, -3685.3779775354838, -14244.945555322833, 42179.798147654314, -14197.559857077582, -20726.169136305947, -3074.437746338576, -32175.31379167006, -26729.691234790236, 2397.8280899319757, 17340.460996682763, -628.1063709385837, -20222.092595349863, 0.040999999999999995, 0.9215, -0.273, 192.0, 0.5, 32.0, 14.0, 104.0, 123.5, 48.0, 0.0, 0.0, 0.0, 1.6620646899541135E9, 0.0, 2022-09-01 16:38:09.954
98.0, -15457.237119345322, -21032.723311510483, -25646.436291508235, -12678.64706261719, -3807.9325923839324, -14338.599364590571, 42737.29535785859, -14323.9813237168, -20669.820388534117, -3067.0840224127796, -32130.40913705935, -26705.70781298969, 2462.6034453634556, 17245.734303681173, -555.9102363479419, -20186.642728643743, 0.040999999999999995, 0.9215, -0.273, 192.0, 0.0, 0.0, 0.0, 0.0, 0.0, 0.0, 0.0, 0.0, 0.0, 1.662064689954118E9, 0.0, 2022-09-01 16:38:09.954
100.0, -15331.530908528675, -20896.578836033208, -25533.984665153585, -12547.509377897904, -3730.7520187797572, -14215.932991019845, 42221.77472374138, -14197.24693265521, -20724.023368838236, -3081.232676652989, -32172.206899190773, -26727.947798722722, 2411.95439242773, 17310.554362601564, -623.3007458806927, -20218.382205770282, 0.040999999999999995, 0.9215, -0.273, 192.0, 0.0, 0.0, 0.0, 0.0, 0.0, 0.0, 0.0, 0.0, 0.0, 1.6620646899541228E9, 0.0, 2022-09-01 16:38:09.954
102.0, -15461.081619391636, -21026.084843407258, -25647.620933964365, -12685.017309786954, -3774.516734423248, -14367.991908549298, 42662.193496488755, -14335.581879089104, -20658.1751296729, -3058.8362287087716, -32123.725965467213, -26690.933309904733, 2463.855143052953, 17240.07931233398, -564.7838788966989, -20187.60385365532, 0.040999999999999995, 0.9215, -0.273, 192.0, 0.0, 0.0, 0.0, 0.0, 0.0, 0.0, 0.0, 0.0, 0.0, 1.6620646899541285E9, 0.0, 2022-09-01 16:38:09.954
104.0, -15335.2189463638, -20891.37087957512, -25525.736871449575, -12547.598784875725, -3667.429526737872, -14204.041862969621, 42252.26250317842, -14197.179877421842, -20742.01652312476, -3117.2636887149442, -32202.739382116724, -26751.260668189607, 2405.0029999021294, 17271.237644104676, -646.0995252251059, -20264.53855807049, 0.040999999999999995, 0.9215, -0.273, 192.0, 0.0, 0.0, 0.0, 0.0, 0.0, 0.0, 0.0, 0.0, 0.0, 1.6620646904339278E9, 0.0, 2022-09-01 16:38:10.433
106.0, -15450.48689251982, -21012.182058356055, -25633.248762279603, -12671.494504391492, -3764.145524995986, -14373.870417341044, 42606.04591441702, -14307.865715964523, -20630.056635148125, -3039.591376732752, -32098.334383765985, -26663.485367713616, 2506.9716581072403, 17282.167647143324, -537.4476954278583, -20179.289004717946, 0.042499999999999996, 0.9177500000000001, -0.2735, 192.0, 0.5, 48.0, 14.0, 72.0, 123.5, 56.0, 0.0, 0.0, 0.0, 1.6620646904340086E9, 0.0, 2022-09-01 16:38:10.434
108.0, -15379.52010387422, -20934.19682195149, -25599.00588977407, -12590.961169119022, -3728.3603821230395, -14249.684125147358, 42332.43821053961, -14221.09624398902, -20759.29442158871, -3147.52795070743, -32233.42832725386, -26780.58615691497, 2388.3733020273808, 17231.429187229776, -694.3122380152033, -20304.123497500837, 0.042499999999999996, 0.9177500000000001, -0.2735, 192.0, 0.0, 0.0, 0.0, 0.0, 0.0, 0.0, 0.0, 0.0, 0.0, 1.662064690434063E9, 0.0, 2022-09-01 16:38:10.434
110.0, -15442.44026451591, -21002.72727045146, -25659.959096903694, -12668.432315401116, -3726.7957600111677, -14370.808228350668, 42533.24628272609, -14291.548942512149, -20638.013856174213, -3048.88970242616, -32123.30128232256, -26677.589318464914, 2493.3817974784133, 17295.399879860866, -581.8829634050088, -20188.60968215581, 0.042499999999999996, 0.9177500000000001, -0.2735, 192.0, 0.0, 0.0, 0.0, 0.0, 0.0, 0.0, 0.0, 0.0, 0.0, 1.662064690434068E9, 0.0, 2022-09-01 16:38:10.434
112.0, -15378.335461418088, -20928.452423626473, -25612.5957504029, -12600.907695401633, -3778.65180714748, -14295.348739069552, 42408.05416203191, -14227.466491158784, -20770.02325892726, -3155.440468244609, -32253.746062963735, -26797.282910023085, 2354.398650455314, 17232.30090526353, -697.5755927056781, -20310.44904118169, 0.042499999999999996, 0.9177500000000001, -0.2735, 192.0, 0.0, 0.0, 0.0, 0.0, 0.0, 0.0, 0.0, 0.0, 0.0, 1.6620646904340727E9, 0.0, 2022-09-01 16:38:10.434
114.0, -15398.832011083605, -20957.129711762635, -25616.194381260204, -12639.129178420208, -3749.5721876111256, -14271.655889946926, 42458.9714359011, -14240.810482598601, -20625.3180653236, -3015.987934587948, -32096.881520376388, -26657.115120543855, 2488.844393353986, 17311.560191102053, -559.844143372076, -20158.47953063006, 0.042499999999999996, 0.9177500000000001, -0.2735, 192.0, 0.0, 0.0, 0.0, 0.0, 0.0, 0.0, 0.0, 0.0, 0.0, 1.6620646904340775E9, 0.0, 2022-09-01 16:38:10.434
116.0, -15374.1780369494, -20925.211420680454, -25605.26437822156, -12597.823154666801, -3778.1824205139187, -14291.705404723336, 42494.533061329494, -14216.715302075781, -20751.761883707273, -3130.4512179435756, -32223.32533876006, -26785.39178197286, 2365.015729071585, 17231.02685582958, -671.1558307595052, -20291.24889269458, 0.03825, 0.919875, -0.27375000000000005, 192.0, 0.5, 8.0, 14.0, 104.0, 123.5, 56.0, 0.0, 0.0, 0.0, 1.6620646904340837E9, 0.0, 2022-09-01 16:38:10.434
118.0, -15372.65811832644, -20928.787699793305, -25576.45297961867, -12598.605465722736, -3681.399367022439, -14300.042605405166, 42392.67616184666, -14206.589961837526, -20619.216039087303, -2997.4136349455875, -32078.418979456306, -26644.50873667106, 2517.1864053233153, 17359.97406959225, -564.2027335408609, -20155.260879428493, 0.03825, 0.919875, -0.27375000000000005, 192.0, 0.0, 0.0, 0.0, 0.0, 0.0, 0.0, 0.0, 0.0, 0.0, 1.6620646904340885E9, 0.0, 2022-09-01 16:38:10.434
120.0, -15403.749394863773, -20946.400874424085, -25605.376136943836, -12608.641398983169, -3809.720731940357, -14303.775346729202, 42574.64171345731, -14230.327514449064, -20760.12143613356, -3148.1761512966336, -32229.76264116319, -26798.489904223672, 2382.5394967245456, 17190.77136406557, -680.8117843641978, -20298.44615440919, 0.03825, 0.919875, -0.27375000000000005, 192.0, 0.0, 0.0, 0.0, 0.0, 0.0, 0.0, 0.0, 0.0, 0.0, 1.6620646904340932E9, 0.0, 2022-09-01 16:38:10.434
122.0, -15327.12761487098, -20873.623594477605, -25519.657196957734, -12541.407351661606, -3653.2361690087523, -14231.57921213856, 42324.57039649134, -14148.475426253728, -20605.022681358183, -2973.6537305895963, -32071.936973564265, -26634.94219004419, 2542.9579666802847, 17386.39383153842, -541.5380646631795, -20132.752672762, 0.03825, 0.919875, -0.27375000000000005, 192.0, 0.0, 0.0, 0.0, 0.0, 0.0, 0.0, 0.0, 0.0, 0.0, 1.6620646904340978E9, 0.0, 2022-09-01 16:38:10.434
124.0, -15406.342197220589, -20943.450444155987, -25623.63751216382, -12612.016512395921, -3735.9376234933884, -14291.012500645222, 42657.499630153136, -14228.628781870459, -20719.731833902817, -3107.943011277081, -32200.392448948915, -26769.83496783197, 2431.6462792928555, 17221.527364436075, -628.6651645499664, -20263.48802608109, 0.03825, 0.919875, -0.27375000000000005, 192.0, 0.0, 0.0, 0.0, 0.0, 0.0, 0.0, 0.0, 0.0, 0.0, 1.6620646904341028E9, 0.0, 2022-09-01 16:38:10.434
126.0, -15357.570690819108, -20908.42526059452, -25561.6337730448, -12571.336337487262, -3716.0892744170756, -14243.850319844523, 42261.337311427276, -14188.462697084273, -20632.358864827023, -3010.176481029568, -32108.05739260404, -26671.286126528517, 2499.5061754591675, 17370.971127864257, -587.873230919031, -20166.637917356245, 0.039125, 0.9179375000000001, -0.27487500000000004, 192.0, 0.5, 32.0, 14.0, 80.0, 123.5, 48.0, 0.0, 0.0, 0.0, 1.6620646904341073E9, 0.0, 2022-09-01 16:38:10.434
128.0, -15445.927136650937, -20992.065488346278, -25657.23218408015, -12640.805559254357, -3802.9258016259437, -14371.478780684327, 42699.69972368476, -14285.044584875654, -20737.92615388944, -3155.172247311145, -32237.742213933732, -26812.906779397345, 2390.0943863504394, 17182.12123896137, -677.1237465290722, -20304.034090523015, 0.039125, 0.9179375000000001, -0.27487500000000004, 192.0, 0.0, 0.0, 0.0, 0.0, 0.0, 0.0, 0.0, 0.0, 0.0, 1.662064690434112E9, 0.0, 2022-09-01 16:38:10.434
130.0, -15358.934147230882, -20910.14634491758, -25562.86311898984, -12559.95929955951, -3668.2565412827184, -14294.16409661342, 42201.25582233141, -14188.70856627328, -20632.358864827023, -3018.178405544568, -32116.7298694527, -26680.115065588365, 2508.715094174754, 17382.616386725473, -600.8595944475644, -20175.399801182724, 0.039125, 0.9179375000000001, -0.27487500000000004, 192.0, 0.0, 0.0, 0.0, 0.0, 0.0, 0.0, 0.0, 0.0, 0.0, 1.6620646904341176E9, 0.0, 2022-09-01 16:38:10.434
