%OpenBCI Raw EEG Data
%Number of channels = 16
%Sample Rate = 125 Hz
%Board = OpenBCI_GUI$BoardCytonSerialDaisy
Sample Index, EXG Channel 0, EXG Channel 1, EXG Channel 2, EXG Channel 3, EXG Channel 4, EXG Channel 5, EXG Channel 6, EXG Channel 7, EXG Channel 8, EXG Channel 9, EXG Channel 10, EXG Channel 11, EXG Channel 12, EXG Channel 13, EXG Channel 14, EXG Channel 15, Accel Channel 0, Accel Channel 1, Accel Channel 2, Other, Other, Other, Other, Other, Other, Other, Analog Channel 0, Analog Channel 1, Analog Channel 2, Timestamp, Other, Timestamp (Formatted)
60.0, -18365.48964565869, -20350.860995156883, -30404.96622383192, -14624.187603496028, -7651.091534029429, -11997.90233348636, 27855.95093440425, -11910.149384754824, -23407.640863375767, 4010.3723419156486, -22653.58241243153, -24046.38666467508, -1342.289309774555, 10076.747545808263, -7726.14869191035, -19367.16072167882, 0.0, 0.0, 0.0, 192.0, 0.0, 0.0, 0.0, 0.0, 0.0, 0.0, 0.0, 0.0, 0.0, 1.6620653767769244E9, 0.0, 2022-09-01 16:49:36.776
62.0, -18322.417834093314, -20301.441288166203, -30346.874039992577, -14562.005050421365, -7605.896306740798, -11946.850949150437, 27613.054527408425, -11855.789942239517, -23428.606799674846, 4081.1379648611505, -22652.263659508666, -24017.284693394267, -1364.9763303966918, 10203.30312291421, -7751.070886978017, -19347.915869702803, 0.0, 0.0, 0.0, 192.0, 0.0, 0.0, 0.0, 0.0, 0.0, 0.0, 0.0, 0.0, 0.0, 1.6620653767769325E9, 0.0, 2022-09-01 16:49:36.776
64.0, -18362.516863646135, -20344.714265431674, -30388.604746890636, -14606.17209746505, -7640.474455413158, -11989.431022337798, 27871.3289345895, -11904.539096896542, -23409.026671531996, 4018.9554117864864, -22645.893412338904, -24038.496498882356, -1332.4768939586752, 10091.633807615497, -7715.6210202719, -19352.766198249603, 0.0, 0.0, 0.0, 192.0, 0.0, 0.0, 0.0, 0.0, 0.0, 0.0, 0.0, 0.0, 0.0, 1.6620653767769387E9, 0.0, 2022-09-01 16:49:36.776
66.0, -18313.544191544555, -20286.331508914413, -30326.7574699828, -14543.274288567816, -7590.02656817753, -11938.469044979698, 27617.390765832755, -11846.223395612646, -23431.311360753938, 4089.8551451987205, -22644.172328015844, -24004.052460676725, -1357.9802343821807, 10205.717111315384, -7733.837692002976, -19329.29686657153, 0.0, 0.0, 0.0, 192.0, 0.0, 0.0, 0.0, 0.0, 0.0, 0.0, 0.0, 0.0, 0.0, 1.662065376776945E9, 0.0, 2022-09-01 16:49:36.776
68.0, -18375.72674461922, -20361.32161156197, -30390.012906791322, -14622.46651917297, -7648.856359583898, -12010.016978981135, 27880.828425983003, -11920.565297670997, -23404.086936007374, 4023.0904845107184, -22633.957580799768, -24030.025187733794, -1325.54785317753, 10094.070147761126, -7700.645351486844, -19339.891593443346, 0.079, 0.445, -0.182, 192.0, 2.0, 120.0, 13.5, 104.0, 122.0, 80.0, 0.0, 0.0, 0.0, 1.6620653767769513E9, 0.0, 2022-09-01 16:49:36.776
70.0, -18334.755997032644, -20306.001044035085, -30349.95858072741, -14566.83302722371, -7617.0498272239965, -11958.496208011653, 27625.347986858844, -11871.793791269516, -23455.495948254582, 4058.6968134280223, -22670.77090391766, -24033.84733603565, -1383.41651957232, 10174.044689422213, -7750.757962555643, -19360.097570430946, 0.079, 0.445, -0.182, 192.0, 0.0, 0.0, 0.0, 0.0, 0.0, 0.0, 0.0, 0.0, 0.0, 1.6620653767769575E9, 0.0, 2022-09-01 16:49:36.776
72.0, -18377.20195975327, -20366.820140697975, -30394.147979515554, -14627.56271690878, -7651.985603807641, -12016.99072325119, 27870.74778923366, -11925.54973668453, -23420.53781992648, 4009.1206442261514, -22648.732083884726, -24043.70445534044, -1348.83837089996, 10076.747545808263, -7720.851328474442, -19358.39883785234, 0.079, 0.445, -0.182, 192.0, 0.0, 0.0, 0.0, 0.0, 0.0, 0.0, 0.0, 0.0, 0.0, 1.6620653767769637E9, 0.0, 2022-09-01 16:49:36.776
74.0, -18324.00480794964, -20295.29455844099, -30336.52518230977, -14550.985640404897, -7612.579478332935, -11938.98313510217, 27641.485946355577, -11855.34290735041, -23449.282163296004, 4048.191493534028, -22666.68053468234, -24032.394472646058, -1378.7897084700714, 10178.179762146445, -7753.48487537919, -19358.152968663333, 0.079, 0.445, -0.182, 192.0, 0.0, 0.0, 0.0, 0.0, 0.0, 0.0, 0.0, 0.0, 0.0, 1.6620653767769701E9, 0.0, 2022-09-01 16:49:36.776
76.0, -18369.490607916192, -20358.974678394163, -30375.752493828833, -14618.242039470917, -7637.211100722683, -12012.386263893399, 27866.076274642503, -11912.809242345005, -23396.57674987039, 4035.1157230276735, -22621.217086460245, -24016.99412071635, -1324.8102456105048, 10113.739682881795, -7697.851383429931, -19330.325046816477, 0.079, 0.445, -0.182, 192.0, 0.0, 0.0, 0.0, 0.0, 0.0, 0.0, 0.0, 0.0, 0.0, 1.6620653767769778E9, 0.0, 2022-09-01 16:49:36.776
78.0, -18334.331313887993, -20307.7444801026, -30349.600952816127, -14566.900082457076, -7618.636801080323, -11957.93741440027, 27659.121472730814, -11873.850151759405, -23456.03239012151, 4033.8193218492656, -22676.515302242675, -24048.130100742594, -1389.6973597642614, 10140.204148316878, -7753.730744568199, -19373.46391361522, 0.1175, 0.6635, -0.27, 192.0, 2.0, 112.0, 13.5, 72.0, 122.0, 104.0, 0.0, 0.0, 0.0, 1.6620653767769885E9, 0.0, 2022-09-01 16:49:36.776
80.0, -18366.92015730383, -20354.83960566993, -30376.601860118135, -14618.08557725973, -7633.545414632013, -12017.013074995646, 27835.16381206081, -11922.129919782868, -23398.521351638003, 4040.1001620412067, -22621.2394382047, -24015.5189055823, -1329.124132290379, 10113.717331137339, -7703.036988143563, -19336.29296258604, 0.1175, 0.6635, -0.27, 192.0, 0.0, 0.0, 0.0, 0.0, 0.0, 0.0, 0.0, 0.0, 0.0, 1.6620653767769952E9, 0.0, 2022-09-01 16:49:36.776
82.0, -18337.125281944907, -20308.5938463919, -30363.21316518941, -14571.906873215064, -7634.573594876957, -11961.536045257575, 27678.053400284458, -11889.45166938921, -23456.01003837705, 4030.3324497142376, -22675.084790597535, -24046.833699564184, -1388.4903655636747, 10126.368418499043, -7752.143770711872, -19376.72726830569, 0.1175, 0.6635, -0.27, 192.0, 0.0, 0.0, 0.0, 0.0, 0.0, 0.0, 0.0, 0.0, 0.0, 1.6620653767770016E9, 0.0, 2022-09-01 16:49:36.777
84.0, -18361.622793867922, -20344.669561942766, -30372.958525771923, -14602.7969840523, -7628.449216896202, -11996.22595265221, 27806.307709969013, -11907.02014053108, -23410.099555265853, 4052.8183046362765, -22621.977045771724, -24005.88530372206, -1343.0492690860356, 10140.204148316878, -7707.887316690364, -19317.40573852131, 0.1175, 0.6635, -0.27, 192.0, 0.0, 0.0, 0.0, 0.0, 0.0, 0.0, 0.0, 0.0, 0.0, 1.662065376777008E9, 0.0, 2022-09-01 16:49:36.777
86.0, -18356.4818926432, -20319.657959897275, -30382.30155495424, -14584.535608832313, -7647.314089216482, -11958.563263245018, 27711.4916099896, -11889.78694555604, -23469.21991935014, 4017.100216996696, -22687.646470981417, -24054.723865356907, -1398.3698366129204, 10117.181851527912, -7760.905654538353, -19359.49407333065, 0.1175, 0.6635, -0.27, 192.0, 0.0, 0.0, 0.0, 0.0, 0.0, 0.0, 0.0, 0.0, 0.0, 1.6620653767770147E9, 0.0, 2022-09-01 16:49:36.777
88.0, -18360.438151411792, -20346.144777076814, -30372.757360071824, -14609.055472499786, -7622.03426623753, -11997.254132897155, 27777.295145666023, -11902.30392245101, -23414.05581403444, 4057.735688416444, -22630.873040064937, -24006.242931633347, -1350.0453651005466, 10140.181796572424, -7722.751226753143, -19309.225000050665, 0.13674999999999998, 0.77275, -0.316, 192.0, 2.0, 112.0, 13.5, 72.0, 122.0, 88.0, 0.0, 0.0, 0.0, 1.6620653767770195E9, 0.0, 2022-09-01 16:49:36.777
90.0, -18353.665572841834, -20326.229372767135, -30373.763188572313, -14594.303321159283, -7639.178054234751, -11970.342632572965, 27746.58384878443, -11893.49733513562, -23458.558137244956, 4005.4773098799365, -22689.501665771208, -24064.22335675041, -1393.3630458549317, 10099.926304808416, -7759.6316051044, -19372.234567670177, 0.13674999999999998, 0.77275, -0.316, 192.0, 0.0, 0.0, 0.0, 0.0, 0.0, 0.0, 0.0, 0.0, 0.0, 1.6620653767770247E9, 0.0, 2022-09-01 16:49:36.777
92.0, -18346.714180316234, -20334.07483507095, -30349.15391792702, -14597.41021363857, -7603.638780550812, -11991.554438061052, 27744.259267361078, -11894.011425258092, -23391.949938768143, 4079.908618916109, -22609.929455510315, -23990.060268647703, -1327.5371584340523, 10167.11564864107, -7704.601610255434, -19303.01121509209, 0.13674999999999998, 0.77275, -0.316, 192.0, 0.0, 0.0, 0.0, 0.0, 0.0, 0.0, 0.0, 0.0, 0.0, 1.662065376777033E9, 0.0, 2022-09-01 16:49:36.777
94.0, -18369.87058757193, -20347.105902088395, -30389.25294747984, -14607.401443410094, -7658.1993887662165, -11989.006339193147, 27774.836453775937, -11913.54684991203, -23455.741817443588, 3989.8310887612215, -22690.373383804963, -24073.208758021447, -1391.0608161760351, 10085.107098234546, -7750.579148600001, -19376.615509583415, 0.13674999999999998, 0.77275, -0.316, 192.0, 0.0, 0.0, 0.0, 0.0, 0.0, 0.0, 0.0, 0.0, 0.0, 1.662065376777038E9, 0.0, 2022-09-01 16:49:36.777
96.0, -18331.38088361989, -20314.20413425018, -30337.933342210454, -14577.383050606615, -7594.116937412851, -11974.768277975116, 27711.04457510049, -11881.047413474014, -23401.62824411729, 4082.881400928665, -22614.690377079296, -23992.049573904227, -1345.6420714428511, 10174.715241755872, -7705.652142244833, -19296.48450571114, 0.13674999999999998, 0.77275, -0.316, 192.0, 0.0, 0.0, 0.0, 0.0, 0.0, 0.0, 0.0, 0.0, 0.0, 1.6620653767770429E9, 0.0, 2022-09-01 16:49:36.777
98.0, -18365.199072980773, -20335.304181015992, -30385.229633477884, -14605.7474143204, -7659.607548666901, -11981.94318794527, 27816.41069846281, -11916.519631924586, -23441.25788703655, 4003.443301134503, -22669.474502739253, -24053.58392638969, -1381.874249204904, 10081.754336566251, -7731.893090235364, -19355.20253839523, 0.14437499999999998, 0.829375, -0.33999999999999997, 192.0, 2.0, 96.0, 13.5, 88.0, 122.0, 80.0, 0.0, 0.0, 0.0, 1.662065376777048E9, 0.0, 2022-09-01 16:49:36.777
100.0, -18320.450880581247, -20301.821267821942, -30332.054833418708, -14572.689184271001, -7601.537716572013, -11966.162856359822, 27687.44113295569, -11878.991052984125, -23404.846895318857, 4093.8784592006755, -22615.405632901864, -23983.488855777843, -1353.711051191217, 10190.92025648597, -7715.352799338437, -19300.306654013, 0.14437499999999998, 0.829375, -0.33999999999999997, 192.0, 0.0, 0.0, 0.0, 0.0, 0.0, 0.0, 0.0, 0.0, 0.0, 1.662065376777053E9, 0.0, 2022-09-01 16:49:36.777
102.0, -18372.843369584487, -20345.92125963226, -30394.39384870456, -14621.550097650303, -7668.727060404666, -12002.23857191069, 27842.584591219973, -11931.204728031724, -23429.74673864207, 3997.1401091981065, -22664.333601514532, -24051.5275658998, -1373.0453101450576, 10076.725194063807, -7735.134093181383, -19361.97511696519, 0.14437499999999998, 0.829375, -0.33999999999999997, 192.0, 0.0, 0.0, 0.0, 0.0, 0.0, 0.0, 0.0, 0.0, 0.0, 1.6620653767770581E9, 0.0, 2022-09-01 16:49:36.777
104.0, -18329.86096499693, -20304.83875332341, -30332.412461329994, -14571.325727859226, -7598.810803748465, -11968.152161616346, 27663.234193710592, -11877.739355294629, -23416.805078602443, 4093.0514446558295, -22630.649522620384, -23992.921291937982, -1364.1716675963007, 10195.435308865943, -7724.762883754121, -19307.593322705427, 0.14437499999999998, 0.829375, -0.33999999999999997, 192.0, 0.0, 0.0, 0.0, 0.0, 0.0, 0.0, 0.0, 0.0, 0.0, 1.6620653767770631E9, 0.0, 2022-09-01 16:49:36.777
106.0, -18386.63439591341, -20360.785169695042, -30395.86906383861, -14631.675437888556, -7659.56284517799, -12005.90425800136, 27868.84789095496, -11932.478777465676, -23430.461994464637, 3996.9836469869197, -22668.312212027577, -24058.255440980847, -1371.1901153552672, 10063.001222968249, -7722.617116286411, -19353.392047094352, 0.14437499999999998, 0.829375, -0.33999999999999997, 192.0, 0.0, 0.0, 0.0, 0.0, 0.0, 0.0, 0.0, 0.0, 0.0, 1.6620653767770684E9, 0.0, 2022-09-01 16:49:36.777
108.0, -18322.216668393216, -20293.528770629022, -30325.595179271124, -14563.726134744424, -7582.02464366253, -11952.707106197728, 27650.56075460443, -11865.982337711137, -23424.58348567289, 4082.7025869730223, -22641.66893263685, -24005.32651011068, -1371.927722922292, 10199.011587978792, -7722.460654075224, -19311.750747174116, 0.14918749999999997, 0.8566875, -0.354, 192.0, 2.0, 104.0, 13.5, 80.0, 122.0, 64.0, 0.0, 0.0, 0.0, 1.6620653767770731E9, 0.0, 2022-09-01 16:49:36.777
110.0, -18388.40018372538, -20366.84249244243, -30401.21113076343, -14641.197281026518, -7669.487019716146, -12013.749720305172, 27886.95280396376, -11942.335896770466, -23412.20061924465, 4002.102196467185, -22653.269488009155, -24047.3254379422, -1359.902484405337, 10078.401574897955, -7711.441244058758, -19342.283230100064, 0.14918749999999997, 0.8566875, -0.354, 192.0, 0.0, 0.0, 0.0, 0.0, 0.0, 0.0, 0.0, 0.0, 0.0, 1.662065376777078E9, 0.0, 2022-09-01 16:49:36.777
112.0, -18333.705465043244, -20306.135154501815, -30330.46785956238, -14570.901044714576, -7607.639742808312, -11952.88592015337, 27639.18371667668, -11876.308843649489, -23432.987741588087, 4069.0233193663744, -22654.834110121028, -24021.308007396223, -1387.8198132300156, 10185.622893050062, -7743.113665951928, -19324.82651768047, 0.14918749999999997, 0.8566875, -0.354, 192.0, 0.0, 0.0, 0.0, 0.0, 0.0, 0.0, 0.0, 0.0, 0.0, 1.662065376777084E9, 0.0, 2022-09-01 16:49:36.777
114.0, -18376.062020786052, -20360.762817950585, -30370.611592604113, -14621.527745905847, -7643.290775214527, -11997.544705575074, 27900.967347737238, -11924.052169806024, -23403.416383673717, 4002.6162865896567, -22641.87009833695, -24045.33613268568, -1349.3971645113427, 10078.468630131321, -7701.539421265057, -19327.82165143748, 0.14918749999999997, 0.8566875, -0.354, 192.0, 0.0, 0.0, 0.0, 0.0, 0.0, 0.0, 0.0, 0.0, 0.0, 1.6620653767770908E9, 0.0, 2022-09-01 16:49:36.777
116.0, -18341.975610491707, -20315.902866828787, -30331.987778185343, -14572.778591248822, -7611.975981232641, -11953.109437597925, 27642.916458000716, -11877.15820993879, -23429.277352008507, 4070.1185548446842, -22647.43568270632, -24019.363405628614, -1382.2989323495547, 10186.82988725065, -7725.701657021244, -19308.442688994728, 0.14918749999999997, 0.8566875, -0.354, 192.0, 0.0, 0.0, 0.0, 0.0, 0.0, 0.0, 0.0, 0.0, 0.0, 1.6620653767770972E9, 0.0, 2022-09-01 16:49:36.777
118.0, -18390.881227359918, -20373.570367523476, -30383.463845665916, -14640.102045548207, -7655.22660675366, -12025.640848355395, 27891.825484255016, -11942.917042126304, -23410.926569810697, 4000.001132488386, -22646.76513037266, -24051.348751944155, -1359.9471878942477, 10087.454031402354, -7706.635619000866, -19325.944104903236, 0.14918749999999997, 0.8566875, -0.354, 192.0, 0.0, 0.0, 0.0, 0.0, 0.0, 0.0, 0.0, 0.0, 0.0, 1.662065376777104E9, 0.0, 2022-09-01 16:49:36.777
120.0, -18343.786101792586, -20308.415032436256, -30340.056757933708, -14577.874788984633, -7616.491033612613, -11962.608928991429, 27643.60936207883, -11890.50220137861, -23440.743796914077, 4056.551045960313, -22663.10425556949, -24031.500402867845, -1396.4475865897641, 10168.836732964128, -7733.524767580601, -19330.16858460529, 0.158, 0.888, -0.366, 192.0, 2.0, 120.0, 13.5, 96.0, 122.0, 72.0, 0.0, 0.0, 0.0, 1.66206537677711E9, 0.0, 2022-09-01 16:49:36.777
122.0, -18390.076564559527, -20375.246748357626, -30391.264604480817, -14647.299307262816, -7657.148856776817, -12034.46978741524, 27872.245356112166, -11955.791646932561, -23407.9761395426, 4016.742589085411, -22646.027522805634, -24041.916315784016, -1363.769336196105, 10087.655197102451, -7702.612304998912, -19331.040302639045, 0.158, 0.888, -0.366, 192.0, 0.0, 0.0, 0.0, 0.0, 0.0, 0.0, 0.0, 0.0, 0.0, 1.662065376777117E9, 0.0, 2022-09-01 16:49:36.777
124.0, -18346.982401249697, -20316.528715673532, -30351.05381620572, -14586.03317571082, -7635.065333254974, -11968.532141272086, 27645.24103942407, -11905.12024225238, -23454.35600928736, 4038.669650396067, -22686.081848869544, -24054.94738280146, -1416.3629908994426, 10144.562738485663, -7749.886244521886, -19355.20253839523, 0.158, 0.888, -0.366, 192.0, 0.0, 0.0, 0.0, 0.0, 0.0, 0.0, 0.0, 0.0, 0.0, 1.6620653767771232E9, 0.0, 2022-09-01 16:49:36.777
126.0, -18364.617927624935, -20347.888213144328, -30365.336580912663, -14621.46069067248, -7635.355905932893, -12005.077243456513, 27853.2240215807, -11932.03174257657, -23390.67588933419, 4043.60938592069, -22627.967313285746, -24025.823059776194, -1352.392298268354, 10122.546270197186, -7688.418947269792, -19307.30275002751, 0.158, 0.888, -0.366, 192.0, 0.0, 0.0, 0.0, 0.0, 0.0, 0.0, 0.0, 0.0, 0.0, 1.662065376777128E9, 0.0, 2022-09-01 16:49:36.777
128.0, -18337.34879938946, -20299.11670674285, -30345.599990558625, -14571.012803436854, -7632.383123920336, -11950.024896863091, 27675.05826652745, -11898.21355321569, -23435.31232301144, 4053.7570779033995, -22665.987630604224, -24037.110690726127, -1401.2979151365657, 10168.25558760829, -7728.160348911328, -19325.899401414325, 0.158, 0.888, -0.366, 192.0, 0.0, 0.0, 0.0, 0.0, 0.0, 0.0, 0.0, 0.0, 0.0, 1.662065376777134E9, 0.0, 2022-09-01 16:49:36.777
130.0, -18376.889035330896, -20352.537375991033, -30378.658220608024, -14631.206051254994, -7656.813580609987, -12022.489252387197, 27825.820782878494, -11952.818864920006, -23393.849837046844, 4055.2099412929942, -22620.814755060048, -24010.42270784649, -1352.5264087350856, 10140.651183205984, -7696.264409573604, -19295.545732444018, 0.164, 0.884, -0.364, 192.0, 2.5, 16.0, 13.5, 80.0, 122.0, 80.0, 0.0, 0.0, 0.0, 1.6620653767771404E9, 0.0, 2022-09-01 16:49:36.777
132.0, -18350.20105245126, -20311.16429700426, -30361.62619133308, -14584.155629176574, -7653.885502086342, -11965.089972625969, 27704.49551397509, -11911.311675466499, -23458.49108201159, 4027.3596677016817, -22689.72518321576, -24057.428426436, -1425.348392170476, 10130.615249945551, -7761.531503383101, -19353.392047094352, 0.164, 0.884, -0.364, 192.0, 0.0, 0.0, 0.0, 0.0, 0.0, 0.0, 0.0, 0.0, 0.0, 1.662065376777148E9, 0.0, 2022-09-01 16:49:36.777
134.0, -18365.35553519196, -20345.653038698798, -30352.23845866185, -14613.27995220184, -7627.108112228884, -12003.490269600186, 27812.007404805114, -11923.69454189474, -23386.9207962657, 4078.3663485486927, -22613.013996245147, -23994.88824545005, -1351.5652837235075, 10163.896997439504, -7688.8436304144425, -19275.71973511216, 0.164, 0.884, -0.364, 192.0, 0.0, 0.0, 0.0, 0.0, 0.0, 0.0, 0.0, 0.0, 0.0, 1.6620653767771547E9, 0.0, 2022-09-01 16:49:36.777
136.0, -18366.026087525617, -20336.555878705487, -30365.62715359058, -14608.586085866224, -7647.537606661035, -11973.94126343027, 27750.96479069767, -11917.011370302604, -23452.657276708756, 4004.7620540573666, -22692.362689061487, -24071.957060331948, -1405.3435808829763, 10107.61530490104, -7737.413971115825, -19345.859509212914, 0.164, 0.884, -0.364, 192.0, 0.0, 0.0, 0.0, 0.0, 0.0, 0.0, 0.0, 0.0, 0.0, 1.6620653767771611E9, 0.0, 2022-09-01 16:49:36.777
138.0, -18354.87256704242, -20346.100073587906, -30347.209316159406, -14625.79692909681, -7613.987638233619, -12000.875115498915, 27785.095904480924, -11920.02885580407, -23389.312432922416, 4058.875627383665, -22621.015920760146, -24016.211809660414, -1344.7032981757282, 10169.037898664224, -7689.178906581272, -19288.77315387406, 0.164, 0.884, -0.364, 192.0, 0.0, 0.0, 0.0, 0.0, 0.0, 0.0, 0.0, 0.0, 0.0, 1.6620653767771685E9, 0.0, 2022-09-01 16:49:36.777
140.0, -18372.172817250826, -20343.395512508814, -30368.823453047688, -14628.143862264618, -7662.066240556985, -11987.866400225927, 27784.134779469347, -11931.540004198552, -23440.185003302697, 3995.955466741975, -22679.28691855513, -24073.499330699367, -1398.123967423912, 10087.744604080273, -7734.083561191984, -19355.873090728892, 0.158, 0.886, -0.36, 192.0, 2.0, 120.0, 13.5, 88.0, 122.0, 96.0, 0.0, 0.0, 0.0, 1.6620653767771747E9, 0.0, 2022-09-01 16:49:36.777
142.0, -18356.168968220827, -20338.07579732845, -30342.04606319023, -14625.03696978533, -7626.661077339778, -12002.685606799794, 27746.069758661957, -11924.342742483943, -23404.779840085488, 4058.18272330555, -22624.256923706165, -24016.658844549518, -1367.2115048422224, 10163.807590461684, -7706.121528878395, -19306.587494204938, 0.158, 0.886, -0.36, 192.0, 0.0, 0.0, 0.0, 0.0, 0.0, 0.0, 0.0, 0.0, 0.0, 1.6620653767771804E9, 0.0, 2022-09-01 16:49:36.777
144.0, -18368.01539278214, -20337.40524499479, -30369.985743759364, -14621.058359272285, -7659.339327733437, -11985.363004846931, 27820.523419442587, -11933.12697805488, -23432.473651465614, 3997.4753853649363, -22671.776732418148, -24064.87155733962, -1393.2065836437446, 10081.888447032983, -7727.690962277766, -19356.431884340273, 0.158, 0.886, -0.36, 192.0, 0.0, 0.0, 0.0, 0.0, 0.0, 0.0, 0.0, 0.0, 0.0, 1.6620653767771869E9, 0.0, 2022-09-01 16:49:36.777
146.0, -18359.454674655757, -20340.668599685265, -30343.163650412997, -14605.814469553767, -7616.781606290532, -11986.793516492071, 27717.526580992533, -11913.524498167575, -23401.605892372834, 4079.6627497271, -22622.848763805483, -23999.246835618836, -1363.7022809627392, 10183.991215704826, -7700.33242706447, -19289.175485274256, 0.158, 0.886, -0.36, 192.0, 0.0, 0.0, 0.0, 0.0, 0.0, 0.0, 0.0, 0.0, 0.0, 1.6620653767771933E9, 0.0, 2022-09-01 16:49:36.777
148.0, -18391.41766922685, -20364.875538930362, -30391.219900991906, -14640.124397292662, -7670.984586594652, -12005.926609745815, 27846.049111610548, -11951.790684675061, -23442.554288214957, 3978.163478155551, -22688.942872159823, -24080.04839182477, -1395.1735371558116, 10071.114906205525, -7733.524767580601, -19356.118959917898, 0.158, 0.886, -0.36, 192.0, 0.0, 0.0, 0.0, 0.0, 0.0, 0.0, 0.0, 0.0, 0.0, 1.6620653767772E9, 0.0, 2022-09-01 16:49:36.777
150.0, -18340.410988379837, -20318.003930807583, -30331.607798529603, -14595.778536293334, -7598.833155492921, -11974.343594830465, 27692.470275458134, -11905.477870163664, -23410.501886666047, 4078.8804386711645, -22638.115005268457, -24008.545161312242, -1368.6196647429067, 10195.748233288317, -7709.250773102138, -19298.026776078557, 0.16, 0.888, -0.366, 192.0, 2.5, 0.0, 13.5, 96.0, 122.0, 72.0, 0.0, 0.0, 0.0, 1.6620653767772064E9, 0.0, 2022-09-01 16:49:36.777
152.0, -18401.27478853164, -20373.950347179216, -30409.794200634267, -14667.594691228234, -7676.885447130853, -12035.587374638008, 27868.691428743772, -11980.579731533497, -23427.24334326307, 3979.8175072452436, -22682.17029358987, -24079.66841216903, -1388.3115516080322, 10054.194635652857, -7725.43343608778, -19362.623317554393, 0.16, 0.888, -0.366, 192.0, 0.0, 0.0, 0.0, 0.0, 0.0, 0.0, 0.0, 0.0, 0.0, 1.662065376777213E9, 0.0, 2022-09-01 16:49:36.777
154.0, -18353.799683308564, -20321.06611979796, -30323.181190869953, -14591.084669957718, -7594.094585668396, -11974.075373897002, 27673.963031049137, -11901.298093950521, -23422.415366460726, 4071.213790322994, -22644.418197204854, -24016.681196293976, -1389.809118486538, 10170.781334731739, -7717.2526976171375, -19312.62246520787, 0.16, 0.888, -0.366, 192.0, 0.0, 0.0, 0.0, 0.0, 0.0, 0.0, 0.0, 0.0, 0.0, 1.6620653767772188E9, 0.0, 2022-09-01 16:49:36.777
156.0, -18422.17366959735, -20388.680146775263, -30396.427857449995, -14658.363420768193, -7652.209121252195, -12019.516470374641, 27899.29096690309, -11958.764428945116, -23431.5795816874, 3986.5677340707466, -22672.469636496262, -24063.552804416755, -1380.4437375597643, 10062.956519479338, -7692.397557782836, -19334.840099196448, 0.16, 0.888, -0.366, 192.0, 0.0, 0.0, 0.0, 0.0, 0.0, 0.0, 0.0, 0.0, 0.0, 1.662065376777226E9, 0.0, 2022-09-01 16:49:36.777
158.0, -18383.72866913422, -20341.517965974566, -30346.58346731466, -14598.728966561433, -7612.579478332935, -11961.446638279753, 27660.261411698033, -11897.92298053777, -23464.481349525613, 4058.786220405844, -22684.360764546487, -24038.76471981582, -1411.9373454972917, 10182.068965681668, -7721.723046508199, -19306.766308160582, 0.16, 0.888, -0.366, 192.0, 0.0, 0.0, 0.0, 0.0, 0.0, 0.0, 0.0, 0.0, 0.0, 1.662065376777232E9, 0.0, 2022-09-01 16:49:36.777
160.0, -18406.92977987883, -20369.301184332515, -30387.24129047886, -14634.804682112299, -7643.424885681258, -11989.632188037896, 27921.91093229186, -11934.021047833092, -23445.34825627187, 3994.0555684632745, -22683.95843314629, -24071.57708067621, -1385.9199149513145, 10078.558037109142, -7701.740586965155, -19316.936351887747, 0.162, 0.892, -0.362, 192.0, 2.5, 8.0, 13.5, 112.0, 122.0, 88.0, 0.0, 0.0, 0.0, 1.662065376777238E9, 0.0, 2022-09-01 16:49:36.777
162.0, -18351.67626758531, -20309.465564425656, -30336.167554398486, -14579.014727951853, -7596.642684536301, -11937.194995545746, 27671.52669090351, -11877.49348610562, -23436.854593378855, 4094.1466801341394, -22652.15190078639, -24012.814344503207, -1390.5690777980183, 10215.93185853146, -7699.3489503084365, -19272.299918210498, 0.162, 0.892, -0.362, 192.0, 0.0, 0.0, 0.0, 0.0, 0.0, 0.0, 0.0, 0.0, 0.0, 1.6620653767772436E9, 0.0, 2022-09-01 16:49:36.777
164.0, -18407.22035255675, -20377.638385014343, -30399.512398184826, -14654.742438166433, -7651.382106707348, -12006.865383012937, 27924.481382904218, -11947.990888117658, -23421.342482726872, 4011.8252053052433, -22654.699999654295, -24053.159243245038, -1376.5768857689961, 10093.399595427465, -7688.351892036426, -19307.615674449884, 0.162, 0.892, -0.362, 192.0, 0.0, 0.0, 0.0, 0.0, 0.0, 0.0, 0.0, 0.0, 0.0, 1.6620653767772493E9, 0.0, 2022-09-01 16:49:36.777
166.0, -18352.190357707783, -20311.03018653753, -30342.738967268346, -14584.870884999144, -7609.539641087013, -11944.414609004809, 27665.692885600674, -11884.288416420033, -23458.558137244956, 4060.3061390288044, -22669.87683413945, -24039.211754704924, -1419.291069423088, 10193.848335009616, -7724.248793631648, -19309.76144191759, 0.162, 0.892, -0.362, 192.0, 0.0, 0.0, 0.0, 0.0, 0.0, 0.0, 0.0, 0.0, 0.0, 1.662065376777255E9, 0.0, 2022-09-01 16:49:36.777
168.0, -18406.54980022309, -20370.37406806637, -30387.218938734408, -14646.494644462426, -7646.732943860644, -12012.922705760326, 27912.567903109542, -11941.88886188136, -23419.73315712609, 4022.5987461327013, -22640.61840064745, -24041.335170428178, -1376.9568654247362, 10107.548249667674, -7686.899028646831, -19305.58166570445, 0.162, 0.892, -0.362, 192.0, 0.0, 0.0, 0.0, 0.0, 0.0, 0.0, 0.0, 0.0, 0.0, 1.6620653767772648E9, 0.0, 2022-09-01 16:49:36.777
170.0, -18361.35457293446, -20306.559837646466, -30346.53876382575, -14580.936977975009, -7617.183937690728, -11936.524443212085, 27675.751170605563, -11873.671337803762, -23470.65043099528, 4058.428592494559, -22681.76796218967, -24041.60339136164, -1424.3649154144425, 10187.008701206292, -7731.557814068534, -19322.72545370167, 0.162, 0.89, -0.364, 192.0, 2.5, 8.0, 13.5, 104.0, 122.0, 80.0, 0.0, 0.0, 0.0, 1.6620653767772703E9, 0.0, 2022-09-01 16:49:36.777
172.0, -18406.996835112197, -20369.904681432807, -30397.09840978365, -14651.434379987048, -7646.263557227083, -11999.42225210932, 27894.395934867378, -11921.593477915942, -23423.130622283297, 4038.066153295774, -22648.128586784434, -24032.61799009061, -1368.7984786985492, 10137.43253200442, -7687.971912380685, -19299.881970868348, 0.162, 0.89, -0.364, 192.0, 0.0, 0.0, 0.0, 0.0, 0.0, 0.0, 0.0, 0.0, 0.0, 1.6620653767772763E9, 0.0, 2022-09-01 16:49:36.777
174.0, -18351.989192007684, -20295.20515146317, -30358.29578140924, -14583.283911142817, -7616.580440590435, -11926.35439948492, 27690.61508066834, -11854.11356140537, -23474.092599641397, 4051.2760342688603, -22696.78833446364, -24053.785092089784, -1421.4368368907974, 10181.554875559197, -7745.907634008841, -19339.489262043153, 0.162, 0.89, -0.364, 192.0, 0.0, 0.0, 0.0, 0.0, 0.0, 0.0, 0.0, 0.0, 0.0, 1.662065376777282E9, 0.0, 2022-09-01 16:49:36.777
176.0, -18399.531352464124, -20359.734637705642, -30405.525017443302, -14648.036914829841, -7639.088647256929, -11995.778917763106, 27865.964515920226, -11906.818974830983, -23413.29585472296, 4061.021394851374, -22641.154842514377, -24018.4693358504, -1358.1143448489124, 10166.601558518596, -7693.850421172431, -19305.06757558198, 0.162, 0.89, -0.364, 192.0, 0.0, 0.0, 0.0, 0.0, 0.0, 0.0, 0.0, 0.0, 0.0, 1.6620653767772882E9, 0.0, 2022-09-01 16:49:36.777
178.0, -18368.864759071443, -20307.275093469038, -30385.564909644716, -14592.001091480386, -7626.325801172949, -11937.843196134949, 27705.188418053203, -11861.981375453637, -23479.7922944775, 4036.993269561919, -22706.243122368232, -24063.28458348329, -1426.4659793932415, 10175.765773745272, -7759.96688127123, -19366.624279811895, 0.162, 0.89, -0.364, 192.0, 0.0, 0.0, 0.0, 0.0, 0.0, 0.0, 0.0, 0.0, 0.0, 1.662065376777294E9, 0.0, 2022-09-01 16:49:36.777
180.0, -18397.385584996413, -20354.280812058547, -30399.40063946255, -14641.063170559786, -7640.1838827352385, -12002.216220166234, 27824.434974722266, -11902.728605595661, -23419.82256410391, 4070.9902728784414, -22644.261734993666, -24017.08352769417, -1364.8422199299598, 10178.58209354664, -7716.068055161007, -19331.576744505972, 0.161, 0.891, -0.364, 192.0, 2.5, 0.0, 13.5, 112.0, 122.0, 80.0, 0.0, 0.0, 0.0, 1.6620653767773E9, 0.0, 2022-09-01 16:49:36.777
0.0, -9183.303616440728, -10182.940683715426, -15198.985063908705, -7313.40137879865, -3817.454435521893, -6001.488089738857, 13962.57596761894, -5946.636908845533, -11712.582315514364, 2065.9493882595766, -11315.548278754744, -11996.1812491633, -686.8244036226754, 5132.474617060973, -3867.4776396128705, -9663.732011763097, 0.156, 0.884, -0.358, 192.0, 2.0, 112.0, 13.5, 80.0, 122.0, 104.0, 0.0, 0.0, 0.0, 1.6620653769023018E9, 0.0, 2022-09-01 16:49:36.902
2.0, -18312.49365955516, -20302.4918201556, -30335.76522299829, -14559.903986442565, -7578.649530249779, -11941.464178736709, 27667.771597835017, -11829.258421571067, -23414.97223555711, 4042.5588539312907, -22649.46969145175, -24040.709321583432, -1364.0152053851134, 10211.237992195844, -7747.472256120713, -19355.090779672955, 0.156, 0.884, -0.358, 192.0, 0.0, 0.0, 0.0, 0.0, 0.0, 0.0, 0.0, 0.0, 0.0, 1.6620653773805046E9, 0.0, 2022-09-01 16:49:37.380
4.0, -18368.998869538173, -20371.581062266956, -30393.477427181893, -14627.719179119968, -7629.276231441049, -12014.464976127741, 27915.674795588828, -11899.711120094194, -23392.598139357346, 3980.912742723554, -22638.852612835482, -24059.820063092717, -1336.1425800493455, 10103.52493566572, -7727.489796577668, -19365.05965770002, 0.156, 0.884, -0.358, 192.0, 0.0, 0.0, 0.0, 0.0, 0.0, 0.0, 0.0, 0.0, 0.0, 1.6620653773805225E9, 0.0, 2022-09-01 16:49:37.380
6.0, -18325.323560872504, -20312.88538132732, -30344.48240333586, -14561.937995187998, -7595.16746940225, -11953.288251553566, 27671.973725792617, -11841.194253110201, -23429.54557294197, 4032.0535340372962, -22659.930307856837, -24043.078606495692, -1378.1191561364124, 10202.520811858274, -7760.458619649246, -19367.339535634463, 0.156, 0.884, -0.358, 192.0, 0.0, 0.0, 0.0, 0.0, 0.0, 0.0, 0.0, 0.0, 0.0, 1.6620653773805315E9, 0.0, 2022-09-01 16:49:37.380
8.0, -18388.221369769737, -20393.55282706652, -30402.485180197382, -14645.220595028472, -7646.1070950158955, -12035.296801960088, 27889.99264120968, -11914.485623179153, -23398.364889426815, 3981.002149701375, -22638.092653524003, -24057.47312992491, -1336.1649317938009, 10111.258639247257, -7730.261412890127, -19371.295794403053, 0.15, 0.888, -0.362, 192.0, 2.0, 88.0, 13.5, 96.0, 122.0, 88.0, 0.0, 0.0, 0.0, 1.662065377380536E9, 0.0, 2022-09-01 16:49:37.380
10.0, -18326.44114809527, -20314.852334839386, -30350.338560383152, -14565.961309189954, -7602.320027627949, -11950.494283496653, 27673.650106626763, -11843.787055467017, -23453.461939509147, 3998.3023999097827, -22684.181950590846, -24078.416714479532, -1394.9947232001691, 10168.032070163736, -7781.268093737137, -19398.31905344952, 0.15, 0.888, -0.362, 192.0, 0.0, 0.0, 0.0, 0.0, 0.0, 0.0, 0.0, 0.0, 0.0, 1.6620653773805404E9, 0.0, 2022-09-01 16:49:37.380
12.0, -18360.52755838961, -20367.580100009454, -30386.369572445106, -14623.695865118012, -7617.809786535477, -12015.09082497249, 27871.55245203405, -11892.558561868496, -23379.410610128714, 4007.9136500255645, -22617.37258641393, -24035.009626747327, -1317.031838540058, 10153.302270567689, -7715.442206316257, -19342.350285333432, 0.15, 0.888, -0.362, 192.0, 0.0, 0.0, 0.0, 0.0, 0.0, 0.0, 0.0, 0.0, 0.0, 1.662065377380545E9, 0.0, 2022-09-01 16:49:37.380
14.0, -18333.370188876415, -20324.97767507764, -30371.282144937773, -14584.60266406568, -7619.374408647348, -11961.200769090745, 27690.257452757058, -11859.366221352366, -23447.87400339532, 3984.131393925118, -22680.516264500173, -24077.299127256767, -1393.7206737662166, 10147.557872242674, -7780.709300125754, -19400.487172661684, 0.15, 0.888, -0.362, 192.0, 0.0, 0.0, 0.0, 0.0, 0.0, 0.0, 0.0, 0.0, 0.0, 1.6620653773805492E9, 0.0, 2022-09-01 16:49:37.380
16.0, -18348.077636728005, -20354.861957414385, -30368.845804792145, -14613.212896968473, -7601.180088660728, -12000.092804442978, 27837.734262673173, -11881.673262318762, -23385.892616020756, 4007.734836069922, -22615.04800499058, -24028.773490044296, -1328.6547456568178, 10154.799837446195, -7724.6511250318445, -19348.16173889181, 0.15, 0.888, -0.362, 192.0, 0.0, 0.0, 0.0, 0.0, 0.0, 0.0, 0.0, 0.0, 0.0, 1.6620653773805535E9, 0.0, 2022-09-01 16:49:37.380
18.0, -18340.098063957463, -20323.368349476856, -30359.189851187453, -14581.69693728649, -7616.446330123703, -11961.021955135102, 27724.321511306945, -11859.120352163358, -23437.994532346074, 3987.126527682129, -22669.943889372815, -24064.178653261504, -1374.3640630679206, 10149.301308310189, -7764.750154584665, -19389.803038812046, 0.15, 0.89, -0.362, 192.0, 2.0, 88.0, 13.5, 104.0, 122.0, 88.0, 0.0, 0.0, 0.0, 1.662065377380558E9, 0.0, 2022-09-01 16:49:37.380
20.0, -18358.940584533284, -20364.003820896607, -30368.890508281056, -14620.611324383179, -7612.199498677194, -12011.80511853756, 27807.917035569793, -11892.804431057506, -23397.49317139306, 4012.227536705439, -22623.206391716765, -24030.226353433893, -1334.1085713039126, 10152.2964420672, -7728.920308222808, -19351.156872648822, 0.15, 0.89, -0.362, 192.0, 0.0, 0.0, 0.0, 0.0, 0.0, 0.0, 0.0, 0.0, 0.0, 1.6620653773805623E9, 0.0, 2022-09-01 16:49:37.380
22.0, -18356.459540898748, -20344.043713098017, -30381.228671220386, -14601.36647240716, -7633.858339054387, -11978.70218499925, 27753.334075609935, -11885.763631554084, -23450.35504702986, 3966.965254183442, -22685.38894479143, -24085.2339965384, -1387.9092202078368, 10118.81352887315, -7778.407070446858, -19407.79619309857, 0.15, 0.89, -0.362, 192.0, 0.0, 0.0, 0.0, 0.0, 0.0, 0.0, 0.0, 0.0, 0.0, 1.6620653773805668E9, 0.0, 2022-09-01 16:49:37.380
24.0, -18346.356552404948, -20345.92125963226, -30361.268563421796, -14608.22845795494, -7598.810803748465, -11995.354234618455, 27778.613898588887, -11883.595512341919, -23396.532046381482, 4036.546234672813, -22617.082013736013, -24019.922199239994, -1334.935585848759, 10191.859029753094, -7728.71914252271, -19337.008218408613, 0.15, 0.89, -0.362, 192.0, 0.0, 0.0, 0.0, 0.0, 0.0, 0.0, 0.0, 0.0, 0.0, 1.6620653773805716E9, 0.0, 2022-09-01 16:49:37.380
26.0, -18342.53440410309, -20324.329474488437, -30377.361819429618, -14595.97970199343, -7631.757275075588, -11966.341670315465, 27791.35439292841, -11884.087250719936, -23435.938171856185, 3979.772803756333, -22669.027467850145, -24074.639269666586, -1379.2814468480883, 10116.868927105537, -7764.2137127177375, -19393.625187113907, 0.15, 0.89, -0.362, 192.0, 0.0, 0.0, 0.0, 0.0, 0.0, 0.0, 0.0, 0.0, 0.0, 1.662065377380576E9, 0.0, 2022-09-01 16:49:37.380
28.0, -18329.749206274653, -20323.100128543392, -30340.48144107836, -14578.210065151461, -7584.863315208354, -11975.260016353133, 27748.416691829767, -11868.262215645578, -23380.57290084039, 4064.016528608385, -22589.90229247836, -23986.37223081258, -1336.3660974938987, 10210.25451543981, -7720.828976729987, -19314.075328597468, 0.156, 0.894, -0.366, 192.0, 2.0, 112.0, 13.5, 120.0, 122.0, 72.0, 0.0, 0.0, 0.0, 1.6620653773805802E9, 0.0, 2022-09-01 16:49:37.380
30.0, -18370.92111956133, -20354.146701591817, -30384.469674166405, -14603.802812552789, -7645.36948744887, -11979.03746116608, 27821.439840965253, -11896.224247959168, -23442.9342678707, 3960.3044343357606, -22675.48712199773, -24075.5333394448, -1394.6370952888842, 10099.658083874952, -7760.145695226872, -19389.445410900764, 0.156, 0.894, -0.366, 192.0, 0.0, 0.0, 0.0, 0.0, 0.0, 0.0, 0.0, 0.0, 0.0, 1.6620653773805847E9, 0.0, 2022-09-01 16:49:37.380
32.0, -18334.19720342126, -20326.87757335634, -30332.81479273019, -14574.700841271979, -7577.129611626818, -11959.524388256597, 27718.15242983728, -11850.984317181626, -23399.236607460574, 4059.2779587838604, -22617.707862580763, -24003.828943232173, -1356.5720744814962, 10214.858974797604, -7721.76774999711, -19311.124898329366, 0.156, 0.894, -0.366, 192.0, 0.0, 0.0, 0.0, 0.0, 0.0, 0.0, 0.0, 0.0, 0.0, 1.6620653773805888E9, 0.0, 2022-09-01 16:49:37.380
34.0, -18374.407991696356, -20361.70159121771, -30390.25877598033, -14618.42085342656, -7640.22858622415, -11984.84891472446, 27857.60496349394, -11894.167887469279, -23422.97416007211, 3970.0944984071853, -22663.998325347704, -24071.353563231656, -1372.575923511496, 10120.825185874128, -7741.839616517976, -19366.087837944968, 0.156, 0.894, -0.366, 192.0, 0.0, 0.0, 0.0, 0.0, 0.0, 0.0, 0.0, 0.0, 0.0, 1.6620653773805933E9, 0.0, 2022-09-01 16:49:37.380
36.0, -18322.753110260142, -20315.947570317694, -30333.37358634157, -14574.164399405052, -7576.92844592672, -11961.826617935494, 27692.693792902686, -11853.085381160425, -23405.69626160816, 4047.6326999226453, -22624.793365573092, -24018.022300961293, -1364.261074574122, 10217.652942854518, -7740.0291252170955, -19322.59134323494, 0.156, 0.894, -0.366, 192.0, 0.0, 0.0, 0.0, 0.0, 0.0, 0.0, 0.0, 0.0, 0.0, 1.6620653773805976E9, 0.0, 2022-09-01 16:49:37.380
38.0, -18371.59167189499, -20364.6073179969, -30399.221825506906, -14630.021408798864, -7647.157627005295, -12005.121946945423, 27874.23466136869, -11911.624599888873, -23417.63209314729, 3958.6504052460677, -22656.264621766168, -24074.32634524421, -1377.2697898471106, 10098.09346176308, -7748.276918921104, -19372.905120003834, 0.156, 0.886, -0.362, 192.0, 2.0, 112.0, 13.5, 88.0, 122.0, 88.0, 0.0, 0.0, 0.0, 1.6620653773806033E9, 0.0, 2022-09-01 16:49:37.380
40.0, -18310.414947320813, -20306.783355091018, -30320.364871068585, -14564.664908011546, -7583.701024496678, -11955.143446343356, 27667.726894346106, -11848.369163080355, -23406.143296497263, 4052.773601147366, -22617.32788292502, -24014.177800914982, -1364.8422199299598, 10218.837585310648, -7749.573320099512, -19329.408625293807, 0.156, 0.886, -0.362, 192.0, 0.0, 0.0, 0.0, 0.0, 0.0, 0.0, 0.0, 0.0, 0.0, 1.6620653773806076E9, 0.0, 2022-09-01 16:49:37.380
42.0, -18354.045552497573, -20349.58694572293, -30357.468766864393, -14604.115736975162, -7623.285963927026, -11984.401879835354, 27901.52614134862, -11890.524553123065, -23396.44263940366, 3974.006053686864, -22628.839031319505, -24053.226298478403, -1344.0550975865242, 10103.81550834364, -7729.613212300923, -19358.600003552438, 0.156, 0.886, -0.362, 192.0, 0.0, 0.0, 0.0, 0.0, 0.0, 0.0, 0.0, 0.0, 0.0, 1.662065377380612E9, 0.0, 2022-09-01 16:49:37.380
44.0, -18319.400348591847, -20309.420860936745, -30310.440696530426, -14545.35300080216, -7572.323986568927, -11936.703257167728, 27664.552946633452, -11839.339058320411, -23408.87020932081, 4047.051554566807, -22621.060624249058, -24007.047594433738, -1356.996757626147, 10242.97746932238, -7735.581128070489, -19320.66909321178, 0.156, 0.886, -0.362, 192.0, 0.0, 0.0, 0.0, 0.0, 0.0, 0.0, 0.0, 0.0, 0.0, 1.6620653773806162E9, 0.0, 2022-09-01 16:49:37.380
46.0, -18388.623701169934, -20386.780248496565, -30395.220863249408, -14624.612286640679, -7639.580385634946, -12016.119005217435, 27904.141295449892, -11921.973457571681, -23408.91491280972, 3957.219893600928, -22645.647543149895, -24056.71317061343, -1351.6546907013287, 10103.882563577004, -7727.914479722319, -19359.29290763055, 0.156, 0.886, -0.362, 192.0, 0.0, 0.0, 0.0, 0.0, 0.0, 0.0, 0.0, 0.0, 0.0, 1.6620653773806205E9, 0.0, 2022-09-01 16:49:37.380
48.0, -18312.00192117714, -20302.134192244317, -30324.90227519301, -14539.899175155066, -7567.496009766581, -11937.954954857225, 27649.5772778484, -11839.942555420705, -23433.770052644024, 4022.1517112435954, -22651.86132810847, -24032.5732866017, -1383.8412027169709, 10211.237992195844, -7760.168046971327, -19350.553375548527, 0.158, 0.882, -0.362, 192.0, 2.0, 120.0, 13.5, 72.0, 122.0, 88.0, 0.0, 0.0, 0.0, 1.6620653773806248E9, 0.0, 2022-09-01 16:49:37.380
50.0, -18364.953203791763, -20368.407114554302, -30389.9234998135, -14617.70559760399, -7632.696048342711, -12009.793461536583, 27907.784629796104, -11910.55171615502, -23382.092819463352, 3979.057547933763, -22622.51348763865, -24036.484841881378, -1335.1367515488569, 10121.495738207786, -7710.9718574251965, -19336.270610841588, 0.158, 0.882, -0.362, 192.0, 0.0, 0.0, 0.0, 0.0, 0.0, 0.0, 0.0, 0.0, 0.0, 1.6620653773806293E9, 0.0, 2022-09-01 16:49:37.380
52.0, -18302.81535420601, -20296.34509043039, -30333.552400297216, -14552.84083519469, -7589.713643755155, -11937.686733923761, 27658.294458185967, -11846.178692123734, -23420.604875159846, 4021.682324610034, -22645.82635710554, -24033.221487190902, -1382.2542288606442, 10199.100994956612, -7755.451828891258, -19351.156872648822, 0.158, 0.882, -0.362, 192.0, 0.0, 0.0, 0.0, 0.0, 0.0, 0.0, 0.0, 0.0, 0.0, 1.6620653773806336E9, 0.0, 2022-09-01 16:49:37.380
54.0, -18363.05330551306, -20373.056277401003, -30394.68442138248, -14639.610307170191, -7637.389914678325, -12020.477595386219, 27901.548493093076, -11919.715931381696, -23378.136560694762, 3983.0808619357185, -22615.89737127988, -24037.490670381867, -1340.165894051301, 10126.81545338815, -7720.806624985532, -19345.12190164589, 0.158, 0.882, -0.362, 192.0, 0.0, 0.0, 0.0, 0.0, 0.0, 0.0, 0.0, 0.0, 0.0, 1.662065377380638E9, 0.0, 2022-09-01 16:49:37.380
56.0, -18317.63456077988, -20314.762927861564, -30346.628170803568, -14583.842704754199, -7605.583382318424, -11960.79843769055, 27667.86100481284, -11867.703422034196, -23431.11019505384, 4000.515222610858, -22656.599897932996, -24054.075664767704, -1397.5875255569847, 10169.216712619867, -7773.422631433325, -19377.241358428164, 0.158, 0.882, -0.362, 192.0, 0.0, 0.0, 0.0, 0.0, 0.0, 0.0, 0.0, 0.0, 0.0, 1.6620653773806424E9, 0.0, 2022-09-01 16:49:37.380
58.0, -18355.4313606538, -20361.679239473255, -30368.622287347593, -14635.162310023585, -7620.313181914471, -12017.52716511812, 27883.197710895267, -11915.558506913008, -23378.807113028422, 3983.5949520581908, -22611.784650300106, -24038.965885515918, -1343.1163243194014, 10116.913630594448, -7728.026238444596, -19354.196709894743, 0.158, 0.884, -0.363, 192.0, 2.0, 120.0, 13.5, 88.0, 122.0, 80.0, 0.0, 0.0, 0.0, 1.6620653773806467E9, 0.0, 2022-09-01 16:49:37.380
60.0, -18312.895990955352, -20298.133229986815, -30330.825487473667, -14566.989489434898, -7595.212172891162, -11946.046286350047, 27690.52567369052, -11863.59070105442, -23423.287084494485, 3997.7883097873105, -22647.413330961863, -24046.252554208346, -1381.4495660602531, 10170.021375420258, -7763.386698172892, -19368.79239902406, 0.158, 0.884, -0.363, 192.0, 0.0, 0.0, 0.0, 0.0, 0.0, 0.0, 0.0, 0.0, 0.0, 1.662065377380651E9, 0.0, 2022-09-01 16:49:37.380
62.0, -18347.6306018389, -20351.285678301534, -30367.77292105829, -14618.398501682104, -7626.102283728395, -12006.41834812383, 27862.030608896093, -11911.69165512224, -23369.352325123826, 4016.8990512965984, -22595.646690803373, -24009.93096946847, -1329.0123735681027, 10162.399430560998, -7712.6705900038, -19324.267724069086, 0.158, 0.884, -0.363, 192.0, 0.0, 0.0, 0.0, 0.0, 0.0, 0.0, 0.0, 0.0, 0.0, 1.6620653773806553E9, 0.0, 2022-09-01 16:49:37.380
64.0, -18324.56360156102, -20311.63368363782, -30360.70976981041, -14575.349041861182, -7628.225699451649, -11959.613795234418, 27707.870627387838, -11882.813201285982, -23439.290933524484, 3990.83691726171, -22666.211148048777, -24057.540185158276, -1403.7789587711047, 10146.507340253274, -7780.105803025461, -19380.750582307646, 0.158, 0.884, -0.363, 192.0, 0.0, 0.0, 0.0, 0.0, 0.0, 0.0, 0.0, 0.0, 0.0, 1.6620653773806596E9, 0.0, 2022-09-01 16:49:37.380
66.0, -18329.5256888301, -20332.912544359275, -30361.805005288723, -14601.791155551811, -7609.673751553745, -12002.842069010982, 27830.291131769554, -11904.181468985256, -23371.207519913616, 4028.32079271326, -22595.914911736836, -24003.828943232173, -1336.8801876163707, 10163.427610805942, -7722.14772965285, -19322.72545370167, 0.158, 0.884, -0.363, 192.0, 0.0, 0.0, 0.0, 0.0, 0.0, 0.0, 0.0, 0.0, 0.0, 1.662065377380664E9, 0.0, 2022-09-01 16:49:37.380
68.0, -18322.507241071136, -20307.319796957945, -30364.19664194544, -14575.8407802392, -7629.298583185504, -11955.74694344365, 27741.130023137335, -11889.608131600397, -23417.743851869567, 3996.491908608903, -22651.660162408374, -24049.135929243083, -1388.51271730813, 10140.2935552947, -7766.314776696537, -19372.346326392453, 0.16, 0.888, -0.3665, 192.0, 2.5, 8.0, 13.5, 112.0, 122.0, 56.0, 0.0, 0.0, 0.0, 1.662065377380669E9, 0.0, 2022-09-01 16:49:37.380
70.0, -18339.919250001818, -20340.22156479616, -30357.647580820038, -14600.852382284687, -7612.8253475219435, -12006.41834812383, 27792.58373887345, -11911.423434188777, -23374.470874604092, 4030.779484603344, -22596.630167559408, -23999.492704807843, -1342.2669580300997, 10177.240988879323, -7726.774540755098, -19319.86443041139, 0.16, 0.888, -0.3665, 192.0, 0.0, 0.0, 0.0, 0.0, 0.0, 0.0, 0.0, 0.0, 0.0, 1.6620653773806744E9, 0.0, 2022-09-01 16:49:37.380
72.0, -18340.00865697964, -20325.96115183367, -30363.369627400596, -14584.26738789885, -7629.209176207683, -11975.639996008873, 27774.948212498217, -11900.739300339139, -23427.77978513, 3977.5376293108025, -22656.711656655272, -24053.31570545622, -1389.7644149976272, 10130.637601690007, -7756.3458986694695, -19369.97704148019, 0.16, 0.888, -0.3665, 192.0, 0.0, 0.0, 0.0, 0.0, 0.0, 0.0, 0.0, 0.0, 0.0, 1.662065377380679E9, 0.0, 2022-09-01 16:49:37.380
74.0, -18325.077691683495, -20327.816346623462, -30335.318188109184, -14584.557960576769, -7589.825402477432, -11988.55930430404, 27765.471072849166, -11891.664492090285, -23379.58942408436, 4042.581205675746, -22597.70305129326, -23993.390678571544, -1342.445771985742, 10190.003834963303, -7712.581183025978, -19305.514610471084, 0.16, 0.888, -0.3665, 192.0, 0.0, 0.0, 0.0, 0.0, 0.0, 0.0, 0.0, 0.0, 0.0, 1.6620653773806832E9, 0.0, 2022-09-01 16:49:37.380
76.0, -18340.76861629112, -20326.050558811494, -30365.96242975741, -14597.432565383026, -7632.1372547313285, -11978.970405932714, 27810.420430948787, -11908.048320776024, -23418.39205245877, 3970.7650507408443, -22657.359857244475, -24058.255440980847, -1376.12985087989, 10110.56573516914, -7741.727857795699, -19363.517387332606, 0.16, 0.888, -0.3665, 192.0, 0.0, 0.0, 0.0, 0.0, 0.0, 0.0, 0.0, 0.0, 0.0, 1.6620653773806877E9, 0.0, 2022-09-01 16:49:37.380
78.0, -18325.524726572603, -20319.903829086285, -30332.658330519003, -14591.330539146727, -7590.764175744555, -11988.246379881666, 27727.00372064158, -11895.464288647687, -23380.48349386257, 4048.6608801675893, -22600.653481561363, -23999.000966429827, -1346.0220510985914, 10202.319646158177, -7718.549098795545, -19309.649683195315, 0.161, 0.889, -0.36724999999999997, 192.0, 2.5, 8.0, 13.5, 104.0, 122.0, 64.0, 0.0, 0.0, 0.0, 1.662065377380692E9, 0.0, 2022-09-01 16:49:37.380
80.0, -18345.95422100475, -20330.94559084721, -30365.20247044593, -14602.059376485275, -7628.359809918382, -11985.094783913468, 27840.08119584098, -11909.992922543637, -23407.216180231117, 3969.423946073526, -22644.462900693765, -24058.18838574748, -1364.6857577187727, 10100.663912375441, -7735.558776326035, -19363.673849543793, 0.161, 0.889, -0.36724999999999997, 192.0, 0.0, 0.0, 0.0, 0.0, 0.0, 0.0, 0.0, 0.0, 0.0, 1.6620653773806963E9, 0.0, 2022-09-01 16:49:37.380
82.0, -18318.953313702743, -20313.243009238602, -30316.676833233458, -14576.041945939298, -7580.236504106106, -11977.539894287574, 27703.86966513034, -11880.39921288481, -23384.395049142247, 4061.7590024183996, -22594.909083236347, -23988.138018624548, -1345.2397400426555, 10234.193233751444, -7712.759996981621, -19302.988863347633, 0.161, 0.889, -0.36724999999999997, 192.0, 0.0, 0.0, 0.0, 0.0, 0.0, 0.0, 0.0, 0.0, 0.0, 1.6620653773807006E9, 0.0, 2022-09-01 16:49:37.380
84.0, -18359.387619422392, -20350.59277422342, -30364.8671942791, -14619.404330182593, -7640.317993201971, -12002.171516677323, 27864.42224555281, -11929.237774519655, -23414.614607645824, 3959.7232889799225, -22647.1451100284, -24064.201005005958, -1368.7761269540938, 10089.689205847884, -7732.72010478021, -19365.663154800317, 0.161, 0.889, -0.36724999999999997, 192.0, 0.0, 0.0, 0.0, 0.0, 0.0, 0.0, 0.0, 0.0, 0.0, 1.662065377380705E9, 0.0, 2022-09-01 16:49:37.380
86.0, -18314.684130511778, -20305.933988801717, -30309.412516285483, -14572.17509414853, -7578.917751183242, -11966.878112182392, 27681.160292763747, -11876.532361094041, -23393.872188791298, 4058.2050750500057, -22602.642786817883, -23997.190475128948, -1356.5273709925857, 10219.999876022324, -7718.414988328814, -19309.493220984128, 0.161, 0.889, -0.36724999999999997, 192.0, 0.0, 0.0, 0.0, 0.0, 0.0, 0.0, 0.0, 0.0, 0.0, 1.6620653773807092E9, 0.0, 2022-09-01 16:49:37.380
88.0, -18363.276822957614, -20354.481977758645, -30378.5688136302, -14628.054455286796, -7643.4695891701695, -12006.463051612742, 27890.4843795877, -11929.751864642129, -23408.892561065266, 3963.366623326138, -22644.86523209396, -24062.81519684973, -1368.4632025317196, 10094.986569283792, -7725.724008765699, -19355.090779672955, 0.1595, 0.8895, -0.362625, 192.0, 2.0, 120.0, 13.5, 104.0, 122.0, 104.0, 0.0, 0.0, 0.0, 1.6620653773807137E9, 0.0, 2022-09-01 16:49:37.380
90.0, -18315.935828201276, -20302.380061433323, -30322.33182458065, -14568.285890613306, -7582.605789018368, -11951.589518974963, 27664.597650122363, -11869.849189501905, -23404.802191829946, 4053.80178139231, -22622.915819038848, -24007.964015956404, -1373.738214223172, 10223.866727813092, -7731.580165812989, -19308.241523294633, 0.1595, 0.8895, -0.362625, 192.0, 0.0, 0.0, 0.0, 0.0, 0.0, 0.0, 0.0, 0.0, 0.0, 1.662065377380718E9, 0.0, 2022-09-01 16:49:37.380
92.0, -18376.240834741693, -20369.882329688353, -30394.550310915747, -14639.94558333702, -7645.525949660057, -12003.490269600186, 27904.409516383355, -11938.31258276851, -23404.377508685295, 3963.8807134486096, -22642.563002415063, -24055.23795547938, -1370.0501763880463, 10090.292702948178, -7721.879508719387, -19336.963514919702, 0.1595, 0.8895, -0.362625, 192.0, 0.0, 0.0, 0.0, 0.0, 0.0, 0.0, 0.0, 0.0, 0.0, 1.6620653773807223E9, 0.0, 2022-09-01 16:49:37.380
94.0, -18325.21180215023, -20311.276055726536, -30338.492135821838, -14578.813562251755, -7608.712626542167, -11956.909234155326, 27649.152594703748, -11883.528457108552, -23435.535840455992, 4023.4034089330926, -22651.928383341838, -24030.673388322997, -1407.3552378839538, 10199.525678101263, -7753.82015154602, -19329.699197971728, 0.1595, 0.8895, -0.362625, 192.0, 0.0, 0.0, 0.0, 0.0, 0.0, 0.0, 0.0, 0.0, 0.0, 1.6620653773807268E9, 0.0, 2022-09-01 16:49:37.380
96.0, -18367.09897125947, -20359.622878983366, -30386.995421289856, -14641.465501959981, -7645.011859537585, -12012.162746448845, 27909.505714119165, -11940.07837058048, -23397.560226626425, 3970.250960618372, -22632.43766217681, -24049.448853665453, -1364.5069437631303, 10086.247037201767, -7712.469424303702, -19335.82357595248, 0.1595, 0.8895, -0.362625, 192.0, 0.0, 0.0, 0.0, 0.0, 0.0, 0.0, 0.0, 0.0, 0.0, 1.662065377380731E9, 0.0, 2022-09-01 16:49:37.380
98.0, -18306.369281574403, -20292.589997361898, -30319.962539668388, -14569.023498180331, -7577.040204648996, -11933.998696088636, 27662.206013465646, -11864.909453977281, -23415.82160184641, 4033.3052317267934, -22635.566906400552, -24027.119460954604, -1388.1774411413005, 10204.3089514147, -7726.841595988464, -19324.938276402747, 0.15975, 0.88575, -0.3593125, 192.0, 2.5, 0.0, 13.5, 72.0, 122.0, 112.0, 0.0, 0.0, 0.0, 1.6620653773807356E9, 0.0, 2022-09-01 16:49:37.380
100.0, -18376.911387075354, -20373.369201823378, -30388.06830502371, -14654.451865488514, -7631.421998908759, -12017.370702906932, 27912.590254853996, -11939.519576969096, -23385.24441543155, 3974.6989577649783, -22623.42990916132, -24049.158280987536, -1349.5536267225298, 10115.57252592713, -7694.878601417376, -19329.92271541628, 0.15975, 0.88575, -0.3593125, 192.0, 0.0, 0.0, 0.0, 0.0, 0.0, 0.0, 0.0, 0.0, 0.0, 1.66206537738074E9, 0.0, 2022-09-01 16:49:37.380
102.0, -18319.266238125114, -20302.96120678916, -30331.361929340594, -14577.69597502899, -7588.17137338774, -11938.022010090592, 27669.626792624807, -11868.552788323497, -23432.764224143535, 4009.6570860930788, -22659.259755523177, -24051.304048455248, -1402.6390198038841, 10180.124363914058, -7744.767695041621, -19338.908116687315, 0.15975, 0.88575, -0.3593125, 192.0, 0.0, 0.0, 0.0, 0.0, 0.0, 0.0, 0.0, 0.0, 0.0, 1.6620653773807452E9, 0.0, 2022-09-01 16:49:37.380
104.0, -18372.217520739738, -20371.201082611213, -30382.614479376614, -14648.08161831875, -7636.585251877935, -12013.168574949334, 27897.748696535673, -11939.229004291177, -23379.120037450797, 3986.0536439482744, -22614.91389452385, -24036.618952348108, -1353.9345686357701, 10118.14297653949, -7699.840688686453, -19314.43295650875, 0.15975, 0.88575, -0.3593125, 192.0, 0.0, 0.0, 0.0, 0.0, 0.0, 0.0, 0.0, 0.0, 0.0, 1.6620653773807497E9, 0.0, 2022-09-01 16:49:37.380
106.0, -18322.32842711549, -20305.464602168155, -30334.737042753346, -14578.008899451364, -7611.350132387893, -11944.392257260353, 27681.920252075226, -11885.383651898343, -23433.613590432837, 4000.7610917998663, -22659.05858982308, -24052.555746144742, -1414.4854443651968, 10170.758982987283, -7753.48487537919, -19340.919773688292, 0.15975, 0.88575, -0.3593125, 192.0, 0.0, 0.0, 0.0, 0.0, 0.0, 0.0, 0.0, 0.0, 0.0, 1.662065377380754E9, 0.0, 2022-09-01 16:49:37.380
108.0, -18358.67236359982, -20358.63940222733, -30364.733083812367, -14635.609344912691, -7628.113940729373, -12008.653522569362, 27876.492187558677, -11942.358248514922, -23368.01122045651, 3998.905897010076, -22601.055812961557, -24023.967864986404, -1348.5925017109516, 10139.287726794211, -7696.622037484889, -19299.837267379437, 0.160875, 0.883875, -0.35865625, 192.0, 2.5, 8.0, 13.5, 72.0, 122.0, 104.0, 0.0, 0.0, 0.0, 1.6620653773807583E9, 0.0, 2022-09-01 16:49:37.380
110.0, -18342.757921547643, -20319.322683730446, -30350.740891783345, -14598.170172950051, -7628.717437829667, -11962.56422550252, 27696.739458649095, -11911.98222780016, -23431.423119476214, 3990.8592690061655, -22665.205319548288, -24062.166996260527, -1412.9208222533252, 10152.184683344924, -7752.836674789986, -19349.547547048038, 0.160875, 0.883875, -0.35865625, 192.0, 0.0, 0.0, 0.0, 0.0, 0.0, 0.0, 0.0, 0.0, 0.0, 1.6620653773807628E9, 0.0, 2022-09-01 16:49:37.380
112.0, -18368.842407326985, -20360.338134805934, -30370.9692205154, -14641.554908937802, -7628.0915889849175, -12015.627266839418, 27848.194879078255, -11943.945222371249, -23382.741020052556, 4002.83980403421, -22617.484345136207, -24032.32741741269, -1364.9092751633257, 10147.893148409505, -7706.367398067403, -19309.448517495217, 0.160875, 0.883875, -0.35865625, 192.0, 0.0, 0.0, 0.0, 0.0, 0.0, 0.0, 0.0, 0.0, 0.0, 1.662065377380767E9, 0.0, 2022-09-01 16:49:37.380
114.0, -18326.99994170665, -20302.335357944412, -30351.322037139184, -14589.363585634661, -7616.871013268354, -11953.645879464852, 27740.168898125758, -11899.912285794293, -23427.042177562977, 3988.445280604992, -22662.523110213653, -24060.93765031548, -1414.5972030874734, 10145.322697797144, -7744.879453763897, -19345.054846412524, 0.160875, 0.883875, -0.35865625, 192.0, 0.0, 0.0, 0.0, 0.0, 0.0, 0.0, 0.0, 0.0, 0.0, 1.6620653773807716E9, 0.0, 2022-09-01 16:49:37.380
116.0, -18344.836633781986, -20340.623896196354, -30353.221935417885, -14625.014618040876, -7621.229603437138, -12006.373644634921, 27830.358187002923, -11928.701332652729, -23367.027743700477, 4029.9301183140424, -22592.31628087953, -24003.270149620792, -1360.3048158055326, 10167.339166085621, -7701.584124753967, -19295.00929057709, 0.160875, 0.883875, -0.35865625, 192.0, 0.0, 0.0, 0.0, 0.0, 0.0, 0.0, 0.0, 0.0, 0.0, 1.662065377380777E9, 0.0, 2022-09-01 16:49:37.380
118.0, -18335.940639488774, -20314.62881739483, -30347.611647559603, -14594.37037639265, -7631.734923331132, -11960.440809779264, 27780.44674163422, -11908.271838220579, -23420.560171670935, 3979.102251422674, -22654.275316509644, -24059.060103781238, -1407.7128657952387, 10134.571508714142, -7743.873625263408, -19349.525195303584, 0.1624375, 0.8869374999999999, -0.358328125, 192.0, 2.5, 16.0, 13.5, 104.0, 122.0, 104.0, 0.0, 0.0, 0.0, 1.6620653773807812E9, 0.0, 2022-09-01 16:49:37.380
120.0, -18330.084482441485, -20322.206058765183, -30334.37941484206, -14603.042853241308, -7604.532850329024, -11985.94415020277, 27808.118201269892, -11914.083291778958, -23361.775083753477, 4042.2682812533717, -22587.264786632633, -23991.89311169304, -1352.6381674573622, 10192.998968720314, -7696.778499696076, -19283.833418349437, 0.1624375, 0.8869374999999999, -0.358328125, 192.0, 0.0, 0.0, 0.0, 0.0, 0.0, 0.0, 0.0, 0.0, 0.0, 1.6620653773807857E9, 0.0, 2022-09-01 16:49:37.380
122.0, -18352.615040852434, -20331.88436411433, -30371.237441448862, -14616.56565863677, -7653.75139161961, -11982.077298412001, 27811.91799782729, -11934.915117611305, -23417.520334425015, 3968.574579784224, -22658.499796211698, -24065.00566780635, -1410.8421100189819, 10132.805720902172, -7747.449904376257, -19353.59321279445, 0.1624375, 0.8869374999999999, -0.358328125, 192.0, 0.0, 0.0, 0.0, 0.0, 0.0, 0.0, 0.0, 0.0, 0.0, 1.6620653778608105E9, 0.0, 2022-09-01 16:49:37.860
124.0, -18339.740436046177, -20332.53256470353, -30342.33663586815, -14621.147766250107, -7605.046940451496, -12001.858592254948, 27767.438026361233, -11927.293172752044, -23381.265804918505, 4033.126417771151, -22602.553379840065, -24009.37217585709, -1380.0861096484794, 10190.942608230425, -7719.376113340392, -19300.91015111329, 0.1624375, 0.8869374999999999, -0.358328125, 192.0, 0.0, 0.0, 0.0, 0.0, 0.0, 0.0, 0.0, 0.0, 0.0, 1.662065377860886E9, 0.0, 2022-09-01 16:49:37.860
126.0, -18360.751075834167, -20339.103977573395, -30381.29572645375, -14639.096217047718, -7654.779571864555, -11997.097670685967, 27845.110338343424, -11944.682829938272, -23420.91779958222, 3948.1450853520737, -22659.215052034266, -24078.90845285755, -1410.4397786187862, 10089.756261081251, -7747.651070076356, -19367.272480401098, 0.1624375, 0.8869374999999999, -0.358328125, 192.0, 0.0, 0.0, 0.0, 0.0, 0.0, 0.0, 0.0, 0.0, 0.0, 1.662065377860949E9, 0.0, 2022-09-01 16:49:37.860
128.0, -18323.133089915882, -20307.29744521349, -30328.567961283683, -14603.60164685269, -7585.466812308648, -11966.36402205992, 27746.82971797344, -11900.44872766122, -23376.951918238632, 4048.683231912045, -22596.697222792773, -24003.113687409605, -1374.520525279108, 10195.703529799406, -7715.285744105071, -19293.422316720764, 0.1624375, 0.8869374999999999, -0.358328125, 192.0, 0.0, 0.0, 0.0, 0.0, 0.0, 0.0, 0.0, 0.0, 0.0, 1.6620653778609548E9, 0.0, 2022-09-01 16:49:37.860
130.0, -18375.21265449675, -20353.096169602417, -30380.714581097913, -14644.639449672635, -7654.690164886733, -11998.885810242393, 27877.118036403423, -11947.946184628749, -23413.407613445237, 3958.203370356962, -22649.49204319621, -24074.10282779966, -1402.9519442262583, 10104.508412421754, -7731.736628024177, -19355.291945373054, 0.162, 0.888, -0.366, 192.0, 2.5, 8.0, 13.5, 96.0, 122.0, 72.0, 0.0, 0.0, 0.0, 1.6620653778609605E9, 0.0, 2022-09-01 16:49:37.860
132.0, -18336.72295054471, -20318.11568952986, -30325.125792637566, -14598.55015260579, -7601.001274705086, -11970.946129673259, 27711.96099662316, -11906.438995175242, -23394.095706235854, 4053.913540114587, -22607.94015025379, -24004.387736843557, -1385.8305079734932, 10214.635457353052, -7715.442206316257, -19293.66818590977, 0.162, 0.888, -0.366, 192.0, 0.0, 0.0, 0.0, 0.0, 0.0, 0.0, 0.0, 0.0, 0.0, 1.6620653778609664E9, 0.0, 2022-09-01 16:49:37.860
134.0, -18387.372003480436, -20364.249690085613, -30387.308345712227, -14651.367324753683, -7659.361679477893, -12006.999493479669, 27896.1840744238, -11963.301833069543, -23423.15297402775, 3944.546454494769, -22664.802988148094, -24081.72477265892, -1413.7031333092611, 10082.33548192209, -7737.43632286028, -19358.51059657462, 0.162, 0.888, -0.366, 192.0, 0.0, 0.0, 0.0, 0.0, 0.0, 0.0, 0.0, 0.0, 0.0, 1.6620653778609772E9, 0.0, 2022-09-01 16:49:37.860
136.0, -18318.796851491556, -20295.138096229806, -30308.205522084896, -14579.729983774423, -7580.303559339472, -11953.377658531388, 27697.655880171762, -11892.513858379587, -23398.96838652711, 4046.001022577408, -22616.478516635718, -24010.109783424115, -1395.352351111454, 10226.884213314559, -7712.737645237165, -19297.02094757807, 0.162, 0.888, -0.366, 192.0, 0.0, 0.0, 0.0, 0.0, 0.0, 0.0, 0.0, 0.0, 0.0, 1.6620653778609831E9, 0.0, 2022-09-01 16:49:37.860
138.0, -18376.665517886344, -20353.74437019162, -30382.368610187605, -14648.394542741125, -7642.106132758396, -12008.832336525003, 27927.67768236133, -11959.122056856402, -23390.318261422904, 3967.322882094727, -22632.303551710076, -24054.43329267899, -1372.1959438557558, 10105.625999644519, -7693.559848494512, -19326.704064214715, 0.162, 0.888, -0.366, 192.0, 0.0, 0.0, 0.0, 0.0, 0.0, 0.0, 0.0, 0.0, 0.0, 1.6620653778609889E9, 0.0, 2022-09-01 16:49:37.860
140.0, -18321.613171292924, -20292.813514806454, -30332.211295629895, -14589.050661212286, -7585.422108819736, -11957.982117889182, 27688.312850989445, -11902.728605595661, -23409.96544479912, 4042.067115553274, -22631.38713018741, -24021.643283563055, -1401.0073424586467, 10215.618934109085, -7720.426645329791, -19308.77796516156, 0.168, 0.892, -0.364, 192.0, 2.5, 32.0, 13.5, 112.0, 122.0, 80.0, 0.0, 0.0, 0.0, 1.6620653778609946E9, 0.0, 2022-09-01 16:49:37.860
142.0, -18362.472160157224, -20349.877518400852, -30387.330697456684, -14653.021353843375, -7634.037153010029, -12010.285199914599, 27941.714577879262, -11958.540911500564, -23378.67300256169, 3978.0517194332747, -22623.94399928379, -24048.063045509225, -1373.2241241007, 10112.219764258834, -7696.398520040336, -19328.53690726005, 0.168, 0.892, -0.364, 192.0, 0.0, 0.0, 0.0, 0.0, 0.0, 0.0, 0.0, 0.0, 0.0, 1.6620653778610003E9, 0.0, 2022-09-01 16:49:37.861
144.0, -18313.991226433664, -20292.232369450616, -30326.735118238346, -14589.40828912357, -7589.043091421497, -11949.376696273888, 27692.15735103576, -11890.748070567617, -23403.05875576243, 4035.316888727771, -22631.476537165232, -24028.594676088655, -1403.4660343487305, 10202.744329302828, -7725.187566898771, -19318.34451178843, 0.168, 0.892, -0.364, 192.0, 0.0, 0.0, 0.0, 0.0, 0.0, 0.0, 0.0, 0.0, 0.0, 1.662065377861006E9, 0.0, 2022-09-01 16:49:37.861
146.0, -18362.762732835145, -20348.17878582225, -30362.497909366837, -14645.80174038431, -7623.531833116035, -11999.556362576051, 27958.85836587648, -11936.189167045257, -23364.09966517683, 3983.997283458386, -22607.89544676488, -24041.558687872734, -1351.0735453454906, 10114.320828237633, -7681.959293122208, -19315.505840242608, 0.168, 0.892, -0.364, 192.0, 0.0, 0.0, 0.0, 0.0, 0.0, 0.0, 0.0, 0.0, 0.0, 1.6620653778610117E9, 0.0, 2022-09-01 16:49:37.861
148.0, -18327.357569617936, -20294.624006107333, -30314.218141343375, -14585.206161165974, -7589.110146654863, -11935.272745522589, 27700.1369238063, -11874.699518048707, -23415.39691870176, 4024.096313011207, -22640.48429018072, -24036.52954537029, -1400.3144383805322, 10212.73555907435, -7720.8960319633525, -19323.48541301315, 0.168, 0.892, -0.364, 192.0, 0.0, 0.0, 0.0, 0.0, 0.0, 0.0, 0.0, 0.0, 0.0, 1.6620653778610177E9, 0.0, 2022-09-01 16:49:37.861
150.0, -18371.770485850633, -20353.342038791423, -30369.270487936796, -14654.56362421079, -7621.788397048521, -12010.106385958958, 27937.937133066316, -11930.735341398162, -23377.890691505756, 3986.0089404593637, -22615.830316046515, -24037.200097703946, -1346.3349755209656, 10145.993250130803, -7688.910685647808, -19318.2104013217, 0.164, 0.894, -0.364, 192.0, 2.5, 16.0, 13.5, 120.0, 122.0, 80.0, 0.0, 0.0, 0.0, 1.6620653778610232E9, 0.0, 2022-09-01 16:49:37.861
152.0, -18316.047586923552, -20278.82132277743, -30332.971254941378, -14587.083707700218, -7582.963416929653, -11934.624544933386, 27704.897845375282, -11860.439105086221, -23421.811869360434, 4011.579336116235, -22653.15772928688, -24038.876478538095, -1398.414540101831, 10201.604390335608, -7743.493645607668, -19343.959610934213, 0.164, 0.894, -0.364, 192.0, 0.0, 0.0, 0.0, 0.0, 0.0, 0.0, 0.0, 0.0, 0.0, 1.6620653778610291E9, 0.0, 2022-09-01 16:49:37.861
154.0, -18359.11939848893, -20341.540317719024, -30382.949755543443, -14648.685115419044, -7613.160623688773, -11999.064624198036, 27920.94980728028, -11907.936562053748, -23365.597232055337, 4004.002094745886, -22606.10730720846, -24014.535428826264, -1340.6576324293176, 10157.3479363141, -7697.38199679637, -19320.803203678515, 0.164, 0.894, -0.364, 192.0, 0.0, 0.0, 0.0, 0.0, 0.0, 0.0, 0.0, 0.0, 0.0, 1.662065377861035E9, 0.0, 2022-09-01 16:49:37.861
156.0, -18325.032988194584, -20296.434497408212, -30362.252040177827, -14603.020501496852, -7604.488146840114, -11944.906347382826, 27721.90752290577, -11863.59070105442, -23422.638883905278, 4007.064283736263, -22662.970145102758, -24047.213679219924, -1403.5330895820964, 10190.562628574686, -7759.653956848855, -19366.668983300806, 0.164, 0.894, -0.364, 192.0, 0.0, 0.0, 0.0, 0.0, 0.0, 0.0, 0.0, 0.0, 0.0, 1.6620653778610408E9, 0.0, 2022-09-01 16:49:37.861
158.0, -18348.8822995284, -20337.896983372808, -30377.473578151894, -14646.76286539589, -7611.7748155325435, -11999.75752827615, 27893.635975555895, -11894.681977591752, -23361.819787242388, 4010.5288041268354, -22606.643749075385, -24020.369234129103, -1344.0103940976137, 10180.079660425146, -7708.244944601649, -19335.957686419213, 0.164, 0.894, -0.364, 192.0, 0.0, 0.0, 0.0, 0.0, 0.0, 0.0, 0.0, 0.0, 0.0, 1.6620653778610466E9, 0.0, 2022-09-01 16:49:37.861
160.0, -18337.14763368936, -20308.906770814272, -30361.827357033177, -14601.992321251908, -7614.546431845001, -11947.968536373202, 27742.73934873812, -11860.528512064042, -23419.219067003618, 3985.830126503721, -22665.09356082601, -24063.753970116853, -1393.5865632994849, 10179.565570302675, -7761.8667795499305, -19386.07029748801, 0.158, 0.89, -0.364, 192.0, 2.0, 120.0, 13.5, 104.0, 122.0, 80.0, 0.0, 0.0, 0.0, 1.6620653778610525E9, 0.0, 2022-09-01 16:49:37.861
162.0, -18366.942509048284, -20357.87944291585, -30374.25492695033, -14634.000019311909, -7610.724283543144, -11995.488345085187, 27861.203594351246, -11893.095003735425, -23374.739095537556, 4009.5676791152573, -22610.555304355064, -24025.37602488709, -1335.6061381824181, 10186.986349461837, -7711.932982436774, -19337.29879108653, 0.158, 0.89, -0.364, 192.0, 0.0, 0.0, 0.0, 0.0, 0.0, 0.0, 0.0, 0.0, 0.0, 1.6620653778610582E9, 0.0, 2022-09-01 16:49:37.861
164.0, -18351.363343162935, -20327.682236156732, -30376.445397906948, -14595.286797915316, -7612.355960888382, -11950.31546954101, 27769.87436650686, -11867.658718545285, -23446.868174894833, 3965.4453355604815, -22682.751438945706, -24083.19998779297, -1403.1307581819008, 10157.77261945875, -7773.735555855698, -19400.017786028122, 0.158, 0.89, -0.364, 192.0, 0.0, 0.0, 0.0, 0.0, 0.0, 0.0, 0.0, 0.0, 0.0, 1.662065377861064E9, 0.0, 2022-09-01 16:49:37.861
166.0, -18353.687924586287, -20350.570422478966, -30374.903127539532, -14616.185678981028, -7588.7078152546665, -11990.839182238482, 27824.300864255532, -11876.510009349586, -23388.284252677473, 4020.743551342911, -22618.579580614518, -24024.101975453137, -1348.257225544122, 10201.514983357785, -7722.795930242054, -19337.209384108708, 0.158, 0.89, -0.364, 192.0, 0.0, 0.0, 0.0, 0.0, 0.0, 0.0, 0.0, 0.0, 0.0, 1.6620653778610713E9, 0.0, 2022-09-01 16:49:37.861
168.0, -18343.11554945893, -20323.457756454678, -30385.520206155805, -14601.768803807356, -7619.84379528091, -11955.009335876624, 27799.60218663242, -11865.647061544307, -23428.651503163757, 3968.485172806403, -22675.084790597535, -24078.95315634646, -1393.2736388771104, 10150.083619366123, -7762.045593505573, -19393.669890602814, 0.158, 0.89, -0.364, 192.0, 0.0, 0.0, 0.0, 0.0, 0.0, 0.0, 0.0, 0.0, 0.0, 1.6620653778610773E9, 0.0, 2022-09-01 16:49:37.861
170.0, -18346.043627982574, -20339.953343862697, -30375.52897638428, -14622.89120231762, -7601.31419912746, -11992.627321794907, 27782.078418979458, -11877.605244827897, -23385.445581131647, 4020.587089131724, -22618.356063169966, -24028.348806899645, -1352.9957953686471, 10203.504288614307, -7741.459636862235, -19353.59321279445, 0.168, 0.888, -0.358, 192.0, 2.5, 32.0, 13.5, 96.0, 122.0, 104.0, 0.0, 0.0, 0.0, 1.662065377861083E9, 0.0, 2022-09-01 16:49:37.861
172.0, -18354.40318040886, -20338.433425239735, -30401.59111041917, -14619.717254604968, -7641.7038013582, -11984.312472857533, 27824.144402044345, -11887.663529832786, -23432.227782276605, 3951.944881909476, -22680.650374966906, -24093.81706640924, -1399.5991825579624, 10126.144901054491, -7778.630587891411, -19419.664969404337, 0.168, 0.888, -0.358, 192.0, 0.0, 0.0, 0.0, 0.0, 0.0, 0.0, 0.0, 0.0, 0.0, 1.6620653778610888E9, 0.0, 2022-09-01 16:49:37.861
174.0, -18316.472270068203, -20316.26049474007, -30354.227763918374, -14585.295568143794, -7583.54456228549, -11972.756620974138, 27752.440005831722, -11854.582948038931, -23385.28911892046, 4040.569548674768, -22612.03051948911, -24017.642321305553, -1359.2989873050437, 10223.531451646264, -7741.705506051244, -19346.17243363529, 0.168, 0.888, -0.358, 192.0, 0.0, 0.0, 0.0, 0.0, 0.0, 0.0, 0.0, 0.0, 0.0, 1.6620653778610945E9, 0.0, 2022-09-01 16:49:37.861
176.0, -18354.693753086776, -20348.491710244623, -30406.262625010328, -14609.882487044631, -7640.0050687795965, -11982.144353645368, 27858.342571060966, -11889.295207178022, -23416.35804371334, 3954.2471115883723, -22664.020677092158, -24081.501255214367, -1389.2503248751552, 10120.132281796014, -7765.197189473772, -19399.235474972185, 0.168, 0.888, -0.358, 192.0, 0.0, 0.0, 0.0, 0.0, 0.0, 0.0, 0.0, 0.0, 0.0, 1.6620653778611002E9, 0.0, 2022-09-01 16:49:37.861
178.0, -18310.23613336517, -20308.772660347542, -30347.857516748612, -14560.999221920876, -7567.093678366385, -11952.84121666446, 27726.10965086337, -11839.808444953973, -23387.323127665895, 4043.095295798218, -22613.885714278906, -24012.3673096141, -1368.4408507872643, 10233.343867462143, -7743.381886885391, -19331.375578805873, 0.168, 0.888, -0.358, 192.0, 0.0, 0.0, 0.0, 0.0, 0.0, 0.0, 0.0, 0.0, 0.0, 1.662065377861106E9, 0.0, 2022-09-01 16:49:37.861
180.0, -18351.072770485018, -20346.07772184345, -30404.586244176182, -14602.707577074478, -7632.9642692761745, -11975.438830308776, 27887.84687374197, -11888.915227522282, -23402.00822377303, 3961.3102628362494, -22650.05083680759, -24066.972621318415, -1369.0219961431023, 10120.512261451753, -7749.1262852104055, -19377.241358428164, 0.17, 0.884, -0.358, 192.0, 2.5, 40.0, 13.5, 80.0, 122.0, 104.0, 0.0, 0.0, 0.0, 1.662065377861112E9, 0.0, 2022-09-01 16:49:37.861
182.0, -18294.43345003527, -20289.930139771717, -30337.48630732135, -14543.743675201378, -7559.203512573661, -11935.675076922784, 27699.064040072448, -11831.381837294322, -23389.8712265338, 4053.7794296478546, -22614.802135801572, -24006.622911289087, -1357.8908274043595, 10253.527492705285, -7743.493645607668, -19327.911058415302, 0.17, 0.884, -0.358, 192.0, 0.0, 0.0, 0.0, 0.0, 0.0, 0.0, 0.0, 0.0, 0.0, 1.6620653778611176E9, 0.0, 2022-09-01 16:49:37.861
184.0, -18344.233136681694, -20342.970829364163, -30397.701906883947, -14601.947617762999, -7621.229603437138, -11978.568074532519, 27908.81281004105, -11889.988111256136, -23398.63311036028, 3959.455068046459, -22645.669894894352, -24063.57515616121, -1361.3776995393873, 10120.109930051558, -7741.705506051244, -19377.1743031948, 0.17, 0.884, -0.358, 192.0, 0.0, 0.0, 0.0, 0.0, 0.0, 0.0, 0.0, 0.0, 0.0, 1.6620653778611233E9, 0.0, 2022-09-01 16:49:37.861
186.0, -18297.138011114363, -20294.4898956406, -30340.48144107836, -14552.013820649841, -7561.505742252558, -11934.870414122393, 27686.502359688566, -11835.20398559618, -23389.178322455686, 4056.573397704768, -22613.371624156433, -24003.60542578762, -1361.7353274506722, 10252.231091526877, -7743.426590374303, -19337.54466027554, 0.17, 0.884, -0.358, 192.0, 0.0, 0.0, 0.0, 0.0, 0.0, 0.0, 0.0, 0.0, 0.0, 1.6620653778611293E9, 0.0, 2022-09-01 16:49:37.861
188.0, -18358.582956622, -20360.69576271722, -30407.78254363329, -14625.774577352355, -7636.495844900113, -11991.84501073897, 27922.782650325615, -11900.895762550326, -23390.43002014518, 3965.7582599828556, -22637.62326689044, -24062.14464451607, -1361.3106443060212, 10122.546270197186, -7738.062171705029, -19379.744753807157, 0.17, 0.884, -0.358, 192.0, 0.0, 0.0, 0.0, 0.0, 0.0, 0.0, 0.0, 0.0, 0.0, 1.6620653778611348E9, 0.0, 2022-09-01 16:49:37.861
190.0, -18293.58408374597, -20288.20905544866, -30336.793403243235, -14549.510425270848, -7571.11699236834, -11916.989018558148, 27668.41979842422, -11825.77154943604, -23407.126773253298, 4036.590938161724, -22635.29868546709, -24029.26522842231, -1377.7615282251274, 10231.511024416808, -7759.653956848855, -19355.560166306517, 0.16, 0.886, -0.362, 192.0, 2.5, 0.0, 13.5, 88.0, 122.0, 88.0, 0.0, 0.0, 0.0, 1.6620653778611407E9, 0.0, 2022-09-01 16:49:37.861
192.0, -18355.230194953703, -20357.27594581556, -30405.234444765385, -14620.946600550009, -7631.042019253018, -11992.649673539361, 27914.780725810615, -11900.06874800548, -23378.225967672584, 3971.5920652856908, -22625.352159184476, -24051.57226938871, -1346.6255481988846, 10135.554985470175, -7732.183662913283, -19360.79047450906, 0.16, 0.886, -0.362, 192.0, 0.0, 0.0, 0.0, 0.0, 0.0, 0.0, 0.0, 0.0, 0.0, 1.6620653778611467E9, 0.0, 2022-09-01 16:49:37.861
194.0, -18290.454839522226, -20279.469523366635, -30339.788537000244, -14537.373428031617, -7578.9624546721525, -11922.2640302496, 27660.61903960932, -11834.332267562422, -23410.993625044066, 4034.020487549363, -22637.735025612717, -24025.66659756501, -1386.5681155405184, 10230.996934294335, -7769.77929708711, -19359.382314608374, 0.16, 0.886, -0.362, 192.0, 0.0, 0.0, 0.0, 0.0, 0.0, 0.0, 0.0, 0.0, 0.0, 1.6620653778611524E9, 0.0, 2022-09-01 16:49:37.861
196.0, -18339.181642434793, -20340.266268285068, -30389.454113179938, -14598.03606248332, -7618.592097591412, -11988.291083370577, 27917.4405834008, -11898.168849726779, -23370.693429791147, 3995.8213562752435, -22606.017900230636, -24021.4197661185, -1343.965690608703, 10139.86887215005, -7724.539366309567, -19346.373599335384, 0.16, 0.886, -0.362, 192.0, 0.0, 0.0, 0.0, 0.0, 0.0, 0.0, 0.0, 0.0, 0.0, 1.662065377861158E9, 0.0, 2022-09-01 16:49:37.861
198.0, -18299.417889048804, -20285.593901347387, -30346.53876382575, -14539.116864099129, -7600.129556671329, -11928.50016695263, 27668.397446679766, -11846.692782246208, -23416.290988479974, 4034.13224627164, -22636.058644778568, -24016.79295501625, -1393.966542955225, 10219.239916710845, -7766.135962740895, -19359.896404730847, 0.16, 0.886, -0.362, 192.0, 0.0, 0.0, 0.0, 0.0, 0.0, 0.0, 0.0, 0.0, 0.0, 1.6620653778611653E9, 0.0, 2022-09-01 16:49:37.861
200.0, -18340.05336046855, -20340.69095142972, -30371.34920017114, -14590.03413796832, -7610.143138187306, -11975.103554141946, 27907.80698154056, -11885.026023987059, -23373.666211803702, 3990.725158539434, -22608.208371187255, -24021.12919344058, -1341.5069987186193, 10159.381945059533, -7719.152595895839, -19338.036398653556, 0.16, 0.888, -0.356, 192.0, 2.5, 0.0, 13.5, 96.0, 122.0, 112.0, 0.0, 0.0, 0.0, 1.6620653778611708E9, 0.0, 2022-09-01 16:49:37.861
202.0, -18307.620979263902, -20293.037032251006, -30347.745758026336, -14541.709666455945, -7596.307408369471, -11915.893783079837, 27689.43043821221, -11844.457607800676, -23422.10244203835, 4012.495757638903, -22648.329752484533, -24033.154431957537, -1384.8693829619149, 10216.64711435403, -7760.7491923271655, -19347.379427835873, 0.16, 0.888, -0.356, 192.0, 0.0, 0.0, 0.0, 0.0, 0.0, 0.0, 0.0, 0.0, 0.0, 1.6620653778611767E9, 0.0, 2022-09-01 16:49:37.861
204.0, -18339.606325579443, -20344.624858453855, -30379.932270041976, -14601.679396829535, -7620.827272036943, -11987.553475803552, 27882.102475416956, -11900.426375916764, -23374.42617111518, 4008.1595192145733, -22606.062603719547, -24018.648149806042, -1337.8860161168595, 10167.20505561889, -7727.467444833213, -19324.938276402747, 0.16, 0.888, -0.356, 192.0, 0.0, 0.0, 0.0, 0.0, 0.0, 0.0, 0.0, 0.0, 0.0, 1.6620653778611825E9, 0.0, 2022-09-01 16:49:37.861
206.0, -18301.206028605226, -20289.997195005082, -30349.690359793945, -14549.488073526392, -7601.984751461119, -11929.997733831136, 27707.468295987645, -11856.05816317298, -23421.275427493507, 4008.5618506147684, -22647.592144917508, -24042.720978584406, -1393.251287132655, 10185.846410494616, -7771.612140132444, -19366.400762367342, 0.16, 0.888, -0.356, 192.0, 0.0, 0.0, 0.0, 0.0, 0.0, 0.0, 0.0, 0.0, 0.0, 1.6620653778611884E9, 0.0, 2022-09-01 16:49:37.861
208.0, -18333.593706320968, -20348.98344862264, -30374.43374090597, -14607.401443410094, -7611.998332977097, -11995.42128985182, 27854.185146592277, -11901.767480584083, -23355.181319139163, 4021.056475765285, -22582.369754596923, -24002.37607984258, -1331.3146032469992, 10172.994157432813, -7712.692941748255, -19323.35130254642, 0.16, 0.888, -0.356, 192.0, 0.0, 0.0, 0.0, 0.0, 0.0, 0.0, 0.0, 0.0, 0.0, 1.6620653778611941E9, 0.0, 2022-09-01 16:49:37.861
210.0, -18320.316770114514, -20314.226485994637, -30366.655333835526, -14575.17022790554, -7609.807862020477, -11948.281460795577, 27736.190287612713, -11869.715079035173, -23422.97416007211, 3973.8272397312217, -22657.67278166685, -24065.206833506447, -1399.3533133689539, 10164.880474195537, -7769.935759298296, -19387.590216110973, 0.164, 0.888, -0.357, 192.0, 2.5, 32.0, 13.5, 96.0, 122.0, 104.0, 0.0, 0.0, 0.0, 1.6620653778612E9, 0.0, 2022-09-01 16:49:37.861
212.0, -18344.613116337434, -20350.548070734512, -30373.24909844984, -14613.972856279954, -7597.31323686996, -11995.913028229837, 27826.2678177676, -11891.530381623554, -23378.740057795058, 4009.7017895819895, -22605.414403130344, -24019.05048120624, -1341.4175917407981, 10181.219599392367, -7718.951430195741, -19329.87801192737, 0.164, 0.888, -0.357, 192.0, 0.0, 0.0, 0.0, 0.0, 0.0, 0.0, 0.0, 0.0, 0.0, 1.6620653778612058E9, 0.0, 2022-09-01 16:49:37.861
214.0, -18334.577183077, -20321.6472651538, -30374.791368817256, -14589.452992612481, -7621.877804026342, -11955.36696378791, 27769.896718251315, -11876.934692494237, -23435.088805566884, 3970.541533296291, -22667.060514338078, -24069.677182397507, -1397.7663395126272, 10148.20607283188, -7762.872608050419, -19381.68935557477, 0.164, 0.888, -0.357, 192.0, 0.0, 0.0, 0.0, 0.0, 0.0, 0.0, 0.0, 0.0, 0.0, 1.6620653778612115E9, 0.0, 2022-09-01 16:49:37.861
216.0, -18325.63648529488, -20328.375140234846, -30359.972162243386, -14600.22653343994, -7591.702949011678, -11980.46797281122, 27789.812122560994, -11877.627596572353, -23386.33965090986, 4025.4597694229806, -22608.90127526537, -24014.4683735929, -1351.230007556678, 10197.11168970009, -7731.535462324079, -19329.810956694004, 0.164, 0.888, -0.357, 192.0, 0.0, 0.0, 0.0, 0.0, 0.0, 0.0, 0.0, 0.0, 0.0, 1.6620653778612173E9, 0.0, 2022-09-01 16:49:37.861
218.0, -18340.612154079932, -20327.59282917891, -30394.30444172674, -14600.673568329046, -7642.173187991762, -11962.251301080145, 27798.529302898565, -11889.094041477925, -23427.668026407722, 3964.9535971824644, -22661.539633457618, -24065.631516651098, -1396.7158075232278, 10132.805720902172, -7764.2137127177375, -19385.39974515435, 0.164, 0.888, -0.357, 192.0, 0.0, 0.0, 0.0, 0.0, 0.0, 0.0, 0.0, 0.0, 0.0, 1.6620653778612232E9, 0.0, 2022-09-01 16:49:37.861
220.0, -18313.879467711387, -20315.768756362053, -30359.212202931907, -14583.619187309647, -7593.535792057013, -11964.1735511033, 27762.87827049235, -11870.676204046751, -23381.82459852989, 4035.316888727771, -22602.642786817883, -23999.13507689656, -1358.7848971825717, 10223.710265601905, -7739.403276372347, -19325.00533163611, 0.165, 0.887, -0.3625, 192.0, 2.5, 24.0, 13.5, 88.0, 122.0, 64.0, 0.0, 0.0, 0.0, 1.6620653778612287E9, 0.0, 2022-09-01 16:49:37.861
222.0, -18344.76957854862, -20337.69581767271, -30399.40063946255, -14603.26637068586, -7646.84470258292, -11968.286272083078, 27835.141460316358, -11896.894800292826, -23421.834221104888, 3954.649442988568, -22663.350124758497, -24069.05133355276, -1393.9441912107698, 10120.311095751655, -7768.549951142068, -19386.40557365484, 0.165, 0.887, -0.3625, 192.0, 0.0, 0.0, 0.0, 0.0, 0.0, 0.0, 0.0, 0.0, 0.0, 1.662065377861235E9, 0.0, 2022-09-01 16:49:37.861
224.0, -18320.33912185897, -20319.993236064107, -30357.893450009044, -14581.093440186196, -7596.262704880561, -11963.860626680926, 27734.782127712027, -11865.155323166291, -23388.753639311035, 4046.1127812996847, -22610.42119388833, -24005.125344410582, -1363.612873984918, 10222.50327140132, -7739.760904283632, -19324.15596534681, 0.165, 0.887, -0.3625, 192.0, 0.0, 0.0, 0.0, 0.0, 0.0, 0.0, 0.0, 0.0, 0.0, 1.6620653778612404E9, 0.0, 2022-09-01 16:49:37.861
226.0, -18351.139825718383, -20344.580154964944, -30400.294709240763, -14610.620094611657, -7643.55899614799, -11969.694431983762, 27876.827463725505, -11891.977416512658, -23424.650540906256, 3949.396783041571, -22668.267508538665, -24079.86957786913, -1390.7031882647502, 10109.515203179742, -7756.301195180559, -19381.041154985567, 0.165, 0.887, -0.3625, 192.0, 0.0, 0.0, 0.0, 0.0, 0.0, 0.0, 0.0, 0.0, 0.0, 1.6620653778612463E9, 0.0, 2022-09-01 16:49:37.861
228.0, -18307.19629611925, -20304.16820098975, -30341.75549051231, -14571.21396913695, -7576.950797671176, -11937.217347290201, 27713.01152861256, -11846.022229912547, -23385.825560787387, 4051.4771999689583, -22607.694281064785, -24000.94556819744, -1355.1862663252673, 10234.93084131847, -7725.075808176495, -19308.9567791172, 0.165, 0.887, -0.3625, 192.0, 0.0, 0.0, 0.0, 0.0, 0.0, 0.0, 0.0, 0.0, 0.0, 1.6620653778612523E9, 0.0, 2022-09-01 16:49:37.861
230.0, -18364.081485758004, -20358.818216182975, -30408.073116311207, -14631.675437888556, -7640.496807157613, -11988.179324648301, 27888.98681270919, -11911.602248144418, -23418.235590247583, 3944.0547161167524, -22663.148959058402, -24077.723810401418, -1382.5671532830183, 10108.554078168163, -7748.500436365657, -19381.041154985567, 0.1635, 0.8845000000000001, -0.36424999999999996, 192.0, 2.5, 8.0, 13.5, 72.0, 122.0, 72.0, 0.0, 0.0, 0.0, 1.6620653778612595E9, 0.0, 2022-09-01 16:49:37.861
232.0, -18306.190467618762, -20302.044785266495, -30336.927513709965, -14569.403477836071, -7578.627178505323, -11943.02880084858, 27684.267185243036, -11850.336116592422, -23405.025709274498, 4035.071019538763, -22627.117946996445, -24017.75408002783, -1374.3417113234655, 10229.45466392692, -7752.054363734051, -19338.483433542664, 0.1635, 0.8845000000000001, -0.36424999999999996, 192.0, 0.0, 0.0, 0.0, 0.0, 0.0, 0.0, 0.0, 0.0, 0.0, 1.6620653778612652E9, 0.0, 2022-09-01 16:49:37.861
234.0, -18352.883261785897, -20357.07478011546, -30395.19851150495, -14625.305190718795, -7630.013839008074, -11991.777955505606, 27914.177228710323, -11907.780099842561, -23387.412534643714, 3963.5901407706906, -22626.983836529715, -24052.66750486702, -1348.257225544122, 10118.1876800284, -7728.897956478353, -19362.869186743403, 0.1635, 0.8845000000000001, -0.36424999999999996, 192.0, 0.0, 0.0, 0.0, 0.0, 0.0, 0.0, 0.0, 0.0, 0.0, 1.6620653778612711E9, 0.0, 2022-09-01 16:49:37.861
236.0, -18303.37414781739, -20303.743517845098, -30347.231667903863, -14567.280062112817, -7579.409489561259, -11945.733361927672, 27670.81143508094, -11856.214625384167, -23408.445526176158, 4031.2935747258157, -22628.48140340822, -24025.286617909267, -1380.734310237683, 10223.822024324183, -7757.843465547975, -19351.983887193666, 0.1635, 0.8845000000000001, -0.36424999999999996, 192.0, 0.0, 0.0, 0.0, 0.0, 0.0, 0.0, 0.0, 0.0, 0.0, 1.6620653778612769E9, 0.0, 2022-09-01 16:49:37.861
238.0, -18350.782197807097, -20351.419788768268, -30401.747572630356, -14623.114719762174, -7627.666905840267, -11992.426156094809, 27921.53095263612, -11909.031797532058, -23390.9217585232, 3962.092573892185, -22633.66700812185, -24057.942516558473, -1355.7450599366498, 10113.359703226055, -7739.649145561355, -19369.84293101346, 0.1635, 0.8845000000000001, -0.36424999999999996, 192.0, 0.0, 0.0, 0.0, 0.0, 0.0, 0.0, 0.0, 0.0, 0.0, 1.6620653778612826E9, 0.0, 2022-09-01 16:49:37.861
240.0, -18295.6180924914, -20284.744535058086, -30333.641807275035, -14546.02355313582, -7564.120896353829, -11929.684809408762, 27676.444074683677, -11842.334192077422, -23409.38429944328, 4041.3518597307043, -22631.923572054337, -24017.664673050007, -1379.1696881258117, 10231.712190116905, -7750.310927666537, -19340.53979403255, 0.16675, 0.8852500000000001, -0.365125, 192.0, 2.5, 40.0, 13.5, 88.0, 122.0, 72.0, 0.0, 0.0, 0.0, 1.6620653778612883E9, 0.0, 2022-09-01 16:49:37.861
242.0, -18347.96587800573, -20347.262364299582, -30381.318078198205, -14607.043815498808, -7616.111053956874, -11989.296911871066, 27937.132470265922, -11903.577971884963, -23377.264842661007, 3988.445280604992, -22614.13158346791, -24027.320626654702, -1339.0259550840801, 10129.76588365625, -7708.356703323925, -19338.483433542664, 0.16675, 0.8852500000000001, -0.365125, 192.0, 0.0, 0.0, 0.0, 0.0, 0.0, 0.0, 0.0, 0.0, 0.0, 1.6620653783420353E9, 0.0, 2022-09-01 16:49:38.342
244.0, -18305.09523214045, -20296.188628219203, -30339.09563292213, -14547.655230481058, -7586.092661153396, -11933.395198988343, 27681.85319684186, -11853.979450938637, -23420.560171670935, 4033.4616939379807, -22633.354083699476, -24015.09422243765, -1384.9140864508256, 10223.93378304646, -7746.9581659982405, -19339.53396553206, 0.16675, 0.8852500000000001, -0.365125, 192.0, 0.0, 0.0, 0.0, 0.0, 0.0, 0.0, 0.0, 0.0, 0.0, 1.6620653783420713E9, 0.0, 2022-09-01 16:49:38.342
246.0, -18367.747171848678, -20374.956175679705, -30401.054668552242, -14632.904783833597, -7644.296603715015, -12014.129699960911, 27915.495981633187, -11933.26108852161, -23389.312432922416, 3975.682434521012, -22615.070356735036, -24035.076681980692, -1356.9073506483257, 10122.076883563625, -7725.656953532333, -19342.551451033527, 0.16675, 0.8852500000000001, -0.365125, 192.0, 0.0, 0.0, 0.0, 0.0, 0.0, 0.0, 0.0, 0.0, 0.0, 1.6620653783420756E9, 0.0, 2022-09-01 16:49:38.342
248.0, -18304.71525248471, -20295.3392619299, -30329.48438280635, -14553.98077416191, -7591.300617611482, -11930.958858842714, 27685.675345143718, -11858.561558551975, -23435.804061389455, 3993.7202922964448, -22655.01292407667, -24050.074702510203, -1411.8479385194705, 10187.053404695202, -7776.820096590531, -19364.053829199533, 0.16675, 0.8852500000000001, -0.365125, 192.0, 0.0, 0.0, 0.0, 0.0, 0.0, 0.0, 0.0, 0.0, 0.0, 1.66206537834208E9, 0.0, 2022-09-01 16:49:38.342
250.0, -18348.39056115038, -20351.64330621282, -30361.380322144072, -14616.74447259241, -7609.293771898005, -11994.594275306974, 27907.96344375175, -11913.971533056681, -23367.966516967597, 3991.1498416840845, -22596.04902220357, -24021.956207985426, -1337.9530713502254, 10148.20607283188, -7705.719197478199, -19319.842078666938, 0.166375, 0.886625, -0.3645625, 192.0, 2.5, 24.0, 13.5, 96.0, 122.0, 80.0, 0.0, 0.0, 0.0, 1.662065378342085E9, 0.0, 2022-09-01 16:49:38.342
252.0, -18307.10688914143, -20294.35578517387, -30334.80409798671, -14555.545396273781, -7595.011007191063, -11926.779082629571, 27713.547970479485, -11862.92014872076, -23422.616532160824, 3999.9564289994755, -22643.881755337927, -24037.982408759883, -1390.7478917536607, 10187.947474473414, -7755.720049824721, -19347.915869702803, 0.166375, 0.886625, -0.3645625, 192.0, 0.0, 0.0, 0.0, 0.0, 0.0, 0.0, 0.0, 0.0, 0.0, 1.6620653783420892E9, 0.0, 2022-09-01 16:49:38.342
254.0, -18349.709314073243, -20356.895966159816, -30373.29380193875, -14615.716292347466, -7605.918658485253, -11989.520429315618, 27887.891577230883, -11910.797585344028, -23376.34842113834, 3994.547306841291, -22597.635996059897, -24012.814344503207, -1337.7295539056724, 10160.365421815566, -7708.513165535112, -19306.11810757138, 0.166375, 0.886625, -0.3645625, 192.0, 0.0, 0.0, 0.0, 0.0, 0.0, 0.0, 0.0, 0.0, 0.0, 1.6620653783420937E9, 0.0, 2022-09-01 16:49:38.342
0.0, -18331.112662686428, -20320.68614014222, -30372.91382228301, -14579.372355863137, -7611.841870765909, -11938.781969402073, 27737.419633557754, -11881.047413474014, -23440.050892835963, 3968.485172806403, -22665.29472652611, -24060.691781126476, -1408.0257902176131, 10164.00875616178, -7762.179703972305, -19352.45327382723, 0.166375, 0.886625, -0.3645625, 192.0, 0.0, 0.0, 0.0, 0.0, 0.0, 0.0, 0.0, 0.0, 0.0, 1.662065378342098E9, 0.0, 2022-09-01 16:49:38.342
2.0, -18351.229232696205, -20358.102960360404, -30389.655278880036, -14629.127339020652, -7617.720379557655, -12003.825545767015, 27852.08408261348, -11920.967629071192, -23388.172493955197, 3989.7416817834, -22613.61749334544, -24026.270094665302, -1366.675062975295, 10159.091372381614, -7721.0077906856295, -19314.142383830833, 0.166375, 0.886625, -0.3645625, 192.0, 0.0, 0.0, 0.0, 0.0, 0.0, 0.0, 0.0, 0.0, 0.0, 1.6620653783421023E9, 0.0, 2022-09-01 16:49:38.342
4.0, -18338.91342150133, -20323.72597738814, -30379.373476430595, -14598.907780517076, -7622.637763337822, -11964.08414412548, 27762.811215258982, -11900.1581549833, -23431.557229942948, 3960.8632279471435, -22661.316116013066, -24068.13491203009, -1413.2337466756996, 10140.338258783611, -7766.761811585643, -19369.619413568904, 0.16318749999999999, 0.8843125000000001, -0.36528125, 192.0, 2.5, 0.0, 13.5, 72.0, 122.0, 72.0, 0.0, 0.0, 0.0, 1.6620653783421068E9, 0.0, 2022-09-01 16:49:38.342
6.0, -18344.90368901535, -20341.696779930207, -30364.174290200986, -14610.642446356112, -7589.557181543968, -11986.927626958803, 27826.848963123437, -11900.314617194488, -23389.401839900238, 4008.2712779368494, -22610.979987499715, -24018.581094572677, -1363.6799292182839, 10172.63652952153, -7727.020409944107, -19317.025758865566, 0.16318749999999999, 0.8843125000000001, -0.36528125, 192.0, 0.0, 0.0, 0.0, 0.0, 0.0, 0.0, 0.0, 0.0, 0.0, 1.6620653783421204E9, 0.0, 2022-09-01 16:49:38.342
8.0, -18352.324468174516, -20334.857146126884, -30381.742761342855, -14596.739661304911, -7624.202385449695, -11957.959766144726, 27806.64298613584, -11899.822878816472, -23434.082977066395, 3961.9361116809982, -22668.513377727675, -24062.032885793793, -1393.7653772551273, 10135.800854659183, -7753.82015154602, -19360.522253575597, 0.16318749999999999, 0.8843125000000001, -0.36528125, 192.0, 0.0, 0.0, 0.0, 0.0, 0.0, 0.0, 0.0, 0.0, 0.0, 1.6620653783421247E9, 0.0, 2022-09-01 16:49:38.342
10.0, -18341.7297413027, -20337.94168686172, -30360.799176788234, -14601.277065429338, -7594.251047879583, -11985.541818802574, 27795.310651697, -11903.64502711833, -23398.566055126914, 4016.764940829866, -22618.71369108125, -24010.60152180213, -1361.869437917404, 10188.59567506262, -7727.6239070444, -19310.901380884814, 0.16318749999999999, 0.8843125000000001, -0.36528125, 192.0, 0.0, 0.0, 0.0, 0.0, 0.0, 0.0, 0.0, 0.0, 0.0, 1.662065378342129E9, 0.0, 2022-09-01 16:49:38.342
12.0, -18356.25837519865, -20344.468396242668, -30388.91767131301, -14604.987455008919, -7637.9487082897085, -11980.825600722505, 27834.98499810517, -11921.45936744921, -23431.289009009484, 3951.363736553638, -22666.233499793234, -24068.112560285637, -1403.1307581819008, 10127.19543304389, -7753.618985845922, -19366.51252108962, 0.16318749999999999, 0.8843125000000001, -0.36528125, 192.0, 0.0, 0.0, 0.0, 0.0, 0.0, 0.0, 0.0, 0.0, 0.0, 1.6620653783421333E9, 0.0, 2022-09-01 16:49:38.342
14.0, -18321.09908117045, -20318.696834885697, -30341.777842256768, -14576.35487036167, -7573.732146469611, -11958.295042311554, 27764.129968181845, -11881.650910574308, -23392.464028890616, 4027.9184613130647, -22608.76716479864, -24005.572379299687, -1370.7654322106162, 10202.341997902633, -7722.7735784975985, -19301.91597961378, 0.16259374999999998, 0.88215625, -0.365640625, 192.0, 2.5, 8.0, 13.5, 64.0, 122.0, 72.0, 0.0, 0.0, 0.0, 1.6620653783421378E9, 0.0, 2022-09-01 16:49:38.342
16.0, -18356.705410087754, -20343.239050297627, -30394.59501440466, -14615.157498736084, -7632.628993109345, -11962.899501669348, 27864.93633567528, -11917.458405191708, -23414.748718112554, 3960.460896546948, -22655.884642110424, -24062.61403114963, -1389.2503248751552, 10124.066188820147, -7730.373171612403, -19343.892555700848, 0.16259374999999998, 0.88215625, -0.365640625, 192.0, 0.0, 0.0, 0.0, 0.0, 0.0, 0.0, 0.0, 0.0, 0.0, 1.662065378342155E9, 0.0, 2022-09-01 16:49:38.342
18.0, -18327.178755662295, -20320.84260235341, -30344.951789969422, -14593.588065336713, -7581.555257028968, -11951.008373619125, 27728.389528797812, -11886.836515287938, -23397.403764415238, 4030.8912433256205, -22619.25013294818, -24010.869742735595, -1371.4359845442755, 10222.615030123596, -7723.041799431062, -19300.239598779634, 0.16259374999999998, 0.88215625, -0.365640625, 192.0, 0.0, 0.0, 0.0, 0.0, 0.0, 0.0, 0.0, 0.0, 0.0, 1.6620653783421595E9, 0.0, 2022-09-01 16:49:38.342
20.0, -18365.467293914237, -20354.772550436563, -30388.381229446084, -14630.51314717688, -7635.1323884883395, -11974.231836108189, 27890.730248776705, -11925.88501285136, -23414.994587301564, 3943.205349827451, -22655.05762756558, -24073.05229581026, -1385.5399352955742, 10110.09634853558, -7731.8707384909085, -19352.654439527327, 0.16259374999999998, 0.88215625, -0.365640625, 192.0, 0.0, 0.0, 0.0, 0.0, 0.0, 0.0, 0.0, 0.0, 0.0, 1.6620653783421638E9, 0.0, 2022-09-01 16:49:38.342
22.0, -18324.317732372016, -20316.863991840364, -30329.126754895064, -14587.441335611504, -7580.92940818422, -11948.326164284488, 27706.887150631806, -11883.349643152911, -23406.746793597555, 4027.516129912869, -22621.842935304994, -24018.089356194658, -1384.0647201615238, 10210.768605562283, -7729.412046600824, -19309.001482606112, 0.16259374999999998, 0.88215625, -0.365640625, 192.0, 0.0, 0.0, 0.0, 0.0, 0.0, 0.0, 0.0, 0.0, 0.0, 1.662065378342169E9, 0.0, 2022-09-01 16:49:38.342
24.0, -18368.060096271052, -20360.293431317026, -30387.129531756585, -14638.179795525051, -7636.875824555854, -11991.196810149768, 27913.819600799037, -11937.351457756933, -23416.648616391256, 3931.9624223664314, -22648.329752484533, -24073.432275466, -1385.0481969175573, 10092.214952971335, -7724.472311076202, -19351.425093582286, 0.16259374999999998, 0.88215625, -0.365640625, 192.0, 0.0, 0.0, 0.0, 0.0, 0.0, 0.0, 0.0, 0.0, 0.0, 1.6620653783421733E9, 0.0, 2022-09-01 16:49:38.342
26.0, -18309.833801964975, -20300.63662536581, -30334.62528403107, -14581.160495419563, -7567.004271388563, -11950.673097452296, 27695.778333637518, -11879.147515195313, -23405.897427308253, 4029.393676447115, -22617.394938158388, -24013.2166759034, -1383.3941678278647, 10223.173823734978, -7727.266279133115, -19311.706043685204, 0.164, 0.878, -0.36, 192.0, 2.5, 16.0, 13.5, 56.0, 122.0, 96.0, 0.0, 0.0, 0.0, 1.6620653783421779E9, 0.0, 2022-09-01 16:49:38.342
28.0, -18367.367192192938, -20365.79196045303, -30411.78350589079, -14649.646240430624, -7637.881653056343, -12010.486365614697, 27927.409461427866, -11944.168739815801, -23404.6233778743, 3943.3394602941826, -22642.4959471817, -24061.295278226768, -1378.096804391957, 10093.220781471824, -7726.372209354903, -19352.989715694155, 0.164, 0.878, -0.36, 192.0, 0.0, 0.0, 0.0, 0.0, 0.0, 0.0, 0.0, 0.0, 0.0, 1.6620653783421822E9, 0.0, 2022-09-01 16:49:38.342
30.0, -18308.62680776439, -20295.272206696536, -30349.355083627117, -14574.186751149506, -7573.352166813871, -11939.564280458007, 27684.781275365505, -11870.58679706893, -23410.501886666047, 4029.863063080676, -22633.62230463294, -24017.910542239017, -1389.809118486538, 10222.2126987234, -7747.427552631802, -19322.524288001572, 0.164, 0.878, -0.36, 192.0, 0.0, 0.0, 0.0, 0.0, 0.0, 0.0, 0.0, 0.0, 0.0, 1.6620653783421865E9, 0.0, 2022-09-01 16:49:38.342
32.0, -18374.944433563287, -20367.758913965095, -30418.041994338277, -14650.674420675567, -7637.7028391007, -12001.389205621386, 27937.91478132186, -11943.855815393426, -23391.25703469003, 3956.191713355984, -22635.410444189365, -24057.47312992491, -1368.1502781093452, 10112.130357281012, -7724.896994220852, -19338.77400622058, 0.164, 0.878, -0.36, 192.0, 0.0, 0.0, 0.0, 0.0, 0.0, 0.0, 0.0, 0.0, 0.0, 1.6620653783421915E9, 0.0, 2022-09-01 16:49:38.342
34.0, -18318.90861021383, -20300.033128265517, -30352.394920873037, -14576.399573850582, -7588.372539087837, -11932.277611765578, 27683.775446865016, -11876.062974460481, -23423.555305427948, 4011.914612283065, -22651.257831008177, -24041.066949494714, -1410.059798963046, 10217.585887621151, -7760.548026627068, -19328.782776449058, 0.164, 0.878, -0.36, 192.0, 0.0, 0.0, 0.0, 0.0, 0.0, 0.0, 0.0, 0.0, 0.0, 1.6620653783421957E9, 0.0, 2022-09-01 16:49:38.342
36.0, -18377.246663242182, -20371.961041922696, -30410.710622156934, -14655.167121311084, -7643.827217081454, -12002.730310288705, 27930.270484718145, -11949.98019337418, -23387.59134859936, 3963.5677890262355, -22631.722406354238, -24052.28752521128, -1374.2076008567335, 10117.941810839393, -7723.175909897794, -19322.323122301474, 0.166, 0.888, -0.362, 192.0, 2.5, 24.0, 13.5, 96.0, 122.0, 88.0, 0.0, 0.0, 0.0, 1.662065378342201E9, 0.0, 2022-09-01 16:49:38.342
38.0, -18313.231267122184, -20293.998157262584, -30348.215144659895, -14576.086649428207, -7589.154850143773, -11927.650800663328, 27684.401295709766, -11885.629521087352, -23425.723424640113, 4010.7970250602993, -22654.320019998555, -24040.843432050162, -1417.99466824468, 10209.516907872785, -7756.278843436104, -19327.218154337188, 0.166, 0.888, -0.362, 192.0, 0.0, 0.0, 0.0, 0.0, 0.0, 0.0, 0.0, 0.0, 0.0, 1.6620653783422065E9, 0.0, 2022-09-01 16:49:38.342
40.0, -18363.030953768608, -20359.913451661283, -30390.1246655136, -14647.522824707368, -7628.27040294056, -12002.484441099698, 27909.595121096983, -11950.471931752198, -23381.176397940686, 3987.841783504699, -22613.57278985653, -24032.595638346153, -1368.5749612539962, 10125.519052209742, -7709.720159735699, -19311.974264618668, 0.166, 0.888, -0.362, 192.0, 0.0, 0.0, 0.0, 0.0, 0.0, 0.0, 0.0, 0.0, 0.0, 1.6620653783422108E9, 0.0, 2022-09-01 16:49:38.342
42.0, -18325.725892272698, -20304.25760796757, -30348.058682448707, -14591.46464961346, -7601.291847383005, -11943.40878050432, 27700.38279299531, -11895.866620047882, -23427.332750240894, 4001.3198854112493, -22647.659200150872, -24045.358484430133, -1415.4018658878645, 10194.11655594308, -7752.367288156425, -19337.052921897524, 0.166, 0.888, -0.362, 192.0, 0.0, 0.0, 0.0, 0.0, 0.0, 0.0, 0.0, 0.0, 0.0, 1.6620653783422153E9, 0.0, 2022-09-01 16:49:38.342
44.0, -18375.54793066358, -20372.586890767445, -30386.63779337857, -14663.146694081628, -7626.258745939583, -12018.197717451778, 27899.626243069917, -11953.064734109013, -23384.931491009178, 3976.107117665663, -22615.651502090874, -24039.61408610512, -1365.0433856300576, 10127.463653977353, -7709.451938802235, -19316.422261765274, 0.166, 0.888, -0.362, 192.0, 0.0, 0.0, 0.0, 0.0, 0.0, 0.0, 0.0, 0.0, 0.0, 1.6620653783422196E9, 0.0, 2022-09-01 16:49:38.342
46.0, -18345.06015122654, -20322.295465743002, -30363.280220422774, -14608.854306799687, -7615.0605219674735, -11951.969498630704, 27723.270979317545, -11909.300018465521, -23452.009076119553, 3957.2422453453837, -22682.885549412436, -24082.663545926043, -1431.4951218956855, 10135.86790989255, -7767.454715663757, -19364.769085022104, 0.164, 0.884, -0.36, 192.0, 2.5, 16.0, 13.5, 80.0, 122.0, 96.0, 0.0, 0.0, 0.0, 1.662065378342224E9, 0.0, 2022-09-01 16:49:38.342
48.0, -18365.5343491476, -20359.287602816537, -30378.792331074757, -14643.633621172146, -7612.311257399471, -11995.108365429445, 27883.108303917445, -11933.439902477254, -23386.16083695422, 3987.9311904825204, -22614.645673590385, -24030.360463900623, -1368.0161676426135, 10157.482046780831, -7704.646313744344, -19297.892665611824, 0.164, 0.884, -0.36, 192.0, 0.0, 0.0, 0.0, 0.0, 0.0, 0.0, 0.0, 0.0, 0.0, 1.6620653783422282E9, 0.0, 2022-09-01 16:49:38.342
50.0, -18361.7345525902, -20339.103977573395, -30390.951680058442, -14621.28187671684, -7636.026458266552, -11955.791646932561, 27762.63240130334, -11918.039550547546, -23454.35600928736, 3955.744678466878, -22685.992441891725, -24082.57413894822, -1431.0480870065794, 10142.372267529043, -7766.471238907724, -19351.760369749114, 0.164, 0.884, -0.36, 192.0, 0.0, 0.0, 0.0, 0.0, 0.0, 0.0, 0.0, 0.0, 0.0, 1.6620653783422327E9, 0.0, 2022-09-01 16:49:38.342
52.0, -18366.607232881455, -20363.199158096213, -30393.656241137534, -14645.891147362132, -7621.497824370602, -11997.343539874977, 27852.978152391694, -11939.65368743583, -23407.260883720028, 3992.1780219290285, -22629.464880164254, -24039.301161682746, -1386.1434323958674, 10169.015546919769, -7731.24488964616, -19307.43686049424, 0.164, 0.884, -0.36, 192.0, 0.0, 0.0, 0.0, 0.0, 0.0, 0.0, 0.0, 0.0, 0.0, 1.662065378342237E9, 0.0, 2022-09-01 16:49:38.342
54.0, -18372.10576201746, -20350.235146312138, -30410.107125056642, -14632.681266389045, -7649.9292433177525, -11974.634167508384, 27789.4097911608, -11938.781969402073, -23460.703904712667, 3937.237434057884, -22692.854427439503, -24095.940482132493, -1444.2132644907551, 10124.58027894262, -7781.871590837431, -19373.01687872611, 0.164, 0.884, -0.36, 192.0, 0.0, 0.0, 0.0, 0.0, 0.0, 0.0, 0.0, 0.0, 0.0, 1.6620653783422413E9, 0.0, 2022-09-01 16:49:38.342
56.0, -18353.15148271936, -20343.03788459753, -30370.030447248275, -14628.501490175902, -7603.88464973982, -11982.032594923092, 27823.27268401059, -11926.376751229376, -23395.928549281187, 4003.3762459011373, -22618.80309805907, -24023.18555393047, -1381.0695864045128, 10179.654977280496, -7725.724008765699, -19299.09965981241, 0.158, 0.888, -0.36, 192.0, 2.0, 120.0, 13.5, 96.0, 122.0, 96.0, 0.0, 0.0, 0.0, 1.6620653783422456E9, 0.0, 2022-09-01 16:49:38.342
58.0, -18372.955128306763, -20346.211832310182, -30395.64554639406, -14631.161347766085, -7639.245109468116, -11962.184245846778, 27828.54769570204, -11935.764483900606, -23442.286067281493, 3942.199521326962, -22679.711601699782, -24083.177636048513, -1427.9188427828365, 10118.254735261768, -7757.530541125601, -19358.711762274714, 0.158, 0.888, -0.36, 192.0, 0.0, 0.0, 0.0, 0.0, 0.0, 0.0, 0.0, 0.0, 0.0, 1.66206537834225E9, 0.0, 2022-09-01 16:49:38.342
60.0, -18359.54408163358, -20344.26723054257, -30365.537746612757, -14626.84746108621, -7611.484242854624, -11985.608874035941, 27785.11825622538, -11926.35439948492, -23408.87020932081, 4010.2158797044613, -22626.961484785257, -24022.69381555245, -1401.3649703699316, 10205.560649104196, -7730.574337312501, -19301.53599995804, 0.158, 0.888, -0.36, 192.0, 0.0, 0.0, 0.0, 0.0, 0.0, 0.0, 0.0, 0.0, 0.0, 1.662065378342255E9, 0.0, 2022-09-01 16:49:38.342
62.0, -18384.15335227887, -20359.68993421673, -30405.815590121223, -14652.61902244318, -7660.99335682313, -11987.642882781372, 27858.32021931651, -11950.807207919028, -23444.565945215934, 3930.3754485101044, -22679.68924995533, -24088.407944251056, -1431.6292323624173, 10102.183830998401, -7756.9940992586735, -19362.891538487856, 0.158, 0.888, -0.36, 192.0, 0.0, 0.0, 0.0, 0.0, 0.0, 0.0, 0.0, 0.0, 0.0, 1.6620653783422596E9, 0.0, 2022-09-01 16:49:38.342
64.0, -18344.702523315256, -20336.44411998321, -30355.904144752523, -14629.03793204283, -7600.688350282711, -11968.1745133608, 27764.01820945957, -11917.234887747156, -23406.456220919637, 4016.3626094296706, -22624.167516728347, -24023.721995797398, -1401.677894792306, 10207.460547382898, -7728.607383800434, -19304.844058137423, 0.158, 0.888, -0.36, 192.0, 0.0, 0.0, 0.0, 0.0, 0.0, 0.0, 0.0, 0.0, 0.0, 1.662065378342264E9, 0.0, 2022-09-01 16:49:38.342
66.0, -18377.693698131287, -20361.008687139594, -30407.49197095537, -14662.498493492425, -7656.27713874306, -11988.447545581765, 27893.121885433422, -11954.294080054055, -23426.21516301813, 3929.526082220803, -22667.261680038177, -24087.91620587304, -1420.2298426902107, 10094.964217539336, -7744.2536049191485, -19359.82934949748, 0.16, 0.882, -0.362, 192.0, 2.5, 0.0, 13.5, 72.0, 122.0, 88.0, 0.0, 0.0, 0.0, 1.6620653783422692E9, 0.0, 2022-09-01 16:49:38.342
68.0, -18339.315752901526, -20325.134137288827, -30359.34631339864, -14622.198298239506, -7603.50467008408, -11968.666251738818, 27734.648017245298, -11916.162004013302, -23408.557284898438, 4011.8252053052433, -22627.788499330105, -24027.767661543807, -1409.5904123294847, 10219.038751010747, -7740.9678984842185, -19308.82266865047, 0.16, 0.882, -0.362, 192.0, 0.0, 0.0, 0.0, 0.0, 0.0, 0.0, 0.0, 0.0, 0.0, 1.6620653783422744E9, 0.0, 2022-09-01 16:49:38.342
70.0, -18383.572206923032, -20365.74725696412, -30416.298558270762, -14669.360479040204, -7665.843685369931, -12009.636999325396, 27918.17819096782, -11968.46508603872, -23418.794383858967, 3931.358925266138, -22657.985706089225, -24081.47890346991, -1413.7478367981716, 10083.587179611586, -7741.079657206495, -19355.671925028793, 0.16, 0.882, -0.362, 192.0, 0.0, 0.0, 0.0, 0.0, 0.0, 0.0, 0.0, 0.0, 0.0, 1.66206537834228E9, 0.0, 2022-09-01 16:49:38.342
72.0, -18336.00769472214, -20317.243971496104, -30351.72436853938, -14614.531649891336, -7599.213135148661, -11970.32028082851, 27713.324453034933, -11916.854908091416, -23420.6272269043, 4015.781464073833, -22634.158746499867, -24028.88524876657, -1421.0121537461464, 10207.393492149531, -7744.9018055083525, -19317.606904221404, 0.16, 0.882, -0.362, 192.0, 0.0, 0.0, 0.0, 0.0, 0.0, 0.0, 0.0, 0.0, 0.0, 1.6620653783422844E9, 0.0, 2022-09-01 16:49:38.342
74.0, -18381.269977244137, -20367.758913965095, -30400.518226685315, -14664.934833638054, -7651.6279758963565, -12005.412519623342, 27939.345292967, -11961.17841734629, -23407.596159886856, 3938.6679457030236, -22642.205374503777, -24074.34869698867, -1398.9062784798477, 10091.075014004115, -7723.690000020266, -19346.619468524394, 0.16, 0.882, -0.362, 192.0, 0.0, 0.0, 0.0, 0.0, 0.0, 0.0, 0.0, 0.0, 0.0, 1.6620653783422887E9, 0.0, 2022-09-01 16:49:38.342
76.0, -18325.748244017155, -20306.44807892419, -30338.134507910552, -14596.896123516099, -7586.07030940894, -11943.65464969333, 27703.95907210816, -11889.518724622576, -23417.92266582521, 4013.4345309060254, -22629.509583653162, -24034.204963946937, -1412.674953064317, 10213.78609106375, -7735.849349003953, -19310.744918673627, 0.158, 0.892, -0.354, 192.0, 2.0, 120.0, 13.5, 112.0, 122.0, 120.0, 0.0, 0.0, 0.0, 1.662065378342293E9, 0.0, 2022-09-01 16:49:38.342
78.0, -18395.843314628997, -20380.767629238086, -30418.176104805007, -14677.742383210943, -7652.834970096943, -12008.98879873619, 27952.018732073157, -11955.925757399293, -23410.278369221494, 3937.550358480258, -22640.81956634755, -24069.453664952955, -1392.51367956563, 10099.836897830593, -7719.979610440685, -19338.081102142467, 0.158, 0.892, -0.354, 192.0, 0.0, 0.0, 0.0, 0.0, 0.0, 0.0, 0.0, 0.0, 0.0, 1.6620653783422985E9, 0.0, 2022-09-01 16:49:38.342
80.0, -18342.020313980618, -20316.72988137363, -30358.72046455389, -14602.573466607746, -7591.859411222865, -11935.049228078036, 27697.454714471667, -11872.173770925257, -23445.34825627187, 3995.1731556860395, -22662.567813702564, -24051.48286241089, -1428.1870637163001, 10206.812346793693, -7758.558721370545, -19336.29296258604, 0.158, 0.892, -0.354, 192.0, 0.0, 0.0, 0.0, 0.0, 0.0, 0.0, 0.0, 0.0, 0.0, 1.6620653783423028E9, 0.0, 2022-09-01 16:49:38.342
82.0, -18393.742250650197, -20381.728754249663, -30399.8253226072, -14664.107819093208, -7620.894327270309, -11991.3309206165, 27957.606668186985, -11917.346646469432, -23401.15885748373, 3948.8826929190986, -22639.232592491222, -24056.84728108016, -1376.934513680281, 10128.000095844282, -7714.592840026956, -19334.169546862788, 0.158, 0.892, -0.354, 192.0, 0.0, 0.0, 0.0, 0.0, 0.0, 0.0, 0.0, 0.0, 0.0, 1.6620653783423073E9, 0.0, 2022-09-01 16:49:38.342
84.0, -18366.428418925814, -20342.300277030503, -30359.703941309923, -14618.554963893292, -7599.213135148661, -11943.02880084858, 27705.30017677548, -11864.440067343721, -23441.704921925655, 3986.143050926096, -22659.550328201098, -24053.785092089784, -1418.2628891781437, 10209.405149150509, -7756.949395769763, -19347.53589004706, 0.158, 0.892, -0.354, 192.0, 0.0, 0.0, 0.0, 0.0, 0.0, 0.0, 0.0, 0.0, 0.0, 1.6620653783423116E9, 0.0, 2022-09-01 16:49:38.342
86.0, -18421.83839343052, -20416.150440710837, -30411.02354657931, -14683.464429791502, -7633.232490209639, -12007.088900457491, 27953.71746465176, -11915.603210401918, -23414.704014623647, 3927.357963008638, -22647.502737939685, -24075.220415022424, -1375.4592985462307, 10113.739682881795, -7733.256546647138, -19357.616526796406, 0.164, 0.886, -0.356, 192.0, 2.5, 16.0, 13.5, 88.0, 122.0, 112.0, 0.0, 0.0, 0.0, 1.662065378342316E9, 0.0, 2022-09-01 16:49:38.342
88.0, -18388.98132908122, -20369.07766688796, -30379.462883408414, -14619.896068560609, -7604.689312540211, -11947.83442590647, 27718.934740893215, -11859.433276585733, -23458.602840733867, 3952.928358665509, -22679.86806391097, -24080.026040080316, -1412.965525742236, 10185.377023861054, -7772.863837821942, -19371.87693975889, 0.164, 0.886, -0.356, 192.0, 0.0, 0.0, 0.0, 0.0, 0.0, 0.0, 0.0, 0.0, 0.0, 1.6620653783423204E9, 0.0, 2022-09-01 16:49:38.342
90.0, -18449.50985306619, -20445.878260836394, -30423.272302540816, -14674.993118642942, -7630.282059941538, -12017.080130229013, 27927.789441083605, -11911.69165512224, -23426.930418840697, 3925.167492052018, -22654.14120604291, -24079.377839491113, -1370.7877839550715, 10129.408255744966, -7741.347878139959, -19364.21029141072, 0.164, 0.886, -0.356, 192.0, 0.0, 0.0, 0.0, 0.0, 0.0, 0.0, 0.0, 0.0, 0.0, 1.6620653783423247E9, 0.0, 2022-09-01 16:49:38.342
92.0, -18415.132870093927, -20397.643196301844, -30380.24519446435, -14607.692016088013, -7600.755405516077, -11949.242585807157, 27728.322473564443, -11850.53728229252, -23483.12270440134, 3924.876919374099, -22702.085697899547, -24102.86952291364, -1420.3416014124873, 10161.997099160802, -7793.628608420922, -19409.40551869935, 0.164, 0.886, -0.356, 192.0, 0.0, 0.0, 0.0, 0.0, 0.0, 0.0, 0.0, 0.0, 0.0, 1.6620653783423293E9, 0.0, 2022-09-01 16:49:38.342
94.0, -18462.65267880591, -20468.140598313883, -30416.00798559284, -14670.209845329506, -7614.479376611635, -12016.81190929555, 27906.75644955116, -11900.180506727756, -23418.995549559066, 3936.2092538129396, -22635.81277558956, -24064.580984661698, -1351.386469767865, 10149.368363543554, -7730.417875101313, -19366.959555978723, 0.164, 0.886, -0.356, 192.0, 0.0, 0.0, 0.0, 0.0, 0.0, 0.0, 0.0, 0.0, 0.0, 1.6620653783423336E9, 0.0, 2022-09-01 16:49:38.342
96.0, -18435.629419759443, -20425.024083259595, -30396.718430127912, -14619.56079239378, -7615.0605219674735, -11950.717800941205, 27746.87442146235, -11857.689840518218, -23498.456001097682, 3886.811898566711, -22712.523962560175, -24129.289284859813, -1430.578700373018, 10130.81641564565, -7801.943457358296, -19435.0876730785, 0.165, 0.886, -0.36, 192.0, 2.5, 24.0, 13.5, 88.0, 122.0, 80.0, 0.0, 0.0, 0.0, 1.662065378342338E9, 0.0, 2022-09-01 16:49:38.342
98.0, -18457.7576467702, -20472.275671038115, -30407.760191888836, -14653.781313154856, -7601.515364827557, -12000.85276375446, 27871.775969478604, -11885.07072747597, -23432.071320065417, 3926.977983352898, -22648.53091818463, -24075.823912122716, -1358.382565782376, 10169.619044020063, -7737.257508904638, -19369.239433913164, 0.165, 0.886, -0.36, 192.0, 0.0, 0.0, 0.0, 0.0, 0.0, 0.0, 0.0, 0.0, 0.0, 1.6620653783423426E9, 0.0, 2022-09-01 16:49:38.342
100.0, -18461.26687064968, -20457.18824353078, -30425.86510489763, -14639.051513558808, -7632.427827409248, -11978.501019299152, 27770.63432581834, -11882.813201285982, -23495.662033040768, 3878.2735321847836, -22722.917523731892, -24137.20180239699, -1419.4922351231855, 10128.469482477842, -7794.075643310028, -19428.650370675372, 0.165, 0.886, -0.36, 192.0, 0.0, 0.0, 0.0, 0.0, 0.0, 0.0, 0.0, 0.0, 0.0, 1.662065378342347E9, 0.0, 2022-09-01 16:49:38.342
102.0, -18454.181367657347, -20469.079371581003, -30415.44919198146, -14648.841577630232, -7606.008065463075, -12008.430005124808, 27833.040396337557, -11894.346701424922, -23452.947849386677, 3921.099474561152, -22671.508511484684, -24090.263139040846, -1379.8849439483815, 10154.665726979461, -7760.168046971327, -19375.184997938275, 0.165, 0.886, -0.36, 192.0, 0.0, 0.0, 0.0, 0.0, 0.0, 0.0, 0.0, 0.0, 0.0, 1.6620653783423524E9, 0.0, 2022-09-01 16:49:38.342
104.0, -18424.87823067644, -20423.682978592275, -30417.483200726892, -14618.689074360023, -7619.12853945834, -11963.212426091723, 27811.649776893828, -11876.01827097157, -23485.156713146775, 3876.2618751838063, -22714.423860838877, -24130.898610460594, -1416.251232177166, 10112.66679914794, -7792.488669453701, -19416.736890880693, 0.165, 0.886, -0.36, 192.0, 0.0, 0.0, 0.0, 0.0, 0.0, 0.0, 0.0, 0.0, 0.0, 1.6620653783423567E9, 0.0, 2022-09-01 16:49:38.342
106.0, -18409.92491363584, -20423.258295447624, -30399.40063946255, -14624.545231407314, -7586.4726408091365, -11987.285254870088, 27806.03948903555, -11875.951215738203, -23426.25986650704, 3955.521161022325, -22638.070301779546, -24059.350676459155, -1367.5914844979627, 10200.3079891572, -7755.585939357989, -19357.325954118485, 0.1685, 0.884, -0.363, 192.0, 2.5, 48.0, 13.5, 72.0, 122.0, 72.0, 0.0, 0.0, 0.0, 1.6620653788227649E9, 0.0, 2022-09-01 16:49:38.822
108.0, -18421.704282963787, -20423.392405914357, -30432.302407300762, -14635.22936525695, -7631.489054142125, -11985.541818802574, 27838.628332451386, -11897.028910759558, -23469.01875365004, 3887.1248229890853, -22698.59882576452, -24122.069671400746, -1413.0549327200572, 10106.408310700454, -7787.146602528883, -19425.834050874004, 0.1685, 0.884, -0.363, 192.0, 0.0, 0.0, 0.0, 0.0, 0.0, 0.0, 0.0, 0.0, 0.0, 1.6620653788228674E9, 0.0, 2022-09-01 16:49:38.822
110.0, -18392.06586981605, -20400.258350403114, -30387.040124778763, -14609.971894022454, -7584.17041113024, -11987.79934499256, 27771.86367176338, -11875.928863993748, -23426.997474074065, 3973.6931292644895, -22641.825394848038, -24049.6276676211, -1370.743080466161, 10196.083509455146, -7757.1058579809505, -19369.30648914653, 0.1685, 0.884, -0.363, 192.0, 0.0, 0.0, 0.0, 0.0, 0.0, 0.0, 0.0, 0.0, 0.0, 1.6620653788229113E9, 0.0, 2022-09-01 16:49:38.822
112.0, -18428.40980630038, -20424.24177220366, -30437.488012014393, -14638.380961225148, -7642.262594969582, -12003.42321436682, 27872.98296367919, -11912.40691094481, -23473.667916496746, 3885.8284218106774, -22706.086660157045, -24121.332063833725, -1408.1822524288002, 10084.771822067718, -7784.531448427612, -19435.80292890107, 0.1685, 0.884, -0.363, 192.0, 0.0, 0.0, 0.0, 0.0, 0.0, 0.0, 0.0, 0.0, 0.0, 1.662065378822916E9, 0.0, 2022-09-01 16:49:38.822
114.0, -18365.511997403144, -20374.196216368226, -30376.266583951307, -14589.609454823669, -7581.5999605178795, -11972.980138418692, 27742.2476103601, -11866.16115166678, -23436.809889889944, 3980.1751351565285, -22648.15093852889, -24047.3254379422, -1383.5059265501413, 10212.757910818806, -7765.018375518129, -19366.55722457853, 0.1685, 0.884, -0.363, 192.0, 0.0, 0.0, 0.0, 0.0, 0.0, 0.0, 0.0, 0.0, 0.0, 1.6620653788229203E9, 0.0, 2022-09-01 16:49:38.822
116.0, -18383.25928250066, -20385.081515917962, -30405.97205233241, -14610.150707978095, -7624.828234294443, -11976.623472764906, 27904.588330338996, -11890.144573467323, -23435.982875345097, 3912.9634395794205, -22664.04302883661, -24086.2845285278, -1386.2998946070547, 10101.222705986824, -7765.197189473772, -19399.704861605747, 0.16825, 0.886, -0.3665, 192.0, 2.5, 32.0, 13.5, 96.0, 122.0, 56.0, 0.0, 0.0, 0.0, 1.6620653788229258E9, 0.0, 2022-09-01 16:49:38.822
118.0, -18356.973631021217, -20358.974678394163, -30360.30743841022, -14578.388879107104, -7573.352166813871, -11957.624489977896, 27721.840467672406, -11854.62765152784, -23420.381357715294, 4010.975839015942, -22621.977045771724, -24022.13502194107, -1373.358234567432, 10227.487710414853, -7750.579148600001, -19347.290020858054, 0.16825, 0.886, -0.3665, 192.0, 0.0, 0.0, 0.0, 0.0, 0.0, 0.0, 0.0, 0.0, 0.0, 1.66206537882293E9, 0.0, 2022-09-01 16:49:38.822
120.0, -18389.78599188161, -20392.56935031049, -30404.608595920636, -14620.23134472744, -7633.7018768432, -11992.649673539361, 27926.537743394107, -11899.889934049837, -23434.753529400055, 3919.780721638289, -22656.62224967745, -24080.741295902884, -1380.8013654710492, 10096.260618717744, -7753.283709679093, -19400.375413939408, 0.16825, 0.886, -0.3665, 192.0, 0.0, 0.0, 0.0, 0.0, 0.0, 0.0, 0.0, 0.0, 0.0, 1.6620653788229349E9, 0.0, 2022-09-01 16:49:38.822
122.0, -18340.76861629112, -20344.22252705366, -30352.8643075066, -14571.191617392495, -7580.057690150463, -11948.214405562212, 27701.1874557957, -11851.051372414991, -23433.367721243827, 3999.3082284102716, -22634.158746499867, -24029.71226331142, -1387.5292405520966, 10214.657809097507, -7759.698660337765, -19370.312317647018, 0.16825, 0.886, -0.3665, 192.0, 0.0, 0.0, 0.0, 0.0, 0.0, 0.0, 0.0, 0.0, 0.0, 1.6620653788229392E9, 0.0, 2022-09-01 16:49:38.822
124.0, -18390.143619792892, -20401.398289370336, -30419.427802494505, -14636.570469924269, -7637.434618167236, -11995.488345085187, 27936.417214443354, -11910.507012666108, -23427.511564196535, 3914.5057099468363, -22651.72721764174, -24079.04256332428, -1379.6614265038284, 10100.663912375441, -7753.261357934637, -19401.336538950985, 0.16825, 0.886, -0.3665, 192.0, 0.0, 0.0, 0.0, 0.0, 0.0, 0.0, 0.0, 0.0, 0.0, 1.6620653788229563E9, 0.0, 2022-09-01 16:49:38.822
126.0, -18340.500395357656, -20342.143814819316, -30374.210223461418, -14579.975852963431, -7595.189821146706, -11946.31450728351, 27685.34006897689, -11856.549901550998, -23445.392959760782, 3991.976856228931, -22652.82245312005, -24045.403187919044, -1408.4728251067193, 10214.523698630775, -7782.989178060196, -19378.98479449568, 0.16612500000000002, 0.888, -0.36924999999999997, 192.0, 2.5, 16.0, 13.5, 104.0, 122.0, 48.0, 0.0, 0.0, 0.0, 1.6620653788229609E9, 0.0, 2022-09-01 16:49:38.822
128.0, -18370.652898627868, -20383.002803683616, -30412.141133802073, -14616.923286548054, -7629.410341907781, -11989.676891526806, 27944.039159302614, -11902.147460239823, -23410.054851776942, 3935.739867179378, -22636.393920945397, -24060.825891593206, -1369.357272309932, 10111.236287502801, -7750.757962555643, -19376.391992138862, 0.16612500000000002, 0.888, -0.36924999999999997, 192.0, 0.0, 0.0, 0.0, 0.0, 0.0, 0.0, 0.0, 0.0, 0.0, 1.6620653788229651E9, 0.0, 2022-09-01 16:49:38.822
130.0, -18304.782307718076, -20305.106974256872, -30334.848801475622, -14529.885593639088, -7563.852675420365, -11915.200879001723, 27697.67823191622, -11828.476110515132, -23422.25890424954, 4007.377208158637, -22628.615513874953, -24019.005777717328, -1390.971409198214, 10226.347771447632, -7764.236064462193, -19345.21130862371, 0.16612500000000002, 0.888, -0.36924999999999997, 192.0, 0.0, 0.0, 0.0, 0.0, 0.0, 0.0, 0.0, 0.0, 0.0, 1.6620653788229709E9, 0.0, 2022-09-01 16:49:38.822
132.0, -18373.469218429236, -20387.22728338567, -30399.937081329477, -14615.001036524896, -7621.967211004164, -11987.70993801474, 27943.212144757767, -11903.220343973679, -23381.310508407416, 3960.8632279471435, -22603.268635662633, -24029.53344935578, -1340.5235219625858, 10143.355744285076, -7719.107892406928, -19337.946991675733, 0.16612500000000002, 0.888, -0.36924999999999997, 192.0, 0.0, 0.0, 0.0, 0.0, 0.0, 0.0, 0.0, 0.0, 0.0, 1.6620653788229752E9, 0.0, 2022-09-01 16:49:38.822
134.0, -18329.7268545302, -20325.894096600307, -30358.653409320523, -14553.667849739535, -7589.668940266245, -11913.92682956777, 27696.270072015534, -11845.86576770136, -23441.168480058728, 3984.913704981054, -22651.660162408374, -24046.61018211963, -1405.477691349708, 10209.53925961724, -7775.926026812319, -19358.44354134125, 0.16612500000000002, 0.888, -0.36924999999999997, 192.0, 0.0, 0.0, 0.0, 0.0, 0.0, 0.0, 0.0, 0.0, 0.0, 1.6620653788229845E9, 0.0, 2022-09-01 16:49:38.822
