%OpenBCI Raw EEG Data
%Number of channels = 16
%Sample Rate = 125 Hz
%Board = OpenBCI_GUI$BoardCytonSerialDaisy
Sample Index, EXG Channel 0, EXG Channel 1, EXG Channel 2, EXG Channel 3, EXG Channel 4, EXG Channel 5, EXG Channel 6, EXG Channel 7, EXG Channel 8, EXG Channel 9, EXG Channel 10, EXG Channel 11, EXG Channel 12, EXG Channel 13, EXG Channel 14, EXG Channel 15, Accel Channel 0, Accel Channel 1, Accel Channel 2, Other, Other, Other, Other, Other, Other, Other, Analog Channel 0, Analog Channel 1, Analog Channel 2, Timestamp, Other, Timestamp (Formatted)
166.0, -19195.141696350776, -22359.455807144142, -16548.672801097968, -7841.729562488743, -32049.92050527579, 7034.809235907703, 6741.196720742789, -11338.771741243809, 3656.924206843878, -22210.839058260808, -9328.254679233394, -32834.98082577954, -8179.419717719522, -11624.449387127088, -27326.281646046835, 450.4323542633479, 0.0, 0.0, 0.0, 192.0, 0.0, 0.0, 0.0, 0.0, 0.0, 0.0, 0.0, 0.0, 0.0, 1.658334626410977E9, 0.0, 2022-07-20 12:30:26.410
168.0, -18906.468916710488, -22061.909384955095, -16534.479443368848, -7559.337623040394, -31606.573654004773, 6871.797963595148, 5861.946149104375, -11390.136050002106, 2963.7519077958955, -22903.58667416414, -9966.911073554882, -33478.889880048024, -8852.430743268818, -12299.874401077557, -28014.804782248117, -64.50713449801619, -0.11, 0.9500000000000001, -0.012, 192.0, 126.0, 72.0, 14.5, 88.0, 127.5, 80.0, 0.0, 0.0, 0.0, 1.6583346264109836E9, 0.0, 2022-07-20 12:30:26.410
170.0, -19106.405270863208, -22269.735904900543, -16477.907178152465, -7761.889131294386, -31969.878908381335, 7104.658437330537, 6676.980158922692, -11289.173220297484, 3673.620959951992, -22163.408656526644, -9376.601502490223, -32874.65517218771, -8182.347796243167, -11622.504785359477, -27286.249671727383, 383.86885927544347, -0.11, 0.9500000000000001, -0.012, 192.0, 0.0, 0.0, 0.0, 0.0, 0.0, 0.0, 0.0, 0.0, 0.0, 1.6583346264109895E9, 0.0, 2022-07-20 12:30:26.410
172.0, -18991.494952618476, -22148.90237437515, -16608.508421004823, -7643.581347892446, -31689.140998022678, 6810.263611109688, 5944.021754744263, -11430.88328014413, 2947.077506432236, -22945.49619501784, -9921.760549755163, -33456.64989431499, -8850.441438012294, -12275.66746183246, -28049.382930920474, -18.41783743117302, -0.11, 0.9500000000000001, -0.012, 192.0, 0.0, 0.0, 0.0, 0.0, 0.0, 0.0, 0.0, 0.0, 0.0, 1.6583346264109955E9, 0.0, 2022-07-20 12:30:26.410
174.0, -19009.130478993713, -22165.755589694454, -16384.43218284037, -7655.763048620588, -31852.442843013152, 7184.3871098026175, 6630.443826966743, -11209.6457135255, 3679.2312478102745, -22148.544746463867, -9415.202965164539, -32912.85430346183, -8185.789964889284, -11621.118977203249, -27233.94658970196, 324.9496608912541, -0.11, 0.9500000000000001, -0.012, 192.0, 0.0, 0.0, 0.0, 0.0, 0.0, 0.0, 0.0, 0.0, 0.0, 1.6583346264110012E9, 0.0, 2022-07-20 12:30:26.411
176.0, -19075.761029214984, -22240.87980280874, -16673.931977025506, -7726.573375055001, -31796.29526094142, 6765.247197776699, 6037.966136689918, -11496.03861523135, 2951.4584483454764, -22954.660410244516, -9851.553720421043, -33410.04650712568, -8823.596992921472, -12281.702432835393, -28046.678369841382, 46.13400055575378, -0.11, 0.9500000000000001, -0.012, 192.0, 0.0, 0.0, 0.0, 0.0, 0.0, 0.0, 0.0, 0.0, 0.0, 1.6583346264110067E9, 0.0, 2022-07-20 12:30:26.411
178.0, -18883.178398988057, -22047.26899233687, -16295.852219563989, -7549.189931057684, -31740.50530678097, 7265.926273575577, 6562.114544166869, -11114.695503079356, 3695.6150764960144, -22095.437001638056, -9447.635346369188, -32944.23615267708, -8198.91043888455, -11637.927489033638, -27202.743554442353, 273.6300556218691, -0.116, 0.9520000000000001, -0.012, 192.0, 126.0, 48.0, 14.5, 96.0, 127.5, 80.0, 0.0, 0.0, 0.0, 1.6583346264110126E9, 0.0, 2022-07-20 12:30:26.411
180.0, -19154.908556331226, -22309.432603053167, -16731.867698653663, -7814.080454597528, -31904.947090738668, 6743.364839954954, 6124.243870287403, -11530.70617088153, 2992.630361632152, -22934.700302445926, -9767.242940335625, -33348.48980289576, -8772.746774285648, -12218.581106493606, -28039.101128471033, 127.80727479544578, -0.116, 0.9520000000000001, -0.012, 192.0, 0.0, 0.0, 0.0, 0.0, 0.0, 0.0, 0.0, 0.0, 0.0, 1.6583346264110184E9, 0.0, 2022-07-20 12:30:26.411
182.0, -18768.80452261025, -21928.67063625701, -16219.789233182579, -7449.769371720478, -31618.82240996628, 7317.871727689711, 6466.694947087163, -11072.964796181297, 3660.545189445638, -22107.126963988183, -9509.661437232666, -33009.97263312014, -8233.399180579088, -11652.366715951768, -27220.20026686195, 204.0937786214088, -0.116, 0.9520000000000001, -0.012, 192.0, 0.0, 0.0, 0.0, 0.0, 0.0, 0.0, 0.0, 0.0, 0.0, 1.658334626411024E9, 0.0, 2022-07-20 12:30:26.411
184.0, -19236.447720104185, -22386.277900490513, -16782.42734461157, -7892.199801468826, -31990.934251658233, 6723.404732156365, 6280.884895430195, -11540.607993675232, 3049.1579233596235, -22885.548816388706, -9671.62217755582, -33268.82818565705, -8706.831479886947, -12165.071030267602, -27978.840825419527, 214.66615374876903, -0.116, 0.9520000000000001, -0.012, 192.0, 0.0, 0.0, 0.0, 0.0, 0.0, 0.0, 0.0, 0.0, 0.0, 1.6583346264110298E9, 0.0, 2022-07-20 12:30:26.411
186.0, -18710.488821326355, -21867.42685644947, -16191.760145635624, -7384.703443611079, -31534.556333369776, 7325.292506848873, 6340.988736270516, -11040.621821954468, 3588.9749036997446, -22170.069476374327, -9601.750624388531, -33092.83054981596, -8317.084111819759, -11732.788292501962, -27256.655962068555, 127.42729513970556, -0.116, 0.9520000000000001, -0.012, 192.0, 0.0, 0.0, 0.0, 0.0, 0.0, 0.0, 0.0, 0.0, 0.0, 1.6583346264110355E9, 0.0, 2022-07-20 12:30:26.411
188.0, -19301.53599995804, -22451.276773366546, -16804.42146115559, -7945.66517420592, -32084.25278475914, 6715.201641941267, 6400.332617799356, -11612.893535243695, 3117.911889304148, -22823.656835991962, -9594.821583607387, -33190.66413529684, -8640.960888977157, -12082.906017649892, -27925.710728849263, 288.4716139401929, -0.117, 0.9490000000000001, -0.009000000000000001, 192.0, 126.0, 40.0, 14.5, 72.0, 127.5, 104.0, 0.0, 0.0, 0.0, 1.6583346264110413E9, 0.0, 2022-07-20 12:30:26.411
190.0, -18677.631756977054, -21827.059605963186, -16188.139163033864, -7343.553882068859, -31483.99668741187, 7302.896058904656, 6228.224185493492, -11063.442953043337, 3509.9167835613234, -22243.271439465458, -9690.01766324254, -33176.02374267861, -8407.921601286125, -11818.462528999155, -27344.94535266702, 47.542160456438125, -0.117, 0.9490000000000001, -0.009000000000000001, 192.0, 0.0, 0.0, 0.0, 0.0, 0.0, 0.0, 0.0, 0.0, 0.0, 1.658334626411047E9, 0.0, 2022-07-20 12:30:26.411
192.0, -19363.78560826607, -22521.79652712304, -16823.95688580953, -8007.4006923914785, -32153.766710015145, 6707.847918015471, 6506.548107450975, -11639.179186723137, 3182.5084307799857, -22759.373218938497, -9534.516577066968, -33130.87321887889, -8593.485783754086, -12020.321133175032, -27878.257975370645, 336.1031813744523, -0.117, 0.9490000000000001, -0.009000000000000001, 192.0, 0.0, 0.0, 0.0, 0.0, 0.0, 0.0, 0.0, 0.0, 0.0, 1.6583346264110527E9, 0.0, 2022-07-20 12:30:26.411
194.0, -18628.524974408745, -21784.993622898295, -16165.407438922817, -7295.251762300941, -31409.11834348659, 7294.514154733915, 6113.82795737123, -11106.023026230696, 3425.829520920458, -22332.544306819953, -9762.303204811002, -33260.13335706393, -8498.982608197048, -11882.410869885787, -27442.95775210354, -12.002886772499892, -0.117, 0.9490000000000001, -0.009000000000000001, 192.0, 0.0, 0.0, 0.0, 0.0, 0.0, 0.0, 0.0, 0.0, 0.0, 1.6583346264110584E9, 0.0, 2022-07-20 12:30:26.411
196.0, -19383.74571606466, -22541.622524454895, -16801.739251820953, -8007.199526691381, -32191.6976203558, 6758.452267462286, 6593.921076526771, -11644.767122836964, 3286.5334494749845, -22656.28697351062, -9448.39530568067, -33053.02209294106, -8488.946674936615, -11928.813091375005, -27768.868538006373, 400.43150191682605, -0.117, 0.9490000000000001, -0.009000000000000001, 192.0, 0.0, 0.0, 0.0, 0.0, 0.0, 0.0, 0.0, 0.0, 0.0, 1.6583346264110641E9, 0.0, 2022-07-20 12:30:26.411
198.0, -18643.701808893897, -21792.16853286845, -16204.008901597132, -7285.6405121851585, -31393.53917760124, 7244.490950642938, 6014.6979707119435, -11174.329957286116, 3333.7626855090484, -22430.78022370103, -9840.131979004382, -33335.726956811784, -8581.304083025943, -11982.926664701303, -27545.038169030926, -60.84144840734582, -0.1155, 0.9475, -0.0105, 192.0, 126.0, 56.0, 14.5, 72.0, 127.5, 80.0, 0.0, 0.0, 0.0, 1.6583346264110732E9, 0.0, 2022-07-20 12:30:26.411
200.0, -19392.664062102325, -22541.287248288067, -16780.08041144376, -8005.031407479216, -32214.27288225566, 6789.431785277341, 6694.392167853376, -11666.917701592172, 3365.613921357861, -22574.65840275984, -9404.787052248366, -32988.24673750958, -8419.76802584744, -11845.798712467995, -27667.99511527957, 443.1233338264625, -0.1155, 0.9475, -0.0105, 192.0, 0.0, 0.0, 0.0, 0.0, 0.0, 0.0, 0.0, 0.0, 0.0, 1.6583346264110787E9, 0.0, 2022-07-20 12:30:26.411
202.0, -18644.104140294094, -21791.766201468254, -16236.55304152406, -7287.473355230493, -31377.378866360054, 7179.022691133344, 5926.900318491497, -11247.46486514388, 3233.425704649175, -22554.765350194615, -9898.872363432929, -33400.56936747663, -8672.789773081515, -12073.898264634403, -27654.47230988411, -87.26121035351878, -0.1155, 0.9475, -0.0105, 192.0, 0.0, 0.0, 0.0, 0.0, 0.0, 0.0, 0.0, 0.0, 0.0, 1.6583346264110847E9, 0.0, 2022-07-20 12:30:26.411
204.0, -19369.105323446434, -22517.102660787423, -16734.527556243844, -7989.34048287159, -32200.839483838023, 6847.814541794603, 6747.768133612649, -11638.709800089575, 3466.777916762581, -22452.1484914003, -9343.6550311631, -32925.483039079074, -8336.17250158459, -11744.902937996738, -27570.2062332876, 472.1358981294511, -0.1155, 0.9475, -0.0105, 192.0, 0.0, 0.0, 0.0, 0.0, 0.0, 0.0, 0.0, 0.0, 0.0, 1.6583346264110904E9, 0.0, 2022-07-20 12:30:26.411
206.0, -18676.5588732432, -21825.427928617948, -16276.02622223213, -7316.709436978035, -31396.86958752508, 7123.255088717353, 5916.417350341958, -11307.591057728656, 3143.683450661117, -22648.44151120681, -9932.668201049353, -33456.91811524846, -8743.801265216025, -12160.891254054459, -27764.331133881944, -111.75872227653531, -0.1155, 0.9475, -0.0105, 192.0, 0.0, 0.0, 0.0, 0.0, 0.0, 0.0, 0.0, 0.0, 0.0, 1.658334626411096E9, 0.0, 2022-07-20 12:30:26.411
208.0, -19320.49027925614, -22470.991011976126, -16655.7823605278, -7938.154988068937, -32163.847346764487, 6931.387714312997, 6798.238372592732, -11610.457195098066, 3559.269435318641, -22335.070053943404, -9303.824222543744, -32876.59977395532, -8254.342765133712, -11692.97983562706, -27454.53595573139, 491.62661929447887, -0.11675, 0.9477500000000001, -0.01025, 192.0, 126.0, 40.0, 14.5, 80.0, 127.5, 88.0, 0.0, 0.0, 0.0, 1.6583346264111016E9, 0.0, 2022-07-20 12:30:26.411
210.0, -18748.732656089385, -21899.68042369848, -16361.499293029225, -7384.971664544543, -31447.630399183086, 7038.676087698471, 5885.59429473809, -11408.509183944367, 3055.4164118071094, -22761.675448617396, -9963.44655316431, -33494.983136055846, -8807.526088658105, -12229.332295576609, -27859.549565261554, -109.09886468635378, -0.11675, 0.9477500000000001, -0.01025, 192.0, 0.0, 0.0, 0.0, 0.0, 0.0, 0.0, 0.0, 0.0, 0.0, 1.6583346264111073E9, 0.0, 2022-07-20 12:30:26.411
212.0, -19252.22805168963, -22393.743383138586, -16591.409336496512, -7867.948158734818, -32088.36550573892, 7022.225203779364, 6808.654285508906, -11580.014119149939, 3616.4899011242273, -22248.971134301562, -9307.579315612234, -32864.14985229371, -8210.980380890416, -11657.21704449857, -27360.882146463653, 478.39438657693705, -0.11675, 0.9477500000000001, -0.01025, 192.0, 0.0, 0.0, 0.0, 0.0, 0.0, 0.0, 0.0, 0.0, 0.0, 1.6583346264111133E9, 0.0, 2022-07-20 12:30:26.411
214.0, -18839.525442066843, -21984.92997705102, -16458.05882907615, -7467.1366771622515, -31540.077214250236, 6954.722935524337, 5860.448582225869, -11546.486502466978, 2984.82960281725, -22846.880298481025, -9965.525265398654, -33510.45054321892, -8851.983708379712, -12255.61794705605, -27954.00803732968, -94.12319590129805, -0.11675, 0.9477500000000001, -0.01025, 192.0, 0.0, 0.0, 0.0, 0.0, 0.0, 0.0, 0.0, 0.0, 0.0, 1.6583346264111187E9, 0.0, 2022-07-20 12:30:26.411
216.0, -19187.94443463617, -22343.384902880778, -16527.483347354337, -7801.786995147109, -32053.72030183319, 7056.401021051529, 6752.082020292523, -11556.969470616517, 3651.8503608525234, -22192.465924318545, -9332.814435102277, -32880.332515279355, -8204.699540698473, -11631.780759308429, -27310.478962716934, 417.91056608087615, -0.11675, 0.9477500000000001, -0.01025, 192.0, 0.0, 0.0, 0.0, 0.0, 0.0, 0.0, 0.0, 0.0, 0.0, 1.6583346264111247E9, 0.0, 2022-07-20 12:30:26.411
218.0, -18909.12877430067, -22057.573146530765, -16513.379396603035, -7532.023791316008, -31612.899197685627, 6900.028216842201, 5888.92470466193, -11613.92171548864, 2955.928797236538, -22920.752813905816, -9935.462169106266, -33497.06184829019, -8877.397641825395, -12317.331113497152, -28030.965093489303, -59.634454206759244, -0.11737500000000001, 0.9468750000000001, -0.006125, 192.0, 126.0, 40.0, 14.5, 72.0, 127.5, 120.0, 0.0, 0.0, 0.0, 1.6583346264111304E9, 0.0, 2022-07-20 12:30:26.411
220.0, -19057.54435748391, -22212.761308283963, -16401.195991181852, -7683.546266978535, -31904.254186660553, 7161.811847902757, 6750.182122013823, -11516.624571874687, 3713.0941406600646, -22117.94520830455, -9332.166234513074, -32869.40251224071, -8167.886217580583, -11585.49029654149, -27237.38875834808, 395.13413848091824, -0.11737500000000001, 0.9468750000000001, -0.006125, 192.0, 0.0, 0.0, 0.0, 0.0, 0.0, 0.0, 0.0, 0.0, 0.0, 1.658334626411136E9, 0.0, 2022-07-20 12:30:26.411
222.0, -19033.11390079426, -22174.29395607638, -16609.08956636066, -7652.454990441202, -31705.681288919604, 6846.004050493723, 5977.996406316329, -11730.70958026762, 2940.0814104177252, -22939.036540870256, -9888.210581327747, -33464.47300487435, -8868.65810974337, -12295.940494053424, -28061.87755607099, 5.9902675140222925, -0.11737500000000001, 0.9468750000000001, -0.006125, 192.0, 0.0, 0.0, 0.0, 0.0, 0.0, 0.0, 0.0, 0.0, 0.0, 1.6583346264111419E9, 0.0, 2022-07-20 12:30:26.411
224.0, -18960.962469692528, -22115.106536758725, -16314.739443628723, -7583.857486707865, -31820.09986878632, 7221.356895131696, 6636.50114971413, -11478.872475489674, 3689.4236432818943, -22122.683778129074, -9406.776357504888, -32932.345024626855, -8199.469232495932, -11628.718570318053, -27233.94658970196, 322.2450998121619, -0.11737500000000001, 0.9468750000000001, -0.006125, 192.0, 0.0, 0.0, 0.0, 0.0, 0.0, 0.0, 0.0, 0.0, 0.0, 1.6583346264111474E9, 0.0, 2022-07-20 12:30:26.411
226.0, -19088.34506134332, -22230.083910236826, -16649.367409869126, -7705.518031778101, -31820.703365886617, 6787.10720385399, 6083.4966401453785, -11795.037900809992, 2976.604160857697, -22926.78778490875, -9800.390577362845, -33392.96977436182, -8809.582449147994, -12261.51880759225, -28058.59184963606, 102.37098960530635, -0.11737500000000001, 0.9468750000000001, -0.006125, 192.0, 0.0, 0.0, 0.0, 0.0, 0.0, 0.0, 0.0, 0.0, 0.0, 1.6583346264111533E9, 0.0, 2022-07-20 12:30:26.411
228.0, -18851.371866628157, -22003.43722146001, -16247.661858518346, -7484.928665748676, -31694.058381802846, 7289.619122698203, 6551.408058572777, -11416.466404970457, 3701.560640521126, -22073.822864749774, -9431.564442105824, -32949.60057134635, -8202.687883697496, -11627.243355184002, -27203.883493409576, 305.0789600704861, -0.1156875, 0.9464375, -0.0050625, 192.0, 126.0, 56.0, 14.5, 72.0, 127.5, 112.0, 0.0, 0.0, 0.0, 1.6583346264111588E9, 0.0, 2022-07-20 12:30:26.411
230.0, -19202.875399932313, -22351.833862284882, -16746.508091271888, -7822.708227957276, -31936.37364344283, 6726.802197313571, 6207.124138727682, -11910.059977777002, 2978.9063905365933, -22927.704206431416, -9748.243957548613, -33348.48980289576, -8800.21706822122, -12231.388656066496, -28055.104977501032, 164.15121127977505, -0.1156875, 0.9464375, -0.0050625, 192.0, 0.0, 0.0, 0.0, 0.0, 0.0, 0.0, 0.0, 0.0, 0.0, 1.658334626411166E9, 0.0, 2022-07-20 12:30:26.411
232.0, -18767.77634236531, -21922.278037342792, -16201.326692262495, -7404.529440942936, -31590.189825319034, 7340.268175633929, 6426.014772178504, -11430.480948743934, 3620.2226424482637, -22121.61089439522, -9543.189053915627, -33048.9987789391, -8293.59242839723, -11690.69995769262, -27268.211813951948, 186.57001096844806, -0.1156875, 0.9464375, -0.0050625, 192.0, 0.0, 0.0, 0.0, 0.0, 0.0, 0.0, 0.0, 0.0, 0.0, 1.6583346264111717E9, 0.0, 2022-07-20 12:30:26.411
234.0, -19277.641985135317, -22433.998874902594, -16783.27671090087, -7893.853830558519, -32025.355938119406, 6708.294952904577, 6307.282305631913, -11963.614757491918, 3058.3891938196653, -22857.22915616383, -9645.560043520933, -33254.92540060585, -8715.548660224516, -12163.394649433452, -28016.05647993761, 249.4454681212268, -0.1156875, 0.9464375, -0.0050625, 192.0, 0.0, 0.0, 0.0, 0.0, 0.0, 0.0, 0.0, 0.0, 0.0, 1.6583346264111774E9, 0.0, 2022-07-20 12:30:26.411
236.0, -18709.6171032926, -21869.84084485064, -16164.11103774441, -7344.112675680241, -31500.80519924226, 7320.173957368607, 6310.255087644468, -11423.060169584773, 3554.4638102607505, -22201.853656989773, -9625.242307811059, -33135.857657892426, -8370.03539443438, -11779.838714580383, -27332.517782749866, 115.37970487829506, -0.1156875, 0.9464375, -0.0050625, 192.0, 0.0, 0.0, 0.0, 0.0, 0.0, 0.0, 0.0, 0.0, 0.0, 1.658334626411183E9, 0.0, 2022-07-20 12:30:26.411
238.0, -19353.30264011653, -22513.951064819226, -16808.489478646457, -7963.367755814524, -32101.776552412102, 6682.121060147412, 6383.92643736916, -12017.862441284948, 3110.8040345673603, -22829.311827339152, -9587.311397470403, -33204.72338255923, -8651.488560615608, -12101.167392869878, -27971.91178463838, 307.13532056037434, -0.11584375, 0.9482187500000001, -0.00853125, 192.0, 126.0, 48.0, 14.5, 88.0, 127.5, 80.0, 0.0, 0.0, 0.0, 1.6583346264111888E9, 0.0, 2022-07-20 12:30:26.411
240.0, -18664.712448681887, -21822.768071027767, -16148.889499770345, -7302.4937275044595, -31422.12705875958, 7309.5345270078815, 6196.484708366956, -11463.69564100452, 3474.153992432832, -22271.83696887934, -9717.175032755737, -33225.73402234722, -8441.471569713542, -11866.96581446717, -27411.53119939938, 40.300195252918634, -0.11584375, 0.9482187500000001, -0.00853125, 192.0, 0.0, 0.0, 0.0, 0.0, 0.0, 0.0, 0.0, 0.0, 0.0, 1.6583346264111948E9, 0.0, 2022-07-20 12:30:26.411
242.0, -19384.237454442675, -22543.70123668924, -16804.93555127806, -7990.569828816632, -32152.000922203177, 6734.982935784214, 6509.81146214145, -12028.85949955696, 3200.434529833142, -22734.898058759936, -9505.951047653085, -33121.50783795212, -8565.07671655139, -12011.827470282016, -27876.402780580855, 375.28578940460557, -0.11584375, 0.9482187500000001, -0.00853125, 192.0, 0.0, 0.0, 0.0, 0.0, 0.0, 0.0, 0.0, 0.0, 0.0, 1.6583346264112003E9, 0.0, 2022-07-20 12:30:26.411
244.0, -18631.989494799316, -21793.12965788003, -16158.76897081959, -7257.454962427016, -31368.34876160011, 7273.458811457016, 6068.163343449038, -11481.420574357579, 3385.1940495007098, -22351.56564135142, -9784.207914377203, -33293.4598080468, -8529.380980656264, -11945.062809594014, -27499.597072553286, -9.834767560335107, -0.11584375, 0.9482187500000001, -0.00853125, 192.0, 0.0, 0.0, 0.0, 0.0, 0.0, 0.0, 0.0, 0.0, 0.0, 1.658334626411206E9, 0.0, 2022-07-20 12:30:26.411
246.0, -19390.92062603481, -22552.70898970473, -16788.12703944767, -7993.609666062554, -32186.914347042366, 6758.675784906839, 6598.436128906743, -12035.453264171276, 3294.7365396900823, -22628.48140340822, -9432.458511884035, -33036.235932855125, -8476.005014896991, -11923.895707594838, -27778.16686369978, 434.4732087222587, -0.11584375, 0.9482187500000001, -0.00853125, 192.0, 0.0, 0.0, 0.0, 0.0, 0.0, 0.0, 0.0, 0.0, 0.0, 1.658334626411212E9, 0.0, 2022-07-20 12:30:26.411
248.0, -18606.039119486704, -21765.771122666734, -16169.408401180317, -7245.183854721053, -31346.15347935599, 7245.966165776988, 5962.2831299642485, -11536.785845373375, 3292.210792566633, -22461.513872327076, -9850.57024366501, -33361.54322165766, -8612.484766541096, -12034.961525793258, -27611.020518662994, -62.16020133020894, -0.11592187500000001, 0.952109375, -0.009265625, 192.0, 126.0, 48.0, 14.5, 112.0, 127.5, 88.0, 0.0, 0.0, 0.0, 1.6583346264112177E9, 0.0, 2022-07-20 12:30:26.411
250.0, -19356.40953259582, -22511.827649095972, -16720.043625836806, -7966.497000038266, -32175.425550392338, 6842.383067891964, 6723.471787389731, -12021.170499464333, 3422.767331930081, -22488.87240754037, -9340.99517357292, -32943.09621370986, -8360.290033851867, -11820.675351700229, -27655.120510473313, 491.3360466165598, -0.11592187500000001, 0.952109375, -0.009265625, 192.0, 0.0, 0.0, 0.0, 0.0, 0.0, 0.0, 0.0, 0.0, 0.0, 1.6583346264112236E9, 0.0, 2022-07-20 12:30:26.411
252.0, -18646.49577695081, -21813.49209707881, -16233.06616938903, -7287.182782552574, -31369.48870056733, 7188.700996482492, 5928.3531818810925, -11604.086947928305, 3210.4481113491192, -22546.674018701797, -9890.356348795456, -33415.1874083504, -8682.781002853037, -12088.069270619068, -27708.496476232587, -80.86861143930095, -0.11592187500000001, 0.952109375, -0.009265625, 192.0, 0.0, 0.0, 0.0, 0.0, 0.0, 0.0, 0.0, 0.0, 0.0, 1.6583346264112291E9, 0.0, 2022-07-20 12:30:26.411
254.0, -19332.49316602864, -22499.757707090106, -16690.7404888559, -7958.875055179007, -32170.396407889893, 6890.439318470874, 6755.568892427551, -11988.13462115939, 3489.6884548292705, -22406.886208878306, -9328.008810044386, -32916.3188238524, -8308.992780326937, -11742.623060062297, -27572.68727692214, 491.44780533883636, -0.11592187500000001, 0.952109375, -0.009265625, 192.0, 0.0, 0.0, 0.0, 0.0, 0.0, 0.0, 0.0, 0.0, 0.0, 1.6583346264112349E9, 0.0, 2022-07-20 12:30:26.411
0.0, -18685.36546055859, -21845.18687071644, -16294.89109455241, -7336.960117454543, -31386.36426763109, 7106.938315264978, 5883.426175525925, -11678.562960453388, 3128.3278022203212, -22666.702886426796, -9927.214375402258, -33460.650856572494, -8748.338669340452, -12179.040870552168, -27811.448611193733, -81.36034981731771, -0.11592187500000001, 0.952109375, -0.009265625, 192.0, 0.0, 0.0, 0.0, 0.0, 0.0, 0.0, 0.0, 0.0, 0.0, 1.6583346264112406E9, 0.0, 2022-07-20 12:30:26.411
2.0, -19291.47771495315, -22460.753913015596, -16641.074912676206, -7931.896499621452, -32143.17198314333, 6938.56262428315, 6756.57472092804, -11973.516580285619, 3556.2072463282643, -22323.64831252674, -9314.038969759818, -32898.571538754884, -8262.657614071086, -11702.099347364825, -27470.986839650493, 478.1932208768393, -0.11592187500000001, 0.952109375, -0.009265625, 192.0, 0.0, 0.0, 0.0, 0.0, 0.0, 0.0, 0.0, 0.0, 0.0, 1.6583346264112463E9, 0.0, 2022-07-20 12:30:26.411
4.0, -18736.416844894513, -21901.982653377374, -16361.029906395665, -7391.632484392225, -31437.706224644928, 7031.992916106334, 5838.387410448481, -11772.99908077706, 3038.3843825321655, -22768.112751020522, -9946.503930867188, -33497.19595875692, -8816.712655629237, -12246.632545785016, -27920.033385757615, -91.64215226675896, -0.122, 0.9460000000000001, -0.002, 192.0, 126.0, 24.0, 14.5, 72.0, 127.5, 120.0, 0.0, 0.0, 0.0, 1.658334626411252E9, 0.0, 2022-07-20 12:30:26.411
6.0, -19183.965824123123, -22357.98059201009, -16527.9527339879, -7826.619783236955, -32037.9623219922, 7047.057991869211, 6752.461999948264, -11916.899611580326, 3645.301299727118, -22207.97803497053, -9283.305321133772, -32858.383102224245, -8199.804508662763, -11651.316183962368, -27374.18143441456, 478.41673832139236, -0.122, 0.9460000000000001, -0.002, 192.0, 0.0, 0.0, 0.0, 0.0, 0.0, 0.0, 0.0, 0.0, 0.0, 1.6583346264112594E9, 0.0, 2022-07-20 12:30:26.411
8.0, -18827.63431401662, -21995.25648298937, -16441.33972422358, -7471.115287675297, -31521.726432052426, 6942.295365607187, 5889.215277339849, -11874.476000604154, 2997.9724285569705, -22830.51882153974, -9922.699323022285, -33494.89372907802, -8844.071190842533, -12257.89782499049, -27991.06722963658, -52.95128261462243, -0.122, 0.9460000000000001, -0.002, 192.0, 0.0, 0.0, 0.0, 0.0, 0.0, 0.0, 0.0, 0.0, 0.0, 1.658334626411265E9, 0.0, 2022-07-20 12:30:26.411
10.0, -19100.54911381592, -22267.031343821447, -16443.239622502282, -7734.664706547822, -31954.635018662815, 7129.513577164838, 6723.315325178543, -11838.981430409125, 3691.569410749604, -22145.23668828448, -9296.761071295867, -32860.3053522474, -8179.062089808237, -11602.030587438416, -27300.286567245315, 452.04167986413006, -0.122, 0.9460000000000001, -0.002, 192.0, 0.0, 0.0, 0.0, 0.0, 0.0, 0.0, 0.0, 0.0, 0.0, 1.6583346264112706E9, 0.0, 2022-07-20 12:30:26.411
12.0, -18944.824510195795, -22106.076431998783, -16541.252021938806, -7579.051861649974, -31634.51333457391, 6860.0185942672015, 5917.132606164528, -11989.296911871066, 2953.0007187128926, -22905.307758487197, -9903.05213964607, -33487.227080729856, -8876.972958680744, -12310.379720971552, -28063.50923341623, -12.85225306180156, -0.122, 0.9460000000000001, -0.002, 192.0, 0.0, 0.0, 0.0, 0.0, 0.0, 0.0, 0.0, 0.0, 0.0, 1.6583346264112763E9, 0.0, 2022-07-20 12:30:26.411
14.0, -19034.119729294747, -22199.596130799786, -16373.926862946377, -7664.212008024694, -31877.052113658443, 7176.988682387911, 6663.569112249507, -11817.970790621137, 3685.0874048575647, -22121.14150776166, -9361.447019749525, -32910.17209412719, -8200.139784829591, -11624.337628404812, -27274.962040777453, 386.7522343101781, -0.116, 0.9520000000000001, -0.008, 192.0, 126.0, 48.0, 14.5, 96.0, 127.5, 96.0, 0.0, 0.0, 0.0, 1.658334626411282E9, 0.0, 2022-07-20 12:30:26.411
16.0, -19061.455912763588, -22211.77783152793, -16624.311104334727, -7682.272217544582, -31751.52471679744, 6780.558142728584, 5961.143190997028, -12079.933235637336, 2930.5595672797645, -22952.514642776805, -9863.556607193543, -33463.15425195149, -8867.56287426506, -12291.872476562557, -28098.42265825542, 40.680174908658856, -0.116, 0.9520000000000001, -0.008, 192.0, 0.0, 0.0, 0.0, 0.0, 0.0, 0.0, 0.0, 0.0, 0.0, 1.6583346264112878E9, 0.0, 2022-07-20 12:30:26.411
18.0, -18951.552385276842, -22110.70324310103, -16305.932856313331, -7573.575684258424, -31776.424560120653, 7219.233479408441, 6578.297207152511, -11783.459697182143, 3650.822180607579, -22132.786766622874, -9435.833625296787, -32976.13209201481, -8243.569224306253, -11645.862358315273, -27274.224433210427, 298.1946227782515, -0.116, 0.9520000000000001, -0.008, 192.0, 0.0, 0.0, 0.0, 0.0, 0.0, 0.0, 0.0, 0.0, 0.0, 1.6583346264112935E9, 0.0, 2022-07-20 12:30:26.411
20.0, -19126.186564706157, -22280.88942538374, -16663.53841585379, -7740.00677347264, -31827.25242701202, 6755.926520338836, 6084.815393068242, -12123.228564647266, 2954.6770995470406, -22929.335883776654, -9788.27593186807, -33398.26713779773, -8835.599879693971, -12268.984290240323, -28092.477094230308, 119.9394607471777, -0.116, 0.9520000000000001, -0.008, 192.0, 0.0, 0.0, 0.0, 0.0, 0.0, 0.0, 0.0, 0.0, 0.0, 1.6583346264112992E9, 0.0, 2022-07-20 12:30:26.411
22.0, -18834.92098270905, -21997.804581857275, -16214.961256380233, -7460.274691614472, -31657.26741042941, 7287.875686630689, 6474.920389046716, -11715.778614971474, 3666.691919170847, -22093.5147516149, -9463.81800935483, -32995.10872305736, -8242.094009172202, -11645.012992025971, -27240.428595594003, 266.7904218185451, -0.116, 0.9520000000000001, -0.008, 192.0, 0.0, 0.0, 0.0, 0.0, 0.0, 0.0, 0.0, 0.0, 0.0, 1.6583346264113047E9, 0.0, 2022-07-20 12:30:26.411
24.0, -19240.04635096149, -22389.29538599198, -16742.015390636374, -7846.043449168617, -31960.245306521098, 6700.427138856308, 6167.181571386048, -12196.832859138593, 2985.9471900400154, -22913.264979513286, -9719.320800223446, -33336.352805656534, -8793.26567569562, -12222.716179217838, -28078.395495223464, 201.2774588200401, -0.116, 0.9460000000000001, -0.01, 192.0, 126.0, 48.0, 14.5, 72.0, 127.5, 88.0, 0.0, 0.0, 0.0, 1.6583346264113104E9, 0.0, 2022-07-20 12:30:26.411
26.0, -18791.268025787835, -21936.963133449928, -16198.488020716672, -7413.313676513872, -31575.3035635118, 7288.30036977534, 6349.638861374719, -11738.018600704503, 3573.2616273476638, -22169.443627529577, -9579.197714233127, -33102.88883482085, -8341.98395514297, -11721.120681896291, -27312.155343551083, 174.94710385168838, -0.116, 0.9460000000000001, -0.01, 192.0, 0.0, 0.0, 0.0, 0.0, 0.0, 0.0, 0.0, 0.0, 0.0, 1.6583346264113162E9, 0.0, 2022-07-20 12:30:26.411
28.0, -19327.86635492639, -22475.55076784501, -16786.048327213328, -7926.286211763169, -32035.794202780035, 6726.869252546937, 6284.617636754231, -12251.348763865086, 3026.5156062263977, -22896.501171171807, -9655.685383759188, -33283.289764319634, -8739.867358191892, -12184.070013054612, -28051.39458792145, 256.75448855811226, -0.116, 0.9460000000000001, -0.01, 192.0, 0.0, 0.0, 0.0, 0.0, 0.0, 0.0, 0.0, 0.0, 0.0, 1.658334626411322E9, 0.0, 2022-07-20 12:30:26.411
30.0, -18714.735652772863, -21872.746571629832, -16146.76608404709, -7325.337210337783, -31466.472919758908, 7304.080701360786, 6307.997561454483, -11675.366660996278, 3511.1461295063655, -22204.558218068865, -9652.690250002177, -33174.34736184446, -8396.030473235902, -11804.693854414685, -27352.54494578182, 116.96667873462187, -0.116, 0.9460000000000001, -0.01, 192.0, 0.0, 0.0, 0.0, 0.0, 0.0, 0.0, 0.0, 0.0, 0.0, 1.6583346264113276E9, 0.0, 2022-07-20 12:30:26.411
0.0, -8551.486855922563, -10627.941564076134, -7987.127660170515, -3696.5091462742266, -15884.468362864061, 3709.5402132916706, 3275.8269638808924, -6971.509095610273, 1410.9091652523477, -11546.821778633808, -4926.816216327693, -16736.427454522545, -4466.727908459653, -6177.016338946383, -14124.424949219818, 49.28559652395207, -0.11800000000000001, 0.9440000000000001, -0.002, 192.0, 126.0, 40.0, 14.5, 64.0, 127.5, 120.0, 0.0, 0.0, 0.0, 1.6583346269802008E9, 0.0, 2022-07-20 12:30:26.980
2.0, -17612.928761592957, -21742.860584600043, -16558.820493080675, -7864.595397066521, -32168.65297182238, 6786.079023609045, 6370.470687207066, -14496.894418823054, 3067.888685213171, -22750.633686856472, -9783.604417276909, -33180.09176016948, -8960.657889921415, -12247.996002196789, -28029.556933588618, 816.6880389080095, -0.11800000000000001, 0.9440000000000001, -0.002, 192.0, 0.0, 0.0, 0.0, 0.0, 0.0, 0.0, 0.0, 0.0, 0.0, 1.658334626980294E9, 0.0, 2022-07-20 12:30:26.980
4.0, -16898.499953567978, -21020.452203804518, -15909.211743976086, -7172.026595118832, -31441.21544852441, 7366.620882346736, 6015.435578278969, -13931.28352538151, 3334.7461622650817, -22305.722213473586, -9990.916847099883, -33269.0517031016, -8848.250967055676, -12066.611595941973, -27574.631878689754, 481.7247965007778, -0.11800000000000001, 0.9440000000000001, -0.002, 192.0, 0.0, 0.0, 0.0, 0.0, 0.0, 0.0, 0.0, 0.0, 0.0, 1.6583346269803436E9, 0.0, 2022-07-20 12:30:26.980
6.0, -17624.261096031798, -21756.383389995503, -16540.84969053861, -7876.732394305754, -32200.459504182283, 6828.457931096307, 6493.673502644719, -14528.522137227314, 3162.8388956593153, -22648.82149086255, -9704.345131438391, -33093.143474238335, -8876.101240646987, -12150.900024282935, -27933.533839408617, 881.1057664282044, -0.11800000000000001, 0.9440000000000001, -0.002, 192.0, 0.0, 0.0, 0.0, 0.0, 0.0, 0.0, 0.0, 0.0, 0.0, 1.6583346269803588E9, 0.0, 2022-07-20 12:30:26.980
8.0, -16869.420334031623, -20982.655403930596, -15915.492584168029, -7139.79537961428, -31390.54404384423, 7343.151550668664, 5921.915879477964, -14004.060805327988, 3258.258492739021, -22376.823112585917, -10044.136350647968, -33320.37130837099, -8922.458758647295, -12155.683297596372, -27664.932926289195, 445.0008803607083, -0.114, 0.9480000000000001, -0.002, 192.0, 126.0, 56.0, 14.5, 80.0, 127.5, 120.0, 0.0, 0.0, 0.0, 1.6583346269803665E9, 0.0, 2022-07-20 12:30:26.980
10.0, -17634.1629188255, -21776.432904771915, -16528.355065388092, -7896.245467215236, -32241.206734324307, 6847.188692949855, 6566.8754657358495, -14572.398611593082, 3253.6540333812277, -22556.59819323995, -9640.19562485166, -33019.807400680475, -8783.743832557659, -12060.621328427951, -27838.89655338485, 917.0250197678829, -0.114, 0.9480000000000001, -0.002, 192.0, 0.0, 0.0, 0.0, 0.0, 0.0, 0.0, 0.0, 0.0, 0.0, 1.6583346269803736E9, 0.0, 2022-07-20 12:30:26.980
12.0, -16909.228790906523, -21024.229648617467, -15969.069715627398, -7175.267598064852, -31403.061020739202, 7263.534636918859, 5801.082348952574, -14100.463879163728, 3138.3413837362987, -22520.075442799982, -10124.379113242521, -33420.864751442045, -9013.720931258313, -12269.252511173787, -27797.97050928718, 380.2478766736838, -0.114, 0.9480000000000001, -0.002, 192.0, 0.0, 0.0, 0.0, 0.0, 0.0, 0.0, 0.0, 0.0, 0.0, 1.6583346269803815E9, 0.0, 2022-07-20 12:30:26.980
14.0, -17621.53418320825, -21767.82748315662, -16486.490248023303, -7891.462193901801, -32242.927818647364, 6893.881487116992, 6636.2552805251225, -14575.036117438809, 3336.064915187945, -22461.2009479047, -9595.201563263126, -32978.277859482514, -8708.552564210006, -11974.03067040809, -27742.426424315745, 932.5594821643213, -0.114, 0.9480000000000001, -0.002, 192.0, 0.0, 0.0, 0.0, 0.0, 0.0, 0.0, 0.0, 0.0, 0.0, 1.6583346269803889E9, 0.0, 2022-07-20 12:30:26.980
16.0, -16952.948803061106, -21061.937041513567, -16023.630323842805, -7211.477424082449, -31427.536180917763, 7178.888580666612, 5798.668360551401, -14173.487028299216, 3026.3144405262997, -22645.62519140544, -10181.77839300375, -33490.46808367587, -9101.719749178857, -12361.989898918855, -27914.04311824359, 342.7640012221338, -0.114, 0.9480000000000001, -0.002, 192.0, 0.0, 0.0, 0.0, 0.0, 0.0, 0.0, 0.0, 0.0, 0.0, 1.658334626980396E9, 0.0, 2022-07-20 12:30:26.980
18.0, -17553.56252831966, -21704.05795622563, -16402.470040615804, -7819.422521522346, -32194.402181434893, 6988.183496973932, 6670.945187919759, -14519.380273745093, 3432.4679890236844, -22335.56179232142, -9550.6545365637, -32921.303262865935, -8622.833624223904, -11906.461346919697, -27622.71048101312, 961.2814737893908, -0.11, 0.9460000000000001, 0.0, 192.0, 126.0, 72.0, 14.5, 72.0, 0.0, 0.0, 0.0, 0.0, 0.0, 1.6583346269804037E9, 0.0, 2022-07-20 12:30:26.980
20.0, -17031.403426099234, -21137.150661605676, -16110.71272024068, -7283.852372628734, -31493.742047994383, 7100.9256960065, 5742.923109879865, -14290.16313435592, 2955.6158728141636, -22728.281942401165, -10196.284675155244, -33518.050136333724, -9151.8100085032, -12411.968399520923, -28005.260587365698, 365.5851323110023, -0.11, 0.9460000000000001, 0.0, 192.0, 0.0, 0.0, 0.0, 0.0, 0.0, 0.0, 0.0, 0.0, 0.0, 1.6583346269804113E9, 0.0, 2022-07-20 12:30:26.980
22.0, -17470.950480812848, -21625.916257609875, -16317.645170407914, -7757.418782403324, -32123.793020700577, 7071.443745069951, 6686.367891593921, -14482.00815701582, 3492.4600711417283, -22275.92733811466, -9551.012164474985, -32913.74837324004, -8582.399318504253, -11868.418677856765, -27538.6008666278, 937.7003833890419, -0.11, 0.9460000000000001, 0.0, 192.0, 0.0, 0.0, 0.0, 0.0, 0.0, 0.0, 0.0, 0.0, 0.0, 1.6583346269804187E9, 0.0, 2022-07-20 12:30:26.980
24.0, -17094.100069296368, -21201.121354236766, -16181.433639697272, -7360.921187510632, -31562.496013938908, 7018.29129675523, 5748.779266927156, -14392.355310005583, 2913.728703704918, -22809.19525732938, -10178.783259246738, -33523.30279628072, -9180.219075705896, -12450.167530795043, -28071.533509675686, 384.91939126484294, -0.11, 0.9460000000000001, 0.0, 192.0, 0.0, 0.0, 0.0, 0.0, 0.0, 0.0, 0.0, 0.0, 0.0, 1.658334626980426E9, 0.0, 2022-07-20 12:30:26.980
26.0, -17414.422919085377, -21568.047591215087, -16262.279899392117, -7706.434453300769, -32067.35486595093, 7117.153062481054, 6652.88497839987, -14487.77490708529, 3534.503702462161, -22204.87114249124, -9568.088897238838, -32915.491809307554, -8553.409105945719, -11833.86288092886, -27472.372647806722, 882.3351123732463, -0.11, 0.9460000000000001, 0.0, 192.0, 0.0, 0.0, 0.0, 0.0, 0.0, 0.0, 0.0, 0.0, 0.0, 1.6583346269804337E9, 0.0, 2022-07-20 12:30:26.980
28.0, -17185.25048318511, -21290.304814613442, -16266.817303516544, -7440.716915216079, -31647.387939380165, 6940.171949883932, 5789.034758691163, -14499.733090368878, 2854.4965808983543, -22891.449676924905, -10175.29638711171, -33526.432040504464, -9211.153890032041, -12499.408423830084, -28156.22426941684, 405.1253682524405, -0.12, 0.9520000000000001, -0.004, 192.0, 126.0, 32.0, 14.5, 96.0, 127.5, 112.0, 0.0, 0.0, 0.0, 1.6583346269804409E9, 0.0, 2022-07-20 12:30:26.980
30.0, -17324.926534286325, -21474.304374969528, -16180.226645496685, -7611.819519021455, -31984.608707977382, 7192.590200017715, 6597.251486450611, -14445.597165298124, 3562.6892522203034, -22147.695380174566, -9599.671912154188, -32927.15941991322, -8544.535463396962, -11829.593697737897, -27429.367891474714, 848.3157573122689, -0.12, 0.9520000000000001, -0.004, 192.0, 0.0, 0.0, 0.0, 0.0, 0.0, 0.0, 0.0, 0.0, 0.0, 1.6583346269804485E9, 0.0, 2022-07-20 12:30:26.980
32.0, -17264.643879490362, -21369.005306840576, -16327.412882734881, -7508.040369515464, -31733.352748555273, 6890.081690559589, 5872.1832480649055, -14599.846553784198, 2832.2342434208686, -22919.255247027308, -10131.777540657227, -33501.1075140366, -9208.24816325285, -12510.226668146452, -28201.01716530528, 471.7112149848003, -0.12, 0.9520000000000001, -0.004, 192.0, 0.0, 0.0, 0.0, 0.0, 0.0, 0.0, 0.0, 0.0, 0.0, 1.6583346269804556E9, 0.0, 2022-07-20 12:30:26.980
34.0, -17198.505067647107, -21347.234707741107, -16062.65646966177, -7476.189133666651, -31841.512839974504, 7293.195401811052, 6550.603395772386, -14371.299966728684, 3601.670694550359, -22080.93071948656, -9615.318133272904, -32935.11664093931, -8522.273125919477, -11812.204040551667, -27366.09010292174, 832.4907222379115, -0.12, 0.9520000000000001, -0.004, 192.0, 0.0, 0.0, 0.0, 0.0, 0.0, 0.0, 0.0, 0.0, 0.0, 1.6583346269804633E9, 0.0, 2022-07-20 12:30:26.980
36.0, -17357.49302595771, -21470.10224701193, -16385.639177040957, -7591.278265867027, -31829.509953202007, 6846.004050493723, 5960.5173421522795, -14700.362348599714, 2861.8726565686056, -22924.396148252028, -10053.769952508206, -33437.315635361156, -9165.981014487865, -12455.0402110863, -28193.23875823483, 566.6614254309446, -0.12, 0.9520000000000001, -0.004, 192.0, 0.0, 0.0, 0.0, 0.0, 0.0, 0.0, 0.0, 0.0, 0.0, 1.658334626980471E9, 0.0, 2022-07-20 12:30:26.980
38.0, -17109.3886625038, -21253.379732773272, -15981.765506478014, -7377.550885385381, -31722.825076916826, 7352.583986828803, 6448.232406167079, -14353.887957798, 3579.2518948616857, -22083.679984054565, -9675.24316015758, -32979.95424031666, -8556.515998425008, -11815.065063841947, -27346.621733501164, 767.5812563396998, -0.122, 0.9540000000000001, -0.008, 192.0, 126.0, 24.0, 14.5, 104.0, 127.5, 96.0, 0.0, 0.0, 0.0, 1.6583346269804797E9, 0.0, 2022-07-20 12:30:26.980
40.0, -17474.63851864797, -21579.446980887293, -16467.02187860273, -7694.09629036144, -31942.520373168038, 6794.148003357412, 6069.325634160714, -14795.156096834673, 2880.7822323777955, -22912.482668457353, -9989.128707543457, -33376.65300090945, -9123.110368622585, -12427.033475283799, -28168.405970144984, 635.4377431199244, -0.122, 0.9540000000000001, -0.008, 192.0, 0.0, 0.0, 0.0, 0.0, 0.0, 0.0, 0.0, 0.0, 0.0, 1.658334626980487E9, 0.0, 2022-07-20 12:30:26.980
42.0, -17068.10499049485, -21197.29920593491, -15970.567282505905, -7328.108826650242, -31657.13329996268, 7354.640347318691, 6301.113224162248, -14360.079391012121, 3485.329864660486, -22140.006380081937, -9794.869696482385, -33081.11823572138, -8642.257290155565, -11911.311675466499, -27398.65659459312, 667.7360138578432, -0.122, 0.9540000000000001, -0.008, 192.0, 0.0, 0.0, 0.0, 0.0, 0.0, 0.0, 0.0, 0.0, 0.0, 1.6583346269804945E9, 0.0, 2022-07-20 12:30:26.980
44.0, -17555.462426598362, -21660.650868493423, -16529.74087354432, -7785.4031664613685, -32047.662979085802, 6761.492104708208, 6167.919178953073, -14880.919740309686, 2903.759825677851, -22886.62170012256, -9930.142453925902, -33319.52194208169, -9078.205714011874, -12387.873218998102, -28145.920115222947, 705.3316480316697, -0.122, 0.9540000000000001, -0.008, 192.0, 0.0, 0.0, 0.0, 0.0, 0.0, 0.0, 0.0, 0.0, 0.0, 1.658334626980502E9, 0.0, 2022-07-20 12:30:26.980
46.0, -17000.513315262, -21118.397548007673, -15930.781177375458, -7255.622119381681, -31570.363827987178, 7366.062088735353, 6177.619836046677, -14369.489475427805, 3426.7906459320366, -22188.979052183517, -9871.267959030623, -33156.51066976913, -8714.0063898571, -11962.184245846778, -27457.061702854837, 595.003437400274, -0.122, 0.9540000000000001, -0.008, 192.0, 0.0, 0.0, 0.0, 0.0, 0.0, 0.0, 0.0, 0.0, 0.0, 1.6583346269805093E9, 0.0, 2022-07-20 12:30:26.980
48.0, -17627.703264677915, -21750.907212603954, -16564.810760594697, -7850.916129459874, -32149.721044268736, 6740.526168409129, 6244.630365923687, -14962.43655233819, 2962.120230450658, -22837.291400109698, -9851.33020297649, -33253.53959244962, -9017.341913860073, -12331.658581693004, -28111.02904212821, 767.156573195049, -0.12, 0.9460000000000001, -0.01, 192.0, 126.0, 32.0, 14.5, 72.0, 127.5, 88.0, 0.0, 0.0, 0.0, 1.6583346269805164E9, 0.0, 2022-07-20 12:30:26.980
50.0, -16955.58630890683, -21080.064306266824, -15907.803584075402, -7203.028464678343, -31494.94904219497, 7361.8376090333, 6092.504393160867, -14350.512844385248, 3331.70632501916, -22282.141123073237, -9958.015079261671, -33244.688301645314, -8799.211239720731, -12074.524113479152, -27536.72332009355, 526.3835819224813, -0.12, 0.9460000000000001, -0.01, 192.0, 0.0, 0.0, 0.0, 0.0, 0.0, 0.0, 0.0, 0.0, 0.0, 1.6583346269805236E9, 0.0, 2022-07-20 12:30:26.980
52.0, -17651.485520778362, -21776.812884427654, -16545.342391174127, -7873.781964037653, -32185.103855741487, 6782.905075896392, 6408.64746673673, -14936.642639236767, 3043.07824886778, -22753.94174503586, -9769.858094436895, -33170.815786220526, -8927.420845916373, -12245.067923673145, -28005.193532132333, 855.1777428600482, -0.12, 0.9460000000000001, -0.01, 192.0, 0.0, 0.0, 0.0, 0.0, 0.0, 0.0, 0.0, 0.0, 0.0, 1.6583346269805307E9, 0.0, 2022-07-20 12:30:26.980
54.0, -16917.990674733006, -21031.382206843165, -15900.740432827526, -7166.03632760481, -31432.185343764468, 7352.31576589534, 5985.663054664499, -14379.704222643879, 3256.112725271312, -22360.573394366907, -10017.202498579323, -33303.227520373766, -8864.366574807951, -12152.934033028369, -27594.770800443985, 489.9502384603308, -0.12, 0.9460000000000001, -0.01, 192.0, 0.0, 0.0, 0.0, 0.0, 0.0, 0.0, 0.0, 0.0, 0.0, 1.658334626980538E9, 0.0, 2022-07-20 12:30:26.980
56.0, -17652.49134927885, -21780.947957151886, -16530.12085320006, -7885.740147321242, -32229.159144062894, 6828.68144854086, 6501.742482393084, -14957.139188902282, 3152.132410065223, -22638.42792969083, -9677.254817158559, -33068.467148359676, -8828.26850751263, -12125.933125726358, -27897.681641302308, 916.6897436010532, -0.12, 0.9460000000000001, -0.01, 192.0, 0.0, 0.0, 0.0, 0.0, 0.0, 0.0, 0.0, 0.0, 0.0, 1.6583346269805453E9, 0.0, 2022-07-20 12:30:26.980
58.0, -16905.25018039348, -21012.29381707833, -15928.501299441017, -7156.268615277841, -31421.612968637106, 7288.568590708804, 5876.653596955967, -14446.155958909507, 3170.43848877412, -22452.126139655848, -10075.339385907577, -33363.912506569926, -8953.415924717894, -12228.348818820576, -27713.90559839077, 429.5111214531805, -0.114, 0.9500000000000001, -0.002, 192.0, 126.0, 56.0, 14.5, 88.0, 127.5, 120.0, 0.0, 0.0, 0.0, 1.6583346269805524E9, 0.0, 2022-07-20 12:30:26.980
60.0, -17636.845128160134, -21775.717648949343, -16484.567998000144, -7876.46417337229, -32249.588638495046, 6852.575463363584, 6556.39249758631, -14978.39569787928, 3251.910597313714, -22530.98309409417, -9604.164612789704, -32997.992098092094, -8752.384335086863, -12077.541598980619, -27811.35920421591, 938.728563633986, -0.114, 0.9500000000000001, -0.002, 192.0, 0.0, 0.0, 0.0, 0.0, 0.0, 0.0, 0.0, 0.0, 0.0, 1.6583346269805596E9, 0.0, 2022-07-20 12:30:26.980
62.0, -16932.07227373985, -21036.50075632343, -15966.856892926324, -7178.709766710969, -31430.084279785668, 7208.124662414153, 5803.697503053845, -14514.909924854031, 3076.2258858950004, -22562.119074120412, -10118.411197472955, -33427.36910907854, -9041.21357693834, -12333.53612822725, -27834.962646360716, 383.19830694178427, -0.114, 0.9500000000000001, -0.002, 192.0, 0.0, 0.0, 0.0, 0.0, 0.0, 0.0, 0.0, 0.0, 0.0, 1.6583346269805667E9, 0.0, 2022-07-20 12:30:26.980
64.0, -17603.317511477177, -21755.15404405046, -16430.990866540775, -7857.286376629637, -32231.66253944189, 6912.1428623369775, 6632.321373500989, -14917.151918071739, 3346.033793215012, -22426.86866842135, -9556.421286633169, -32941.509239853534, -8674.041470771012, -12019.605877352462, -27699.66753717274, 963.0472616013601, -0.114, 0.9500000000000001, -0.002, 192.0, 0.0, 0.0, 0.0, 0.0, 0.0, 0.0, 0.0, 0.0, 0.0, 1.658334626980574E9, 0.0, 2022-07-20 12:30:26.980
66.0, -16988.666890700686, -21099.331509987296, -16029.307666934452, -7227.52597660136, -31450.26790502881, 7150.3454029971845, 5733.5353772086355, -14580.780515763821, 2990.8422220757275, -22691.938005916836, -10161.997099160802, -33489.19403424192, -9111.286295805729, -12413.287152443785, -27929.778746340126, 371.82126901403296, -0.114, 0.9500000000000001, -0.002, 192.0, 0.0, 0.0, 0.0, 0.0, 0.0, 0.0, 0.0, 0.0, 0.0, 1.6583346269805825E9, 0.0, 2022-07-20 12:30:26.980
68.0, -17545.784121249213, -21701.889837013467, -16365.321441331083, -7805.340922515503, -32180.65585859488, 7015.385569976041, 6683.126888647901, -14891.246246248038, 3440.15698911631, -22347.631734327286, -9527.699295008098, -32908.60747201532, -8596.682083211193, -11938.290231024055, -27583.773742171976, 971.1162413497259, -0.115, 0.9460000000000001, -0.003, 192.0, 126.0, 48.0, 14.5, 56.0, 127.5, 112.0, 0.0, 0.0, 0.0, 1.6583346269805896E9, 0.0, 2022-07-20 12:30:26.980
70.0, -17041.5734698264, -21158.340115349307, -16109.9527609292, -7284.545276706848, -31500.3358126087, 7080.943236463456, 5755.261272819194, -14673.003813386418, 2928.3690963231443, -22783.624861672506, -10174.335262100132, -33513.24451127583, -9153.553444570714, -12482.085821877221, -28009.73093625676, 390.9767140122311, -0.115, 0.9460000000000001, -0.003, 192.0, 0.0, 0.0, 0.0, 0.0, 0.0, 0.0, 0.0, 0.0, 0.0, 1.6583346269805984E9, 0.0, 2022-07-20 12:30:26.980
72.0, -17471.35281221304, -21636.846260648523, -16299.473202165747, -7735.20114841475, -32122.87659917791, 7063.419468810495, 6657.0424028685575, -14851.437789373136, 3508.083940515988, -22261.59986991881, -9526.626411274245, -32889.58613748386, -8556.337184469365, -11896.470117148176, -27503.26275864396, 956.922883620606, -0.115, 0.9460000000000001, -0.003, 192.0, 0.0, 0.0, 0.0, 0.0, 0.0, 0.0, 0.0, 0.0, 0.0, 1.6583346269806058E9, 0.0, 2022-07-20 12:30:26.980
74.0, -17128.432348779723, -21249.043494348945, -16185.25578799913, -7365.45859163506, -31587.284098539843, 6986.015377761767, 5732.306031263594, -14778.057012326362, 2886.0125405803374, -22871.578976104138, -10159.404296803987, -33518.474819478375, -9188.980959532377, -12526.029351476354, -28097.03685009919, 412.16616775586226, -0.115, 0.9460000000000001, -0.003, 192.0, 0.0, 0.0, 0.0, 0.0, 0.0, 0.0, 0.0, 0.0, 0.0, 1.6583346269806132E9, 0.0, 2022-07-20 12:30:26.980
76.0, -17382.504628003197, -21548.668628772335, -16190.888427601867, -7653.259653241594, -32037.58234233646, 7140.153007525565, 6655.902463901337, -14822.916963448164, 3552.116877092943, -22213.007177472973, -9532.393161343714, -32894.816445686396, -8531.772617312983, -11874.028965715048, -27432.318321742812, 913.8957755441398, -0.115, 0.9460000000000001, -0.003, 192.0, 0.0, 0.0, 0.0, 0.0, 0.0, 0.0, 0.0, 0.0, 0.0, 1.6583346269806209E9, 0.0, 2022-07-20 12:30:26.980
78.0, -17229.439881973252, -21353.828472355424, -16258.681268534812, -7466.130848661763, -31688.582204411294, 6906.666684945427, 5813.018180491707, -14892.229723004071, 2843.3430604151563, -22924.23968604084, -10125.183776042912, -33508.59534842913, -9199.48627942637, -12576.052555567332, -28148.647028046493, 454.8356479210434, -0.1155, 0.9440000000000001, -0.0055, 192.0, 126.0, 48.0, 14.5, 56.0, 127.5, 96.0, 0.0, 0.0, 0.0, 1.6583346269806285E9, 0.0, 2022-07-20 12:30:26.980
80.0, -17302.23951366419, -21463.44142716425, -16116.166545887774, -7566.8701609218315, -31942.18509700121, 7213.131453172142, 6566.1155064243685, -14754.25240448146, 3559.2917870630968, -22187.280319604914, -9582.908103812708, -32931.62976880428, -8539.998059272535, -11870.810314513483, -27395.37088815819, 850.1038968686935, -0.1155, 0.9440000000000001, -0.0055, 192.0, 0.0, 0.0, 0.0, 0.0, 0.0, 0.0, 0.0, 0.0, 0.0, 1.658334626980636E9, 0.0, 2022-07-20 12:30:26.980
82.0, -17327.1393569874, -21443.324857154472, -16347.887080655943, -7550.754553169555, -31786.348734658808, 6844.238262681754, 5871.758564920255, -14987.58226485041, 2828.255632907824, -22979.850826245645, -10089.890371547983, -33477.504071891795, -9205.96828531841, -12560.786314104356, -28185.86268256458, 514.268936427705, -0.1155, 0.9440000000000001, -0.0055, 192.0, 0.0, 0.0, 0.0, 0.0, 0.0, 0.0, 0.0, 0.0, 0.0, 1.6583346269806437E9, 0.0, 2022-07-20 12:30:26.980
84.0, -17200.06968975898, -21352.21914675464, -16041.0870362624, -7458.888883458243, -31821.083345542356, 7293.083643088776, 6502.48008996011, -14714.041616206363, 3569.8641621904567, -22146.15310980715, -9630.04793286895, -32954.026216748505, -8540.936832539659, -11887.261198432589, -27356.23298361695, 814.9222510960402, -0.1155, 0.9440000000000001, -0.0055, 192.0, 0.0, 0.0, 0.0, 0.0, 0.0, 0.0, 0.0, 0.0, 0.0, 1.6583346269806511E9, 0.0, 2022-07-20 12:30:26.980
86.0, -17418.423881342875, -21539.392654823383, -16428.934506050886, -7646.062391526984, -31887.64684053026, 6798.1489656149115, 5966.552313155212, -15086.086402664949, 2842.605452848131, -22969.390209840563, -10030.814710952605, -33422.965815420845, -9156.8615027501, -12521.737816540935, -28183.359287185587, 597.551536268179, -0.1155, 0.9440000000000001, -0.0055, 192.0, 0.0, 0.0, 0.0, 0.0, 0.0, 0.0, 0.0, 0.0, 0.0, 1.6583346269806585E9, 0.0, 2022-07-20 12:30:26.980
88.0, -17100.604426932863, -21257.090122352856, -15973.584768007371, -7371.940597527099, -31712.677384934115, 7340.894024478677, 6401.740777700041, -14688.024185660386, 3525.4959494466725, -22152.00926685444, -9711.542393153, -33024.30010131599, -8583.494553982562, -11928.813091375005, -27365.643068032634, 733.740715234365, -0.11475, 0.9450000000000001, -0.00675, 192.0, 126.0, 56.0, 14.5, 72.0, 127.5, 96.0, 0.0, 0.0, 0.0, 1.658334626980666E9, 0.0, 2022-07-20 12:30:26.980
90.0, -17478.907701838936, -21613.488687692727, -16449.699276649866, -7714.056398160029, -31954.545611684993, 6807.1343668859445, 6095.454823428968, -15142.591612647966, 2898.596572708675, -22921.132793561555, -9933.271698149645, -33345.49466913875, -9085.022996070742, -12481.549380010294, -28145.048397189188, 688.970171090385, -0.11475, 0.9450000000000001, -0.00675, 192.0, 0.0, 0.0, 0.0, 0.0, 0.0, 0.0, 0.0, 0.0, 0.0, 1.6583346269806733E9, 0.0, 2022-07-20 12:30:26.980
92.0, -17022.574487039386, -21170.588871310818, -15906.641293363726, -7293.329512277784, -31608.83118019476, 7383.876429066233, 6309.003389954972, -14647.701638663011, 3504.865289314424, -22164.258022815946, -9764.35956530089, -33083.82279680047, -8622.096016656878, -11949.331992784977, -27387.056039220817, 687.8749356120749, -0.11475, 0.9450000000000001, -0.00675, 192.0, 0.0, 0.0, 0.0, 0.0, 0.0, 0.0, 0.0, 0.0, 0.0, 1.6583346269806807E9, 0.0, 2022-07-20 12:30:26.980
94.0, -17562.838502268613, -21689.126990929486, -16497.666120250957, -7796.780204389121, -32072.473415431192, 6769.67284317885, 6189.957998986006, -15187.116287602938, 2939.187340639513, -22907.185305021445, -9868.876322373906, -33289.995287656224, -9030.708257044347, -12421.55729789225, -28129.84921095958, 758.0147097128284, -0.11475, 0.9450000000000001, -0.00675, 192.0, 0.0, 0.0, 0.0, 0.0, 0.0, 0.0, 0.0, 0.0, 0.0, 1.658334626980688E9, 0.0, 2022-07-20 12:30:26.980
96.0, -16984.285948787445, -21135.65309472717, -15900.203990960597, -7248.000174522421, -31555.96930455796, 7358.037812475898, 6172.300120866314, -14637.486891446935, 3416.933526627246, -22250.26753547997, -9865.411801983333, -33175.17437638931, -8709.58074445495, -12060.48721796122, -27475.34542981928, 594.2658298332489, -0.11475, 0.9450000000000001, -0.00675, 192.0, 0.0, 0.0, 0.0, 0.0, 0.0, 0.0, 0.0, 0.0, 0.0, 1.6583346269806955E9, 0.0, 2022-07-20 12:30:26.980
98.0, -17623.590543698137, -21764.631183699512, -16528.75739678829, -7854.805332995097, -32163.98145723122, 6749.33275572452, 6328.717628564552, -15203.500116288677, 2998.173594257068, -22850.23306014932, -9810.27004841209, -33232.79717359509, -8983.769593688201, -12363.956852430923, -28086.397419738463, 801.4217974450347, -0.113375, 0.9475, -0.007375, 192.0, 126.0, 64.0, 14.5, 88.0, 127.5, 96.0, 0.0, 0.0, 0.0, 1.658334626980703E9, 0.0, 2022-07-20 12:30:26.980
100.0, -16933.05575049588, -21071.011849762424, -15889.564560599872, -7193.752490729391, -31493.876158461117, 7332.668582519124, 6039.217834379415, -14591.621111824647, 3345.229130414621, -22319.84851596934, -9937.92086099635, -33245.62707491244, -8798.965370531723, -12138.248936921233, -27560.438520960633, 522.427323153892, -0.113375, 0.9475, -0.007375, 192.0, 0.0, 0.0, 0.0, 0.0, 0.0, 0.0, 0.0, 0.0, 0.0, 1.6583346269807105E9, 0.0, 2022-07-20 12:30:26.980
102.0, -17649.607974244114, -21791.7438497238, -16532.534841601235, -7888.936446778352, -32227.66157718439, 6762.632043675429, 6416.291763340445, -15160.674173912308, 3080.7409382749725, -22749.449044400342, -9726.942745082706, -33142.920809140305, -8903.459775860283, -12267.03968847271, -28006.691099010837, 853.1660858590706, -0.113375, 0.9475, -0.007375, 192.0, 0.0, 0.0, 0.0, 0.0, 0.0, 0.0, 0.0, 0.0, 0.0, 1.658334626980719E9, 0.0, 2022-07-20 12:30:26.980
104.0, -16921.72341605704, -21047.050779706333, -15892.917322268167, -7169.65731020657, -31445.954018348937, 7310.585058997281, 5925.894489991008, -14579.729983774423, 3234.4762366385744, -22421.459546263166, -10022.723379459785, -33329.73668929776, -8894.407319355883, -12227.477100786818, -27659.81437680893, 444.5091419826916, -0.113375, 0.9475, -0.007375, 192.0, 0.0, 0.0, 0.0, 0.0, 0.0, 0.0, 0.0, 0.0, 0.0, 1.6583346269807267E9, 0.0, 2022-07-20 12:30:26.980
106.0, -17665.701230251936, -21809.491134821314, -16494.22395160484, -7898.145365493938, -32248.985141394754, 6821.260669381699, 6524.8541861598715, -15080.65492876231, 3187.112890137779, -22652.934211842326, -9646.588223765877, -33065.33790413594, -8802.564001389028, -12181.723079886804, -27879.19674863777, 917.3602959347124, -0.113375, 0.9475, -0.007375, 192.0, 0.0, 0.0, 0.0, 0.0, 0.0, 0.0, 0.0, 0.0, 0.0, 1.658334626980734E9, 0.0, 2022-07-20 12:30:26.980
108.0, -16941.772930833453, -21067.860253794224, -15915.313770212386, -7187.449298792994, -31426.105669272623, 7265.523942175382, 5858.816904880632, -14561.7368294879, 3139.078991303324, -22537.196879052746, -10086.694072090873, -33415.768553706235, -8972.68312843837, -12319.834508876147, -27741.934685937726, 417.53058642513594, -0.1166875, 0.94875, -0.0076875, 192.0, 126.0, 32.0, 14.5, 88.0, 127.5, 96.0, 0.0, 0.0, 0.0, 1.6583346269807415E9, 0.0, 2022-07-20 12:30:26.980
110.0, -17642.34365729614, -21801.6456725175, -16453.901404607466, -7889.428185156368, -32244.738309948247, 6878.235265998276, 6574.296244895011, -15007.117689504348, 3261.6336061517727, -22566.164739866825, -9605.505717457023, -33025.52944726103, -8732.737151710648, -12120.188727401344, -27779.44091313373, 949.56915969481, -0.1166875, 0.94875, -0.0076875, 192.0, 0.0, 0.0, 0.0, 0.0, 0.0, 0.0, 0.0, 0.0, 0.0, 1.658334626980749E9, 0.0, 2022-07-20 12:30:26.980
112.0, -16948.053771025392, -21070.967146273513, -15961.671288212692, -7191.629075006137, -31424.921026816493, 7207.09648216921, 5797.14844192844, -14567.235358623906, 3052.9577199170258, -22636.930362812327, -10124.401464986977, -33458.16981293796, -9043.515806617237, -12368.203683877431, -27841.08702434147, 409.1486822543958, -0.1166875, 0.94875, -0.0076875, 192.0, 0.0, 0.0, 0.0, 0.0, 0.0, 0.0, 0.0, 0.0, 0.0, 1.6583346269807563E9, 0.0, 2022-07-20 12:30:26.980
114.0, -17609.196020268922, -21775.9411663939, -16420.82082281361, -7865.668280800377, -32238.81509766759, 6928.660801489449, 6667.435964040275, -14934.675685724698, 3359.71306082166, -22443.990104674114, -9555.214292432582, -32955.90376328275, -8652.539092605006, -12030.111197246457, -27664.66470535573, 974.3572442957454, -0.1166875, 0.94875, -0.0076875, 192.0, 0.0, 0.0, 0.0, 0.0, 0.0, 0.0, 0.0, 0.0, 0.0, 1.6583346269807637E9, 0.0, 2022-07-20 12:30:26.980
116.0, -17024.161460895713, -21154.85324321428, -16068.557330197971, -7269.167276521597, -31494.591414283685, 7107.385350154084, 5722.784188125634, -14633.642391400623, 2947.6810035325293, -22753.338247935564, -10182.068965681668, -33521.335842768654, -9135.984973428844, -12501.66595002007, -27975.175139328854, 371.9330277363095, -0.1166875, 0.94875, -0.0076875, 192.0, 0.0, 0.0, 0.0, 0.0, 0.0, 0.0, 0.0, 0.0, 0.0, 1.658334626980771E9, 0.0, 2022-07-20 12:30:26.980
118.0, -17547.952240461378, -21715.367938920015, -16356.961888904798, -7809.096015583995, -32194.245719223705, 6995.425462177452, 6679.684720001784, -14867.732211081055, 3412.5749364584613, -22374.2303102291, -9560.399897146213, -32943.99028348807, -8620.576098033916, -11992.493211328176, -27598.682355723664, 947.9151306051173, -0.11934375, 0.9473750000000001, -0.008843750000000001, 192.0, 126.0, 24.0, 14.5, 72.0, 127.5, 88.0, 0.0, 0.0, 0.0, 1.6583346269807782E9, 0.0, 2022-07-20 12:30:26.980
120.0, -17066.09333349387, -21190.325461664852, -16112.232638863641, -7306.293524061862, -31530.62242634564, 7060.960776920411, 5747.527569237658, -14663.660784204101, 2905.726779189918, -22819.678225478918, -10166.713317240872, -33521.91698812449, -9166.919787754989, -12536.892299281633, -28045.73959657426, 408.433426431826, -0.11934375, 0.9473750000000001, -0.008843750000000001, 192.0, 0.0, 0.0, 0.0, 0.0, 0.0, 0.0, 0.0, 0.0, 0.0, 1.658334627459706E9, 0.0, 2022-07-20 12:30:27.459
122.0, -17467.910643566924, -21638.321475782574, -16266.325565138528, -7730.373171612403, -32118.003918886654, 7086.173544665998, 6654.002565622636, -14790.462230499057, 3490.895449029857, -22270.540567700933, -9537.444655590612, -32914.95536744063, -8560.762829871515, -11901.2086869727, -27501.29580513189, 945.3670317372122, -0.11934375, 0.9473750000000001, -0.008843750000000001, 192.0, 0.0, 0.0, 0.0, 0.0, 0.0, 0.0, 0.0, 0.0, 0.0, 1.658334627459764E9, 0.0, 2022-07-20 12:30:27.459
124.0, -17165.625651553353, -21290.9753669471, -16197.236323027173, -7400.908458341177, -31618.800058221826, 6974.593636345106, 5772.717985238789, -14758.655698139155, 2834.022382977293, -22912.505020201806, -10170.311948098177, -33547.30856982572, -9205.16362251802, -12572.409221221116, -28134.073690661633, 419.29637423710517, -0.11934375, 0.9473750000000001, -0.008843750000000001, 192.0, 0.0, 0.0, 0.0, 0.0, 0.0, 0.0, 0.0, 0.0, 0.0, 1.6583346274597995E9, 0.0, 2022-07-20 12:30:27.459
126.0, -17365.58435745053, -21543.237154869697, -16165.563901134003, -7637.211100722683, -32009.79912397851, 7180.6320167341255, 6625.638201908851, -14710.867668493709, 3532.2685280166306, -22200.78077325592, -9558.097667467317, -32926.4218123462, -8531.303230679421, -11905.902553308315, -27431.580714175787, 905.5138713733998, -0.11934375, 0.9473750000000001, -0.008843750000000001, 192.0, 0.0, 0.0, 0.0, 0.0, 0.0, 0.0, 0.0, 0.0, 0.0, 1.6583346274598396E9, 0.0, 2022-07-20 12:30:27.459
128.0, -17246.874242648395, -21376.649603444293, -16266.213806416252, -7482.849953514333, -31699.735724894494, 6917.283763561698, 5839.236776737783, -14828.214326884072, 2821.4159991045, -22951.240593342853, -10120.735778896305, -33515.412630488, -9187.05870950922, -12580.500552713938, -28169.367095156565, 484.1834883908616, -0.11934375, 0.9473750000000001, -0.008843750000000001, 192.0, 0.0, 0.0, 0.0, 0.0, 0.0, 0.0, 0.0, 0.0, 0.0, 1.658334627459874E9, 0.0, 2022-07-20 12:30:27.459
130.0, -17256.485492764175, -21425.465813334682, -16067.819722630946, -7526.1899860131725, -31898.487436591084, 7263.0428985408425, 6544.2778520915335, -14643.007772327397, 3561.4599062752613, -22143.85088012825, -9586.931417814663, -32936.971835729106, -8516.729893294561, -11899.867582305382, -27383.256242663414, 869.4381558225341, -0.116, 0.9500000000000001, -0.01, 192.0, 126.0, 48.0, 14.5, 88.0, 127.5, 88.0, 0.0, 0.0, 0.0, 1.658334627459894E9, 0.0, 2022-07-20 12:30:27.459
132.0, -17340.684514127315, -21464.804883576024, -16341.248612552718, -7569.172390600728, -31798.9551185316, 6855.54824537614, 5930.141321437517, -14906.087804566361, 2827.473321851888, -22970.284279618776, -10066.644557314463, -33471.2008799554, -9173.111220969107, -12548.001116275922, -28197.1056100256, 552.8256956131096, -0.116, 0.9500000000000001, -0.01, 192.0, 0.0, 0.0, 0.0, 0.0, 0.0, 0.0, 0.0, 0.0, 0.0, 1.6583346274599016E9, 0.0, 2022-07-20 12:30:27.459
134.0, -17194.347643178422, -21359.32700149143, -16022.333922664397, -7455.558473534403, -31813.707269872102, 7301.06321585932, 6461.598749351353, -14596.113812460162, 3547.4230107573285, -22152.568060465823, -9654.14311339177, -32989.85606311036, -8549.162274499211, -11920.945277326737, -27373.08619893625, 799.2313264884147, -0.116, 0.9500000000000001, -0.01, 192.0, 0.0, 0.0, 0.0, 0.0, 0.0, 0.0, 0.0, 0.0, 0.0, 1.6583346274599168E9, 0.0, 2022-07-20 12:30:27.459
136.0, -17464.088495265067, -21584.99021351221, -16438.8810323335, -7687.346063535937, -31930.94216954019, 6782.547447985107, 5999.699950182432, -14996.612369610355, 2820.70074328193, -22993.328928152197, -10029.741827218751, -33441.294245874196, -9156.883854494556, -12568.877645597178, -28216.171648045976, 599.9878764138075, -0.116, 0.9500000000000001, -0.01, 192.0, 0.0, 0.0, 0.0, 0.0, 0.0, 0.0, 0.0, 0.0, 0.0, 1.6583346274599235E9, 0.0, 2022-07-20 12:30:27.459
138.0, -17102.034938578003, -21246.987133859056, -15957.290346299453, -7365.749164312979, -31708.51996046543, 7339.396457600172, 6337.0101257574715, -14550.605660749157, 3489.219068195709, -22182.072363146828, -9746.277004036547, -33069.76354953808, -8617.670371254728, -11987.732289759195, -27403.618681862197, 708.4608922554127, -0.116, 0.9500000000000001, -0.01, 192.0, 0.0, 0.0, 0.0, 0.0, 0.0, 0.0, 0.0, 0.0, 0.0, 1.658334627459931E9, 0.0, 2022-07-20 12:30:27.459
140.0, -17536.016408922245, -21665.09886564003, -16482.958672399363, -7767.052384263562, -32029.28984514354, 6763.839037876015, 6070.2867591722925, -15056.73856219513, 2877.2730084983123, -22933.49330824534, -9933.964602227761, -33357.76577684472, -9090.901504862488, -12492.881714449135, -28173.27865043624, 696.3462467606362, -0.114, 0.9500000000000001, -0.008, 192.0, 126.0, 56.0, 14.5, 88.0, 127.5, 96.0, 0.0, 0.0, 0.0, 1.6583346274599376E9, 0.0, 2022-07-20 12:30:27.459
142.0, -17019.624056771285, -21169.13600792122, -15900.427508405151, -7278.532657448371, -31591.463874752986, 7375.203952217574, 6268.613787724232, -14523.962381358431, 3436.893634425835, -22210.928465238627, -9816.32737115948, -33136.14823057035, -8669.124086990843, -12049.221938755743, -27435.782842133387, 634.6330803195334, -0.114, 0.9500000000000001, -0.008, 192.0, 0.0, 0.0, 0.0, 0.0, 0.0, 0.0, 0.0, 0.0, 0.0, 1.6583346274599433E9, 0.0, 2022-07-20 12:30:27.459
144.0, -17589.638243870526, -21723.280456457192, -16502.136469142017, -7814.348675530991, -32096.456837231737, 6766.409488488375, 6248.743086903463, -15049.83187315844, 2932.0347824138144, -22887.940453045423, -9853.453618699745, -33281.56867999658, -9018.683018527392, -12411.610771609638, -28108.391536282485, 775.9855122548953, -0.114, 0.9500000000000001, -0.008, 192.0, 0.0, 0.0, 0.0, 0.0, 0.0, 0.0, 0.0, 0.0, 0.0, 1.6583346274599507E9, 0.0, 2022-07-20 12:30:27.459
146.0, -16971.187826536636, -21115.804745650858, -15874.611243559271, -7225.581374833749, -31513.925673237525, 7370.666548093146, 6143.935757152529, -14500.91773282501, 3381.9753982991456, -22272.3063555129, -9881.2815405466, -33195.492112099186, -8725.674000462772, -12095.311235822588, -27476.932403675608, 585.5710012401345, -0.114, 0.9500000000000001, -0.008, 192.0, 0.0, 0.0, 0.0, 0.0, 0.0, 0.0, 0.0, 0.0, 0.0, 1.658334627459958E9, 0.0, 2022-07-20 12:30:27.459
148.0, -17645.718770708892, -21791.92266367944, -16522.677722296445, -7880.666301329888, -32172.899803268887, 6761.2909390081095, 6335.82548330134, -15085.952292198217, 3004.789710615839, -22844.600420546583, -9783.872638210374, -33218.53676063261, -8946.978622314766, -12382.039413695265, -28044.510250629217, 830.8366931482188, -0.114, 0.9500000000000001, -0.008, 192.0, 0.0, 0.0, 0.0, 0.0, 0.0, 0.0, 0.0, 0.0, 0.0, 1.6583346274599652E9, 0.0, 2022-07-20 12:30:27.459
150.0, -16942.376427933745, -21092.201303506055, -15882.121429696255, -7207.588220547226, -31468.931611648994, 7341.8775012347105, 6004.125595584584, -14533.998314618864, 3289.550934976451, -22372.866853817326, -9969.079192767047, -33295.33735458105, -8815.282143984097, -12196.27406552721, -27570.675619921163, 511.00558173723005, -0.112, 0.9500000000000001, -0.008, 192.0, 126.0, 64.0, 14.5, 88.0, 127.5, 96.0, 0.0, 0.0, 0.0, 1.658334627459972E9, 0.0, 2022-07-20 12:30:27.459
152.0, -17686.890683995567, -21853.725237098366, -16538.32394341516, -7933.416418244412, -32250.214487339796, 6774.3220060255535, 6414.883603439761, -15100.525629583077, 3086.440633111076, -22753.293544446653, -9712.235297231115, -33154.588419745975, -8867.808743454068, -12282.618854358061, -27968.447264247807, 883.6091618071988, -0.112, 0.9500000000000001, -0.008, 192.0, 0.0, 0.0, 0.0, 0.0, 0.0, 0.0, 0.0, 0.0, 0.0, 1.6583346274599793E9, 0.0, 2022-07-20 12:30:27.459
154.0, -16948.21023323658, -21104.539466445385, -15915.961970801589, -7214.830185750746, -31456.66050394303, 7279.8290586267785, 5870.104535830562, -14585.139105932607, 3170.2596748184774, -22501.970529791182, -10065.102286947047, -33403.58685297809, -8928.180805227854, -12317.44287221943, -27707.691813432197, 424.0572958060856, -0.112, 0.9500000000000001, -0.008, 192.0, 0.0, 0.0, 0.0, 0.0, 0.0, 0.0, 0.0, 0.0, 0.0, 1.658334627459986E9, 0.0, 2022-07-20 12:30:27.459
156.0, -17666.572948285695, -21843.063454993186, -16486.087916623106, -7923.1122640505155, -32254.461318786303, 6821.148910659423, 6533.258442075067, -15092.903684723817, 3190.689169250628, -22657.426912477844, -9635.23353758258, -33079.06187523149, -8781.262788923119, -12214.490737258284, -27865.00339090865, 920.2436709694471, -0.112, 0.9500000000000001, -0.008, 192.0, 0.0, 0.0, 0.0, 0.0, 0.0, 0.0, 0.0, 0.0, 0.0, 1.6583346274599917E9, 0.0, 2022-07-20 12:30:27.459
158.0, -16948.92548905915, -21096.582245419293, -15937.15142454522, -7215.254868895397, -31433.437041453966, 7220.708694542492, 5803.2728199091935, -14638.157443780596, 3094.5096128594414, -22583.37558309741, -10101.066243775636, -33452.31365589066, -8994.87841068249, -12393.371748134106, -27780.06676197848, 403.2925252071053, -0.112, 0.9500000000000001, -0.008, 192.0, 0.0, 0.0, 0.0, 0.0, 0.0, 0.0, 0.0, 0.0, 0.0, 1.6583346274599977E9, 0.0, 2022-07-20 12:30:27.459
160.0, -17638.72267469438, -21812.530972067234, -16444.558375425146, -7905.923772564384, -32252.851993185523, 6883.152649778444, 6567.188390158223, -15066.752143711108, 3268.9202748442026, -22553.424245527298, -9591.781746361465, -33024.411860038264, -8707.904363620803, -12144.35096315753, -27761.78303501404, 944.182389281081, -0.116, 0.9520000000000001, -0.008, 192.0, 126.0, 48.0, 14.5, 96.0, 127.5, 96.0, 0.0, 0.0, 0.0, 1.6583346274600031E9, 0.0, 2022-07-20 12:30:27.460
162.0, -16986.92345463317, -21120.27509454192, -15996.249436885053, -7247.307270444307, -31452.07839632969, 7156.268615277841, 5753.048450118119, -14694.260322363416, 2995.1114052666912, -22702.286863599642, -10148.161369342968, -33504.68379314945, -9060.637242870003, -12461.119885578142, -27885.634051040895, 381.47722261872565, -0.116, 0.9520000000000001, -0.008, 192.0, 0.0, 0.0, 0.0, 0.0, 0.0, 0.0, 0.0, 0.0, 0.0, 1.6583346274600089E9, 0.0, 2022-07-20 12:30:27.460
164.0, -17599.18243875294, -21775.963518138353, -16391.316520132605, -7870.093926202528, -32233.00364410921, 6942.51888305174, 6641.55264396103, -15016.617180897854, 3363.4234504012406, -22450.807386732984, -9552.107399953295, -32971.773501846015, -8628.175691148721, -12054.787523125116, -27646.2245161801, 962.6672819456198, -0.116, 0.9520000000000001, -0.008, 192.0, 0.0, 0.0, 0.0, 0.0, 0.0, 0.0, 0.0, 0.0, 0.0, 1.6583346274600143E9, 0.0, 2022-07-20 12:30:27.460
166.0, -17017.679455003676, -21158.787150238415, -16039.075379261421, -7272.698852145536, -31480.28629783229, 7108.4358821434835, 5745.046525603119, -14757.314593471838, 2924.569299765742, -22791.51502746523, -10168.032070163736, -33537.429098776476, -9127.625421002558, -12542.860215051202, -27988.854406935505, 386.93104826582055, -0.116, 0.9520000000000001, -0.008, 192.0, 0.0, 0.0, 0.0, 0.0, 0.0, 0.0, 0.0, 0.0, 0.0, 1.6583346274600215E9, 0.0, 2022-07-20 12:30:27.460
168.0, -17517.263295324243, -21699.05116546764, -16289.727841583233, -7788.800631618576, -32161.388654874405, 7032.395247506529, 6641.664402683306, -14979.692099057687, 3460.184152148265, -22328.56569630691, -9504.632294730221, -32910.64148076075, -8542.479102907075, -11981.496153056163, -27524.362805409768, 987.6788839911085, -0.116, 0.9520000000000001, -0.008, 192.0, 0.0, 0.0, 0.0, 0.0, 0.0, 0.0, 0.0, 0.0, 0.0, 1.6583346274600275E9, 0.0, 2022-07-20 12:30:27.460
170.0, -17105.007720590558, -21246.651857692224, -16118.491127311127, -7353.567463584836, -31566.564031429774, 7014.558555431195, 5701.214754726262, -14887.75937411301, 2859.3692611896113, -22876.76458081777, -10160.477180537842, -33550.773090216295, -9163.544674342236, -12591.430555752582, -28074.975678321804, 405.0583130190746, -0.114, 0.9480000000000001, -0.008, 192.0, 126.0, 56.0, 14.5, 80.0, 127.5, 96.0, 0.0, 0.0, 0.0, 1.658334627460033E9, 0.0, 2022-07-20 12:30:27.460
172.0, -17425.643494801938, -21604.816210844067, -16193.660043914324, -7693.872772916887, -32075.133273021376, 7133.022801044322, 6632.343725245443, -14908.010054589518, 3501.959562535234, -22242.10914875378, -9518.177451870139, -32915.022422673996, -8521.73668405255, -11958.362097544921, -27455.653542954155, 951.2008370400473, -0.114, 0.9480000000000001, -0.008, 192.0, 0.0, 0.0, 0.0, 0.0, 0.0, 0.0, 0.0, 0.0, 0.0, 1.6583346274600387E9, 0.0, 2022-07-20 12:30:27.460
174.0, -17170.475980100153, -21296.138619916277, -16164.11103774441, -7398.717987384557, -31620.476439055976, 6977.544066613205, 5782.351587099027, -14920.012941362018, 2831.116656198103, -22921.713938917394, -10121.67455216343, -33520.39706950153, -9158.828456262167, -12559.892244326145, -28100.32255653412, 488.2068023928169, -0.114, 0.9480000000000001, -0.008, 192.0, 0.0, 0.0, 0.0, 0.0, 0.0, 0.0, 0.0, 0.0, 0.0, 1.6583346274600444E9, 0.0, 2022-07-20 12:30:27.460
176.0, -17324.323037186034, -21501.05941308253, -16097.860467178878, -7585.511515797558, -31974.28220203903, 7217.847671252212, 6580.890009509327, -14841.781835768443, 3538.4599612307507, -22176.886758433197, -9535.231832889538, -32907.71340223711, -8488.499640047508, -11900.672245105774, -27371.253355890913, 940.6061101682318, -0.114, 0.9480000000000001, -0.008, 192.0, 0.0, 0.0, 0.0, 0.0, 0.0, 0.0, 0.0, 0.0, 0.0, 1.65833462746005E9, 0.0, 2022-07-20 12:30:27.460
178.0, -17255.1220363524, -21388.85365591689, -16252.26631787614, -7479.094860445841, -31720.65695770466, 6917.46257751734, 5832.4418464233695, -14998.266398700047, 2823.695877038941, -22939.327113548174, -10065.124638691503, -33474.93362127944, -9151.608842803102, -12573.63856716616, -28130.497411548786, 560.4699922168246, -0.114, 0.9480000000000001, -0.008, 192.0, 0.0, 0.0, 0.0, 0.0, 0.0, 0.0, 0.0, 0.0, 0.0, 1.6583346274600556E9, 0.0, 2022-07-20 12:30:27.460
180.0, -17238.98407685567, -21405.975092169654, -16039.65652461726, -7500.19490721165, -31880.583689282383, 7272.140058534153, 6504.424691727721, -14789.970492121041, 3547.4230107573285, -22144.29791501736, -9576.493153154035, -32936.07776595089, -8501.977741954059, -11911.155213255313, -27344.878297433654, 890.0017607214166, -0.12, 0.9420000000000001, -0.008, 192.0, 126.0, 32.0, 14.5, 56.0, 127.5, 96.0, 0.0, 0.0, 0.0, 1.6583346274600613E9, 0.0, 2022-07-20 12:30:27.460
182.0, -17378.503665745695, -21513.151706832854, -16349.742275445733, -7602.074158438941, -31849.626523211784, 6830.894271241936, 5891.651617485478, -15110.539211099054, 2784.513269008788, -22998.35807065464, -10053.389972852467, -33476.6994090914, -9162.516494097292, -12618.096186887764, -28194.28929022423, 579.9607133818523, -0.12, 0.9420000000000001, -0.008, 192.0, 0.0, 0.0, 0.0, 0.0, 0.0, 0.0, 0.0, 0.0, 0.0, 1.6583346274600668E9, 0.0, 2022-07-20 12:30:27.460
184.0, -17136.188404105713, -21304.475820598105, -15945.265107782498, -7399.902629840688, -31758.18553664512, 7352.963966484544, 6421.566775031898, -14721.10476745424, 3528.7816558816025, -22151.24930754296, -9642.542558019466, -32997.925042858726, -8530.766788812494, -11919.35830347041, -27343.626599744155, 810.7424748828978, -0.12, 0.9420000000000001, -0.008, 192.0, 0.0, 0.0, 0.0, 0.0, 0.0, 0.0, 0.0, 0.0, 0.0, 1.6583346274600725E9, 0.0, 2022-07-20 12:30:27.460
186.0, -17460.06518126311, -21592.388640926914, -16399.027871969687, -7686.094365846439, -31933.959655041657, 6817.103244913012, 6022.074046382195, -15142.010467292128, 2843.6336330930753, -22950.793558453748, -9953.142398970414, -33393.528567973204, -9084.643016415002, -12542.256717950908, -28151.977437970334, 679.9847698193514, -0.12, 0.9420000000000001, -0.008, 192.0, 0.0, 0.0, 0.0, 0.0, 0.0, 0.0, 0.0, 0.0, 0.0, 1.6583346274600782E9, 0.0, 2022-07-20 12:30:27.460
188.0, -17072.95531904165, -21230.78211912896, -15906.328368941353, -7327.170053383119, -31659.50258487494, 7371.6947283380905, 6301.001465439972, -14688.67238624959, 3474.4892685996615, -22174.47277003202, -9733.357695741379, -33076.13379670784, -8582.22050454861, -11990.302740371555, -27363.564355798288, 730.1867878659712, -0.12, 0.9420000000000001, -0.008, 192.0, 0.0, 0.0, 0.0, 0.0, 0.0, 0.0, 0.0, 0.0, 0.0, 1.6583346274600837E9, 0.0, 2022-07-20 12:30:27.460
190.0, -17534.585897277106, -21673.078438410575, -16458.01412558724, -7765.8006865740645, -32041.49389761614, 6777.495953738207, 6119.371189996146, -15206.070566901037, 2866.410060693033, -22932.9121628895, -9897.263037832146, -33339.92908476938, -9040.140693204487, -12494.80396447229, -28129.983321426313, 746.9058927185408, -0.12, 0.9520000000000001, -0.01, 192.0, 126.0, 32.0, 14.5, 96.0, 127.5, 88.0, 0.0, 0.0, 0.0, 1.6583346274600894E9, 0.0, 2022-07-20 12:30:27.460
192.0, -16983.302472031413, -21143.52090877544, -15865.536435310416, -7251.375287935172, -31573.314258255275, 7387.408004690172, 6187.432251862557, -14685.341976325748, 3423.77316043057, -22213.11893619525, -9802.98337971966, -33141.0209108616, -8647.08526695791, -12066.589244197517, -27411.866475566207, 659.935255042941, -0.12, 0.9520000000000001, -0.01, 192.0, 0.0, 0.0, 0.0, 0.0, 0.0, 0.0, 0.0, 0.0, 0.0, 1.6583346274600952E9, 0.0, 2022-07-20 12:30:27.460
194.0, -17598.221313741364, -21750.21430852584, -16487.429021290423, -7833.101789128994, -32138.25459936316, 6770.81278214607, 6245.613842679721, -15268.364878697977, 2945.4234773425433, -22862.7947405332, -9807.766653033097, -33260.13335706393, -8975.67826219538, -12413.734187332891, -28076.629707411495, 815.3916377296016, -0.12, 0.9520000000000001, -0.01, 192.0, 0.0, 0.0, 0.0, 0.0, 0.0, 0.0, 0.0, 0.0, 0.0, 1.658334627460101E9, 0.0, 2022-07-20 12:30:27.460
196.0, -16936.78849181992, -21090.59197790527, -15831.1371005937, -7199.563944287771, -31498.90530096356, 7387.408004690172, 6061.122543945617, -14691.198133373038, 3345.229130414621, -22291.707669700107, -9877.034709100093, -33219.184961221814, -8730.0102388871, -12133.44331186334, -27482.453284556068, 590.197812342383, -0.12, 0.9520000000000001, -0.01, 192.0, 0.0, 0.0, 0.0, 0.0, 0.0, 0.0, 0.0, 0.0, 0.0, 1.6583346274601066E9, 0.0, 2022-07-20 12:30:27.460
198.0, -17635.302857792718, -21790.06746888965, -16476.49901825178, -7874.9219030048735, -32183.963916774264, 6799.445366793319, 6358.624262645753, -15271.561178155087, 3036.328022042277, -22790.26332977573, -9715.096320521394, -33174.593231033476, -8882.47148781675, -12346.276622566775, -27972.470578249762, 894.1815369345591, -0.12, 0.9520000000000001, -0.01, 192.0, 0.0, 0.0, 0.0, 0.0, 0.0, 0.0, 0.0, 0.0, 0.0, 1.6583346274601135E9, 0.0, 2022-07-20 12:30:27.460
200.0, -16922.55043060189, -21067.681439838583, -15849.242013602498, -7186.37641505914, -31448.926800361492, 7346.50431233696, 5964.183028242949, -14704.832697490776, 3236.4431901506414, -22389.72006913663, -9976.16469575938, -33325.48985785125, -8834.683458171303, -12239.211766625855, -27579.12457932527, 520.0803899860847, -0.123, 0.9510000000000001, -0.012, 192.0, 126.0, 8.0, 14.5, 88.0, 127.5, 72.0, 0.0, 0.0, 0.0, 1.6583346274601192E9, 0.0, 2022-07-20 12:30:27.460
202.0, -17656.49231153635, -21818.498887836802, -16481.59521598759, -7902.883935318463, -32229.449716740815, 6827.228585151266, 6460.347051661855, -15262.59812862851, 3109.842909555782, -22689.568721004573, -9663.933177463196, -33113.908244837316, -8803.9274578008, -12267.062040217166, -27889.18797840929, 942.1930840245586, -0.123, 0.9510000000000001, -0.012, 192.0, 0.0, 0.0, 0.0, 0.0, 0.0, 0.0, 0.0, 0.0, 0.0, 1.658334627460125E9, 0.0, 2022-07-20 12:30:27.460
204.0, -16917.923619499637, -21059.388942645663, -15883.551941341395, -7173.881789908623, -31427.826753595684, 7311.568535753315, 5859.152181047461, -14750.027924779408, 3151.4395059871085, -22479.01528823558, -10045.61156578202, -33388.49942547076, -8902.252781659698, -12309.57505817116, -27682.590804408886, 474.97456967527506, -0.123, 0.9510000000000001, -0.012, 192.0, 0.0, 0.0, 0.0, 0.0, 0.0, 0.0, 0.0, 0.0, 0.0, 1.6583346274601307E9, 0.0, 2022-07-20 12:30:27.460
206.0, -17643.461244518905, -21806.339538853113, -16450.168663283428, -7889.539943878644, -32255.48949903125, 6884.091423045567, 6541.573291012442, -15251.44460814531, 3204.748416513016, -22596.160780925846, -9602.488231955556, -33042.807345724985, -8727.618602230383, -12161.0700680101, -27799.98216628816, 981.9568374105498, -0.123, 0.9510000000000001, -0.012, 192.0, 0.0, 0.0, 0.0, 0.0, 0.0, 0.0, 0.0, 0.0, 0.0, 1.6583346274601362E9, 0.0, 2022-07-20 12:30:27.460
208.0, -16927.959552760072, -21058.852500778736, -15907.736528842037, -7170.976063129433, -31417.097916257135, 7266.932102076066, 5793.52745932668, -14807.382501051725, 3062.054879910336, -22588.09180117748, -10090.695034348373, -33445.47402208734, -8982.696709954347, -12400.770175548814, -27781.229052690156, 450.94644438582, -0.123, 0.9510000000000001, -0.012, 192.0, 0.0, 0.0, 0.0, 0.0, 0.0, 0.0, 0.0, 0.0, 0.0, 1.6583346274601424E9, 0.0, 2022-07-20 12:30:27.460
210.0, -17597.059023029688, -21765.055866844163, -16373.703345501823, -7843.830626467541, -32212.864722354978, 6960.601444316083, 6639.831559637972, -15218.453433329278, 3311.098016631367, -22475.930747500748, -9533.823672988854, -32968.353684944355, -8627.70630451516, -12075.999328613201, -27663.792987321973, 1033.2317391910242, -0.1245, 0.9485000000000001, -0.01, 192.0, 126.0, 8.0, 14.5, 72.0, 127.5, 96.0, 0.0, 0.0, 0.0, 1.6583346274601495E9, 0.0, 2022-07-20 12:30:27.460
212.0, -16978.11686731778, -21113.547219460874, -15969.11441911631, -7221.33454338724, -31440.924875846493, 7195.5406302858155, 5759.977490899264, -14875.309452451404, 2977.0958992357137, -22676.314136542576, -10123.283877764212, -33490.26691797578, -9039.626603082013, -12460.762257666858, -27867.104454887445, 455.37208978797076, -0.1245, 0.9485000000000001, -0.01, 192.0, 0.0, 0.0, 0.0, 0.0, 0.0, 0.0, 0.0, 0.0, 0.0, 1.658334627460157E9, 0.0, 2022-07-20 12:30:27.460
214.0, -17548.46633058385, -21722.45344191235, -16321.668484409867, -7815.958001131774, -32190.445922666306, 7022.314610757186, 6641.373830005387, -15204.036558155603, 3378.197953486199, -22377.068981774926, -9522.759559483477, -32943.677359065696, -8573.056289321934, -12027.987781523203, -27579.21398630309, 1024.5816140868205, -0.1245, 0.9485000000000001, -0.01, 192.0, 0.0, 0.0, 0.0, 0.0, 0.0, 0.0, 0.0, 0.0, 0.0, 1.658334627460164E9, 0.0, 2022-07-20 12:30:27.460
216.0, -17042.37813262679, -21177.38380162523, -16049.915975322245, -7290.53554422087, -31512.47280984793, 7096.097719204155, 5711.161281008874, -15013.197363996193, 2897.8142616527393, -22784.876559362005, -10149.748343199295, -33528.667214949994, -9111.532164994736, -12515.591086815726, -27985.971031900768, 442.4527814928033, -0.1245, 0.9485000000000001, -0.01, 192.0, 0.0, 0.0, 0.0, 0.0, 0.0, 0.0, 0.0, 0.0, 0.0, 1.6583346274601717E9, 0.0, 2022-07-20 12:30:27.460
218.0, -17500.521838727218, -21662.796635961135, -16260.737629024701, -7762.850256305964, -32146.770614000634, 7080.3173876187075, 6627.068713553991, -15196.10168887397, 3441.609852505905, -22295.84274242434, -9520.412626315669, -32927.60645480233, -8542.836730818359, -11971.147295373357, -27505.699098789588, 993.8032619718626, -0.1245, 0.9485000000000001, -0.01, 192.0, 0.0, 0.0, 0.0, 0.0, 0.0, 0.0, 0.0, 0.0, 0.0, 1.658334627460179E9, 0.0, 2022-07-20 12:30:27.460
220.0, -17112.47320323863, -21235.386578486752, -16129.219964649674, -7359.378917143216, -31577.315220512777, 7029.020134093778, 5706.623876884446, -15110.136879698859, 2816.69978102443, -22883.023069265255, -10171.63070102104, -33559.78084323178, -9164.349337142628, -12598.940741889566, -28088.74435290627, 441.60341520350164, -0.12225, 0.94825, -0.011, 192.0, 126.0, 32.0, 14.5, 80.0, 127.5, 80.0, 0.0, 0.0, 0.0, 1.658334627460185E9, 0.0, 2022-07-20 12:30:27.460
222.0, -17393.50168627521, -21567.22057667024, -16170.48128491417, -7674.940845363241, -32056.67073210129, 7170.216103817953, 6593.965780015681, -15132.265106709614, 3506.7428358486695, -22202.747726767986, -9520.83730946032, -32906.79698071444, -8489.416061570175, -11927.650800663328, -27420.62835939269, 981.7109682215415, -0.12225, 0.94825, -0.011, 192.0, 0.0, 0.0, 0.0, 0.0, 0.0, 0.0, 0.0, 0.0, 0.0, 1.6583346274601908E9, 0.0, 2022-07-20 12:30:27.460
224.0, -17218.822803356983, -21346.65356238527, -16214.961256380233, -7458.575959035869, -31674.455901915542, 6948.151522654477, 5794.5779913160795, -15215.793575739095, 2782.926295152461, -22937.695436202936, -10144.138055341013, -33546.05687213622, -9173.401793647026, -12612.35178856275, -28135.70536800687, 490.37492160498164, -0.12225, 0.94825, -0.011, 192.0, 0.0, 0.0, 0.0, 0.0, 0.0, 0.0, 0.0, 0.0, 0.0, 1.6583346274601965E9, 0.0, 2022-07-20 12:30:27.460
226.0, -17295.66810079433, -21460.647459107335, -16072.692402922203, -7566.847809177377, -31946.65544589227, 7246.569662877281, 6554.894930707805, -15112.506164611123, 3510.4979289171615, -22178.227863100514, -9569.117077483783, -32940.54811484196, -8494.176983139156, -11923.426320961276, -27368.951126212018, 917.3155924458018, -0.12225, 0.94825, -0.011, 192.0, 0.0, 0.0, 0.0, 0.0, 0.0, 0.0, 0.0, 0.0, 0.0, 1.658334627460202E9, 0.0, 2022-07-20 12:30:27.460
228.0, -17312.387205646897, -21442.43078737626, -16286.978577015232, -7549.614614202334, -31773.29531589691, 6881.632731155483, 5830.184320233384, -15351.267498882711, 2778.098318350115, -22967.19973888394, -10082.022557499715, -33501.688659392436, -9158.582587073159, -12613.648189741158, -28162.43805437542, 554.2785590027046, -0.12225, 0.94825, -0.011, 192.0, 0.0, 0.0, 0.0, 0.0, 0.0, 0.0, 0.0, 0.0, 0.0, 1.6583346274602091E9, 0.0, 2022-07-20 12:30:27.460
230.0, -17210.97734105317, -21381.499931991093, -15993.768393250513, -7481.799421524933, -31838.003616095022, 7314.183689854585, 6477.177915236702, -15084.208856130703, 3513.358952207441, -22147.427159241102, -9614.71463617261, -32981.697676384174, -8510.1584804247, -11939.296059524544, -27345.83942244523, 852.6519957365986, -0.121125, 0.949125, -0.0095, 192.0, 126.0, 32.0, 14.5, 88.0, 127.5, 96.0, 0.0, 0.0, 0.0, 1.6583346274602196E9, 0.0, 2022-07-20 12:30:27.460
232.0, -17413.126517906967, -21540.97962867971, -16365.232034353261, -7645.3471357044145, -31883.26589861702, 6829.061428196601, 5928.397885370003, -15436.852328402083, 2785.0497108757154, -22983.471808847407, -10034.234527854267, -33466.08233047513, -9126.932516924444, -12601.891172157666, -28170.685848079425, 624.4406848479134, -0.121125, 0.949125, -0.0095, 192.0, 0.0, 0.0, 0.0, 0.0, 0.0, 0.0, 0.0, 0.0, 0.0, 1.6583346274602273E9, 0.0, 2022-07-20 12:30:27.460
234.0, -17126.2418778231, -21280.604157519836, -15948.081427583866, -7400.304961240883, -31748.14960338469, 7347.398382115171, 6382.07124257937, -15078.822085716974, 3486.223934438698, -22157.708961690543, -9696.790241812498, -33045.51190680407, -8559.846408348849, -11964.553530759042, -27357.194108628526, 776.834878544197, -0.121125, 0.949125, -0.0095, 192.0, 0.0, 0.0, 0.0, 0.0, 0.0, 0.0, 0.0, 0.0, 0.0, 1.658334627460235E9, 0.0, 2022-07-20 12:30:27.460
236.0, -17468.849416834048, -21600.61408288647, -16407.81210754062, -7695.683264217766, -31969.208356047675, 6801.412320305386, 6043.129389659094, -15525.678160867474, 2821.6171648045975, -22948.334866563662, -9962.887759552928, -33391.69572492787, -9090.052138573186, -12542.502587139916, -28161.9463159974, 692.1217670585831, -0.121125, 0.949125, -0.0095, 192.0, 0.0, 0.0, 0.0, 0.0, 0.0, 0.0, 0.0, 0.0, 0.0, 1.6583346274602432E9, 0.0, 2022-07-20 12:30:27.460
238.0, -17004.760146708508, -21162.922222962647, -15861.0437346749, -7278.018567325898, -31628.72423275998, 7396.616923405758, 6279.521439018422, -15056.827969172951, 3465.3027016285305, -22155.71965643402, -9739.392666744312, -33076.3573141524, -8581.393490003764, -12004.004359722658, -27363.072617420272, 737.2052356249376, -0.121125, 0.949125, -0.0095, 192.0, 0.0, 0.0, 0.0, 0.0, 0.0, 0.0, 0.0, 0.0, 0.0, 1.6583346274602509E9, 0.0, 2022-07-20 12:30:27.460
240.0, -17534.675304254928, -21679.9180722139, -16444.424264958416, -7778.675291380321, -32070.88644157487, 6794.125651612956, 6147.690850221021, -15606.792641495782, 2896.4508052409656, -22902.223217752366, -9855.062944300525, -33312.12351466698, -9004.489660798272, -12469.367679282152, -28107.22924557081, 788.8601170611522, -0.12156249999999999, 0.9485625, -0.01175, 192.0, 126.0, 24.0, 14.5, 80.0, 127.5, 72.0, 0.0, 0.0, 0.0, 1.658334627940451E9, 0.0, 2022-07-20 12:30:27.940
242.0, -16935.179166219135, -21097.2304460085, -15819.804766154859, -7217.579450318748, -31532.924656024537, 7425.987115620032, 6161.705393994498, -15069.009669901094, 3401.1755467862545, -22212.358976883766, -9810.5159176011, -33164.64670475086, -8644.626575067829, -12069.740840165716, -27414.392222689658, 665.2326184788488, -0.12156249999999999, 0.9485625, -0.01175, 192.0, 0.0, 0.0, 0.0, 0.0, 0.0, 0.0, 0.0, 0.0, 0.0, 1.6583346279404924E9, 0.0, 2022-07-20 12:30:27.940
244.0, -17598.668348630472, -21754.72936090581, -16475.649651962478, -7850.156170148393, -32154.92900072682, 6794.371520801964, 6278.33679656229, -15683.995566844413, 2969.4292508875433, -22816.638388232994, -9768.561693258489, -33233.19950499529, -8917.451967889307, -12401.127803460098, -28032.48501211226, 865.861876709685, -0.12156249999999999, 0.9485625, -0.01175, 192.0, 0.0, 0.0, 0.0, 0.0, 0.0, 0.0, 0.0, 0.0, 0.0, 1.6583346279405143E9, 0.0, 2022-07-20 12:30:27.940
246.0, -16927.713683571063, -21072.017678262913, -15833.148757594678, -7193.618380262659, -31485.002515912358, 7395.745205372001, 6019.995334147851, -15106.202972674726, 3296.2117548241326, -22305.386937306757, -9920.262982876657, -33263.70963617678, -8750.707954252715, -12145.133274213467, -27512.941063993105, 577.3455592805815, -0.12156249999999999, 0.9485625, -0.01175, 192.0, 0.0, 0.0, 0.0, 0.0, 0.0, 0.0, 0.0, 0.0, 0.0, 1.6583346279405506E9, 0.0, 2022-07-20 12:30:27.940
248.0, -17638.72267469438, -21786.379431054527, -16475.984928129306, -7877.961740250796, -32205.198074006807, 6809.68246575385, 6365.977986571549, -15707.464898522485, 3032.103542340224, -22764.424713185395, -9714.716340865652, -33166.79247221857, -8863.248987585186, -12317.062892563688, -27970.593031715518, 911.9064702876176, -0.12156249999999999, 0.9485625, -0.01175, 192.0, 0.0, 0.0, 0.0, 0.0, 0.0, 0.0, 0.0, 0.0, 0.0, 1.6583346279405904E9, 0.0, 2022-07-20 12:30:27.940
250.0, -16904.981959460016, -21045.620268061193, -15835.294525062387, -7167.623301461137, -31429.257265240823, 7350.706440294557, 5912.729312506833, -15159.020144822616, 3215.6337160627504, -22399.71129890815, -9990.872143610972, -33331.77069804319, -8836.024562838622, -12251.460522587362, -27602.12452436978, 519.812169052621, -0.11778125, 0.9492812500000001, -0.010875, 192.0, 126.0, 56.0, 14.5, 88.0, 127.5, 88.0, 0.0, 0.0, 0.0, 1.6583346279406269E9, 0.0, 2022-07-20 12:30:27.940
252.0, -17628.01618910029, -21777.058753616664, -16436.511747421235, -7884.041414742639, -32214.76462063368, 6861.538512890162, 6468.393679665766, -15692.802154159805, 3138.2519767584777, -22650.564926930063, -9638.787464950976, -33085.43212240125, -8765.169532915299, -12221.620943739528, -27857.962591405227, 964.9918633689718, -0.11778125, 0.9492812500000001, -0.010875, 192.0, 0.0, 0.0, 0.0, 0.0, 0.0, 0.0, 0.0, 0.0, 0.0, 1.6583346279406445E9, 0.0, 2022-07-20 12:30:27.940
254.0, -16914.54850608689, -21052.728122797984, -15872.912510980668, -7186.398766803595, -31417.187323234957, 7302.247858315452, 5843.751829117755, -15182.131848589403, 3118.9624212935473, -22499.40007917882, -10059.782571766684, -33409.10773385855, -8899.972903725256, -12327.612915946595, -27697.611176682854, 478.39438657693705, -0.11778125, 0.9492812500000001, -0.010875, 192.0, 0.0, 0.0, 0.0, 0.0, 0.0, 0.0, 0.0, 0.0, 0.0, 1.6583346279406507E9, 0.0, 2022-07-20 12:30:27.940
0.0, -17611.185325525443, -21772.342535536594, -16401.754784793233, -7879.168734451382, -32225.292292272126, 6930.113664879044, 6567.277797136045, -15624.539926593296, 3219.25469866451, -22552.329010048987, -9594.195734762638, -33033.35255782039, -8676.410755683275, -12148.486035881762, -27756.88800297833, 996.9772096845162, -0.11778125, 0.9492812500000001, -0.010875, 192.0, 0.0, 0.0, 0.0, 0.0, 0.0, 0.0, 0.0, 0.0, 0.0, 1.6583346279406571E9, 0.0, 2022-07-20 12:30:27.940
2.0, -16927.73603531552, -21051.252907663933, -15909.971703287567, -7187.8516301931895, -31413.29811969973, 7253.163427491597, 5757.921130409376, -15169.659575183341, 3035.7468766864395, -22602.82160077353, -10105.827165344615, -33460.87437401705, -8968.637462691959, -12370.371803089596, -27795.534169141552, 465.8997614264204, -0.11778125, 0.9492812500000001, -0.010875, 192.0, 0.0, 0.0, 0.0, 0.0, 0.0, 0.0, 0.0, 0.0, 0.0, 1.658334627940664E9, 0.0, 2022-07-20 12:30:27.940
4.0, -17599.58477015314, -21751.89068935999, -16376.497313558737, -7864.818914511075, -32240.111498845996, 6966.636415319016, 6562.785096500528, -15564.436085752975, 3312.550880020962, -22443.900697696292, -9550.4533708636, -32974.96980130313, -8601.1300803578, -12052.351182979488, -27653.980571506094, 1023.7769512864294, -0.118890625, 0.9526406250000001, -0.010437499999999999, 192.0, 126.0, 32.0, 14.5, 112.0, 127.5, 88.0, 0.0, 0.0, 0.0, 1.658334627940672E9, 0.0, 2022-07-20 12:30:27.940
6.0, -17008.06820488789, -21127.89703940118, -16012.052120214954, -7269.100221288231, -31492.937385193993, 7141.628222659615, 5723.007705570186, -15264.162750740381, 2908.2078228244573, -22731.791166280647, -10176.279863867745, -33544.045215135244, -9079.233894256819, -12511.925400725057, -27931.656292874373, 408.05344677608576, -0.118890625, 0.9526406250000001, -0.010437499999999999, 192.0, 0.0, 0.0, 0.0, 0.0, 0.0, 0.0, 0.0, 0.0, 0.0, 1.6583346279406853E9, 0.0, 2022-07-20 12:30:27.940
8.0, -17536.306981600166, -21701.554560846635, -16314.359463972982, -7822.462358768268, -32204.683983884333, 7031.165901561488, 6625.392332719843, -15486.227331903856, 3363.3787469123304, -22364.19437696867, -9553.672022065166, -32971.95231580166, -8567.825981119393, -12025.529089633119, -27561.1537767832, 987.8576979467509, -0.118890625, 0.9526406250000001, -0.010437499999999999, 192.0, 0.0, 0.0, 0.0, 0.0, 0.0, 0.0, 0.0, 0.0, 0.0, 1.6583346279406912E9, 0.0, 2022-07-20 12:30:27.940
10.0, -17050.46946411961, -21165.827949741837, -16066.03158307452, -7318.721093979013, -31530.309501923264, 7093.862544758624, 5696.476184901737, -15284.681652150352, 2857.6258251220975, -22809.083498607102, -10175.877532467548, -33564.09472991165, -9111.174537083452, -12542.81551156229, -28005.238235621244, 423.4537987057923, -0.118890625, 0.9526406250000001, -0.010437499999999999, 192.0, 0.0, 0.0, 0.0, 0.0, 0.0, 0.0, 0.0, 0.0, 0.0, 1.6583346279406967E9, 0.0, 2022-07-20 12:30:27.940
12.0, -17434.383026883963, -21598.960053796774, -16211.563791223025, -7733.480064091691, -32113.108886850943, 7140.6000424146705, 6619.759693117106, -15426.414063741455, 3444.381468818363, -22265.042038564927, -9531.78966424342, -32942.73858579857, -8505.934000722647, -11941.821806647993, -27462.180252335103, 977.1512123526588, -0.118890625, 0.9526406250000001, -0.010437499999999999, 192.0, 0.0, 0.0, 0.0, 0.0, 0.0, 0.0, 0.0, 0.0, 0.0, 1.6583346279407024E9, 0.0, 2022-07-20 12:30:27.940
14.0, -17117.61410446335, -21235.028950575466, -16134.316162385485, -7396.885144339221, -31606.037212137846, 7012.1669187744765, 5754.993051885731, -15380.056545741147, 2820.8572054931174, -22883.13482798753, -10143.132226840524, -33558.238572864364, -9146.04325843373, -12578.712413157513, -28068.180748007388, 455.9085316548982, -0.118890625, 0.9526406250000001, -0.010437499999999999, 192.0, 0.0, 0.0, 0.0, 0.0, 0.0, 0.0, 0.0, 0.0, 0.0, 1.658334627940708E9, 0.0, 2022-07-20 12:30:27.940
16.0, -17338.225822237233, -21502.087593327476, -16118.491127311127, -7645.123618259861, -32028.66399629879, 7196.300589597296, 6600.78306207455, -15370.288833414179, 3516.4881964311835, -22185.648642259675, -9519.585611770823, -32928.925207725195, -8474.596854996307, -11910.037626032547, -27384.08325720826, 942.1036770467374, -0.12, 0.9460000000000001, -0.014, 192.0, 126.0, 32.0, 14.5, 72.0, 127.5, 72.0, 0.0, 0.0, 0.0, 1.6583346279407136E9, 0.0, 2022-07-20 12:30:27.940
18.0, -17199.734413592152, -21323.31834117393, -16205.171192308808, -7469.0142236964975, -31696.427666715106, 6951.750153511782, 5790.487622080758, -15483.92510222496, 2792.6269522460643, -22940.15412809302, -10110.588086913596, -33545.07339538019, -9155.296880638229, -12596.549105232849, -28132.889048205503, 502.6907327998558, -0.12, 0.9460000000000001, -0.014, 192.0, 0.0, 0.0, 0.0, 0.0, 0.0, 0.0, 0.0, 0.0, 0.0, 1.6583346279407196E9, 0.0, 2022-07-20 12:30:27.940
20.0, -17241.912155379316, -21421.7554237551, -16043.12104500783, -7546.306556022949, -31927.276483449517, 7285.72991916298, 6544.635480002818, -15342.483263311777, 3530.7933128825803, -22144.364970250725, -9564.177341959161, -32962.65399010825, -8484.766898723472, -11921.682884893762, -27337.055186874295, 905.8938510291399, -0.12, 0.9460000000000001, -0.014, 192.0, 0.0, 0.0, 0.0, 0.0, 0.0, 0.0, 0.0, 0.0, 0.0, 1.6583346279407253E9, 0.0, 2022-07-20 12:30:27.940
22.0, -17300.294911896577, -21432.551316327015, -16302.401280689393, -7565.596111487879, -31811.539150659937, 6873.40728919593, 5868.852838141065, -15589.671205243018, 2783.6639027194865, -22967.0209249283, -10063.448257857353, -33510.78581938575, -9155.699212038424, -12565.256662995418, -28158.72766479584, 575.9150476354417, -0.12, 0.9460000000000001, -0.014, 192.0, 0.0, 0.0, 0.0, 0.0, 0.0, 0.0, 0.0, 0.0, 0.0, 1.658334627940731E9, 0.0, 2022-07-20 12:30:27.940
24.0, -17147.274869355544, -21312.41068987974, -15975.64112849726, -7456.497246801526, -31827.565351434394, 7321.380951569195, 6448.925310245194, -15320.533850256665, 3525.741818635681, -22143.60501093924, -9619.006171108029, -33008.85504589737, -8524.642410831739, -11926.622620418386, -27334.350625795203, 839.0397833633165, -0.12, 0.9460000000000001, -0.014, 192.0, 0.0, 0.0, 0.0, 0.0, 0.0, 0.0, 0.0, 0.0, 0.0, 1.6583346279407368E9, 0.0, 2022-07-20 12:30:27.940
26.0, -17390.64066298493, -21524.796965694066, -16368.115409387996, -7655.763048620588, -31916.45823913315, 6831.4307131088635, 5964.786525343243, -15688.1529913131, 2810.4412925769443, -22971.60303254164, -9992.347358745023, -33456.78400478172, -9130.62055475957, -12558.707601870014, -28166.886051522026, 641.3162519116703, -0.122, 0.9480000000000001, -0.014, 192.0, 126.0, 24.0, 14.5, 80.0, 127.5, 72.0, 0.0, 0.0, 0.0, 1.6583346279407425E9, 0.0, 2022-07-20 12:30:27.940
28.0, -17084.198246502667, -21246.271878036485, -15927.96485757409, -7386.536286656415, -31747.076719650835, 7350.281757149906, 6355.584425399831, -15311.123765840981, 3482.111213458921, -22156.09963608976, -9696.656131345766, -33074.70328506271, -8579.046556835956, -11976.198789620255, -27357.32821909526, 760.2051806694485, -0.122, 0.9480000000000001, -0.014, 192.0, 0.0, 0.0, 0.0, 0.0, 0.0, 0.0, 0.0, 0.0, 0.0, 1.658334627940748E9, 0.0, 2022-07-20 12:30:27.940
30.0, -17494.688033424383, -21630.408958245393, -16435.304753220647, -7759.721012082221, -32037.045900469533, 6777.272436293654, 6077.5063726313565, -15784.511361659928, 2817.437388591455, -22958.124930635087, -9949.074381479548, -33422.18350436491, -9108.581734726637, -12551.9126715556, -28173.032781247235, 693.0828920701614, -0.122, 0.9480000000000001, -0.014, 192.0, 0.0, 0.0, 0.0, 0.0, 0.0, 0.0, 0.0, 0.0, 0.0, 1.6583346279407537E9, 0.0, 2022-07-20 12:30:27.940
32.0, -16969.913777102684, -21133.820251681835, -15835.495690762484, -7269.346090477239, -31603.757334203405, 7408.351589244794, 6249.301880514847, -15260.49706464971, 3444.1132478848995, -22191.884778962707, -9768.516989769578, -33144.530134741086, -8637.630479053316, -11998.662292797839, -27394.633280591166, 695.4968804713345, -0.122, 0.9480000000000001, -0.014, 192.0, 0.0, 0.0, 0.0, 0.0, 0.0, 0.0, 0.0, 0.0, 0.0, 1.6583346279407594E9, 0.0, 2022-07-20 12:30:27.940
34.0, -17529.46734779684, -21672.810217477112, -16431.817881085623, -7792.175745031327, -32087.31497374952, 6789.72235795526, 6194.7859757883525, -15833.416978528141, 2933.1970731254905, -22873.322412171652, -9818.495490371644, -33307.49670356473, -9002.54505903066, -12432.17437650852, -28086.106847060546, 814.0728848067386, -0.122, 0.9480000000000001, -0.014, 192.0, 0.0, 0.0, 0.0, 0.0, 0.0, 0.0, 0.0, 0.0, 0.0, 1.658334627940765E9, 0.0, 2022-07-20 12:30:27.940
36.0, -16922.125747457238, -21076.04099226487, -15810.953475350558, -7211.812700249279, -31524.989786742903, 7408.37394098925, 6139.040725116816, -15273.282262478146, 3387.5409826685172, -22239.181070230137, -9832.152406233836, -33205.14806570388, -8694.739186136627, -12078.815648414571, -27436.833374122787, 641.9421007564189, -0.122, 0.9480000000000001, -0.012, 192.0, 126.0, 24.0, 14.5, 80.0, 127.5, 80.0, 0.0, 0.0, 0.0, 1.6583346279407709E9, 0.0, 2022-07-20 12:30:27.940
38.0, -17618.96373259589, -21772.11901809204, -16475.69435545139, -7870.69742330282, -32195.251547724194, 6783.776793930148, 6305.136538164204, -15895.57717985835, 2975.39716665711, -22819.007673145257, -9764.627786234354, -33247.504621446686, -8946.039849047644, -12369.790657733758, -28028.707567299316, 873.6179320356765, -0.122, 0.9480000000000001, -0.012, 192.0, 0.0, 0.0, 0.0, 0.0, 0.0, 0.0, 0.0, 0.0, 0.0, 1.6583346279407778E9, 0.0, 2022-07-20 12:30:27.940
40.0, -16898.92463671263, -21041.596954059238, -15806.594885181772, -7174.708804453469, -31471.52441400581, 7386.379824445227, 6007.545412486245, -15320.265629323201, 3266.9756730765907, -22344.457786614632, -9942.614727331964, -33311.72118326678, -8808.88954506988, -12205.035949353689, -27546.423977187154, 558.8606666160425, -0.122, 0.9480000000000001, -0.012, 192.0, 0.0, 0.0, 0.0, 0.0, 0.0, 0.0, 0.0, 0.0, 0.0, 1.6583346279407835E9, 0.0, 2022-07-20 12:30:27.940
42.0, -17611.67706390346, -21768.69920119038, -16444.91600333643, -7876.397118138924, -32217.24566426822, 6830.156663674911, 6430.887452469761, -15915.716101612581, 3074.683615527584, -22715.1614684059, -9670.593997310878, -33153.76140520113, -8850.754362434669, -12260.0435924582, -27928.750566095183, 952.5642934518211, -0.122, 0.9480000000000001, -0.012, 192.0, 0.0, 0.0, 0.0, 0.0, 0.0, 0.0, 0.0, 0.0, 0.0, 1.6583346279407895E9, 0.0, 2022-07-20 12:30:27.940
44.0, -16867.363973541735, -21011.91383742259, -15822.218754556032, -7155.352193755173, -31432.632378653572, 7340.223472145019, 5920.395960855003, -15362.175150176901, 3198.6687420211724, -22421.14662184079, -9985.552428430608, -33363.42076819191, -8871.9438161783, -12257.607252312571, -27626.33146361488, 532.1503319919506, -0.122, 0.9480000000000001, -0.012, 192.0, 0.0, 0.0, 0.0, 0.0, 0.0, 0.0, 0.0, 0.0, 0.0, 1.658334627940795E9, 0.0, 2022-07-20 12:30:27.940
46.0, -17612.0570435592, -21774.01891637074, -16431.795529341165, -7894.636141614455, -32263.312609590605, 6836.415152122397, 6524.474206504132, -15959.234948067064, 3167.555113739385, -22624.636903361905, -9606.086862812861, -33088.65077360282, -8776.07718420949, -12214.04370236918, -27843.322198787, 992.0598259043487, -0.12, 0.9480000000000001, -0.008, 192.0, 126.0, 32.0, 14.5, 80.0, 127.5, 96.0, 0.0, 0.0, 0.0, 1.6583346279408007E9, 0.0, 2022-07-20 12:30:27.940
48.0, -16869.35327879826, -21009.723366465973, -15856.819254972846, -7159.50961822386, -31424.83161983867, 7282.131288305675, 5836.286346469682, -15434.550098723186, 3099.717569317528, -22538.806204653527, -10049.478417572787, -33438.74614700629, -8971.856113893524, -12357.363087816608, -27752.909392465284, 478.9084766994091, -0.12, 0.9480000000000001, -0.008, 192.0, 0.0, 0.0, 0.0, 0.0, 0.0, 0.0, 0.0, 0.0, 0.0, 1.6583346279408064E9, 0.0, 2022-07-20 12:30:27.940
50.0, -17592.38750843853, -21768.185111067905, -16392.188238166364, -7880.934522263351, -32261.077435145075, 6903.448033743863, 6591.395329403321, -15933.552793687915, 3266.9756730765907, -22517.50499218762, -9538.56224281338, -33017.34870879039, -8692.638122157827, -12108.521116795673, -27742.62759001584, 1031.242433934502, -0.12, 0.9480000000000001, -0.008, 192.0, 0.0, 0.0, 0.0, 0.0, 0.0, 0.0, 0.0, 0.0, 0.0, 1.658334627940812E9, 0.0, 2022-07-20 12:30:27.940
52.0, -16912.022758963438, -21044.54738432734, -15907.311845697386, -7190.824412205746, -31439.494364201353, 7215.657200295592, 5766.928883424865, -15517.139794485545, 2998.3077047238, -22640.886621580914, -10101.401519942465, -33506.941319339436, -9051.74124857679, -12447.217100526941, -27877.028629425604, 445.85024665001, -0.12, 0.9480000000000001, -0.008, 192.0, 0.0, 0.0, 0.0, 0.0, 0.0, 0.0, 0.0, 0.0, 0.0, 1.6583346279408176E9, 0.0, 2022-07-20 12:30:27.940
54.0, -17538.028065923223, -21720.15121223345, -16316.684045396334, -7831.671277483854, -32227.572170206568, 6993.838488321125, 6599.464309151686, -15892.358528656785, 3354.058069474467, -22405.321586766433, -9492.316483535347, -32965.492661654076, -8610.160185117744, -12034.603897881974, -27639.34017888787, 1047.5815591313315, -0.12, 0.9480000000000001, -0.008, 192.0, 0.0, 0.0, 0.0, 0.0, 0.0, 0.0, 0.0, 0.0, 0.0, 1.6583346279408233E9, 0.0, 2022-07-20 12:30:27.940
56.0, -16957.754428118995, -21102.75132688896, -15965.314622558908, -7241.831093052757, -31475.81594894123, 7153.541702454294, 5738.966851111276, -15603.618693783128, 2916.187395595002, -22746.520965876694, -10126.167252798945, -33553.87998269558, -9115.71194120788, -12487.316130079762, -27980.24898532021, 437.0660110790743, -0.122, 0.9500000000000001, -0.01, 192.0, 126.0, 24.0, 14.5, 88.0, 127.5, 88.0, 0.0, 0.0, 0.0, 1.6583346279408288E9, 0.0, 2022-07-20 12:30:27.940
58.0, -17468.536492411673, -21653.14068235644, -16238.452939802759, -7765.241892962682, -32175.51495737016, 7062.190122865453, 6661.870379670904, -15869.827970245835, 3436.7595239591033, -22293.182884834157, -9469.137724535194, -32933.75318452754, -8555.376059457787, -11957.266862066612, -27536.835078815828, 1037.7691433154516, -0.122, 0.9500000000000001, -0.01, 192.0, 0.0, 0.0, 0.0, 0.0, 0.0, 0.0, 0.0, 0.0, 0.0, 1.6583346279408343E9, 0.0, 2022-07-20 12:30:27.940
60.0, -17035.78436801247, -21177.71907779206, -16043.612783385848, -7300.370311781206, -31546.939199798013, 7070.527323547283, 5705.819214084055, -15703.933322898547, 2847.5898918616645, -22833.37984483002, -10133.632735447018, -33568.58743054717, -9154.514569582292, -12558.238215236452, -28069.03011429669, 460.3565288015043, -0.122, 0.9500000000000001, -0.01, 192.0, 0.0, 0.0, 0.0, 0.0, 0.0, 0.0, 0.0, 0.0, 0.0, 1.65833462794084E9, 0.0, 2022-07-20 12:30:27.940
62.0, -17382.057593114092, -21559.732742277713, -16140.306429899507, -7671.364566250392, -32079.804787612535, 7162.951786869978, 6658.808190680527, -15794.591998409272, 3494.158803720332, -22212.15781118367, -9472.669300159134, -32919.068088420405, -8503.452957088108, -11915.446748190732, -27451.60787720774, 1036.562149114865, -0.122, 0.9500000000000001, -0.01, 192.0, 0.0, 0.0, 0.0, 0.0, 0.0, 0.0, 0.0, 0.0, 0.0, 1.6583346279408457E9, 0.0, 2022-07-20 12:30:27.940
64.0, -17100.894999610784, -21234.336046497352, -16095.290016566518, -7367.582007358314, -31604.383183048154, 7007.093072783122, 5806.133843199474, -15773.067268498811, 2832.5918713321535, -22882.77720007625, -10084.458897645343, -33539.97719764438, -9148.837226490645, -12574.912616600112, -28102.17775132391, 536.8889018164756, -0.122, 0.9500000000000001, -0.01, 192.0, 0.0, 0.0, 0.0, 0.0, 0.0, 0.0, 0.0, 0.0, 0.0, 1.6583346279408517E9, 0.0, 2022-07-20 12:30:27.940
66.0, -17280.781838987095, -21464.693124853748, -16060.153074282774, -7594.02753043503, -31993.504702270595, 7226.855424267701, 6585.628579333852, -15743.473558839985, 3538.3034990195633, -22153.976220366505, -9487.130878821717, -32926.131239668284, -8473.658081729183, -11871.637329058329, -27390.073524722284, 991.3445700817789, -0.12, 0.9500000000000001, -0.008, 192.0, 126.0, 32.0, 14.5, 88.0, 127.5, 96.0, 0.0, 0.0, 0.0, 1.6583346279408581E9, 0.0, 2022-07-20 12:30:27.940
68.0, -17213.056053287513, -21355.773074123037, -16208.054567343543, -7484.772203537489, -31724.546161239883, 6920.4800630188065, 5835.124055758007, -15891.62092108976, 2789.9894464003382, -22936.82371816918, -10065.862246258528, -33538.50198251033, -9168.05972672221, -12587.29548302835, -28180.833540062136, 554.4350212138917, -0.12, 0.9500000000000001, -0.008, 192.0, 0.0, 0.0, 0.0, 0.0, 0.0, 0.0, 0.0, 0.0, 0.0, 1.6583346279408638E9, 0.0, 2022-07-20 12:30:27.940
70.0, -17196.60516936841, -21378.303632533985, -15997.59054155237, -7509.336770693872, -31894.754695267045, 7286.825154641289, 6519.825043657428, -15704.737985698937, 3536.381248996407, -22129.61281891022, -9546.27359465046, -32973.20401349116, -8494.311093605887, -11902.750957340117, -27373.980268714462, 917.9414412905504, -0.12, 0.9500000000000001, -0.008, 192.0, 0.0, 0.0, 0.0, 0.0, 0.0, 0.0, 0.0, 0.0, 0.0, 1.6583346279408708E9, 0.0, 2022-07-20 12:30:27.940
72.0, -17319.919743528335, -21450.008028746608, -16300.389623688416, -7580.705890739667, -31831.789831136448, 6859.3703936779975, 5886.220143582838, -15988.739250748069, 2782.278094563257, -22948.893660175047, -10023.483338771264, -33506.18136002796, -9158.604938817614, -12570.688136898058, -28219.367947503084, 612.1695771419498, -0.12, 0.9500000000000001, -0.008, 192.0, 0.0, 0.0, 0.0, 0.0, 0.0, 0.0, 0.0, 0.0, 0.0, 1.6583346279408765E9, 0.0, 2022-07-20 12:30:27.940
74.0, -17111.53442997151, -21276.670250495703, -15931.138805286742, -7413.313676513872, -31791.48963588353, 7333.383838341694, 6432.921461215194, -15658.089895020712, 3509.0450655275663, -22119.666292627608, -9619.85553739733, -33026.021185639045, -8535.862986548304, -11924.141576783846, -27386.69841130953, 845.4994375109003, -0.12, 0.9500000000000001, -0.008, 192.0, 0.0, 0.0, 0.0, 0.0, 0.0, 0.0, 0.0, 0.0, 0.0, 1.658334627940882E9, 0.0, 2022-07-20 12:30:27.940
76.0, -17386.68440421634, -21526.696863972767, -16346.769493433178, -7656.567711420979, -31937.312416709952, 6825.7980735061265, 6005.913735141008, -16049.200719499675, 2812.6764670224748, -22938.030712369768, -9949.63317509093, -33436.80154523868, -9114.124967351552, -12518.51916533937, -28202.984118817345, 693.775796148276, -0.12, 0.9520000000000001, -0.012, 192.0, 126.0, 32.0, 14.5, 96.0, 127.5, 80.0, 0.0, 0.0, 0.0, 1.6583346279408877E9, 0.0, 2022-07-20 12:30:27.940
78.0, -17013.45497530162, -21183.262310416976, -15860.797865485893, -7322.744407980968, -31695.3324312368, 7371.8735422937325, 6309.875107988729, -15629.23379292891, 3473.572847076994, -22145.124929562204, -9686.374328896323, -33090.70713409271, -8591.384719775286, -11960.261995823623, -27405.876208052185, 774.6444075875769, -0.12, 0.9520000000000001, -0.012, 192.0, 0.0, 0.0, 0.0, 0.0, 0.0, 0.0, 0.0, 0.0, 0.0, 1.6583346279408937E9, 0.0, 2022-07-20 12:30:27.940
80.0, -17462.009783030724, -21606.33612946703, -16386.063860185608, -7730.52963382359, -32035.68244405776, 6795.53381151364, 6133.653954703088, -16103.537810270527, 2868.600531649653, -22909.711052144892, -9863.243682771168, -33374.48488169729, -9044.879263029012, -12494.267522605363, -28166.70723756638, 784.4121199145461, -0.12, 0.9520000000000001, -0.012, 192.0, 0.0, 0.0, 0.0, 0.0, 0.0, 0.0, 0.0, 0.0, 0.0, 1.6583346279408991E9, 0.0, 2022-07-20 12:30:27.940
82.0, -16944.991582035014, -21110.149754303668, -15817.279019031408, -7248.849540811723, -31600.516331257386, 7390.447841936093, 6208.420539906089, -15604.46806007243, 3425.2260238201648, -22195.6398720312, -9757.4528762642, -33166.72541698521, -8633.540109817995, -12044.505720675674, -27435.894600855663, 714.9428981474517, -0.12, 0.9520000000000001, -0.012, 192.0, 0.0, 0.0, 0.0, 0.0, 0.0, 0.0, 0.0, 0.0, 0.0, 1.6583346279409049E9, 0.0, 2022-07-20 12:30:27.940
84.0, -17527.90272568497, -21679.04635418014, -16424.95589553784, -7796.109652055461, -32122.317805566527, 6784.424994519352, 6226.972487803994, -16160.087723742454, 2920.031895641315, -22874.1494267165, -9787.5606760455, -33308.48018032077, -8986.518858256204, -12429.246297984875, -28122.38372831151, 845.0524026217942, -0.12, 0.9520000000000001, -0.012, 192.0, 0.0, 0.0, 0.0, 0.0, 0.0, 0.0, 0.0, 0.0, 0.0, 1.6583346279409106E9, 0.0, 2022-07-20 12:30:27.940
86.0, -16882.205531860058, -21032.812718488305, -15785.450134927052, -7184.096537124698, -31507.175446412024, 7392.459498937071, 6094.426643184023, -15595.348548334665, 3352.5381508515065, -22257.397741961213, -9831.615964366909, -33240.62028415445, -8708.664322932282, -12117.506518066708, -27509.20832266907, 635.84007452012, -0.123, 0.9500000000000001, -0.007, 192.0, 126.0, 8.0, 14.5, 80.0, 127.5, 120.0, 0.0, 0.0, 0.0, 1.6583346279409163E9, 0.0, 2022-07-20 12:30:27.940
88.0, -17587.738345591824, -21745.319276490125, -16448.96166908284, -7867.322309890069, -32200.347745460007, 6790.303503311098, 6357.327861467345, -16214.916552891322, 3002.2416117479343, -22787.961100096836, -9709.463680918656, -33229.64557762689, -8896.70954903478, -12325.422444989974, -28037.715320314805, 906.3632376627014, -0.123, 0.9500000000000001, -0.007, 192.0, 0.0, 0.0, 0.0, 0.0, 0.0, 0.0, 0.0, 0.0, 0.0, 1.658334627940922E9, 0.0, 2022-07-20 12:30:27.940
90.0, -16869.845017176274, -21025.30253235132, -15798.995292066968, -7170.797249173791, -31465.422387769508, 7356.36143164175, 5955.801124072209, -15618.683769546005, 3235.9961552615355, -22358.449978643654, -9941.228919175735, -33348.84743080705, -8806.676722368804, -12202.577257463607, -27611.959291930118, 552.3786607240035, -0.123, 0.9500000000000001, -0.007, 192.0, 0.0, 0.0, 0.0, 0.0, 0.0, 0.0, 0.0, 0.0, 0.0, 1.6583346279409275E9, 0.0, 2022-07-20 12:30:27.940
92.0, -17596.679043373948, -21774.08597160411, -16417.311598934128, -7883.616731597988, -32231.23785629724, 6821.819462993081, 6449.327641645389, -16204.880619630889, 3097.4823948719973, -22685.567758747075, -9637.759284706031, -33163.17148961681, -8812.197603249264, -12260.155351180478, -27954.656237918884, 962.3096540343349, -0.123, 0.9500000000000001, -0.007, 192.0, 0.0, 0.0, 0.0, 0.0, 0.0, 0.0, 0.0, 0.0, 0.0, 1.658334627940935E9, 0.0, 2022-07-20 12:30:27.940
94.0, -16845.86159537573, -20984.510598720386, -15785.919521560612, -7141.181187770509, -31412.247587710335, 7328.108826650242, 5912.595202040101, -15638.196842455489, 3158.167381068156, -22447.052293664492, -9993.464945967788, -33418.24959734078, -8883.745537250703, -12282.060060746679, -27699.064040072448, 516.1241312174953, -0.123, 0.9500000000000001, -0.007, 192.0, 0.0, 0.0, 0.0, 0.0, 0.0, 0.0, 0.0, 0.0, 0.0, 1.6583346279409404E9, 0.0, 2022-07-20 12:30:27.940
96.0, -17566.638298826016, -21732.042340283675, -16360.605223251014, -7854.157132405893, -32232.511905731193, 6893.881487116992, 6570.764669271072, -16173.00703203762, 3206.201279902611, -22564.80128345505, -9547.79351327342, -33065.6061250694, -8702.38348274034, -12146.78730330316, -27826.80425963453, 1034.6398990917087, -0.1235, 0.9500000000000001, -0.0085, 192.0, 126.0, 16.0, 14.5, 88.0, 127.5, 88.0, 0.0, 0.0, 0.0, 1.658334627940946E9, 0.0, 2022-07-20 12:30:27.940
98.0, -16874.449476534068, -21009.097517621223, -15847.096246134788, -7164.672871193036, -31432.65473039803, 7268.764945121401, 5814.783968303677, -15712.874020680669, 3066.4805253124864, -22554.430074027787, -10047.734981505273, -33477.90640329199, -8962.848360878035, -12362.705154741425, -27817.908265341317, 487.4468430813364, -0.1235, 0.9500000000000001, -0.0085, 192.0, 0.0, 0.0, 0.0, 0.0, 0.0, 0.0, 0.0, 0.0, 0.0, 1.6583346279409516E9, 0.0, 2022-07-20 12:30:27.940
100.0, -17558.971650477844, -21735.909192074443, -16344.556670732103, -7853.531283561145, -32254.0142838972, 6923.5869554980945, 6592.579971859453, -16178.952596062732, 3286.5334494749845, -22465.939517729228, -9513.818861701353, -33023.45073502669, -8645.319479145943, -12063.48235171823, -27751.434177331234, 1037.6350328487197, -0.1235, 0.9500000000000001, -0.0085, 192.0, 0.0, 0.0, 0.0, 0.0, 0.0, 0.0, 0.0, 0.0, 0.0, 1.6583346279409573E9, 0.0, 2022-07-20 12:30:27.940
102.0, -16912.603904319276, -21047.609573317717, -15904.67433985166, -7190.422080805551, -31451.921934118505, 7198.155784387087, 5744.0406971026305, -15777.761134834425, 2956.5769978257417, -22671.91084288488, -10111.079825291614, -33552.20360186143, -9050.69071658739, -12468.227740314931, -27951.28112450613, 447.34781352851553, -0.1235, 0.9500000000000001, -0.0085, 192.0, 0.0, 0.0, 0.0, 0.0, 0.0, 0.0, 0.0, 0.0, 0.0, 1.6583346279409645E9, 0.0, 2022-07-20 12:30:27.940
104.0, -17519.632580236506, -21687.495313584248, -16271.354707640972, -7800.289428268604, -32210.964824076276, 7000.2534389797975, 6661.870379670904, -16141.602831077915, 3374.4652121621625, -22367.547138636965, -9475.284454260403, -32981.496510684075, -8565.814324118415, -11993.56609506203, -27642.737644045075, 1063.1383732722252, -0.1235, 0.9500000000000001, -0.0085, 192.0, 0.0, 0.0, 0.0, 0.0, 0.0, 0.0, 0.0, 0.0, 0.0, 1.6583346284199548E9, 0.0, 2022-07-20 12:30:28.419
106.0, -16975.635823683242, -21107.46754496903, -15950.741285174046, -7236.220805194474, -31487.50591129135, 7126.4513881744615, 5727.790978883622, -15856.931013695124, 2883.5538486902537, -22774.684163890382, -10121.38397948551, -33585.5300528443, -9103.396130013005, -12523.503604352905, -28037.78237554817, 461.6976334688227, -0.12075, 0.9510000000000001, -0.01225, 192.0, 126.0, 40.0, 14.5, 96.0, 127.5, 64.0, 0.0, 0.0, 0.0, 1.6583346284201083E9, 0.0, 2022-07-20 12:30:28.420
108.0, -17454.74546608275, -21624.888077364933, -16184.62993915438, -7734.552947825546, -32138.433413318806, 7087.73816677787, 6653.779048178083, -16083.264778049563, 3437.452428037218, -22280.75531491701, -9469.182428024105, -32961.71521684113, -8503.765881510482, -11917.972495314181, -27543.630009130244, 1051.0013760329934, -0.12075, 0.9510000000000001, -0.01225, 192.0, 0.0, 0.0, 0.0, 0.0, 0.0, 0.0, 0.0, 0.0, 0.0, 1.658334628420114E9, 0.0, 2022-07-20 12:30:28.420
110.0, -17077.93975805518, -21209.078575262854, -16055.548614924983, -7335.283736620395, -31569.15683378659, 7040.44187551044, 5711.161281008874, -15954.675192198181, 2806.417978574989, -22862.9959062333, -10143.400447773987, -33613.73795434689, -9142.154054898507, -12571.87277935419, -28122.09315563359, 476.76270923169966, -0.12075, 0.9510000000000001, -0.01225, 192.0, 0.0, 0.0, 0.0, 0.0, 0.0, 0.0, 0.0, 0.0, 0.0, 1.6583346284201198E9, 0.0, 2022-07-20 12:30:28.420
112.0, -17380.001232624203, -21561.833806256513, -16119.876935467355, -7665.240188269639, -32067.064293273008, 7155.531007710816, 6621.659591395806, -16022.69155057568, 3463.7604312611143, -22234.286038194423, -9514.042379145907, -32986.12332178633, -8493.43937557213, -11928.611925674908, -27495.126723662226, 1003.0345324319044, -0.12075, 0.9510000000000001, -0.01225, 192.0, 0.0, 0.0, 0.0, 0.0, 0.0, 0.0, 0.0, 0.0, 0.0, 1.6583346284201255E9, 0.0, 2022-07-20 12:30:28.420
114.0, -17182.367108150378, -21308.32032064442, -16154.902119028822, -7433.787874434934, -31673.204204226044, 6934.114627136544, 5805.753863543733, -16067.79737088649, 2770.7222426798635, -22928.486517487352, -10123.015656830747, -33604.260814697845, -9166.137476699052, -12610.071910628309, -28184.34276394162, 520.5721283641014, -0.12075, 0.9510000000000001, -0.01225, 192.0, 0.0, 0.0, 0.0, 0.0, 0.0, 0.0, 0.0, 0.0, 0.0, 1.6583346284201312E9, 0.0, 2022-07-20 12:30:28.420
116.0, -17275.953862184746, -21457.607621861414, -16038.091902505388, -7571.295806323983, -31976.182100317732, 7219.322886386262, 6570.116468681868, -15981.45258205564, 3482.6476553258485, -22179.323098578825, -9550.878054008253, -33004.25058653958, -8506.515146078485, -11921.772291871583, -27455.608839465243, 942.9977468249497, -0.121375, 0.9495, -0.015125000000000001, 192.0, 126.0, 24.0, 14.5, 80.0, 127.5, 56.0, 0.0, 0.0, 0.0, 1.6583346284201372E9, 0.0, 2022-07-20 12:30:28.420
118.0, -17232.30090526353, -21361.450417214684, -16199.069166072508, -7490.874229773788, -31746.04853940589, 6905.906725633947, 5855.39708797897, -16134.562031574493, 2776.377234027056, -22937.695436202936, -10051.601833296041, -33550.43781404946, -9157.57675857267, -12557.142979758142, -28224.48649698335, 588.3649692970478, -0.121375, 0.9495, -0.015125000000000001, 192.0, 0.0, 0.0, 0.0, 0.0, 0.0, 0.0, 0.0, 0.0, 0.0, 1.658334628420143E9, 0.0, 2022-07-20 12:30:28.420
120.0, -17151.141721146312, -21325.777033064012, -15920.968761559578, -7448.85295019781, -31842.29515103044, 7303.454852516038, 6512.180747053712, -15887.977586743546, 3517.1363970203874, -22109.540952389354, -9555.661327321688, -33006.463409240656, -8477.502581775498, -11904.896724807826, -27396.175550958582, 911.4817871429667, -0.121375, 0.9495, -0.015125000000000001, 192.0, 0.0, 0.0, 0.0, 0.0, 0.0, 0.0, 0.0, 0.0, 0.0, 1.6583346284201484E9, 0.0, 2022-07-20 12:30:28.420
122.0, -17332.57083089004, -21469.834026078468, -16266.526730838625, -7581.398794817781, -31846.20670631012, 6843.1653789479, 5950.101429236106, -16205.148840564352, 2788.134251610548, -22954.571003266694, -9981.886742339939, -33496.07837153415, -9106.346560281107, -12560.875721082179, -28215.076412567665, 669.3453394586253, -0.121375, 0.9495, -0.015125000000000001, 192.0, 0.0, 0.0, 0.0, 0.0, 0.0, 0.0, 0.0, 0.0, 0.0, 1.658334628420154E9, 0.0, 2022-07-20 12:30:28.420
124.0, -17074.47523766461, -21244.416683246694, -15870.14089466821, -7359.669489821135, -31744.37215857174, 7341.341059367784, 6408.8039289479175, -15865.916414966157, 3489.196716451254, -22137.05594981384, -9633.28893581497, -33066.366084380876, -8511.63369555875, -11944.45931249372, -27393.247472434938, 840.0009083748947, -0.121375, 0.9495, -0.015125000000000001, 192.0, 0.0, 0.0, 0.0, 0.0, 0.0, 0.0, 0.0, 0.0, 0.0, 1.6583346284201596E9, 0.0, 2022-07-20 12:30:28.420
126.0, -17421.64253254444, -21565.007753969163, -16345.584850977046, -7667.698880159722, -31961.005265832577, 6803.2004598618105, 6035.462741310924, -16285.07867873653, 2813.928164711972, -22934.141508834542, -9927.907279480372, -33439.550809806686, -9058.558530635659, -12536.892299281633, -28216.082241068154, 736.1547036355381, -0.1216875, 0.94875, -0.013562500000000002, 192.0, 126.0, 24.0, 14.5, 80.0, 127.5, 80.0, 0.0, 0.0, 0.0, 1.6583346284201653E9, 0.0, 2022-07-20 12:30:28.420
