%OpenBCI Raw EEG Data
%Number of channels = 16
%Sample Rate = 125 Hz
%Board = OpenBCI_GUI$BoardCytonSerialDaisy
Sample Index, EXG Channel 0, EXG Channel 1, EXG Channel 2, EXG Channel 3, EXG Channel 4, EXG Channel 5, EXG Channel 6, EXG Channel 7, EXG Channel 8, EXG Channel 9, EXG Channel 10, EXG Channel 11, EXG Channel 12, EXG Channel 13, EXG Channel 14, EXG Channel 15, Accel Channel 0, Accel Channel 1, Accel Channel 2, Other, Other, Other, Other, Other, Other, Other, Analog Channel 0, Analog Channel 1, Analog Channel 2, Timestamp, Other, Timestamp (Formatted)
44.0, -17004.916608919695, 23271.876367554232, -36588.35280994807, -35706.978822586396, -28445.500546157426, -29489.304660475813, -24668.011029721623, -4113.369180365704, -26438.246838837487, -4078.2098863375054, -29502.246320515434, -34547.906762112, -27876.313373603032, -11452.78798971033, -23284.974489805045, -35739.54531425778, 0.0, 0.0, 0.0, 192.0, 0.0, 0.0, 0.0, 0.0, 0.0, 0.0, 0.0, 0.0, 0.0, 1.6689767170362709E9, 0.0, 2022-11-20 15:38:37.036
46.0, -16987.661062200197, 23607.08547915047, -36563.47531836931, -35696.6746683925, -28421.315958656785, -29472.36203817869, -24648.140328900856, -4092.00091266643, -26355.545384352852, -4001.5881063447127, -29410.313595570755, -34456.7339964788, -27783.933613769248, -11365.079744467706, -23200.954282397543, -35653.714615549405, 0.046, 0.9520000000000001, -0.126, 192.0, 0.5, 56.0, 14.5, 96.0, 126.0, 8.0, 0.0, 0.0, 0.0, 1.668976717036278E9, 0.0, 2022-11-20 15:38:37.036
48.0, -17034.309152878424, 23317.988016365533, -36610.68220265892, -35746.608465505655, -28468.098159801742, -29528.062585361313, -24696.531855646594, -4146.114485992728, -26427.22742882102, -4072.4654880124917, -29496.390163468142, -34539.59191317462, -27865.115149630925, -11452.117437376672, -23281.80054209239, -35744.373291060125, 0.046, 0.9520000000000001, -0.126, 192.0, 0.0, 0.0, 0.0, 0.0, 0.0, 0.0, 0.0, 0.0, 0.0, 1.6689767170362856E9, 0.0, 2022-11-20 15:38:37.036
50.0, -16983.056602842404, 23533.905867803798, -36565.77754804821, -35712.58911044468, -28427.015653492886, -29488.857625586705, -24656.83515749397, -4105.85899422872, -26365.223689701998, -4026.7338188569333, -29420.371880575643, -34477.72228452233, -27790.59443361693, -11390.605436635666, -23222.635474519193, -35695.31121198073, 0.046, 0.9520000000000001, -0.126, 192.0, 0.0, 0.0, 0.0, 0.0, 0.0, 0.0, 0.0, 0.0, 0.0, 1.6689767170362933E9, 0.0, 2022-11-20 15:38:37.036
52.0, -17031.828109243885, 23399.214255716117, -36624.0932493321, -35756.689102255004, -28480.16810180761, -29534.142259853157, -24704.578483650504, -4152.462381418036, -26421.08069909581, -4072.2419705679386, -29492.27744248837, -34541.514163197775, -27870.837196211483, -11462.309832848292, -23288.684879384626, -35760.86887846814, 0.046, 0.9520000000000001, -0.126, 192.0, 0.0, 0.0, 0.0, 0.0, 0.0, 0.0, 0.0, 0.0, 0.0, 1.668976717036301E9, 0.0, 2022-11-20 15:38:37.036
54.0, -16978.69801267362, 23479.233500866118, -36566.023417237215, -35691.06438053422, -28425.808659292303, -29466.818805553772, -24649.436730079262, -4095.3760260791814, -26367.995306014458, -4024.4315891780366, -29423.925807944037, -34474.97301995433, -27800.27273896608, -11387.319730200736, -23228.64809377767, -35688.56098515523, 0.046, 0.9520000000000001, -0.126, 192.0, 0.0, 0.0, 0.0, 0.0, 0.0, 0.0, 0.0, 0.0, 0.0, 1.6689767170363088E9, 0.0, 2022-11-20 15:38:37.036
56.0, -17059.812493301928, 23461.30740181296, -36642.220514085355, -35760.73476800141, -28508.39835505466, -29539.685492478075, -24728.271332773133, -4169.472058948524, -26434.111766113256, -4069.492705999936, -29502.715707148996, -34536.79794511771, -27879.956707949248, -11454.307908333292, -23290.405963707683, -35737.7348229569, 0.046, 0.9540000000000001, -0.12, 192.0, 0.5, 56.0, 14.5, 104.0, 126.0, 32.0, 0.0, 0.0, 0.0, 1.6689767170363157E9, 0.0, 2022-11-20 15:38:37.036
58.0, -16952.59117514982, 23420.49311643757, -36533.70279475484, -35656.82150802869, -28402.741659014424, -29435.906342972085, -24621.809973932504, -4064.1729908195725, -26380.489931164975, -4027.22555723495, -29430.474869069443, -34474.05659843166, -27805.883026824362, -11387.163267989548, -23229.78803274489, -35673.04887450324, 0.046, 0.9540000000000001, -0.12, 192.0, 0.0, 0.0, 0.0, 0.0, 0.0, 0.0, 0.0, 0.0, 0.0, 1.6689767170363212E9, 0.0, 2022-11-20 15:38:37.036
60.0, -17054.157501954734, 23541.483109174147, -36637.884275661025, -35765.31687561475, -28508.39835505466, -29542.546515768354, -24726.572600194526, -4169.941445582085, -26404.98744308799, -4039.966051574475, -29471.825596311763, -34506.31016568067, -27850.43005352379, -11426.904669631085, -23258.13004471422, -35709.50456970985, 0.046, 0.9540000000000001, -0.12, 192.0, 0.0, 0.0, 0.0, 0.0, 0.0, 0.0, 0.0, 0.0, 0.0, 1.668976717036327E9, 0.0, 2022-11-20 15:38:37.036
62.0, -16944.477491912545, 23344.18426086715, -36531.355861587035, -35653.02171147129, -28400.86411248018, -29433.335892359722, -24617.518438997085, -4061.9154646295865, -26391.88932083718, -4034.8475020942096, -29442.12012793066, -34485.41128461496, -27819.875218853384, -11400.730776873921, -23240.673332294624, -35690.17031075601, 0.046, 0.9540000000000001, -0.12, 192.0, 0.0, 0.0, 0.0, 0.0, 0.0, 0.0, 0.0, 0.0, 0.0, 1.6689767170363324E9, 0.0, 2022-11-20 15:38:37.036
64.0, -17035.449091845643, 23616.76378449962, -36623.892083632, -35747.61429400615, -28489.68994494557, -29519.568922468297, -24703.863227827936, -4144.572215625312, -26387.418971946117, -4020.2071094759835, -29455.777043792852, -34486.573575326634, -27830.916980614304, -11407.771576377341, -23240.002779960967, -35687.17517699899, 0.046, 0.9540000000000001, -0.12, 192.0, 0.0, 0.0, 0.0, 0.0, 0.0, 0.0, 0.0, 0.0, 0.0, 1.668976717036368E9, 0.0, 2022-11-20 15:38:37.036
66.0, -16966.78453287894, 23272.90454779918, -36556.792146777174, -35678.882679806076, -28419.013728977887, -29449.183279178535, -24632.695273482237, -4077.226409581472, -26404.294539009876, -4049.577301690257, -29458.325142660757, -34499.80580804418, -27827.60892243492, -11410.185564778516, -23247.35650388676, -35695.78059861429, 0.048, 0.96, -0.122, 192.0, 0.5, 64.0, 15.0, 0.0, 126.0, 24.0, 0.0, 0.0, 0.0, 1.6689767170363758E9, 0.0, 2022-11-20 15:38:37.036
68.0, -17058.538443867976, 23655.34289542948, -36646.847325187606, -35777.78914902081, -28509.35948006624, -29539.596085500252, -24721.766975136637, -4162.855942589753, -26400.137114541187, -4039.5637201742793, -29467.60111660971, -34502.53272086772, -27842.36107377542, -11422.724893417942, -23250.821024277335, -35700.69798239446, 0.048, 0.96, -0.122, 192.0, 0.0, 0.0, 0.0, 0.0, 0.0, 0.0, 0.0, 0.0, 0.0, 1.6689767170363836E9, 0.0, 2022-11-20 15:38:37.036
70.0, -16960.950727576106, 23228.87161122222, -36558.87085901152, -35679.68734260647, -28420.37718538966, -29449.406796623087, -24631.10829962591, -4076.667615970089, -26418.063213594345, -4065.357633275704, -29472.138520734137, -34513.21685471736, -27847.166698833313, -11430.88328014413, -23265.08143723982, -35716.05363083525, 0.048, 0.96, -0.122, 192.0, 0.0, 0.0, 0.0, 0.0, 0.0, 0.0, 0.0, 0.0, 0.0, 1.6689767170363915E9, 0.0, 2022-11-20 15:38:37.036
72.0, -17056.102103722347, 23697.520637216647, -36649.842458944615, -35781.05250371129, -28506.6772707316, -29542.188887857068, -24721.498754203174, -4165.649910646666, -26392.89514933767, -4034.042839293819, -29461.40968339559, -34493.3908573855, -27834.22503879369, -11417.226364281936, -23243.55670732936, -35695.6241364031, 0.048, 0.96, -0.122, 192.0, 0.0, 0.0, 0.0, 0.0, 0.0, 0.0, 0.0, 0.0, 0.0, 1.6689767170363991E9, 0.0, 2022-11-20 15:38:37.036
74.0, -16979.055640584906, 23179.988346098467, -36574.51708013023, -35695.53472942528, -28426.635673837147, -29466.572936364766, -24645.011084677113, -4095.644247012645, -26435.966960903046, -4086.9270666750754, -29495.473741945476, -34536.909703839985, -27866.85858569844, -11459.024126413362, -23284.5945101493, -35738.718299712935, 0.048, 0.96, -0.122, 192.0, 0.0, 0.0, 0.0, 0.0, 0.0, 0.0, 0.0, 0.0, 0.0, 1.6689767170364068E9, 0.0, 2022-11-20 15:38:37.036
76.0, -17041.975801226592, 23725.30385557459, -36628.22832205633, -35759.95245694547, -28487.074790844297, -29530.230704573478, -24706.388974951384, -4151.9035878066525, -26378.768846841915, -4024.588051389224, -29444.712930287475, -34481.16445316845, -27817.50593394112, -11408.196259521992, -23230.83856473429, -35688.672743877505, 0.04, 0.9540000000000001, -0.116, 192.0, 0.5, 32.0, 14.5, 104.0, 126.0, 48.0, 0.0, 0.0, 0.0, 1.6689767170364192E9, 0.0, 2022-11-20 15:38:37.036
78.0, -16970.27140501397, 23172.992250083953, -36563.09533871357, -35680.559060640226, -28427.797964548823, -29458.280439171846, -24641.725378242183, -4090.9056771881196, -26431.27309456743, -4076.5111537589023, -29491.606890154708, -34528.103116524595, -27862.36588506292, -11451.826864698753, -23282.493446170505, -35740.84171543619, 0.04, 0.9540000000000001, -0.116, 192.0, 0.0, 0.0, 0.0, 0.0, 0.0, 0.0, 0.0, 0.0, 0.0, 1.6689767170364275E9, 0.0, 2022-11-20 15:38:37.036
80.0, -17035.449091845643, 23743.60993428349, -36620.986356852816, -35749.22361960693, -28489.533482734383, -29521.200599813536, -24701.44923942676, -4147.634404615689, -26362.2732594339, -4002.2139551894616, -29429.469040568954, -34457.71747323483, -27800.74212559964, -11384.279892954813, -23218.679215750602, -35677.18394722747, 0.04, 0.9540000000000001, -0.116, 192.0, 0.0, 0.0, 0.0, 0.0, 0.0, 0.0, 0.0, 0.0, 0.0, 1.6689767170364332E9, 0.0, 2022-11-20 15:38:37.036
82.0, -16980.3073382744, 23179.76482865391, -36568.16918470492, -35680.71552285141, -28432.24596169543, -29459.68859907253, -24640.697197997237, -4091.5091742884133, -26443.27598133993, -4079.707453216011, -29507.186056040056, -34533.914570082976, -27873.251184612654, -11452.385658310135, -23286.0473735389, -35740.99817764737, 0.04, 0.9540000000000001, -0.116, 192.0, 0.0, 0.0, 0.0, 0.0, 0.0, 0.0, 0.0, 0.0, 0.0, 1.6689767170364387E9, 0.0, 2022-11-20 15:38:37.036
84.0, -17019.244077115545, 23734.602181268, -36599.26046124226, -35732.280997309805, -28460.722084131492, -29499.809980369806, -24676.191768192264, -4124.0756659597955, -26354.36074189672, -3992.870926007143, -29419.321348586247, -34447.59213299658, -27781.005535245604, -11366.264386923836, -23194.986366627978, -35650.78653702576, 0.04, 0.9540000000000001, -0.116, 192.0, 0.0, 0.0, 0.0, 0.0, 0.0, 0.0, 0.0, 0.0, 0.0, 1.6689767170364444E9, 0.0, 2022-11-20 15:38:37.036
86.0, -16999.55219025042, 23192.974709627, -36592.800807094674, -35712.83497963369, -28452.38488344966, -29495.11611403419, -24669.039209966566, -4121.236994413972, -26445.578211018827, -4090.480994043469, -29514.5174282214, -34544.106965554594, -27875.016972424626, -11470.535274807844, -23288.729582873533, -35749.15656437356, 0.05, 0.9540000000000001, -0.116, 192.0, 0.5, 72.0, 14.5, 104.0, 126.0, 48.0, 0.0, 0.0, 0.0, 1.6689767170364509E9, 0.0, 2022-11-20 15:38:37.036
88.0, -17019.735815493565, 23691.485666213714, -36607.08357180162, -35745.13325037161, -28475.787159894368, -29521.55822772482, -24696.777724835603, -4145.823913314809, -26359.523994865896, -4016.0049815183856, -29423.188200377015, -34456.95751392335, -27789.54390162753, -11390.694843613488, -23211.526657524904, -35672.95946752542, 0.05, 0.9540000000000001, -0.116, 192.0, 0.0, 0.0, 0.0, 0.0, 0.0, 0.0, 0.0, 0.0, 0.0, 1.6689767170364563E9, 0.0, 2022-11-20 15:38:37.036
90.0, -17007.59881825433, 23225.78707048739, -36597.91935657494, -35725.17314257302, -28467.114683045707, -29511.388183997657, -24688.93226253179, -4144.996898769963, -26450.00385642098, -4103.310895360815, -29523.055794603326, -34549.65019817951, -27887.891577230883, -11491.791783784842, -23307.572103449358, -35772.29061988481, 0.05, 0.9540000000000001, -0.116, 192.0, 0.0, 0.0, 0.0, 0.0, 0.0, 0.0, 0.0, 0.0, 0.0, 1.6689767170364623E9, 0.0, 2022-11-20 15:38:37.036
92.0, -17011.644484000743, 23656.527537885613, -36594.387780951, -35737.466602023436, -28458.39750270814, -29508.817733385295, -24684.35015491845, -4138.336078922282, -26357.087654720268, -4016.094388496207, -29424.842229466707, -34453.29182783268, -27783.73244806915, -11393.757032603864, -23208.419765045615, -35675.01582801531, 0.05, 0.9540000000000001, -0.116, 192.0, 0.0, 0.0, 0.0, 0.0, 0.0, 0.0, 0.0, 0.0, 0.0, 1.668976717036468E9, 0.0, 2022-11-20 15:38:37.036
94.0, -17039.4724058476, 23279.47596066904, -36623.46740048735, -35756.77850923282, -28480.615136696713, -29525.290969048856, -24699.437582425784, -4154.295224463371, -26456.508214057474, -4105.680180273078, -29534.142259853157, -34559.75318667331, -27889.970289465226, -11498.050272232327, -23307.79562089391, -35772.67059954054, 0.05, 0.9540000000000001, -0.116, 192.0, 0.0, 0.0, 0.0, 0.0, 0.0, 0.0, 0.0, 0.0, 0.0, 1.6689767170364735E9, 0.0, 2022-11-20 15:38:37.036
96.0, -16999.194562339137, 23602.48101979268, -36579.032132510205, -35719.987537859386, -28442.706578100515, -29485.30369821831, -24658.35507611693, -4110.441101842058, -26369.98461127098, -4026.84557757921, -29436.934523217027, -34471.620258286035, -27791.577910372962, -11400.26139024036, -23219.01449191743, -35679.083845506175, 0.044, 0.9560000000000001, -0.122, 192.0, 0.5, 48.0, 14.5, 112.0, 126.0, 24.0, 0.0, 0.0, 0.0, 1.6689767170364792E9, 0.0, 2022-11-20 15:38:37.036
98.0, -17032.74453076655, 23357.081217417865, -36621.746316164295, -35747.74840447288, -28489.64524145666, -29523.525181236888, -24699.54934114806, -4152.216512229027, -26435.095242869287, -4085.5636102633016, -29512.192846798047, -34538.4519742074, -27877.006277681146, -11475.139734165637, -23292.21645500856, -35749.71535798495, 0.044, 0.9560000000000001, -0.122, 192.0, 0.0, 0.0, 0.0, 0.0, 0.0, 0.0, 0.0, 0.0, 0.0, 1.668976717036485E9, 0.0, 2022-11-20 15:38:37.036
100.0, -16979.569730707375, 23543.13713826384, -36570.94080101738, -35697.121703281606, -28443.131261245166, -29473.79254982383, -24655.270535382097, -4103.914392461109, -26365.69307633556, -4021.4811589099363, -29425.512781800364, -34456.57753426761, -27797.098791253426, -11392.505334914367, -23228.02224493292, -35677.407464672026, 0.044, 0.9560000000000001, -0.122, 192.0, 0.0, 0.0, 0.0, 0.0, 0.0, 0.0, 0.0, 0.0, 0.0, 1.6689767170364904E9, 0.0, 2022-11-20 15:38:37.036
102.0, -17042.6240018158, 23426.63984616278, -36632.20693256938, -35750.72118648543, -28502.83277068529, -29536.332730809776, -24715.910818089345, -4165.9851868134965, -26432.971827146033, -4078.8804386711645, -29508.482457218466, -34526.762011857274, -27882.750676006162, -11473.955091709506, -23305.76161214848, -35749.760061473855, 0.044, 0.9560000000000001, -0.122, 192.0, 0.0, 0.0, 0.0, 0.0, 0.0, 0.0, 0.0, 0.0, 0.0, 1.6689767170364962E9, 0.0, 2022-11-20 15:38:37.036
104.0, -16984.330652276356, 23465.93421291521, -36561.620123579516, -35687.80102584374, -28434.123508229677, -29468.316372432277, -24650.554317302027, -4100.449872070536, -26365.201337957544, -4029.8854148251316, -29427.479735312434, -34460.645551758476, -27795.333003441454, -11394.785212848808, -23231.062082178843, -35679.173252484, 0.044, 0.9560000000000001, -0.122, 192.0, 0.0, 0.0, 0.0, 0.0, 0.0, 0.0, 0.0, 0.0, 0.0, 1.668976717036502E9, 0.0, 2022-11-20 15:38:37.036
106.0, -17053.017562987516, 23494.522094073545, -36624.07089758765, -35749.2906748403, -28501.35755555124, -29532.22000983, -24711.909855831847, -4163.481791434502, -26425.886324153704, -4072.577246734768, -29506.69431766204, -34525.242093234316, -27874.547585791064, -11464.276786360359, -23284.907434571676, -35733.487991510396, 0.044, 0.9570000000000001, -0.121, 192.0, 0.5, 48.0, 14.5, 120.0, 126.0, 32.0, 0.0, 0.0, 0.0, 1.6689767170365076E9, 0.0, 2022-11-20 15:38:37.036
108.0, -16965.868111356274, 23406.657386619736, -36530.014756919714, -35662.72236856489, -28408.91074048409, -29448.289209400322, -24624.179258844764, -4081.6520549836227, -26364.30726817933, -4026.13032175664, -29426.004520178383, -34459.796185469175, -27793.969547029683, -11391.052471524772, -23208.822096445812, -35665.382226155074, 0.044, 0.9570000000000001, -0.121, 192.0, 0.0, 0.0, 0.0, 0.0, 0.0, 0.0, 0.0, 0.0, 0.0, 1.6689767170365155E9, 0.0, 2022-11-20 15:38:37.036
110.0, -17059.410161901735, 23572.32851652247, -36624.272063287746, -35763.21581163595, -28500.17291309511, -29542.747681468452, -24716.04492855608, -4173.338910739292, -26409.815419890336, -4056.483990726947, -29485.97425055197, -34506.80190405869, -27853.2240215807, -11451.089257131727, -23249.926954499122, -35716.143037813075, 0.044, 0.9570000000000001, -0.121, 192.0, 0.0, 0.0, 0.0, 0.0, 0.0, 0.0, 0.0, 0.0, 0.0, 1.6689767170365207E9, 0.0, 2022-11-20 15:38:37.036
112.0, -16963.74469563302, 23336.942295663634, -36536.6755767674, -35670.29960993524, -28404.9544817155, -29447.86452625567, -24626.705005968215, -4084.870706185187, -26390.145884769667, -4042.84942660921, -29446.545773332808, -34476.44823508838, -27809.012271048105, -11415.661742170065, -23221.69670125207, -35690.72910436739, 0.044, 0.9570000000000001, -0.121, 192.0, 0.0, 0.0, 0.0, 0.0, 0.0, 0.0, 0.0, 0.0, 0.0, 1.6689767170365267E9, 0.0, 2022-11-20 15:38:37.036
114.0, -17061.578281113896, 23634.68988355278, -36643.31574956367, -35771.68712278451, -28508.890093432678, -29541.78655645687, -24724.784460638104, -4177.026948574418, -26406.149733799666, -4043.475275453958, -29480.095741760226, -34495.62603183103, -27842.539887731065, -11440.606288982188, -23252.653867322668, -35709.48221796539, 0.044, 0.9570000000000001, -0.121, 192.0, 0.0, 0.0, 0.0, 0.0, 0.0, 0.0, 0.0, 0.0, 0.0, 1.6689767170365324E9, 0.0, 2022-11-20 15:38:37.036
116.0, -16971.12077130327, 23277.307841456874, -36563.363559647034, -35680.53670889577, -28433.989397762944, -29459.241564183423, -24644.362884087906, -4098.304104602827, -26406.23914077749, -4059.903807628609, -29470.596250366718, -34496.76597079825, -27834.56031496052, -11431.68794294452, -23266.31078318486, -35712.20913078894, 0.044, 0.9575, -0.1235, 192.0, 0.5, 48.0, 14.5, 120.0, 126.0, 8.0, 0.0, 0.0, 0.0, 1.668976717036538E9, 0.0, 2022-11-20 15:38:37.036
118.0, -17049.351876896846, 23701.342785518504, -36635.87261866005, -35762.54525930229, -28514.634491757693, -29544.401710558144, -24724.94092284929, -4180.513820709446, -26388.201283002054, -4029.9748218029526, -29464.15894796359, -34481.63383980201, -27837.398986506345, -11428.446939998501, -23263.427408150128, -35708.386982487085, 0.044, 0.9575, -0.1235, 192.0, 0.0, 0.0, 0.0, 0.0, 0.0, 0.0, 0.0, 0.0, 0.0, 1.6689767170365436E9, 0.0, 2022-11-20 15:38:37.036
120.0, -16939.604811621288, 23265.193195962096, -36522.75043997174, -35639.27538863127, -28406.13912417163, -29433.849982482196, -24619.0607093645, -4077.673444470578, -26397.99134707348, -4053.6229674366678, -29455.01708448137, -34483.33257238061, -27832.995692848646, -11430.033913854828, -23265.50612038447, -35713.617290689624, 0.044, 0.9575, -0.1235, 192.0, 0.0, 0.0, 0.0, 0.0, 0.0, 0.0, 0.0, 0.0, 0.0, 1.668976717036549E9, 0.0, 2022-11-20 15:38:37.036
122.0, -17044.94858323915, 23755.210489655794, -36619.354679507574, -35750.5870760187, -28502.653956729646, -29535.438661031567, -24716.804887867558, -4171.640178160689, -26356.104177964233, -3997.7659580428553, -29421.310653842767, -34438.897304403465, -27802.93259655626, -11392.482983169912, -23223.238971619485, -35669.69611283494, 0.044, 0.9575, -0.1235, 192.0, 0.0, 0.0, 0.0, 0.0, 0.0, 0.0, 0.0, 0.0, 0.0, 1.6689767170365548E9, 0.0, 2022-11-20 15:38:37.036
124.0, -16976.731059161553, 23220.48970705148, -36557.060367710634, -35679.73204609538, -28428.781441304858, -29470.462139899988, -24644.362884087906, -4105.9931046954525, -26422.555914229863, -4078.053424126318, -29479.93927954904, -34508.031250003725, -27853.961629147725, -11457.41480081258, -23277.732524601524, -35733.68915721049, 0.044, 0.9575, -0.1235, 192.0, 0.0, 0.0, 0.0, 0.0, 0.0, 0.0, 0.0, 0.0, 0.0, 1.6689767170365603E9, 0.0, 2022-11-20 15:38:37.036
126.0, -17053.218728687614, 23768.688591562342, -36627.71423193386, -35761.785299990814, -28500.575244495303, -29545.94398092556, -24717.31897799003, -4175.35056774027, -26368.710561837026, -4022.1070077546847, -29439.773194762853, -34461.114938392035, -27808.855808836917, -11416.041721825806, -23227.999893188466, -35691.55611891224, 0.040999999999999995, 0.96075, -0.12375, 192.0, 0.5, 24.0, 15.0, 16.0, 126.0, 16.0, 0.0, 0.0, 0.0, 1.668976717036566E9, 0.0, 2022-11-20 15:38:37.036
128.0, -16981.804905152905, 23206.519866766914, -36556.725091543805, -35675.35110418214, -28429.608455849702, -29474.731323090953, -24648.87793646788, -4110.91048847562, -26438.783280704414, -4097.030055168874, -29504.190922283047, -34527.7007851244, -27867.260917098632, -11482.404051113612, -23292.529379430936, -35757.62787552212, 0.040999999999999995, 0.96075, -0.12375, 192.0, 0.0, 0.0, 0.0, 0.0, 0.0, 0.0, 0.0, 0.0, 0.0, 1.6689767170365715E9, 0.0, 2022-11-20 15:38:37.036
130.0, -17039.76297852552, 23777.22695794427, -36602.63557465501, -35738.226561334915, -28482.40327625314, -29530.342463295754, -24707.305396474054, -4157.8268000873095, -26352.952581996036, -4009.299458181794, -29421.556523031777, -34438.33851079208, -27780.49144512313, -11392.371224447636, -23203.16710509862, -35668.69028433446, 0.040999999999999995, 0.96075, -0.12375, 192.0, 0.0, 0.0, 0.0, 0.0, 0.0, 0.0, 0.0, 0.0, 0.0, 1.6689767170365772E9, 0.0, 2022-11-20 15:38:37.036
132.0, -16979.435620240645, 23227.530506554904, -36554.95930373184, -35680.04497051775, -28430.904857028112, -29475.737151591442, -24654.10824467042, -4106.57425005129, -26437.196306848087, -4090.995084165941, -29499.787628625352, -34519.16241874247, -27863.237603096677, -11469.484742818446, -23289.198969507095, -35750.184744618506, 0.040999999999999995, 0.96075, -0.12375, 192.0, 0.0, 0.0, 0.0, 0.0, 0.0, 0.0, 0.0, 0.0, 0.0, 1.6689767170365827E9, 0.0, 2022-11-20 15:38:37.036
134.0, -17022.730949250574, 23763.346524637524, -36596.24297574079, -35738.561837501744, -28468.344028990752, -29517.490210233955, -24690.608643365937, -4136.972622510508, -26339.608590556218, -3996.871888264643, -29402.088153611203, -34422.62523444, -27769.270869406566, -11375.003919005861, -23199.859046919235, -35660.06251097471, 0.040999999999999995, 0.96075, -0.12375, 192.0, 0.0, 0.0, 0.0, 0.0, 0.0, 0.0, 0.0, 0.0, 0.0, 1.6689767170365882E9, 0.0, 2022-11-20 15:38:37.036
136.0, -17000.289797817444, 23236.02416944792, -36584.64242036849, -35710.331584254694, -28448.741549103448, -29489.706991876006, -24662.892480241357, -4110.23993614196, -26438.89503942669, -4098.304104602827, -29509.37652699668, -34526.15851475698, -27873.340591590477, -11476.03380394385, -23304.353452247793, -35757.672579011036, 0.040499999999999994, 0.9593750000000001, -0.123875, 192.0, 0.5, 32.0, 14.5, 120.0, 126.0, 16.0, 0.0, 0.0, 0.0, 1.668976717036594E9, 0.0, 2022-11-20 15:38:37.036
138.0, -17003.240228085546, 23734.75864347919, -36587.838719825595, -35724.79316291728, -28454.329485217273, -29490.913986076594, -24667.228718665687, -4106.1719186510945, -26347.990494726957, -3999.9564289994755, -29414.33690957271, -34433.39877526746, -27773.54005259753, -11372.72404107142, -23216.10876513824, -35667.63975234506, 0.040499999999999994, 0.9593750000000001, -0.123875, 192.0, 0.0, 0.0, 0.0, 0.0, 0.0, 0.0, 0.0, 0.0, 0.0, 1.6689767170365992E9, 0.0, 2022-11-20 15:38:37.036
140.0, -16999.865114672793, 23300.263083012473, -36588.37516169252, -35718.244101791875, -28453.68128462807, -29487.874148830673, -24666.69227679876, -4104.629648283679, -26427.763870687948, -4071.861990912198, -29498.044192557838, -34517.24016871931, -27857.873184427404, -11454.352611822202, -23300.41954522366, -35747.05550039477, 0.040499999999999994, 0.9593750000000001, -0.123875, 192.0, 0.0, 0.0, 0.0, 0.0, 0.0, 0.0, 0.0, 0.0, 0.0, 1.6689767170366063E9, 0.0, 2022-11-20 15:38:37.036
142.0, -16990.253864557013, 23685.763619633155, -36569.465585883336, -35715.20426454595, -28435.688130341547, -29475.737151591442, -24651.291924869052, -4085.2059823520167, -26339.094500433745, -3997.810661531766, -29401.842284422197, -34437.24327531377, -27757.91618322327, -11367.784305546798, -23215.527619782402, -35663.48232787637, 0.040499999999999994, 0.9593750000000001, -0.123875, 192.0, 0.0, 0.0, 0.0, 0.0, 0.0, 0.0, 0.0, 0.0, 0.0, 1.668976717036612E9, 0.0, 2022-11-20 15:38:37.036
144.0, -17029.883507476272, 23346.374731823773, -36615.510179461264, -35743.65803523756, -28478.15644480663, -29510.114134563704, -24687.367640419918, -4118.7335990349775, -26429.641417222192, -4075.080642113762, -29501.2628437594, -34530.047718292204, -27857.917887916316, -11460.655803758598, -23306.18629529313, -35745.04384339379, 0.040499999999999994, 0.9593750000000001, -0.123875, 192.0, 0.0, 0.0, 0.0, 0.0, 0.0, 0.0, 0.0, 0.0, 0.0, 1.6689767170366175E9, 0.0, 2022-11-20 15:38:37.036
146.0, -16989.873884901273, 23623.692825280767, -36570.02437949472, -35703.98368882939, -28432.827107051267, -29467.712875331985, -24646.665113766805, -4077.382871792659, -26355.903012264134, -4009.1876994595173, -29416.348566573688, -34455.63876100049, -27772.48952060813, -11374.758049816854, -23231.41971009013, -35666.81273780021, 0.040249999999999994, 0.9546875000000001, -0.1249375, 192.0, 0.5, 32.0, 14.5, 88.0, 126.0, 8.0, 0.0, 0.0, 0.0, 1.6689767170366228E9, 0.0, 2022-11-20 15:38:37.036
148.0, -17036.343161623856, 23406.322110452904, -36618.23709228481, -35739.67942472451, -28483.789084409367, -29516.439678244555, -24693.961405034235, -4127.495482861457, -26429.931989900113, -4068.3080635438046, -29500.726401892472, -34532.77463111575, -27863.50582403014, -11458.063001401782, -23305.962777848577, -35741.579323003214, 0.040249999999999994, 0.9546875000000001, -0.1249375, 192.0, 0.0, 0.0, 0.0, 0.0, 0.0, 0.0, 0.0, 0.0, 0.0, 1.6689767170366285E9, 0.0, 2022-11-20 15:38:37.036
150.0, -16990.58914072384, 23545.506423176103, -36560.435481123386, -35697.79225561527, -28431.262484939398, -29471.78089282285, -24648.1179771564, -4082.3896625506477, -26358.518166365408, -4011.7581500718775, -29414.53807527281, -34461.49491804778, -27778.748009055616, -11378.982529518906, -23234.8842304807, -35675.32875243769, 0.040249999999999994, 0.9546875000000001, -0.1249375, 192.0, 0.0, 0.0, 0.0, 0.0, 0.0, 0.0, 0.0, 0.0, 0.0, 1.668976717036634E9, 0.0, 2022-11-20 15:38:37.036
152.0, -17038.108949435824, 23485.939024202708, -36602.099132788084, -35738.20420959046, -28481.68802043057, -29520.194771313047, -24695.682489357292, -4130.915299763119, -26417.258550793955, -4064.5976739642233, -29488.4105906976, -34528.393689202516, -27854.162794847824, -11453.436190299535, -23292.954062575587, -35742.138116614595, 0.040249999999999994, 0.9546875000000001, -0.1249375, 192.0, 0.0, 0.0, 0.0, 0.0, 0.0, 0.0, 0.0, 0.0, 0.0, 1.6689767170366395E9, 0.0, 2022-11-20 15:38:37.036
154.0, -16970.852550369807, 23494.119762673352, -36527.779582474184, -35664.93519126597, -28405.982661960443, -29446.121090188157, -24627.509668768605, -4058.875627383665, -26349.800986027836, -4010.7523215713886, -29402.468133266942, -34455.54935402267, -27768.756779284096, -11373.372241660625, -23217.494573294473, -35662.9682377539, 0.040249999999999994, 0.9546875000000001, -0.1249375, 192.0, 0.0, 0.0, 0.0, 0.0, 0.0, 0.0, 0.0, 0.0, 0.0, 1.668976717036645E9, 0.0, 2022-11-20 15:38:37.036
156.0, -17053.174025198703, 23551.541394179036, -36613.856150371575, -35745.423823049525, -28485.577223965793, -29522.295835291843, -24707.148934262867, -4133.9998404979515, -26403.31106225384, -4050.605481935201, -29470.05980849979, -34511.33930818312, -27836.03553009457, -11434.392504023614, -23267.830701807823, -35711.44917147746, 0.041124999999999995, 0.95434375, -0.12446875, 192.0, 0.5, 40.0, 14.5, 104.0, 126.0, 16.0, 0.0, 0.0, 0.0, 1.6689767170366504E9, 0.0, 2022-11-20 15:38:37.036
158.0, -16969.176169535658, 23418.794383858967, -36533.83690522157, -35661.9177057645, -28406.697917783014, -29439.43791859602, -24624.134555355857, -4049.711412156989, -26368.732913581483, -4027.493778168414, -29421.847095709694, -34474.36952285404, -27791.242634206134, -11391.767727347342, -23235.420672347627, -35674.255868703825, 0.041124999999999995, 0.95434375, -0.12446875, 192.0, 0.0, 0.0, 0.0, 0.0, 0.0, 0.0, 0.0, 0.0, 0.0, 1.668976717036656E9, 0.0, 2022-11-20 15:38:37.036
160.0, -17072.37417368581, 23617.59079904447, -36628.20597031188, -35761.76294824635, -28501.53636950688, -29534.343425553256, -24714.569713422028, -4139.6771835896, -26394.683288894095, -4039.6307754076456, -29461.16381420658, -34504.320860424144, -27833.822707393494, -11423.440149240512, -23262.779207560925, -35701.50264519485, 0.041124999999999995, 0.95434375, -0.12446875, 192.0, 0.0, 0.0, 0.0, 0.0, 0.0, 0.0, 0.0, 0.0, 0.0, 1.6689767170366616E9, 0.0, 2022-11-20 15:38:37.036
162.0, -16980.284986529947, 23341.39029281024, -36538.53077155719, -35668.176194211985, -28407.346118372217, -29438.946180218005, -24621.11706985439, -4048.2361970229385, -26399.779486629905, -4053.0194703363745, -29453.63127632514, -34503.762066812764, -27818.623521163885, -11411.97370433494, -23256.140739457696, -35695.84765384765, 0.041124999999999995, 0.95434375, -0.12446875, 192.0, 0.0, 0.0, 0.0, 0.0, 0.0, 0.0, 0.0, 0.0, 0.0, 1.668976717036667E9, 0.0, 2022-11-20 15:38:37.036
164.0, -17052.369362398313, 23691.664480169355, -36616.94069110641, -35752.84460220869, -28485.55487222134, -29516.84200964475, -24695.548378890562, -4121.527567091891, -26374.03027701739, -4019.3130396977713, -29444.64587505411, -34484.42780785893, -27811.91799782729, -11405.78227112082, -23243.422596862627, -35683.129511252584, 0.041124999999999995, 0.95434375, -0.12446875, 192.0, 0.0, 0.0, 0.0, 0.0, 0.0, 0.0, 0.0, 0.0, 0.0, 1.6689767170366726E9, 0.0, 2022-11-20 15:38:37.036
166.0, -16959.877843842252, 23309.740222661523, -36528.13721038547, -35651.14416493704, -28389.062391407777, -29420.14836313109, -24600.575816699962, -4031.762961359377, -26379.215881731023, -4035.450999194503, -29431.614808036666, -34484.405456114466, -27801.747954100127, -11400.171983262539, -23248.295277153884, -35681.14020599606, 0.0395625, 0.9561718750000001, -0.12423437500000001, 192.0, 0.5, 24.0, 14.5, 120.0, 126.0, 16.0, 0.0, 0.0, 0.0, 1.668976717036678E9, 0.0, 2022-11-20 15:38:37.036
0.0, -8584.187458060678, 11987.352310103453, -18296.467458780702, -17833.987514255943, -14234.775511595668, -14726.603296590245, -12348.511797012306, -2047.419792106127, -13164.12695218646, -1988.1429658106526, -14694.14856364114, -17218.50987893461, -13878.265187533521, -5676.381966636416, -11599.683654270608, -17817.626037314658, 0.054, 0.9560000000000001, -0.122, 192.0, 0.5, 88.0, 14.5, 112.0, 126.0, 24.0, 0.0, 0.0, 0.0, 1.6689767176347916E9, 0.0, 2022-11-20 15:38:37.634
2.0, -17114.261342795056, 23378.76240953951, -36547.04678619466, -35612.453295284904, -28417.09147895473, -29402.982223389416, -24644.385235832364, -4049.018508078874, -26458.117539658255, -3893.4950701588477, -29507.208407784514, -34399.71469637331, -27885.70110627426, -11351.825160005708, -23239.30987588285, -35698.239290504374, 0.054, 0.9560000000000001, -0.122, 192.0, 0.0, 0.0, 0.0, 0.0, 0.0, 0.0, 0.0, 0.0, 0.0, 1.6689767176348007E9, 0.0, 2022-11-20 15:38:37.634
4.0, -17102.124345555825, 23799.37753669948, -36530.19357087536, -35616.83423719814, -28408.57546431726, -29395.91907214154, -24631.9129624263, -4031.4947404259137, -26369.917556037613, -3817.1191593550634, -29413.666357239053, -34315.96270989927, -27790.147398727822, -11268.386097954048, -23152.719217862992, -35615.113152875085, 0.054, 0.9560000000000001, -0.122, 192.0, 0.0, 0.0, 0.0, 0.0, 0.0, 0.0, 0.0, 0.0, 0.0, 1.668976717634818E9, 0.0, 2022-11-20 15:38:37.634
6.0, -17123.693778955196, 23435.424081733716, -36555.45104210985, -35641.21999039889, -28446.48402291346, -29431.793621992307, -24664.65826805333, -4064.3965082641257, -26446.04759765239, -3890.3434741906494, -29495.920776834584, -34397.14424576095, -27882.4824550727, -11367.381974146601, -23237.342922370783, -35695.15474976954, 0.054, 0.9560000000000001, -0.122, 192.0, 0.0, 0.0, 0.0, 0.0, 0.0, 0.0, 0.0, 0.0, 0.0, 1.668976717634823E9, 0.0, 2022-11-20 15:38:37.634
8.0, -17080.644319134273, 23751.500100076213, -36507.573605486585, -35607.6029667381, -28409.67069979557, -29395.941423885994, -24629.744843214135, -4026.13032175664, -26362.429721645087, -3829.524377527759, -29403.87629316763, -34317.21440758877, -27796.249424964124, -11297.71158667941, -23165.97380232499, -35621.46104830039, 0.07, 0.9580000000000001, -0.11800000000000001, 192.0, 1.0, 24.0, 14.5, 120.0, 126.0, 40.0, 0.0, 0.0, 0.0, 1.6689767176348283E9, 0.0, 2022-11-20 15:38:37.634
10.0, -17122.844412665894, 23518.7513850631, -36552.56766707512, -35642.69520553294, -28455.35766546222, -29442.54481107531, -24675.945899003258, -4074.2983310578265, -26428.23325732151, -3882.877991542577, -29476.921794047572, -34379.28520194116, -27877.09568465897, -11375.853285295163, -23232.291428123885, -35687.331639210184, 0.07, 0.9580000000000001, -0.11800000000000001, 192.0, 0.0, 0.0, 0.0, 0.0, 0.0, 0.0, 0.0, 0.0, 0.0, 1.6689767176348336E9, 0.0, 2022-11-20 15:38:37.634
12.0, -17072.128304496804, 23693.519674959145, -36496.48714023676, -35591.621469452555, -28393.018650176367, -29390.71111568345, -24624.760404200602, -4022.3975804326037, -26367.34710542525, -3829.6808397389464, -29397.438990764498, -34304.13863708242, -27795.757686586105, -11301.489031492358, -23159.44709294404, -35615.98487090884, 0.07, 0.9580000000000001, -0.11800000000000001, 192.0, 0.0, 0.0, 0.0, 0.0, 0.0, 0.0, 0.0, 0.0, 0.0, 1.6689767176348388E9, 0.0, 2022-11-20 15:38:37.634
14.0, -17128.588810990906, 23593.540322010558, -36555.71926304332, -35636.54847580773, -28442.997150778432, -29444.847040754204, -24678.44929438225, -4077.673444470578, -26425.95337938707, -3877.111241473108, -29474.753674835407, -34370.880946025965, -27865.830405453493, -11367.449029379968, -23220.288541351383, -35677.94390653895, 0.07, 0.9580000000000001, -0.11800000000000001, 192.0, 0.0, 0.0, 0.0, 0.0, 0.0, 0.0, 0.0, 0.0, 0.0, 1.6689767176348443E9, 0.0, 2022-11-20 15:38:37.634
16.0, -17066.272147449512, 23619.91538046782, -36493.60376520202, -35570.38731222002, -28374.176129600542, -29377.85886262165, -24613.159848828298, -4017.614307119168, -26376.086637507276, -3835.849921208611, -29411.989976404904, -34316.65561397739, -27794.796561574527, -11298.940932624451, -23165.705581391525, -35627.987757681345, 0.07, 0.9580000000000001, -0.11800000000000001, 192.0, 0.0, 0.0, 0.0, 0.0, 0.0, 0.0, 0.0, 0.0, 0.0, 1.6689767176348493E9, 0.0, 2022-11-20 15:38:37.634
18.0, -17130.935744158716, 23670.340915958994, -36551.204210663345, -35620.209350610894, -28430.971912261477, -29431.88302897013, -24666.848739009947, -4071.929046145564, -26411.089469324288, -3850.914996971488, -29466.885860787137, -34356.57582957457, -27842.22696330869, -11334.211985374926, -23201.714241709025, -35664.77872905478, 0.074, 0.9580000000000001, -0.114, 192.0, 1.0, 40.0, 14.5, 120.0, 126.0, 56.0, 0.0, 0.0, 0.0, 1.6689767176348543E9, 0.0, 2022-11-20 15:38:37.634
20.0, -17069.446095162166, 23554.26830700258, -36483.99251508624, -35555.41164343496, -28367.068274863756, -29367.778225872305, -24604.040337090533, -4014.8873942956207, -26369.090541492766, -3812.0900168526196, -29408.570159503244, -34302.55166322609, -27778.189215444236, -11274.510475934801, -23149.478214916973, -35616.454257542406, 0.074, 0.9580000000000001, -0.114, 192.0, 0.0, 0.0, 0.0, 0.0, 0.0, 0.0, 0.0, 0.0, 0.0, 1.6689767176348596E9, 0.0, 2022-11-20 15:38:37.634
22.0, -17180.44485812722, 23708.003605366186, -36592.84551058358, -35666.20924069992, -28485.55487222134, -29477.100608003213, -24718.570675679526, -4128.635421828678, -26430.04374862239, -3863.163752932996, -29485.4601604295, -34368.19873669132, -27856.822652438004, -11345.276098880304, -23215.54997152686, -35684.71648510891, 0.074, 0.9580000000000001, -0.114, 192.0, 0.0, 0.0, 0.0, 0.0, 0.0, 0.0, 0.0, 0.0, 0.0, 1.6689767176348648E9, 0.0, 2022-11-20 15:38:37.634
24.0, -17084.220598247124, 23464.615459992347, -36500.21988156079, -35569.85087035309, -28394.67267926606, -29372.762664885842, -24621.429994276765, -4030.84653983671, -26417.884399638704, -3864.102526200119, -29454.480642614442, -34350.47380333827, -27830.4699457252, -11314.698912465443, -23199.143791096663, -35666.075130233185, 0.074, 0.9580000000000001, -0.114, 192.0, 0.0, 0.0, 0.0, 0.0, 0.0, 0.0, 0.0, 0.0, 0.0, 1.668976717634872E9, 0.0, 2022-11-20 15:38:37.634
26.0, -17162.652869540798, 23782.65843184691, -36579.47916739931, -35656.44152837295, -28481.35274426374, -29448.512726844878, -24700.21989348172, -4101.165127893106, -26406.306196010853, -3846.265834124784, -29462.706084573998, -34352.060777194594, -27844.149213331846, -11324.064293392217, -23200.35078529725, -35664.421101143496, 0.074, 0.9580000000000001, -0.114, 192.0, 0.0, 0.0, 0.0, 0.0, 0.0, 0.0, 0.0, 0.0, 0.0, 1.668976717634879E9, 0.0, 2022-11-20 15:38:37.634
28.0, -17071.904787052248, 23418.43675594768, -36492.352067512526, -35564.35234121708, -28396.974908944954, -29354.94832455496, -24614.456250006708, -4013.1439582281064, -26411.60355944676, -3870.9868634923537, -29451.284343157335, -34355.12296618497, -27843.724530187195, -11325.986543415374, -23204.46350627703, -35659.10138596313, 0.076, 0.96, -0.112, 192.0, 1.0, 48.0, 15.0, 0.0, 126.0, 64.0, 0.0, 0.0, 0.0, 1.6689767176348865E9, 0.0, 2022-11-20 15:38:37.634
30.0, -17158.070761927458, 23844.595115732565, -36573.10892022955, -35656.8662115176, -28480.950412863545, -29441.427223852545, -24698.99054753668, -4092.090319644251, -26389.65414639165, -3837.9062816984992, -29438.67795928454, -34334.96169268629, -27842.31637028651, -11322.656133491533, -23189.30902353633, -35634.89444671803, 0.076, 0.96, -0.112, 192.0, 0.0, 0.0, 0.0, 0.0, 0.0, 0.0, 0.0, 0.0, 0.0, 1.6689767176348941E9, 0.0, 2022-11-20 15:38:37.634
32.0, -17069.46844690662, 23384.260938675518, -36493.20143380183, -35569.49324244181, -28390.269385608364, -29357.563478656233, -24614.97034012918, -4015.8932227961095, -26416.94562637158, -3879.8605060411105, -29451.77608153535, -34360.42032962088, -27854.56512624802, -11349.433523348991, -23213.426555803606, -35663.25881043182, 0.076, 0.96, -0.112, 192.0, 0.0, 0.0, 0.0, 0.0, 0.0, 0.0, 0.0, 0.0, 0.0, 1.6689767176349013E9, 0.0, 2022-11-20 15:38:37.634
34.0, -17144.1456251318, 23886.01289820825, -36568.37035040502, -35653.73696729386, -28454.217726494997, -29434.185258649024, -24685.55714911904, -4085.6306654966675, -26377.785370085883, -3827.199796104407, -29422.651758510085, -34317.661442477875, -27817.55063743003, -11321.113863124117, -23173.39458148415, -35631.139353649545, 0.076, 0.96, -0.112, 192.0, 0.0, 0.0, 0.0, 0.0, 0.0, 0.0, 0.0, 0.0, 0.0, 1.6689767176349084E9, 0.0, 2022-11-20 15:38:37.634
36.0, -17081.337223212387, 23354.130787149763, -36514.97203290129, -35589.408646751486, -28391.744600742415, -29386.330173770213, -24626.928523412767, -4035.8533305946985, -26425.99808287598, -3876.19481995044, -29464.56127936379, -34362.968428488784, -27848.776024434093, -11358.664793809032, -23216.15346862715, -35678.949735039445, 0.076, 0.96, -0.112, 192.0, 0.0, 0.0, 0.0, 0.0, 0.0, 0.0, 0.0, 0.0, 0.0, 1.6689767176349192E9, 0.0, 2022-11-20 15:38:37.634
38.0, -17153.15337814729, 23896.182941935414, -36570.203193450354, -35661.604781342125, -28444.517069401394, -29455.374712392655, -24687.25588169764, -4094.861935956709, -26379.30528870884, -3825.9928019038207, -29433.91703771556, -34328.27852109415, -27812.700308883228, -11322.633781747078, -23175.67445941859, -35648.19373466894, 0.07200000000000001, 0.9520000000000001, -0.114, 192.0, 1.0, 32.0, 14.5, 96.0, 126.0, 56.0, 0.0, 0.0, 0.0, 1.6689767176349273E9, 0.0, 2022-11-20 15:38:37.634
40.0, -17093.228351262613, 23318.61386521028, -36497.94000362635, -35584.223042037855, -28371.963306899466, -29389.973508116425, -24617.78665993055, -4032.187644504028, -26438.22448709303, -3904.402721453038, -29487.293003474835, -34392.673896869885, -27859.99660015066, -11380.100116741673, -23217.20400061655, -35697.322868981704, 0.07200000000000001, 0.9520000000000001, -0.114, 192.0, 0.0, 0.0, 0.0, 0.0, 0.0, 0.0, 0.0, 0.0, 0.0, 1.668976717634935E9, 0.0, 2022-11-20 15:38:37.634
42.0, -17149.91237520127, 23876.44635158138, -36539.91657971342, -35645.42211835648, -28424.48990636944, -29443.64004655362, -24668.212195421722, -4078.4334037820586, -26352.438491873563, -3842.175464889463, -29411.49823802689, -34323.472896036255, -27783.285413180045, -11314.028360131784, -23137.743549077935, -35625.730231491354, 0.07200000000000001, 0.9520000000000001, -0.114, 192.0, 0.0, 0.0, 0.0, 0.0, 0.0, 0.0, 0.0, 0.0, 0.0, 1.6689767176349432E9, 0.0, 2022-11-20 15:38:37.634
44.0, -17120.832755664916, 23311.416603495672, -36519.75530621473, -35608.18411209394, -28403.635728792637, -29417.644967752098, -24643.24529686514, -4056.3275285157597, -26424.925199142122, -3926.039210085775, -29484.856663329207, -34399.51353067321, -27857.046169882557, -11397.534477416812, -23215.438212804584, -35705.928290596996, 0.07200000000000001, 0.9520000000000001, -0.114, 192.0, 0.0, 0.0, 0.0, 0.0, 0.0, 0.0, 0.0, 0.0, 0.0, 1.6689767176349502E9, 0.0, 2022-11-20 15:38:37.634
46.0, -17146.090226899414, 23844.081025610096, -36547.47146933931, -35646.04796720123, -28434.90581928561, -29442.142479675113, -24671.65436406784, -4080.579171249768, -26353.958410496525, -3863.454325610915, -29416.61678750715, -34331.49717229571, -27792.673145851273, -11337.363581343125, -23157.658953387614, -35643.991606711345, 0.07200000000000001, 0.9520000000000001, -0.114, 192.0, 0.0, 0.0, 0.0, 0.0, 0.0, 0.0, 0.0, 0.0, 0.0, 1.668976717634958E9, 0.0, 2022-11-20 15:38:37.634
48.0, -17107.24289503609, 23347.984057424554, -36523.68921323886, -35606.37362079306, -28412.889350997135, -29410.224188592936, -24648.520308556595, -4060.104973328707, -26410.105992568257, -3926.1286170635963, -29475.468930657975, -34393.00917303672, -27856.75559720464, -11397.847401839186, -23222.07668090781, -35700.65327890555, 0.07200000000000001, 0.9500000000000001, -0.116, 192.0, 1.0, 32.0, 14.5, 88.0, 126.0, 48.0, 0.0, 0.0, 0.0, 1.6689767176349669E9, 0.0, 2022-11-20 15:38:37.634
50.0, -17112.942589872193, 23827.965417857817, -36528.71835574131, -35630.1111734046, -28428.267351182385, -29423.948159688494, -24666.379352376385, -4072.3984327791254, -26331.1149276632, -3854.8042005067114, -29392.543958728787, -34312.855817419986, -27782.324288168467, -11325.561860270724, -23156.943697565046, -35631.78755423875, 0.07200000000000001, 0.9500000000000001, -0.116, 192.0, 0.0, 0.0, 0.0, 0.0, 0.0, 0.0, 0.0, 0.0, 0.0, 1.6689767176349757E9, 0.0, 2022-11-20 15:38:37.634
52.0, -17106.52763921352, 23393.805133557933, -36527.53371328518, -35620.991661666834, -28427.641502337636, -29425.87040971165, -24663.518329086106, -4074.410089780103, -26406.529713455406, -3931.716553177423, -29472.294982945325, -34392.964469547805, -27863.99756240816, -11409.671474656043, -23234.0348641914, -35707.91759585352, 0.07200000000000001, 0.9500000000000001, -0.116, 192.0, 0.0, 0.0, 0.0, 0.0, 0.0, 0.0, 0.0, 0.0, 0.0, 1.668976717634983E9, 0.0, 2022-11-20 15:38:37.634
54.0, -17106.371177002333, 23769.359143896003, -36522.258701593724, -35629.932359448954, -28425.562790103293, -29431.368938847656, -24665.01589596461, -4074.3653862911924, -26326.912799705602, -3867.075308212675, -29384.117351069137, -34314.800419187595, -27771.88602350784, -11330.434540561979, -23153.25565972992, -35634.827391484665, 0.07200000000000001, 0.9500000000000001, -0.116, 192.0, 0.0, 0.0, 0.0, 0.0, 0.0, 0.0, 0.0, 0.0, 0.0, 1.6689767176349905E9, 0.0, 2022-11-20 15:38:37.634
56.0, -17132.81329069296, 23440.520279469525, -36553.640550808974, -35645.37741486757, -28451.602572393727, -29463.331933418744, -24690.966271277222, -4102.550936049335, -26417.772640916424, -3947.228663829406, -29482.68854411704, -34404.9673563203, -27872.535928790086, -11432.447902256, -23241.545050328383, -35722.96031987194, 0.07200000000000001, 0.9500000000000001, -0.116, 192.0, 0.0, 0.0, 0.0, 0.0, 0.0, 0.0, 0.0, 0.0, 0.0, 1.668976717634998E9, 0.0, 2022-11-20 15:38:37.634
58.0, -17089.47325819412, 23716.65373047039, -36498.342335026544, -35601.38918177953, -28399.254786879395, -29428.3961568351, -24647.134500400367, -4062.8542378967095, -26340.390901612154, -3884.3532066766275, -29395.650851208076, -34326.825657704554, -27780.91612826778, -11351.691049538977, -23159.24592724394, -35643.432813099964, 0.07, 0.96, -0.112, 192.0, 1.0, 24.0, 15.0, 0.0, 126.0, 64.0, 0.0, 0.0, 0.0, 1.6689767176350057E9, 0.0, 2022-11-20 15:38:37.635
60.0, -17143.229203609135, 23508.93896924722, -36543.17993440389, -35638.78365025326, -28437.25275245342, -29472.07146550077, -24684.908948529835, -4104.361427350214, -26396.851408106257, -3931.6942014329675, -29465.723570075465, -34388.002382278726, -27846.831422666484, -11420.176794550038, -23212.89011393668, -35696.04881954775, 0.07, 0.96, -0.112, 192.0, 0.0, 0.0, 0.0, 0.0, 0.0, 0.0, 0.0, 0.0, 0.0, 1.6689767176350136E9, 0.0, 2022-11-20 15:38:37.635
62.0, -17109.232200292612, 23625.235095648182, -36499.72814318277, -35597.74584743331, -28392.86218796518, -29430.743090002907, -24641.948895686735, -4062.004871607408, -26348.951619738535, -3896.289038215761, -29406.938482158006, -34339.6555590219, -27779.843244533928, -11363.626881078111, -23156.139034764652, -35639.54360956474, 0.07, 0.96, -0.112, 192.0, 0.0, 0.0, 0.0, 0.0, 0.0, 0.0, 0.0, 0.0, 0.0, 1.668976717635079E9, 0.0, 2022-11-20 15:38:37.635
64.0, -17170.4536283557, 23561.264403017092, -36564.12351895851, -35657.067377217696, -28455.96116256251, -29488.187073253048, -24698.208236480743, -4166.29811123587, -26410.57537920182, -3946.356945795649, -29484.87901507366, -34404.85559759803, -27858.78960595007, -11436.918251147063, -23226.189401887586, -35706.24121501937, 0.07, 0.96, -0.112, 192.0, 0.0, 0.0, 0.0, 0.0, 0.0, 0.0, 0.0, 0.0, 0.0, 1.6689767176351087E9, 0.0, 2022-11-20 15:38:37.635
66.0, -17081.24781623457, 23576.754161924622, -36479.49981445072, -35571.37078897605, -28372.27623132184, -29382.999763846372, -24608.9577208707, -4017.390789674615, -26345.97883772598, -3893.1821457364736, -29404.412735034555, -34333.44177406332, -27777.742180555128, -11355.110866440638, -23160.43056970007, -35636.41436534099, 0.07, 0.96, -0.112, 192.0, 0.0, 0.0, 0.0, 0.0, 0.0, 0.0, 0.0, 0.0, 0.0, 1.6689767176351159E9, 0.0, 2022-11-20 15:38:37.635
68.0, -17158.070761927458, 23659.58972687599, -36565.06229222564, -35657.268542917795, -28454.128319517175, -29449.71972104546, -24683.679602584794, -4061.960168118497, -26378.813550330826, -3908.135462777074, -29455.911154259582, -34371.48444312625, -27828.3688817464, -11388.169096490037, -23199.769639941413, -35664.28699067676, 0.07300000000000001, 0.9570000000000001, -0.112, 192.0, 1.0, 48.0, 14.5, 104.0, 126.0, 64.0, 0.0, 0.0, 0.0, 1.6689767176351304E9, 0.0, 2022-11-20 15:38:37.635
70.0, -17062.584109614385, 23520.293655430516, -36479.477462706265, -35574.70119889989, -28370.689257465514, -29360.178632757503, -24597.468924220673, -3986.679492793023, -26346.939962737557, -3887.10247124463, -29411.699403726987, -34341.24253287823, -27779.485616622642, -11341.744523256366, -23178.423723986594, -35642.06935668819, 0.07300000000000001, 0.9570000000000001, -0.112, 192.0, 0.0, 0.0, 0.0, 0.0, 0.0, 0.0, 0.0, 0.0, 0.0, 1.6689767176351376E9, 0.0, 2022-11-20 15:38:37.635
72.0, -17158.629555538842, 23729.662445743375, -36573.24303069628, -35676.13341523807, -28466.757055134425, -29454.59240133672, -24687.926434031302, -4078.4781072709693, -26359.92632626609, -3884.844945054644, -29440.44374709651, -34363.90720175591, -27807.805276847517, -11356.474322852413, -23202.563607998327, -35667.259772689315, 0.07300000000000001, 0.9570000000000001, -0.112, 192.0, 0.0, 0.0, 0.0, 0.0, 0.0, 0.0, 0.0, 0.0, 0.0, 1.6689767176351445E9, 0.0, 2022-11-20 15:38:37.635
74.0, -17082.27599647951, 23430.238477020084, -36501.56098622811, -35601.679754457444, -28400.037097935332, -29387.134836570604, -24620.290055309542, -4013.456882650481, -26371.415122916118, -3905.1179772756077, -29434.185258649024, -34370.74683555923, -27800.40684943281, -11356.228453663403, -23212.197209858565, -35678.41329317252, 0.07300000000000001, 0.9570000000000001, -0.112, 192.0, 0.0, 0.0, 0.0, 0.0, 0.0, 0.0, 0.0, 0.0, 0.0, 1.6689767176351514E9, 0.0, 2022-11-20 15:38:37.635
76.0, -17154.53918630352, 23779.75270506772, -36572.0807399846, -35682.794235085756, -28471.29445925885, -29463.48839562993, -24691.636823610883, -4082.0543863838184, -26372.108026994232, -3894.657360870524, -29447.30573264429, -34376.20066120633, -27819.428183964275, -11374.78040156131, -23217.315759338828, -35686.66108687653, 0.07300000000000001, 0.9570000000000001, -0.112, 192.0, 0.0, 0.0, 0.0, 0.0, 0.0, 0.0, 0.0, 0.0, 0.0, 1.668976717635158E9, 0.0, 2022-11-20 15:38:37.635
78.0, -17075.793990587474, 23377.689525805657, -36489.98278260026, -35594.32603053165, -28380.769894214856, -29385.033772591803, -24607.92954062576, -4001.141071455607, -26364.799006557347, -3905.7661778648117, -29430.81014523627, -34373.47374838278, -27796.025907519568, -11364.029212478306, -23207.54804701186, -35675.97695302689, 0.07350000000000001, 0.9545000000000001, -0.112, 192.0, 1.0, 40.0, 14.5, 96.0, 126.0, 64.0, 0.0, 0.0, 0.0, 1.668976717635165E9, 0.0, 2022-11-20 15:38:37.635
80.0, -17176.22037842517, 23810.262836249214, -36579.41211216594, -35692.49489217936, -28461.571450420794, -29471.043285255826, -24693.64848061186, -4078.969845648986, -26355.992419241957, -3888.510631145314, -29440.10847092968, -34375.88773678395, -27795.757686586105, -11368.186636946994, -23200.7754684419, -35666.499813377835, 0.07350000000000001, 0.9545000000000001, -0.112, 192.0, 0.0, 0.0, 0.0, 0.0, 0.0, 0.0, 0.0, 0.0, 0.0, 1.6689767176351724E9, 0.0, 2022-11-20 15:38:37.635
82.0, -17113.367273016844, 23300.24073126802, -36514.23442533427, -35612.743867962825, -28386.156664628586, -29398.221301820435, -24620.535924498552, -4009.2100512039724, -26394.012736560435, -3938.6008904696573, -29469.098683488213, -34413.930405846884, -27817.483582196666, -11393.533515159312, -23228.603390288758, -35689.00802004433, 0.07350000000000001, 0.9545000000000001, -0.112, 192.0, 0.0, 0.0, 0.0, 0.0, 0.0, 0.0, 0.0, 0.0, 0.0, 1.6689767176351795E9, 0.0, 2022-11-20 15:38:37.635
84.0, -17201.16492523729, 23793.52137965219, -36590.92326056043, -35695.84765384765, -28459.045703297343, -29469.903346288604, -24691.145085232867, -4073.0466333683294, -26367.83884380327, -3898.323046961194, -29449.764424534373, -34387.48829215626, -27797.88110230936, -11363.20219793346, -23198.11561085172, -35657.559115595715, 0.07350000000000001, 0.9545000000000001, -0.112, 192.0, 0.0, 0.0, 0.0, 0.0, 0.0, 0.0, 0.0, 0.0, 0.0, 1.668976717635187E9, 0.0, 2022-11-20 15:38:37.635
86.0, -17125.526622000532, 23255.26902142394, -36524.76209697272, -35616.87894068706, -28388.436542563028, -29389.593528460686, -24616.378500029863, -4003.1750802010397, -26425.819268920335, -3960.773820969322, -29500.234663514457, -34446.69806321836, -27846.853774410938, -11408.330369988726, -23244.383721874205, -35700.16154052753, 0.07350000000000001, 0.9545000000000001, -0.112, 192.0, 0.0, 0.0, 0.0, 0.0, 0.0, 0.0, 0.0, 0.0, 0.0, 1.668976717635194E9, 0.0, 2022-11-20 15:38:37.635
88.0, -17181.4059831388, 23817.035414819173, -36580.79792032217, -35686.571679898705, -28446.036988024356, -29445.383482621135, -24676.37058214791, -4055.478162226458, -26353.913707007614, -3882.5427153757473, -29434.833459238227, -34379.93340253036, -27789.812122560994, -11337.497691809856, -23174.512168706915, -35631.38522283855, 0.07875000000000001, 0.9532500000000002, -0.112, 192.0, 1.0, 80.0, 14.5, 96.0, 126.0, 64.0, 0.0, 0.0, 0.0, 1.668976717635201E9, 0.0, 2022-11-20 15:38:37.635
90.0, -17123.96199988866, 23256.006628990966, -36539.536600057676, -35629.82060072668, -28397.354888600697, -29398.422467520533, -24627.666130979793, -4012.6969233390005, -26421.773603173926, -3947.4968847628697, -29497.64186115764, -34447.23450508529, -27858.297867572055, -11405.02231180934, -23242.394416617684, -35704.318964996215, 0.07875000000000001, 0.9532500000000002, -0.112, 192.0, 0.0, 0.0, 0.0, 0.0, 0.0, 0.0, 0.0, 0.0, 0.0, 1.668976717635209E9, 0.0, 2022-11-20 15:38:37.635
92.0, -17176.309785402987, 23804.406679201926, -36581.98256277831, -35686.75049385434, -28443.19831647853, -29444.243543653913, -24672.973116990703, -4049.130266801151, -26343.98953246946, -3863.6107878221023, -29420.97537767594, -34368.5116611137, -27784.82768354746, -11328.467587049912, -23168.946584337544, -35633.95567345091, 0.07875000000000001, 0.9532500000000002, -0.112, 192.0, 0.0, 0.0, 0.0, 0.0, 0.0, 0.0, 0.0, 0.0, 0.0, 1.6689767176352172E9, 0.0, 2022-11-20 15:38:37.635
94.0, -17150.471168812655, 23248.094111453785, -36560.88251601249, -35647.09849919063, -28417.67262431057, -29420.72950848693, -24647.380369589373, -4027.873757824154, -26435.095242869287, -3953.777724954811, -29512.751640409428, -34463.10424364856, -27874.36877183542, -11418.053378826784, -23264.857919795268, -35724.72610768391, 0.07875000000000001, 0.9532500000000002, -0.112, 192.0, 0.0, 0.0, 0.0, 0.0, 0.0, 0.0, 0.0, 0.0, 0.0, 1.6689767176352248E9, 0.0, 2022-11-20 15:38:37.635
96.0, -17168.129046932347, 23772.019001486184, -36573.131271974, -35676.356932682625, -28435.933999530556, -29443.260066897878, -24670.40266637834, -4044.458752209992, -26350.583297083773, -3870.584532092158, -29429.290226613313, -34379.64282985244, -27786.2581951926, -11337.05065692075, -23187.185607813073, -35646.159725923506, 0.07875000000000001, 0.9532500000000002, -0.112, 192.0, 0.0, 0.0, 0.0, 0.0, 0.0, 0.0, 0.0, 0.0, 0.0, 1.6689767176352327E9, 0.0, 2022-11-20 15:38:37.635
98.0, -17146.20198562169, 23281.644079881204, -36554.66873105392, -35652.95465623792, -28418.164362688585, -29432.195953392504, -24656.45517783823, -4035.4062957055926, -26426.735690443005, -3946.133428351096, -29508.907140363117, -34462.00900817025, -27865.070446142014, -11424.133053318626, -23264.567347117347, -35726.916578640536, 0.078375, 0.950625, -0.111, 192.0, 1.0, 56.0, 14.5, 80.0, 126.0, 72.0, 0.0, 0.0, 0.0, 1.668976717635241E9, 0.0, 2022-11-20 15:38:37.635
100.0, -17160.909433473284, 23732.41171031138, -36554.1769926759, -35668.13149072308, -28423.0593947243, -29443.3494738757, -24666.804035521036, -4042.84942660921, -26336.30053237683, -3866.650625068024, -29413.420488050044, -34373.89843152743, -27771.774264785563, -11337.944726698963, -23175.45094197404, -35639.320092120186, 0.078375, 0.950625, -0.111, 192.0, 0.0, 0.0, 0.0, 0.0, 0.0, 0.0, 0.0, 0.0, 0.0, 1.668976717635256E9, 0.0, 2022-11-20 15:38:37.635
102.0, -17161.64704104031, 23330.326179304862, -36543.69402452636, -35641.97994971037, -28412.91170274159, -29432.553581303786, -24655.22583189319, -4035.98744106143, -26422.242989807488, -3937.5280067358026, -29503.766239138396, -34454.81174645564, -27861.494167029163, -11425.898841130596, -23255.626649335223, -35721.82038090472, 0.078375, 0.950625, -0.111, 192.0, 0.0, 0.0, 0.0, 0.0, 0.0, 0.0, 0.0, 0.0, 0.0, 1.6689767176352625E9, 0.0, 2022-11-20 15:38:37.635
104.0, -17155.030924681538, 23675.951203817272, -36527.69017549636, -35633.799211239726, -28400.931167713545, -29420.81891546475, -24639.289038096555, -4019.000115275397, -26342.78253826887, -3853.0607644391976, -29410.24654033739, -34365.069492467584, -27764.82287225996, -11324.71249398142, -23160.944659822544, -35630.73702224935, 0.078375, 0.950625, -0.111, 192.0, 0.0, 0.0, 0.0, 0.0, 0.0, 0.0, 0.0, 0.0, 0.0, 1.6689767176352687E9, 0.0, 2022-11-20 15:38:37.635
106.0, -17186.323366918965, 23372.302755391927, -36569.95732426135, -35664.08582497666, -28448.92036305909, -29458.63806708313, -24680.03626823858, -4059.8591041396985, -26434.670559724636, -3934.2870037897833, -29510.583521197263, -34460.422034313924, -27875.66517301383, -11421.942582362008, -23254.911393512655, -35721.44040124898, 0.078375, 0.950625, -0.111, 192.0, 0.0, 0.0, 0.0, 0.0, 0.0, 0.0, 0.0, 0.0, 0.0, 1.6689767176352751E9, 0.0, 2022-11-20 15:38:37.635
108.0, -17123.671427210742, 23619.267179878614, -36509.384096787464, -35620.11994363307, -28400.41707759107, -29413.934578172517, -24633.097604882434, -4012.808682061277, -26341.419081857097, -3859.6321773090576, -29405.463267023955, -34372.3114576711, -27783.866558535883, -11338.235299376882, -23176.702639663537, -35644.39393811154, 0.0791875, 0.9533125, -0.1115, 192.0, 1.0, 64.0, 14.5, 112.0, 126.0, 64.0, 0.0, 0.0, 0.0, 1.6689767176352818E9, 0.0, 2022-11-20 15:38:37.635
110.0, -17180.5566168495, 23442.06254983694, -36571.32078067312, -35675.39580767105, -28460.520918431394, -29470.998581766915, -24691.12273348841, -4069.738575188944, -26404.473352965517, -3915.6232971696018, -29481.21332898299, -34441.49010676028, -27868.46791129922, -11416.779329392832, -23245.590716074792, -35711.20330228845, 0.0791875, 0.9533125, -0.1115, 192.0, 0.0, 0.0, 0.0, 0.0, 0.0, 0.0, 0.0, 0.0, 0.0, 1.6689767176352892E9, 0.0, 2022-11-20 15:38:37.635
112.0, -17125.10193885588, 23541.192536496226, -36510.27816656568, -35620.365812822085, -28394.873844966158, -29413.800467705783, -24628.381386802364, -4007.734836069922, -26349.823337772294, -3874.2502181828286, -29412.459363038466, -34381.58743162006, -27792.60609061791, -11352.182787916994, -23184.592805456257, -35648.10432769112, 0.0791875, 0.9533125, -0.1115, 192.0, 0.0, 0.0, 0.0, 0.0, 0.0, 0.0, 0.0, 0.0, 0.0, 1.6689767176352956E9, 0.0, 2022-11-20 15:38:37.635
114.0, -17210.2620852306, 23501.093506943405, -36596.10886527406, -35694.819473602714, -28474.803683138336, -29489.058791286803, -24705.338442961987, -4083.3060840733156, -26414.956321115056, -3916.830291370188, -29494.892596589638, -34448.553258008156, -27867.171510120814, -11420.959105605973, -23247.26709690894, -35712.76792440032, 0.0791875, 0.9533125, -0.1115, 192.0, 0.0, 0.0, 0.0, 0.0, 0.0, 0.0, 0.0, 0.0, 0.0, 1.668976717635302E9, 0.0, 2022-11-20 15:38:37.635
116.0, -17125.727787700627, 23460.72625645712, -36513.96620440081, -35612.609757496095, -28391.677545509046, -29406.91613041355, -24624.9615699007, -4003.9350395125202, -26375.639602618172, -3888.3318171896717, -29439.21440115147, -34403.11216153052, -27804.92190181278, -11366.711421812943, -23205.87166617771, -35666.47746163338, 0.0791875, 0.9533125, -0.1115, 192.0, 0.0, 0.0, 0.0, 0.0, 0.0, 0.0, 0.0, 0.0, 0.0, 1.6689767176353097E9, 0.0, 2022-11-20 15:38:37.635
118.0, -17214.955951566215, 23560.19151928324, -36604.06608630015, -35709.906901110044, -28485.376058265694, -29499.27353850288, -24715.150858777866, -4091.7773952218768, -26403.355765742752, -3913.142253535063, -29485.30369821831, -34444.39583353947, -27856.241507082166, -11418.656875927076, -23246.864765508744, -35706.75530514184, 0.08059374999999999, 0.95665625, -0.10975, 192.0, 1.0, 72.0, 15.0, 0.0, 126.0, 80.0, 0.0, 0.0, 0.0, 1.6689767176353178E9, 0.0, 2022-11-20 15:38:37.635
120.0, -17119.379892275323, 23386.831389287876, -36505.204320574325, -35619.04705989922, -28391.364621086672, -29407.944310658495, -24622.48052626616, -4000.0905394662072, -26374.946698540058, -3903.039265041264, -29438.119165673157, -34415.49502795876, -27812.96852981669, -11384.838686566198, -23213.69477673707, -35679.30736295073, 0.08059374999999999, 0.95665625, -0.10975, 192.0, 0.0, 0.0, 0.0, 0.0, 0.0, 0.0, 0.0, 0.0, 0.0, 1.668976718115475E9, 0.0, 2022-11-20 15:38:38.115
122.0, -17218.912210334805, 23624.58689505898, -36605.42954271192, -35722.87091289412, -28493.48974150297, -29512.058736331313, -24727.734890906202, -4105.166090150606, -26390.011774302933, -3908.426035454993, -29470.171567222067, -34438.562028236636, -27847.45727151123, -11418.992152093906, -23235.353617114262, -35705.369496985615, 0.08059374999999999, 0.95665625, -0.10975, 192.0, 0.0, 0.0, 0.0, 0.0, 0.0, 0.0, 0.0, 0.0, 0.0, 1.6689767181155102E9, 0.0, 2022-11-20 15:38:38.115
124.0, -17102.90665661176, 23335.57883925186, -36494.96722161379, -35601.635050968536, -28380.389914559117, -29404.52449375683, -24616.222037818676, -4001.5881063447127, -26376.958355541035, -3904.112148775119, -29439.147345918103, -34417.90901635993, -27817.729451385672, -11396.930980316518, -23214.097108137263, -35685.43174093148, 0.08059374999999999, 0.95665625, -0.10975, 192.0, 0.0, 0.0, 0.0, 0.0, 0.0, 0.0, 0.0, 0.0, 0.0, 1.6689767181155298E9, 0.0, 2022-11-20 15:38:38.115
126.0, -17192.157172221803, 23702.92975937483, -36579.725036588316, -35683.554194397235, -28470.95918309202, -29488.187073253048, -24701.47159117122, -4086.100052130229, -26366.140111224668, -3872.6632443265016, -29440.77902326334, -34404.632080153475, -27825.396099733844, -11388.213799978948, -23202.183628342587, -35673.51826113681, 0.08059374999999999, 0.95665625, -0.10975, 192.0, 0.0, 0.0, 0.0, 0.0, 0.0, 0.0, 0.0, 0.0, 0.0, 1.668976718115574E9, 0.0, 2022-11-20 15:38:38.115
128.0, -17094.658862907752, 23297.17854227764, -36487.2111662878, -35578.88097511303, -28381.10517038169, -29390.509949983356, -24609.471810993175, -3994.5026033523804, -26374.097332250756, -3891.3045992022276, -29435.459308082976, -34408.1189522885, -27823.65266366633, -11375.942692272985, -23201.334262053286, -35671.193679713455, 0.08029687499999999, 0.956328125, -0.111875, 192.0, 1.0, 64.0, 14.5, 112.0, 126.0, 56.0, 0.0, 0.0, 0.0, 1.668976718115579E9, 0.0, 2022-11-20 15:38:38.115
130.0, -17188.379727408854, 23747.36502735198, -36571.18667020639, -35679.240307717366, -28470.78036913638, -29478.374657437165, -24696.06246901303, -4076.354691547715, -26347.051721459833, -3852.032584194253, -29422.316482343256, -34383.71084734331, -27815.47192519569, -11360.765857787832, -23179.34014550926, -35651.94882773743, 0.08029687499999999, 0.956328125, -0.111875, 192.0, 0.0, 0.0, 0.0, 0.0, 0.0, 0.0, 0.0, 0.0, 0.0, 1.6689767181155849E9, 0.0, 2022-11-20 15:38:38.115
132.0, -17098.883342609806, 23253.45853012306, -36492.24030879025, -35592.58259446414, -28393.510388554383, -29395.91907214154, -24618.904247153314, -3998.7941382877993, -26390.704678381047, -3909.610677911124, -29455.039436225827, -34427.58732170908, -27849.245411067655, -11401.803660607775, -23228.02224493292, -35700.04978180525, 0.08029687499999999, 0.956328125, -0.111875, 192.0, 0.0, 0.0, 0.0, 0.0, 0.0, 0.0, 0.0, 0.0, 0.0, 1.668976718115599E9, 0.0, 2022-11-20 15:38:38.115
134.0, -17177.740297048127, 23786.36882142649, -36566.313989915136, -35674.188813470464, -28462.957258577022, -29465.29888693081, -24689.826332310004, -4064.262397797394, -26323.761203737406, -3834.70998224139, -29395.025002363327, -34361.649675565925, -27793.83543656295, -11342.90681396804, -23171.33822099426, -35638.9624642089, 0.08029687499999999, 0.956328125, -0.111875, 192.0, 0.0, 0.0, 0.0, 0.0, 0.0, 0.0, 0.0, 0.0, 0.0, 1.6689767181156037E9, 0.0, 2022-11-20 15:38:38.115
136.0, -17130.712226714164, 23220.601465773758, -36522.28105333818, -35611.3580598066, -28409.46953409547, -29409.933615915015, -24633.298770582533, -4012.741626827911, -26405.546236699374, -3918.39491348206, -29470.417436411077, -34437.13151659149, -27859.907193172836, -11410.274971756337, -23242.953210229065, -35706.39767723056, 0.08029687499999999, 0.956328125, -0.111875, 192.0, 0.0, 0.0, 0.0, 0.0, 0.0, 0.0, 0.0, 0.0, 0.0, 1.6689767181156087E9, 0.0, 2022-11-20 15:38:38.115
138.0, -17193.610035611397, 23769.605013085013, -36575.455853397354, -35676.848671060645, -28465.192433022552, -29463.398988652112, -24684.93130027429, -4058.6074064502013, -26349.30924764982, -3855.6759185404685, -29421.668281754053, -34383.91201304341, -27806.531227413565, -11355.446142607469, -23182.715258922013, -35644.058661944706, 0.08029687499999999, 0.956328125, -0.111875, 192.0, 0.0, 0.0, 0.0, 0.0, 0.0, 0.0, 0.0, 0.0, 0.0, 1.6689767181156137E9, 0.0, 2022-11-20 15:38:38.115
140.0, -17148.951250189693, 23209.53735226838, -36535.4238790779, -35626.69135650294, -28431.776575061867, -29421.288302098314, -24646.55335504453, -4025.7503421008996, -26427.85327766577, -3937.30448929125, -29492.992698310936, -34458.4327290574, -27881.85660622795, -11425.272992285847, -23256.721884813534, -35710.51039821034, 0.076, 0.9580000000000001, -0.11, 192.0, 1.0, 48.0, 14.5, 120.0, 126.0, 72.0, 0.0, 0.0, 0.0, 1.6689767181156187E9, 0.0, 2022-11-20 15:38:38.115
142.0, -17168.553730076997, 23778.098675978028, -36552.70177754185, -35664.0187697433, -28457.749302118937, -29452.468985613465, -24672.861358268423, -4046.224540021961, -26335.674683532085, -3846.422296335971, -29399.897682654584, -34368.69047506934, -27800.65271862182, -11341.677468023, -23178.177854797585, -35634.60387404011, 0.076, 0.9580000000000001, -0.11, 192.0, 0.0, 0.0, 0.0, 0.0, 0.0, 0.0, 0.0, 0.0, 0.0, 1.6689767181156237E9, 0.0, 2022-11-20 15:38:38.115
144.0, -17140.3458285744, 23242.193250917586, -36529.00892841923, -35627.94305419243, -28428.736737815947, -29421.422412565043, -24643.73703524316, -4022.4869874104247, -26413.302292025364, -3922.4405792284706, -29477.83821557024, -34447.05569112965, -27881.320164361023, -11425.45180624149, -23252.519756855938, -35715.91952036852, 0.076, 0.9580000000000001, -0.11, 192.0, 0.0, 0.0, 0.0, 0.0, 0.0, 0.0, 0.0, 0.0, 0.0, 1.6689767181156285E9, 0.0, 2022-11-20 15:38:38.115
146.0, -17156.461436326677, 23753.60116405501, -36541.01181519173, -35652.57467658218, -28443.712406601004, -29440.06376744077, -24662.199576163242, -4038.4684846959694, -26317.68152924556, -3831.8936624400217, -29382.016287090337, -34355.36883537398, -27783.240709691134, -11331.328610340192, -23161.995191811944, -35624.545589035224, 0.076, 0.9580000000000001, -0.11, 192.0, 0.0, 0.0, 0.0, 0.0, 0.0, 0.0, 0.0, 0.0, 0.0, 1.6689767181156335E9, 0.0, 2022-11-20 15:38:38.115
148.0, -17148.124235644846, 23278.067800768353, -36542.06234718113, -35635.92262696298, -28437.789194320347, -29433.11237491517, -24655.82932899348, -4035.160426516584, -26406.552065199863, -3922.686448417479, -29477.949974292515, -34449.35792080855, -27877.788588737083, -11426.815262653263, -23258.040637736398, -35717.819418647225, 0.076, 0.9580000000000001, -0.11, 192.0, 0.0, 0.0, 0.0, 0.0, 0.0, 0.0, 0.0, 0.0, 0.0, 1.6689767181156385E9, 0.0, 2022-11-20 15:38:38.115
150.0, -17148.414808322766, 23702.54977971909, -36532.09346915406, -35637.219028141386, -28429.519048871884, -29428.038528923815, -24650.911945213313, -4029.0807520247404, -26321.906008947615, -3843.650680023513, -29385.883138881105, -34363.01313197769, -27785.677049836762, -11334.413151075025, -23172.522863450395, -35635.72146126288, 0.076, 0.9560000000000001, -0.12, 192.0, 1.0, 48.0, 14.5, 112.0, 126.0, 32.0, 0.0, 0.0, 0.0, 1.6689767181156435E9, 0.0, 2022-11-20 15:38:38.115
152.0, -17166.072686442458, 23318.636216954736, -36550.153678673945, -35643.54457182224, -28443.44418566754, -29445.4505378545, -24666.379352376385, -4051.320737757771, -26410.485972223996, -3922.1276548060964, -29481.056866771803, -34451.280170831706, -27882.258937628143, -11424.915364374563, -23255.738408057503, -35719.65226169256, 0.076, 0.9560000000000001, -0.12, 192.0, 0.0, 0.0, 0.0, 0.0, 0.0, 0.0, 0.0, 0.0, 0.0, 1.6689767181156485E9, 0.0, 2022-11-20 15:38:38.115
154.0, -17136.3448663169, 23649.01735174863, -36512.267471822204, -35622.19865586742, -28408.82133350627, -29413.688708983507, -24635.936276428256, -4020.65414436509, -26322.39774732563, -3837.392191576027, -29382.798598146273, -34359.43685286485, -27780.424389889766, -11329.138139383573, -23160.67643888908, -35629.99941468232, 0.076, 0.9560000000000001, -0.12, 192.0, 0.0, 0.0, 0.0, 0.0, 0.0, 0.0, 0.0, 0.0, 0.0, 1.6689767181156535E9, 0.0, 2022-11-20 15:38:38.115
156.0, -17196.269893201577, 23364.59140355485, -36572.37131266252, -35674.07705474819, -28464.074845799787, -29471.5573753783, -24691.480361399696, -4077.606389237212, -26414.576341459317, -3918.0149338263195, -29486.1083610187, -34456.17520286742, -27883.823559740016, -11426.859966142174, -23249.904602754665, -35723.58616871669, 0.076, 0.9560000000000001, -0.12, 192.0, 0.0, 0.0, 0.0, 0.0, 0.0, 0.0, 0.0, 0.0, 0.0, 1.6689767181156597E9, 0.0, 2022-11-20 15:38:38.115
158.0, -17132.992104648605, 23575.703629935222, -36511.485160766264, -35613.0567923852, -28401.802885747304, -29405.642080979596, -24630.862430436904, -4012.3392954277156, -26344.950657481037, -3857.978148219365, -29403.585720489707, -34379.128739729975, -27798.55165464302, -11349.76879951582, -23178.200206542042, -35650.94299923694, 0.076, 0.9560000000000001, -0.12, 192.0, 0.0, 0.0, 0.0, 0.0, 0.0, 0.0, 0.0, 0.0, 0.0, 1.6689767181156645E9, 0.0, 2022-11-20 15:38:38.115
160.0, -17189.83259079845, 23442.286067281493, -36565.531678859195, -35661.58242959767, -28466.48883420096, -29459.57684035025, -24692.285024200086, -4073.2701508128825, -26402.0817163088, -3905.67677088699, -29467.757578820896, -34436.84094391357, -27876.26867011412, -11415.773500892343, -23240.338056127795, -35704.58718592968, 0.076, 0.9520000000000001, -0.124, 192.0, 1.0, 48.0, 14.5, 96.0, 126.0, 16.0, 0.0, 0.0, 0.0, 1.6689767181156695E9, 0.0, 2022-11-20 15:38:38.115
162.0, -17122.307970798967, 23506.256759912583, -36493.871986135484, -35594.214271809375, -28395.76791474437, -29389.884101138607, -24622.68169196626, -4002.5045278673806, -26342.179041168576, -3860.7050610429123, -29389.52647322732, -34371.6632570819, -27802.329099455965, -11346.86307273663, -23175.965032096512, -35641.890542732544, 0.076, 0.9520000000000001, -0.124, 192.0, 0.0, 0.0, 0.0, 0.0, 0.0, 0.0, 0.0, 0.0, 0.0, 1.6689767181156745E9, 0.0, 2022-11-20 15:38:38.115
164.0, -17203.93654154975, 23512.76111754908, -36574.628838852506, -35672.91476403651, -28467.517014445904, -29462.25904968489, -24692.307375944543, -4070.9902728784414, -26395.487951694486, -3896.713721360412, -29464.896555530617, -34429.91190313243, -27866.746826976163, -11406.92221008804, -23224.15539314215, -35692.53959566827, 0.076, 0.9520000000000001, -0.124, 192.0, 0.0, 0.0, 0.0, 0.0, 0.0, 0.0, 0.0, 0.0, 0.0, 1.6689767181156807E9, 0.0, 2022-11-20 15:38:38.115
166.0, -17122.307970798967, 23440.721445169624, -36490.720390167284, -35596.80707416619, -28381.216929103965, -29384.363220258147, -24609.49416273763, -3990.5463445837913, -26355.143052952655, -3872.260912926306, -29414.113392128158, -34390.28226021317, -27803.245520978635, -11355.312032140737, -23171.71820065, -35644.03631020025, 0.076, 0.9520000000000001, -0.124, 192.0, 0.0, 0.0, 0.0, 0.0, 0.0, 0.0, 0.0, 0.0, 0.0, 1.6689767181156857E9, 0.0, 2022-11-20 15:38:38.115
168.0, -17214.330102721466, 23585.7172114512, -36586.654077369465, -35696.80877885923, -28478.424665740094, -29482.46502667249, -24705.204332495254, -4082.881400928665, -26386.547253912362, -3898.1889364944623, -29464.78479680834, -34434.069327601115, -27857.94023966077, -11407.212782765959, -23214.54414302637, -35685.230575231384, 0.076, 0.9520000000000001, -0.124, 192.0, 0.0, 0.0, 0.0, 0.0, 0.0, 0.0, 0.0, 0.0, 0.0, 1.6689767181156907E9, 0.0, 2022-11-20 15:38:38.115
170.0, -17135.942534916703, 23357.8635284738, -36515.08379162357, -35615.24726334182, -28405.893254982624, -29410.91709267105, -24634.662226994304, -4016.6531821075896, -26377.584204385785, -3897.808956838722, -29436.867467983662, -34417.75255414874, -27833.956817860228, -11391.186581991504, -23205.379927799695, -35671.84188030266, 0.068, 0.96, -0.11800000000000001, 192.0, 1.0, 16.0, 15.0, 0.0, 126.0, 40.0, 0.0, 0.0, 0.0, 1.6689767181156957E9, 0.0, 2022-11-20 15:38:38.115
172.0, -17221.97439932518, 23643.317656912524, -36597.00293505227, -35697.09935153715, -28488.147674578155, -29492.54566342183, -24717.721309390225, -4097.030055168874, -26386.74841961246, -3890.745805590845, -29460.82853803975, -34426.40267925295, -27862.052960640547, -11409.090329300205, -23218.478050050504, -35678.90503155053, 0.068, 0.96, -0.11800000000000001, 192.0, 0.0, 0.0, 0.0, 0.0, 0.0, 0.0, 0.0, 0.0, 0.0, 1.6689767181157005E9, 0.0, 2022-11-20 15:38:38.115
174.0, -17128.700569713186, 23311.61776919577, -36497.76118967071, -35595.24245205432, -28394.67267926606, -29399.5400547433, -24628.224924591177, -4012.451054149992, -26389.296518480365, -3901.586401651669, -29446.188145421525, -34421.217074539316, -27847.010236622125, -11397.579180905723, -23210.811401702333, -35671.99834251384, 0.068, 0.96, -0.11800000000000001, 192.0, 0.0, 0.0, 0.0, 0.0, 0.0, 0.0, 0.0, 0.0, 0.0, 1.6689767181157053E9, 0.0, 2022-11-20 15:38:38.115
176.0, -17229.484585462164, 23697.40887849437, -36589.76096984875, -35694.3724387136, -28485.10783733223, -29495.585500667752, -24722.66104491485, -4106.1719186510945, -26376.354858440744, -3870.562180347703, -29444.44470935401, -34407.38134472148, -27848.79837617855, -11389.599608135177, -23196.282767806384, -35662.655313331525, 0.068, 0.96, -0.11800000000000001, 192.0, 0.0, 0.0, 0.0, 0.0, 0.0, 0.0, 0.0, 0.0, 0.0, 1.6689767181157103E9, 0.0, 2022-11-20 15:38:38.115
178.0, -17112.137927071803, 23270.445855909093, -36474.5600789261, -35577.20459427888, -28369.37050454265, -29381.81512139024, -24610.34352902693, -4002.0798447227294, -26395.912634839136, -3905.5650121647136, -29454.43593912553, -34427.52026647571, -27854.118091358912, -11403.122413530638, -23209.850276690755, -35687.06341827672, 0.068, 0.96, -0.11800000000000001, 192.0, 0.0, 0.0, 0.0, 0.0, 0.0, 0.0, 0.0, 0.0, 0.0, 1.6689767181157153E9, 0.0, 2022-11-20 15:38:38.115
180.0, -17212.899591076326, 23750.382512853448, -36575.634667353, -35689.32094446671, -28469.416912724606, -29479.648706871118, -24709.942902319777, -4096.76183423541, -26335.629980043173, -3845.841150980133, -29411.230017093425, -34378.1676147184, -27809.83928559295, -11360.654099065554, -23161.10112203373, -35642.62815029957, 0.074, 0.962, -0.116, 192.0, 1.0, 40.0, 15.0, 8.0, 126.0, 48.0, 0.0, 0.0, 0.0, 1.66897671811572E9, 0.0, 2022-11-20 15:38:38.115
182.0, -17129.57228774694, 23233.69958802457, -36503.12560833998, -35601.47858875735, -28386.871920451158, -29388.699458682473, -24625.699177467726, -4012.4063506610814, -26399.64537616317, -3919.691314660468, -29464.98596250844, -34441.400699782454, -27863.1258443744, -11416.175832292538, -23224.15539314215, -35702.7766946288, 0.074, 0.962, -0.116, 192.0, 0.0, 0.0, 0.0, 0.0, 0.0, 0.0, 0.0, 0.0, 0.0, 1.668976718115725E9, 0.0, 2022-11-20 15:38:38.115
184.0, -17209.07744277447, 23777.07049573308, -36577.46751039833, -35681.743703096356, -28461.191470765054, -29462.54962236281, -24698.722326603216, -4077.7852031928546, -26342.156689424122, -3852.390212105538, -29414.62748225063, -34384.157882232415, -27812.49914318313, -11357.457799608446, -23173.282822761874, -35641.48821133235, 0.074, 0.962, -0.116, 192.0, 0.0, 0.0, 0.0, 0.0, 0.0, 0.0, 0.0, 0.0, 0.0, 1.6689767181157298E9, 0.0, 2022-11-20 15:38:38.115
186.0, -17143.743293731608, 23223.820116975323, -36518.213035847315, -35603.95963239189, -28392.638670520624, -29394.600319218676, -24629.25310483612, -4013.233365205928, -26408.429611734107, -3913.7681023798114, -29472.227927711956, -34439.12082184802, -27867.573841521007, -11414.611210180667, -23233.610181046748, -35695.04299104727, 0.074, 0.962, -0.116, 192.0, 0.0, 0.0, 0.0, 0.0, 0.0, 0.0, 0.0, 0.0, 0.0, 1.6689767181157348E9, 0.0, 2022-11-20 15:38:38.115
188.0, -17201.63431187085, 23774.947080009828, -36567.90096377146, -35664.95754301042, -28444.539421145848, -29447.775119277852, -24681.176207205797, -4060.5743599622683, -26337.39576785514, -3847.852807981111, -29406.11146761316, -34371.97618150427, -27800.63036687736, -11347.354811114647, -23166.44318895855, -35626.73605999185, 0.074, 0.962, -0.116, 192.0, 0.0, 0.0, 0.0, 0.0, 0.0, 0.0, 0.0, 0.0, 0.0, 1.6689767181157396E9, 0.0, 2022-11-20 15:38:38.115
190.0, -17169.06782019947, 23211.63841624718, -36536.9214459564, -35620.83519945564, -28418.29847315532, -29417.376746818634, -24653.437692336764, -4036.903862584098, -26418.040861849888, -3934.354059023149, -29486.533044163352, -34456.62223775652, -27878.99558293767, -11428.804567909787, -23244.51783234094, -35702.68728765098, 0.074, 0.9560000000000001, -0.112, 192.0, 1.0, 40.0, 14.5, 112.0, 126.0, 64.0, 0.0, 0.0, 0.0, 1.6689767181157446E9, 0.0, 2022-11-20 15:38:38.115
192.0, -17198.34860543592, 23763.614745570987, -36558.15560318895, -35656.55328709522, -28446.998113035934, -29445.15996517658, -24683.16551246232, -4062.9436448745305, -26341.463785346008, -3858.805162764211, -29410.090078126203, -34381.05098975313, -27803.536093656552, -11354.328555384704, -23175.517997207404, -35629.15004839302, 0.074, 0.9560000000000001, -0.112, 192.0, 0.0, 0.0, 0.0, 0.0, 0.0, 0.0, 0.0, 0.0, 0.0, 1.6689767181157496E9, 0.0, 2022-11-20 15:38:38.115
194.0, -17171.750029534105, 23249.099939954274, -36534.97684418879, -35616.87894068706, -28421.20419993451, -29411.63234849362, -24654.667038281805, -4037.3061939842937, -26415.403356004164, -3925.4357129854816, -29485.415456940587, -34451.57074350962, -27878.257975370645, -11423.68601842952, -23245.657771308157, -35699.20041551595, 0.074, 0.9560000000000001, -0.112, 192.0, 0.0, 0.0, 0.0, 0.0, 0.0, 0.0, 0.0, 0.0, 0.0, 1.6689767181157544E9, 0.0, 2022-11-20 15:38:38.115
196.0, -17198.527419391565, 23728.075471887052, -36559.742577045276, -35650.697130047934, -28443.175964734077, -29429.49139231341, -24673.800131535547, -4052.840656380732, -26338.066320188802, -3848.8586364815997, -29405.82089493524, -34371.909126270904, -27800.138628499346, -11341.588061045179, -23168.588956426258, -35619.27057734377, 0.074, 0.9560000000000001, -0.112, 192.0, 0.0, 0.0, 0.0, 0.0, 0.0, 0.0, 0.0, 0.0, 0.0, 1.6689767181157606E9, 0.0, 2022-11-20 15:38:38.115
198.0, -17202.97541653817, 23263.874443039233, -36573.10892022955, -35650.02657771428, -28453.01073229441, -29435.861639483173, -24677.041134481566, -4060.2167320509834, -26435.452870780573, -3939.517311992325, -29508.594215940742, -34471.597906541574, -27905.884731517403, -11437.16412033607, -23268.881233797223, -35718.28880528078, 0.074, 0.9560000000000001, -0.112, 192.0, 0.0, 0.0, 0.0, 0.0, 0.0, 0.0, 0.0, 0.0, 0.0, 1.6689767181157656E9, 0.0, 2022-11-20 15:38:38.115
200.0, -17196.31459669049, 23671.21263399275, -36555.4286903654, -35648.19373466894, -28438.61620886519, -29427.815011479262, -24666.49111109866, -4048.996156334419, -26351.656180817627, -3860.2133226648957, -29417.421450307545, -34382.79442582064, -27810.286320482057, -11351.176959416505, -23180.703601921035, -35634.201542639916, 0.074, 0.9520000000000001, -0.114, 192.0, 1.0, 40.0, 14.5, 96.0, 126.0, 56.0, 0.0, 0.0, 0.0, 1.6689767181157703E9, 0.0, 2022-11-20 15:38:38.115
202.0, -17209.144498007834, 23323.821821668367, -36566.62691433751, -35650.04892945873, -28456.005866051422, -29436.509840072376, -24678.85162578245, -4064.620025708679, -26428.635588721703, -3936.365716024127, -29504.995585083438, -34465.808804727654, -27895.647632556873, -11440.002791881894, -23263.114483727753, -35715.07015407922, 0.074, 0.9520000000000001, -0.114, 192.0, 0.0, 0.0, 0.0, 0.0, 0.0, 0.0, 0.0, 0.0, 0.0, 1.668976718115775E9, 0.0, 2022-11-20 15:38:38.115
204.0, -17180.78013429405, 23622.70934852473, -36529.99240517526, -35625.5067140468, -28428.066185482287, -29406.91613041355, -24651.82836673598, -4033.349935215704, -26351.74558779545, -3865.108354700608, -29410.894740926593, -34381.27450719768, -27806.441820435743, -11354.10503794015, -23181.888244377165, -35630.40174608252, 0.074, 0.9520000000000001, -0.114, 192.0, 0.0, 0.0, 0.0, 0.0, 0.0, 0.0, 0.0, 0.0, 0.0, 1.66897671811578E9, 0.0, 2022-11-20 15:38:38.115
206.0, -17209.032739285558, 23397.42611615969, -36566.24693468177, -35657.15678419552, -28463.180776021574, -29441.337816874722, -24682.606718850937, -4069.4256507665696, -26417.482068238507, -3923.200538539951, -29486.93537556355, -34450.96724640933, -27888.56212956454, -11434.101931345695, -23250.329285899315, -35700.407409716536, 0.074, 0.9520000000000001, -0.114, 192.0, 0.0, 0.0, 0.0, 0.0, 0.0, 0.0, 0.0, 0.0, 0.0, 1.6689767181157851E9, 0.0, 2022-11-20 15:38:38.115
208.0, -17165.379782364344, 23565.55593795251, -36522.30340508263, -35620.96930992238, -28416.86796151018, -29398.4895227539, -24636.986808417656, -4019.8271298202435, -26348.817509271805, -3864.661319811502, -29405.619729235143, -34376.58064086207, -27804.765439601593, -11357.480151352902, -23175.58505244077, -35631.65344377201, 0.074, 0.9520000000000001, -0.114, 192.0, 0.0, 0.0, 0.0, 0.0, 0.0, 0.0, 0.0, 0.0, 0.0, 1.66897671811579E9, 0.0, 2022-11-20 15:38:38.115
210.0, -17232.54677445254, 23464.07901812542, -36593.11373151705, -35683.86711881961, -28484.30317453184, -29463.533099118842, -24701.158666748845, -4083.9766364069746, -26421.46067875155, -3922.1947100394623, -29495.429038456565, -34451.92837142091, -27893.680679044806, -11436.381809280136, -23253.950268501078, -35705.436552218984, 0.074, 0.96, -0.112, 192.0, 1.0, 40.0, 15.0, 0.0, 126.0, 64.0, 0.0, 0.0, 0.0, 1.668976718115795E9, 0.0, 2022-11-20 15:38:38.115
212.0, -17151.0970176574, 23496.623158052345, -36503.99732637374, -35598.52815848925, -28399.85828397969, -29381.34573475668, -24620.87120066538, -4007.3101529252713, -26359.79221579936, -3877.647683340035, -29419.90249394208, -34388.58352763457, -27813.2143990057, -11365.951462501462, -23187.275014790896, -35638.38131885306, 0.074, 0.96, -0.112, 192.0, 0.0, 0.0, 0.0, 0.0, 0.0, 0.0, 0.0, 0.0, 0.0, 1.6689767181158E9, 0.0, 2022-11-20 15:38:38.115
214.0, -17222.175565025278, 23547.741597621633, -36572.01368475124, -35658.49788886284, -28473.462578471015, -29457.20755543799, -24696.598910879962, -4081.2050200945164, -26387.016640545924, -3892.2880759582613, -29463.846023541217, -34418.15488554894, -27860.734207717684, -11411.549021190289, -23218.992140172977, -35675.57462162669, 0.074, 0.96, -0.112, 192.0, 0.0, 0.0, 0.0, 0.0, 0.0, 0.0, 0.0, 0.0, 0.0, 1.668976718115805E9, 0.0, 2022-11-20 15:38:38.115
216.0, -17136.881308183827, 23432.473651465614, -36488.6640296774, -35572.93541108792, -28396.885501967135, -29381.748066156873, -24625.900343167825, -4012.5628128722688, -26353.2208029295, -3870.3833663920605, -29411.319424071244, -34373.92078327188, -27812.1638670163, -11366.24203517938, -23184.749267667445, -35637.26373163029, 0.074, 0.96, -0.112, 192.0, 0.0, 0.0, 0.0, 0.0, 0.0, 0.0, 0.0, 0.0, 0.0, 1.6689767181158097E9, 0.0, 2022-11-20 15:38:38.115
218.0, -17223.919001092792, 23622.754052013643, -36573.04186499618, -35662.63296158707, -28489.555834478837, -29467.958744520995, -24719.576504180015, -4101.366293593203, -26378.344163697264, -3882.296846186739, -29447.149270433103, -34404.94500457585, -27858.36492280542, -11405.536401931811, -23222.8813437082, -35667.32682792268, 0.074, 0.96, -0.112, 192.0, 0.0, 0.0, 0.0, 0.0, 0.0, 0.0, 0.0, 0.0, 0.0, 1.6689767181158147E9, 0.0, 2022-11-20 15:38:38.115
220.0, -17134.15439536028, 23367.988868712055, -36486.1606342984, -35575.058826811175, -28396.550225800303, -29377.165958543537, -24628.962532158203, -4014.3956559176036, -26364.776654812893, -3881.6039421086243, -29413.91222642806, -34388.13649274546, -27828.905323613326, -11379.563674874744, -23202.764773698425, -35650.9653509814, 0.075, 0.958, -0.112, 192.0, 1.0, 48.0, 14.5, 112.0, 126.0, 64.0, 0.0, 0.0, 0.0, 1.6689767181158197E9, 0.0, 2022-11-20 15:38:38.115
222.0, -17236.525384965586, 23682.72378238723, -36582.25078371177, -35675.954601282436, -28485.174892565596, -29468.87516604366, -24712.89333258788, -4094.7725289788877, -26360.79804429985, -3865.1977616784293, -29429.15611614658, -34392.98682129226, -27840.08119584098, -11385.129259244117, -23200.864875419724, -35652.462917859906, 0.075, 0.958, -0.112, 192.0, 0.0, 0.0, 0.0, 0.0, 0.0, 0.0, 0.0, 0.0, 0.0, 1.6689767181158245E9, 0.0, 2022-11-20 15:38:38.115
224.0, -17159.21070089468, 23303.392327236215, -36505.18196882987, -35592.739056675324, -28402.361679358684, -29392.63336570661, -24628.560200758006, -4018.8213013197546, -26392.917501082124, -3904.715645875412, -29448.803299522795, -34416.25498727024, -27853.671056469808, -11406.274009498837, -23222.32255009682, -35680.04497051775, 0.075, 0.958, -0.112, 192.0, 0.0, 0.0, 0.0, 0.0, 0.0, 0.0, 0.0, 0.0, 0.0, 1.6689767181158297E9, 0.0, 2022-11-20 15:38:38.115
226.0, -17230.199841284735, 23742.246477871715, -36571.18667020639, -35668.77969131228, -28472.568508692802, -29464.091892730226, -24695.41426842383, -4081.1826683500612, -26365.536614124372, -3866.1588866900074, -29433.67116852655, -34384.31434444361, -27840.192954563256, -11390.001939535374, -23192.706488693537, -35659.034330729766, 0.075, 0.958, -0.112, 192.0, 0.0, 0.0, 0.0, 0.0, 0.0, 0.0, 0.0, 0.0, 0.0, 1.668976718115836E9, 0.0, 2022-11-20 15:38:38.115
228.0, -17134.221450593646, 23294.071649798352, -36487.14411105443, -35570.27555349774, -28387.408362318085, -29372.539147441286, -24608.3095202815, -3997.9894754874085, -26376.84659681876, -3888.6894451009566, -29428.038528923815, -34390.34931544654, -27839.88003014088, -11391.454802924967, -23203.03299463189, -35668.64558084555, 0.075, 0.958, -0.112, 192.0, 0.0, 0.0, 0.0, 0.0, 0.0, 0.0, 0.0, 0.0, 0.0, 1.668976718115872E9, 0.0, 2022-11-20 15:38:38.115
230.0, -17230.199841284735, 23778.344545167038, -36572.6842370849, -35666.29864767774, -28473.529633704384, -29457.811052538284, -24694.050812012054, -4078.768679948888, -26353.578430840786, -3854.6700900399796, -29416.01329040686, -34370.67978032587, -27829.39706199134, -11375.339195172692, -23182.223520543997, -35641.53291482126, 0.07250000000000001, 0.9570000000000001, -0.115, 192.0, 1.0, 24.0, 14.5, 112.0, 126.0, 40.0, 0.0, 0.0, 0.0, 1.668976718115879E9, 0.0, 2022-11-20 15:38:38.115
232.0, -17160.77532300655, 23248.563498087347, -36504.39965777393, -35590.861510141076, -28400.43942933553, -29388.185368560004, -24623.240485577644, -4013.7027518394893, -26395.219730761022, -3912.20348026794, -29453.698331558506, -34419.36187974952, -27858.454329783242, -11416.332294503725, -23221.227314618507, -35677.765092583315, 0.07250000000000001, 0.9570000000000001, -0.115, 192.0, 0.0, 0.0, 0.0, 0.0, 0.0, 0.0, 0.0, 0.0, 0.0, 1.6689767181158855E9, 0.0, 2022-11-20 15:38:38.115
234.0, -17233.954934353227, 23792.426144173878, -36575.254687697256, -35674.904069293036, -28475.25071802744, -29460.82853803975, -24699.99637603717, -4082.1437933616394, -26347.16348018211, -3859.5651220756918, -29411.453534537977, -34371.082111726064, -27815.516628684596, -11371.159418959549, -23178.513130964417, -35632.323996105675, 0.07250000000000001, 0.9570000000000001, -0.115, 192.0, 0.0, 0.0, 0.0, 0.0, 0.0, 0.0, 0.0, 0.0, 0.0, 1.6689767181158922E9, 0.0, 2022-11-20 15:38:38.115
236.0, -17175.907454002794, 23229.966846700532, -36526.84080920706, -35613.436772040935, -28427.14976395962, -29410.425354293035, -24652.29775336954, -4040.904824841598, -26424.634626464205, -3936.9245096355094, -29481.92858480556, -34442.76415619423, -27886.99750745267, -11441.07567561575, -23255.805463290868, -35704.07309580721, 0.07250000000000001, 0.9570000000000001, -0.115, 192.0, 0.0, 0.0, 0.0, 0.0, 0.0, 0.0, 0.0, 0.0, 0.0, 1.6689767181158972E9, 0.0, 2022-11-20 15:38:38.115
238.0, -17215.69355913324, 23801.791525100653, -36559.54141134518, -35660.353083652626, -28460.81149110931, -29455.01708448137, -24690.56393987703, -4078.992197393441, -26341.93317197957, -3856.234712151851, -29401.529359999822, -34361.917896499384, -27807.82762859197, -11368.588968347189, -23179.34014550926, -35631.72049900538, 0.07250000000000001, 0.9570000000000001, -0.115, 192.0, 0.0, 0.0, 0.0, 0.0, 0.0, 0.0, 0.0, 0.0, 0.0, 1.668976718115902E9, 0.0, 2022-11-20 15:38:38.115
240.0, -17184.110544217892, 23247.937649242598, -36525.477352795286, -35610.441638283926, -28426.792136048334, -29422.092964898704, -24655.02466619309, -4047.99032783393, -26416.74446067148, -3931.7612566663333, -29474.463102157486, -34436.662129957935, -27879.241452126676, -11443.534367505834, -23245.389550374693, -35703.22372951791, 0.07525000000000001, 0.9555, -0.1155, 192.0, 1.0, 56.0, 14.5, 104.0, 126.0, 48.0, 0.0, 0.0, 0.0, 1.6689767185956469E9, 0.0, 2022-11-20 15:38:38.595
242.0, -17210.709120119707, 23785.631213859466, -36542.263512881225, -35640.75060376532, -28445.05351126832, -29439.236752895922, -24674.671849569306, -4066.095240842729, -26338.848631244735, -3853.038412694742, -29397.260176808857, -34358.073396453074, -27799.40102093232, -11360.184712431994, -23162.375171467684, -35621.7069174894, 0.07525000000000001, 0.9555, -0.1155, 192.0, 0.0, 0.0, 0.0, 0.0, 0.0, 0.0, 0.0, 0.0, 0.0, 1.6689767185957253E9, 0.0, 2022-11-20 15:38:38.595
244.0, -17179.93076800475, 23288.37195496225, -36515.66493697941, -35599.08695210063, -28413.224627163963, -29407.83255193622, -24641.88184045337, -4038.4908364404246, -26413.883437381202, -3923.0887798176745, -29478.374657437165, -34435.276321801706, -27874.592289279975, -11437.16412033607, -23233.096090924275, -35700.2285957609, 0.07525000000000001, 0.9555, -0.1155, 192.0, 0.0, 0.0, 0.0, 0.0, 0.0, 0.0, 0.0, 0.0, 0.0, 1.6689767185957325E9, 0.0, 2022-11-20 15:38:38.595
246.0, -17198.01332926909, 23757.468015845778, -36529.21009411933, -35623.13742913454, -28427.082708726255, -29422.919979443548, -24658.35507611693, -4051.4101447355924, -26322.621264770183, -3831.9830694178427, -29383.78207490231, -34339.56615204408, -27777.563366599486, -11338.302354610249, -23140.224592712475, -35606.7536004488, 0.07525000000000001, 0.9555, -0.1155, 192.0, 0.0, 0.0, 0.0, 0.0, 0.0, 0.0, 0.0, 0.0, 0.0, 1.668976718595739E9, 0.0, 2022-11-20 15:38:38.595
248.0, -17205.948198550726, 23323.66535945718, -36553.640550808974, -35632.70397576141, -28444.15944149011, -29434.609941793675, -24674.761256547125, -4074.2089240800055, -26425.059309608856, -3929.0790473316965, -29493.015050055394, -34443.52411550571, -27888.740943520184, -11444.808416939786, -23245.92599224162, -35714.42195349002, 0.07525000000000001, 0.9555, -0.1155, 192.0, 0.0, 0.0, 0.0, 0.0, 0.0, 0.0, 0.0, 0.0, 0.0, 1.668976718595745E9, 0.0, 2022-11-20 15:38:38.595
250.0, -17183.663509328784, 23712.272788557148, -36540.31891111361, -35632.25694087231, -28433.29649368483, -29419.47781079743, -24661.953706974236, -4056.573397704768, -26334.959427709513, -3842.913072456488, -29393.527435484822, -34351.54668707212, -27794.349526685422, -11352.808636761742, -23169.05834305982, -35632.48045831686, 0.077625, 0.95475, -0.11675, 192.0, 1.0, 64.0, 14.5, 104.0, 126.0, 40.0, 0.0, 0.0, 0.0, 1.6689767185957513E9, 0.0, 2022-11-20 15:38:38.595
252.0, -17204.294169461034, 23383.992717742054, -36565.08464397009, -35655.614513828106, -28456.899935829635, -29445.4505378545, -24682.629070595394, -4082.3896625506477, -26418.242027549986, -3923.692276917968, -29486.13071276316, -34445.893400417975, -27890.03734469859, -11450.5528152648, -23262.443931394093, -35719.719316925926, 0.077625, 0.95475, -0.11675, 192.0, 0.0, 0.0, 0.0, 0.0, 0.0, 0.0, 0.0, 0.0, 0.0, 1.6689767185957572E9, 0.0, 2022-11-20 15:38:38.595
254.0, -17179.751954049105, 23639.71902605522, -36528.15956212993, -35628.83712397065, -28419.14783944462, -29418.20376136348, -24650.93429695777, -4048.3032522563044, -26334.49004107595, -3854.0218894507757, -29390.509949983356, -34361.20264067681, -27791.332041183956, -11363.828046778208, -23172.992250083953, -35637.554304308214, 0.077625, 0.95475, -0.11675, 192.0, 0.0, 0.0, 0.0, 0.0, 0.0, 0.0, 0.0, 0.0, 0.0, 1.6689767185957632E9, 0.0, 2022-11-20 15:38:38.595
0.0, -17228.545812195043, 23439.40269224676, -36571.14196671748, -35659.235496429865, -28458.598668408238, -29453.184241436036, -24686.562977619527, -4083.127270117673, -26419.76194617295, -3928.0285153422974, -29489.729343620464, -34447.12274636301, -27883.600042295464, -11452.36330656568, -23244.875460252224, -35711.58328194419, 0.077625, 0.95475, -0.11675, 192.0, 0.0, 0.0, 0.0, 0.0, 0.0, 0.0, 0.0, 0.0, 0.0, 1.66897671859577E9, 0.0, 2022-11-20 15:38:38.595
2.0, -17172.621747567864, 23576.48594099116, -36513.47446602279, -35604.8537021701, -28400.81940899127, -29392.365144773146, -24624.022796633577, -4018.2848594528273, -26343.229573157976, -3856.5699883186808, -29401.127028599625, -34359.615666820486, -27789.49919813862, -11360.452933365457, -23165.63852615816, -35626.82546696967, 0.077625, 0.95475, -0.11675, 192.0, 0.0, 0.0, 0.0, 0.0, 0.0, 0.0, 0.0, 0.0, 0.0, 1.6689767185957775E9, 0.0, 2022-11-20 15:38:38.595
4.0, -17234.78194889807, 23516.27034142856, -36583.010743023246, -35668.19854595644, -28471.272107514396, -29453.83244202524, -24687.188826464277, -4076.958188648008, -26414.151658314666, -3918.171396037507, -29487.270651730378, -34437.10916484704, -27877.52036780362, -11439.131073848137, -23245.277791652417, -35696.294688736765, 0.08181250000000001, 0.956375, -0.11737500000000001, 192.0, 1.0, 88.0, 14.5, 120.0, 126.0, 40.0, 0.0, 0.0, 0.0, 1.668976718595795E9, 0.0, 2022-11-20 15:38:38.595
6.0, -17170.811256266985, 23496.913730730266, -36515.01673639021, -35600.51746374577, -28406.13912417163, -29384.20675804696, -24622.793450688536, -4008.2489261923943, -26350.806814528325, -3870.808049536711, -29404.591548990196, -34372.42321639338, -27799.065744765492, -11361.39170663258, -23187.096200835254, -35632.6592722725, 0.08181250000000001, 0.956375, -0.11737500000000001, 192.0, 0.0, 0.0, 0.0, 0.0, 0.0, 0.0, 0.0, 0.0, 0.0, 1.6689767185958018E9, 0.0, 2022-11-20 15:38:38.595
8.0, -17250.249356061144, 23577.782342169565, -36585.76000759125, -35668.06443548971, -28479.20697679603, -29458.34749440521, -24694.721364345714, -4077.740499703944, -26407.17791404461, -3910.258878500328, -29474.686619602042, -34430.06836534361, -27868.84789095496, -11422.25550678438, -23246.305971897364, -35687.24223223236, 0.08181250000000001, 0.956375, -0.11737500000000001, 192.0, 0.0, 0.0, 0.0, 0.0, 0.0, 0.0, 0.0, 0.0, 0.0, 1.6689767185958085E9, 0.0, 2022-11-20 15:38:38.595
10.0, -17155.00857293708, 23438.262753279538, -36485.3112680091, -35570.38731222002, -28381.820426204256, -29368.94051658398, -24602.833342889946, -3987.417100360048, -26357.378227398185, -3868.327005902172, -29407.698441469485, -34371.99853324873, -27795.869445308384, -11353.210968161937, -23187.900863635645, -35632.592217039135, 0.08181250000000001, 0.956375, -0.11737500000000001, 192.0, 0.0, 0.0, 0.0, 0.0, 0.0, 0.0, 0.0, 0.0, 0.0, 1.6689767185958152E9, 0.0, 2022-11-20 15:38:38.595
12.0, -17248.729437438185, 23646.044569736074, -36576.23816445329, -35665.0693017327, -28470.95918309202, -29461.02970373985, -24694.631957367892, -4077.4722787704804, -26387.9777655575, -3891.394006180049, -29456.15702344859, -34410.97997557878, -27844.976227876694, -11397.601532650177, -23222.72488149701, -35668.08678723416, 0.08181250000000001, 0.956375, -0.11737500000000001, 192.0, 0.0, 0.0, 0.0, 0.0, 0.0, 0.0, 0.0, 0.0, 0.0, 1.668976718595822E9, 0.0, 2022-11-20 15:38:38.595
14.0, -17144.480901298633, 23365.8654529888, -36476.750549882716, -35571.080216298134, -28367.42590277504, -29366.034789804795, -24598.340642254432, -3984.354911369671, -26372.018620016413, -3891.2822474577724, -29424.372842833145, -34396.33958296056, -27807.02296579158, -11370.399459648068, -23198.719107952013, -35649.914818992, 0.08190625000000001, 0.9541875, -0.1166875, 192.0, 1.0, 72.0, 14.5, 96.0, 126.0, 48.0, 0.0, 0.0, 0.0, 1.6689767185958285E9, 0.0, 2022-11-20 15:38:38.595
16.0, -17227.65174241683, 23719.98414039423, -36565.06229222564, -35668.600877356635, -28449.34504620374, -29453.63127632514, -24683.657250840337, -4066.676386198567, -26356.30534366433, -3872.5067821153143, -29422.16002013207, -34395.6690306269, -27809.816933848495, -11374.512180627846, -23190.851293903746, -35649.84776375863, 0.08190625000000001, 0.9541875, -0.1166875, 192.0, 0.0, 0.0, 0.0, 0.0, 0.0, 0.0, 0.0, 0.0, 0.0, 1.6689767185958354E9, 0.0, 2022-11-20 15:38:38.595
18.0, -17154.53918630352, 23311.058975584387, -36499.99636411624, -35595.33185903214, -28379.875824436647, -29376.830682376705, -24610.72350868267, -3993.6979405519896, -26376.757189840937, -3903.910983075021, -29426.831534723227, -34414.064516313614, -27815.583683917965, -11385.665701111044, -23211.191381358076, -35671.21603145791, 0.08190625000000001, 0.9541875, -0.1166875, 192.0, 0.0, 0.0, 0.0, 0.0, 0.0, 0.0, 0.0, 0.0, 0.0, 1.668976718595842E9, 0.0, 2022-11-20 15:38:38.595
20.0, -17229.104605806424, 23758.496196090724, -36568.52681261621, -35680.15672924003, -28451.58022064927, -29449.451500111998, -24679.87980602739, -4054.5617407037907, -26351.030331972877, -3869.8245727806775, -29418.04729915229, -34399.78175160668, -27805.726564613175, -11374.713346327942, -23194.74049743897, -35649.043100958246, 0.08190625000000001, 0.9541875, -0.1166875, 192.0, 0.0, 0.0, 0.0, 0.0, 0.0, 0.0, 0.0, 0.0, 0.0, 1.6689767185958488E9, 0.0, 2022-11-20 15:38:38.595
22.0, -17145.5984885214, 23282.13581825922, -36491.34623901203, -35593.454312497895, -28376.85833893518, -29368.359371228144, -24602.654528934305, -3980.353949112171, -26374.007925272934, -3901.9887330518645, -29432.128898159135, -34422.4240687399, -27819.003500819625, -11390.516029657845, -23217.248704105463, -35670.99251401336, 0.08190625000000001, 0.9541875, -0.1166875, 192.0, 0.0, 0.0, 0.0, 0.0, 0.0, 0.0, 0.0, 0.0, 0.0, 1.6689767185959165E9, 0.0, 2022-11-20 15:38:38.595
24.0, -17227.539983694554, 23793.968414541294, -36572.21485045133, -35684.85059557564, -28463.29253474385, -29452.848965269204, -24687.546454375562, -4060.8649326401874, -26336.79227075485, -3850.5350173157476, -29401.6411187221, -34383.68849559886, -27797.322308697978, -11357.971889730918, -23186.58211071278, -35639.43185084246, 0.085953125, 0.9510937500000001, -0.11734375, 192.0, 1.0, 104.0, 14.5, 80.0, 126.0, 40.0, 0.0, 0.0, 0.0, 1.6689767185959744E9, 0.0, 2022-11-20 15:38:38.595
26.0, -17156.461436326677, 23248.45173936507, -36504.19849207383, -35599.75750443429, -28393.465685065472, -29383.849130135673, -24616.847886663425, -3995.5084318528693, -26399.399506974165, -3918.7748931378, -29454.68180831454, -34444.50759226175, -27852.50876575813, -11413.82889912473, -23245.590716074792, -35696.0264678033, 0.085953125, 0.9510937500000001, -0.11734375, 192.0, 0.0, 0.0, 0.0, 0.0, 0.0, 0.0, 0.0, 0.0, 0.0, 1.668976718596005E9, 0.0, 2022-11-20 15:38:38.596
28.0, -17234.424320986785, 23782.546673124634, -36570.8290422951, -35678.48034840588, -28459.00099980843, -29448.892706500617, -24681.913814772823, -4050.4937232129246, -26335.093538176247, -3850.4679620823817, -29395.941423885994, -34382.90618454292, -27795.802390075016, -11350.48405533839, -23181.284747276874, -35630.15587689351, 0.085953125, 0.9510937500000001, -0.11734375, 192.0, 0.0, 0.0, 0.0, 0.0, 0.0, 0.0, 0.0, 0.0, 0.0, 1.6689767185960555E9, 0.0, 2022-11-20 15:38:38.596
30.0, -17181.54009360553, 23218.947436684066, -36513.18389334487, -35608.698202216416, -28401.981699702945, -29387.268947037333, -24620.737090198647, -3994.301437652283, -26413.481105981005, -3931.783608410789, -29470.12686373316, -34461.9866564258, -27867.66324849883, -11421.808471895274, -23250.195175432586, -35694.819473602714, 0.085953125, 0.9510937500000001, -0.11734375, 192.0, 0.0, 0.0, 0.0, 0.0, 0.0, 0.0, 0.0, 0.0, 0.0, 1.66897671859608E9, 0.0, 2022-11-20 15:38:38.596
32.0, -17251.344591539455, 23756.32807687856, -36568.2809434272, -35678.390941428064, -28462.130244032174, -29447.082215199738, -24681.533835117083, -4049.666708668078, -26349.622172072195, -3863.655491311013, -29407.698441469485, -34394.774960848685, -27800.540959899543, -11358.48597985339, -23179.742476909458, -35624.970272179875, 0.085953125, 0.9510937500000001, -0.11734375, 192.0, 0.0, 0.0, 0.0, 0.0, 0.0, 0.0, 0.0, 0.0, 0.0, 1.6689767185960872E9, 0.0, 2022-11-20 15:38:38.596
34.0, -17213.324274220977, 23215.862895949234, -36536.742632000765, -35629.95471119341, -28427.283874426354, -29409.307767070266, -24645.100491654932, -4018.418969919559, -26437.486879526008, -3948.681527219001, -29492.54566342183, -34479.800996756676, -27885.09760917397, -11443.690829717021, -23261.192233704598, -35707.38115398659, 0.085953125, 0.9510937500000001, -0.11734375, 192.0, 0.0, 0.0, 0.0, 0.0, 0.0, 0.0, 0.0, 0.0, 0.0, 1.6689767185960944E9, 0.0, 2022-11-20 15:38:38.596
36.0, -17234.491376220154, 23736.345617335515, -36551.04774845216, -35652.507621348814, -28445.47819441297, -29428.239694623913, -24662.78072151908, -4031.9641270594752, -26350.31507615031, -3861.5097238433036, -29405.53032225732, -34390.90810905792, -27796.3611836864, -11353.501540839856, -23171.673497161093, -35623.718574490376, 0.084, 0.9540000000000001, -0.128, 192.0, 1.0, 80.0, 14.5, 104.0, 126.0, 0.0, 0.0, 0.0, 0.0, 1.6689767185961075E9, 0.0, 2022-11-20 15:38:38.596
38.0, -17213.681902132263, 23247.55766958686, -36536.63087327849, -35621.77397272277, -28425.47338312547, -29406.290281568803, -24643.44646256524, -4014.3509524286933, -26431.295446311888, -3940.7690096818224, -29490.779875609864, -34475.42005484344, -27882.013068439137, -11433.409027267578, -23247.60237307577, -35698.239290504374, 0.084, 0.9540000000000001, -0.128, 192.0, 0.0, 0.0, 0.0, 0.0, 0.0, 0.0, 0.0, 0.0, 0.0, 1.668976718596115E9, 0.0, 2022-11-20 15:38:38.596
40.0, -17218.487527190155, 23691.17274179134, -36540.52007681371, -35645.37741486757, -28427.507391870906, -29415.63331075112, -24648.296791112043, -4018.1507489860956, -26336.1664219101, -3852.5466743167253, -29389.30295578277, -34382.28033569817, -27781.83254979045, -11336.58127028719, -23154.797930097335, -35610.39693479502, 0.084, 0.9540000000000001, -0.128, 192.0, 0.0, 0.0, 0.0, 0.0, 0.0, 0.0, 0.0, 0.0, 0.0, 1.6689767185961225E9, 0.0, 2022-11-20 15:38:38.596
42.0, -17216.83349810046, 23307.817972638368, -36543.53756231518, -35641.48821133235, -28427.172115704074, -29412.124086871638, -24647.179203889278, -4022.3975804326037, -26424.23229506401, -3934.979907867898, -29483.515558661886, -34475.464758332346, -27877.09568465897, -11432.492605744912, -23244.093149196287, -35704.475427207406, 0.084, 0.9540000000000001, -0.128, 192.0, 0.0, 0.0, 0.0, 0.0, 0.0, 0.0, 0.0, 0.0, 0.0, 1.66897671859613E9, 0.0, 2022-11-20 15:38:38.596
44.0, -17197.4098321688, 23653.59945936197, -36526.103201640035, -35639.27538863127, -28412.487019596938, -29402.311671055755, -24637.567953773494, -4009.321809926249, -26330.243209629443, -3853.261930139295, -29380.3846097451, -34379.17344321888, -27775.283488665045, -11336.268345864815, -23154.127377763674, -35620.25405409981, 0.084, 0.9540000000000001, -0.128, 192.0, 0.0, 0.0, 0.0, 0.0, 0.0, 0.0, 0.0, 0.0, 0.0, 1.6689767185961373E9, 0.0, 2022-11-20 15:38:38.596
46.0, -17223.02493131458, 23361.48451107556, -36558.066196211126, -35650.09363294764, -28444.87469731268, -29429.20081963549, -24664.50180584214, -4035.316888727771, -26418.89022813919, -3927.4473699864593, -29481.79447433883, -34465.56293553864, -27877.98975443718, -11435.465387757467, -23252.1397772002, -35711.29270926627, 0.08, 0.96, -0.128, 192.0, 1.0, 64.0, 15.0, 0.0, 126.0, 0.0, 0.0, 0.0, 0.0, 1.6689767185961447E9, 0.0, 2022-11-20 15:38:38.596
48.0, -17181.428334883254, 23596.848380189942, -36520.33645157057, -35615.8060569532, -28406.474400338462, -29387.71598192644, -24625.40860478981, -3994.2790859078273, -26334.221820142488, -3851.9208254719765, -29383.37974350211, -34375.2618879392, -27782.391343401832, -11337.274174365304, -23164.699752891036, -35617.23656859834, 0.08, 0.96, -0.128, 192.0, 0.0, 0.0, 0.0, 0.0, 0.0, 0.0, 0.0, 0.0, 0.0, 1.668976718596152E9, 0.0, 2022-11-20 15:38:38.596
50.0, -17232.904402363827, 23436.653427678757, -36576.12640573101, -35665.918668022, -28466.57824117878, -29443.77415702035, -24682.226739195197, -4052.4606767249916, -26404.272187265422, -3917.880823359588, -29468.763407321385, -34456.309313334146, -27871.261879356134, -11422.747245162398, -23244.02609396292, -35693.3219067242, 0.08, 0.96, -0.128, 192.0, 0.0, 0.0, 0.0, 0.0, 0.0, 0.0, 0.0, 0.0, 0.0, 1.6689767185961597E9, 0.0, 2022-11-20 15:38:38.596
52.0, -17177.87440751486, 23517.298521673503, -36514.569701501096, -35612.02861214025, -28412.218798663474, -29392.1863308175, -24631.510631026107, -3998.3023999097827, -26350.94092499506, -3877.5135728733035, -29397.461342508956, -34397.18894924986, -27803.91607331229, -11359.447104864968, -23192.751192182448, -35640.59414155414, 0.08, 0.96, -0.128, 192.0, 0.0, 0.0, 0.0, 0.0, 0.0, 0.0, 0.0, 0.0, 0.0, 1.6689767185961668E9, 0.0, 2022-11-20 15:38:38.596
54.0, -17238.51469022211, 23499.46182959817, -36567.11865271552, -35661.64948483103, -28468.388732479663, -29446.478718099443, -24683.098457228956, -4048.3703074896707, -26398.952472085057, -3916.427959969993, -29459.1521572056, -34449.89436267548, -27869.876071199906, -11423.015466095861, -23240.919201483634, -35691.22084274541, 0.08, 0.96, -0.128, 192.0, 0.0, 0.0, 0.0, 0.0, 0.0, 0.0, 0.0, 0.0, 0.0, 1.6689767185961742E9, 0.0, 2022-11-20 15:38:38.596
56.0, -17180.087230215937, 23442.844860892877, -36500.71161993881, -35592.02380085275, -28402.04875493631, -29378.328249255213, -24617.674901208273, -3982.6338270466126, -26350.94092499506, -3880.620465352591, -29395.740258185895, -34396.585452149564, -27806.21830299119, -11356.899005997064, -23186.425648501594, -35633.508638561805, 0.08, 0.9580000000000001, -0.122, 192.0, 1.0, 64.0, 14.5, 120.0, 126.0, 24.0, 0.0, 0.0, 0.0, 1.6689767185961816E9, 0.0, 2022-11-20 15:38:38.596
58.0, -17243.946164124747, 23572.842606644943, -36563.14004220248, -35649.445432358436, -28462.8678515992, -29434.833459238227, -24676.54939610355, -4043.6987928985113, -26380.668745120616, -3902.4134161965153, -29443.461232597976, -34433.801106667655, -27854.922754159303, -11400.015521051351, -23219.908561695644, -35666.29864767774, 0.08, 0.9580000000000001, -0.122, 192.0, 0.0, 0.0, 0.0, 0.0, 0.0, 0.0, 0.0, 0.0, 0.0, 1.6689767185961893E9, 0.0, 2022-11-20 15:38:38.596
60.0, -17172.755858034594, 23373.710915292613, -36492.776750657176, -35572.86835585455, -28387.363658829174, -29361.51973742482, -24601.603996944905, -3970.206257129462, -26356.774730297893, -3889.136479990063, -29404.05510712327, -34402.17338826339, -27810.666300137796, -11364.923282256519, -23189.44313400306, -35633.30747286171, 0.08, 0.9580000000000001, -0.122, 192.0, 0.0, 0.0, 0.0, 0.0, 0.0, 0.0, 0.0, 0.0, 0.0, 1.6689767185961967E9, 0.0, 2022-11-20 15:38:38.596
62.0, -17266.722591724705, 23613.47807806469, -36583.39072267899, -35675.105234993134, -28475.63069768318, -29446.657532055087, -24688.485227642683, -4056.7298599159553, -26373.27031770591, -3895.014988781809, -29441.53898257482, -34430.4259932549, -27844.84211740996, -11390.448974424478, -23211.63841624718, -35657.60381908462, 0.08, 0.9580000000000001, -0.122, 192.0, 0.0, 0.0, 0.0, 0.0, 0.0, 0.0, 0.0, 0.0, 0.0, 1.668976718596204E9, 0.0, 2022-11-20 15:38:38.596
64.0, -17182.992956995127, 23291.210626508073, -36498.09646583754, -35597.030591610746, -28389.397667574605, -29362.257344991845, -24605.046165591022, -3978.230533388917, -26373.78440782838, -3907.263744743317, -29426.049223667294, -34429.95660662134, -27822.84800086594, -11381.083593497706, -23202.0271661314, -35653.46874636039, 0.08, 0.9580000000000001, -0.122, 192.0, 0.0, 0.0, 0.0, 0.0, 0.0, 0.0, 0.0, 0.0, 0.0, 1.6689767185962124E9, 0.0, 2022-11-20 15:38:38.596
66.0, -17283.1287721549, 23647.497433125667, -36592.733751861306, -35707.13528479759, -28483.967898365012, -29464.382465408144, -24700.577521393006, -4071.929046145564, -26376.1760444851, -3894.00916028132, -29441.270761641357, -34436.86329565803, -27836.571971961497, -11393.891143070596, -23205.782259199892, -35660.844822030645, 0.08, 0.96, -0.116, 192.0, 1.0, 64.0, 15.0, 0.0, 126.0, 48.0, 0.0, 0.0, 0.0, 1.6689767185962198E9, 0.0, 2022-11-20 15:38:38.596
68.0, -17175.16984643577, 23245.74717828598, -36492.620288445985, -35598.9528416339, -28378.490016280415, -29364.760740370843, -24598.765325399083, -3974.0507571757744, -26390.481160936495, -3922.9323176064872, -29443.036549453325, -34450.87783943151, -27835.297922527545, -11402.273047241337, -23216.17582037161, -35676.558098382724, 0.08, 0.96, -0.116, 192.0, 0.0, 0.0, 0.0, 0.0, 0.0, 0.0, 0.0, 0.0, 0.0, 1.6689767185962288E9, 0.0, 2022-11-20 15:38:38.596
70.0, -17256.954879397737, 23706.751907676688, -36574.00299000776, -35684.91765080901, -28462.376113221184, -29443.125956431148, -24678.717515315715, -4047.029202822352, -26350.896221506147, -3881.268665941795, -29416.43797355151, -34417.149057048446, -27812.230922249666, -11373.43929689399, -23186.82797990179, -35643.8127927557, 0.08, 0.96, -0.116, 192.0, 0.0, 0.0, 0.0, 0.0, 0.0, 0.0, 0.0, 0.0, 0.0, 1.6689767185962365E9, 0.0, 2022-11-20 15:38:38.596
72.0, -17167.480846343144, 23221.517887296428, -36492.64264019044, -35585.117111816064, -28382.692144238015, -29355.261248977335, -24596.61955793137, -3965.668853005034, -26376.734838096483, -3912.516404690314, -29432.844153981707, -34436.70683344684, -27830.98403584767, -11391.275988969326, -23211.437250547082, -35663.214106942905, 0.08, 0.96, -0.116, 192.0, 0.0, 0.0, 0.0, 0.0, 0.0, 0.0, 0.0, 0.0, 0.0, 1.6689767185962436E9, 0.0, 2022-11-20 15:38:38.596
74.0, -17263.74980971215, 23729.37187306546, -36585.71530410234, -35684.67178162, -28478.31290701782, -29449.049168711805, -24693.1790939783, -4055.1205343151732, -26335.227648642976, -3857.173485418974, -29400.970566388438, -34393.299745714634, -27803.156114000813, -11353.076857695205, -23180.122456565197, -35624.970272179875, 0.08, 0.96, -0.116, 192.0, 0.0, 0.0, 0.0, 0.0, 0.0, 0.0, 0.0, 0.0, 0.0, 1.668976718596251E9, 0.0, 2022-11-20 15:38:38.596
76.0, -17196.1581344793, 23176.05443907433, -36523.53275102768, -35602.99850738031, -28417.180885932554, -29379.267022522334, -24628.157869357812, -3995.1061004526737, -26414.442230992587, -3933.4376375004817, -29470.171567222067, -34465.048845416175, -27876.581594536496, -11419.126262560638, -23255.336076657306, -35692.76311311282, 0.08, 0.9540000000000001, -0.11800000000000001, 192.0, 1.0, 64.0, 14.5, 104.0, 126.0, 40.0, 0.0, 0.0, 0.0, 1.6689767185962584E9, 0.0, 2022-11-20 15:38:38.596
78.0, -17243.36501876891, 23734.8033469681, -36558.87085901152, -35650.361853881106, -28457.905764330124, -29420.237770108914, -24668.256898910633, -4031.3159264702713, -26343.631904558173, -3856.0558981962085, -29400.67999371052, -34386.683629355866, -27810.711003626708, -11349.455875093447, -23177.55200595284, -35619.315280832685, 0.08, 0.9540000000000001, -0.11800000000000001, 192.0, 0.0, 0.0, 0.0, 0.0, 0.0, 0.0, 0.0, 0.0, 0.0, 1.6689767185962684E9, 0.0, 2022-11-20 15:38:38.596
80.0, -17179.86371277138, 23200.887227164178, -36499.951660627325, -35576.48933845632, -28399.85828397969, -29354.925972810506, -24605.381441757854, -3968.97691118442, -26398.438381962584, -3913.4104744685264, -29449.093872200716, -34436.43861251338, -27859.99660015066, -11399.34496871769, -23228.223410633018, -35667.975028511886, 0.08, 0.9540000000000001, -0.11800000000000001, 192.0, 0.0, 0.0, 0.0, 0.0, 0.0, 0.0, 0.0, 0.0, 0.0, 1.6689767185962772E9, 0.0, 2022-11-20 15:38:38.596
82.0, -17251.255184561633, 23727.78489920913, -36562.29067591318, -35650.80888877021, -28459.58214516427, -29415.923883429037, -24668.16749193281, -4025.549176400802, -26325.482288060462, -3845.9976131913204, -29378.283545766302, -34368.623419835974, -27789.812122560994, -11333.072046407706, -23160.45292144453, -35596.71766718837, 0.08, 0.9540000000000001, -0.11800000000000001, 192.0, 0.0, 0.0, 0.0, 0.0, 0.0, 0.0, 0.0, 0.0, 0.0, 1.6689767185962849E9, 0.0, 2022-11-20 15:38:38.596
84.0, -17221.683826647262, 23185.419820001105, -36539.8271727356, -35616.18603660894, -28430.524877372372, -29392.499255239876, -24640.697197997237, -4006.684304080523, -26427.249780565475, -3952.928358665509, -29483.850834828718, -34481.36561886855, -27892.876016244416, -11436.180643580037, -23261.99689650499, -35695.28886023627, 0.08, 0.9540000000000001, -0.11800000000000001, 192.0, 0.0, 0.0, 0.0, 0.0, 0.0, 0.0, 0.0, 0.0, 0.0, 1.668976718596292E9, 0.0, 2022-11-20 15:38:38.596
86.0, -17249.824672916493, 23674.185416005304, -36557.485050855284, -35653.53580159376, -28454.06126428381, -29419.76838347535, -24664.121826186398, -4024.968031044964, -26329.662064273605, -3867.522343101781, -29386.24076679239, -34390.52812940218, -27796.472942408676, -11348.740619270877, -23171.96406983901, -35610.084010372644, 0.076, 0.9580000000000001, -0.12, 192.0, 1.0, 48.0, 14.5, 120.0, 126.0, 32.0, 0.0, 0.0, 0.0, 1.6689767185962994E9, 0.0, 2022-11-20 15:38:38.596
88.0, -17220.65564640232, 23215.68408199359, -36533.300463354644, -35621.99749016732, -28431.44129889504, -29394.399153518578, -24636.87504969538, -4005.5667168577575, -26425.238123564497, -3961.332614580705, -29486.577747652263, -34490.66394456195, -27895.290004645587, -11446.50714951839, -23260.968716260042, -35702.642584162066, 0.076, 0.9580000000000001, -0.12, 192.0, 0.0, 0.0, 0.0, 0.0, 0.0, 0.0, 0.0, 0.0, 0.0, 1.6689767185963068E9, 0.0, 2022-11-20 15:38:38.596
90.0, -17214.911248077304, 23656.035799507597, -36525.678518495384, -35631.38522283855, -28429.42964189406, -29395.159112830057, -24633.902267682824, -3999.129414454629, -26308.137334363146, -3844.3659358460827, -29363.084359536693, -34368.69047506934, -27772.780093286052, -11326.14300562656, -23142.0127322689, -35588.358114762086, 0.076, 0.9580000000000001, -0.12, 192.0, 0.0, 0.0, 0.0, 0.0, 0.0, 0.0, 0.0, 0.0, 0.0, 1.6689767185963144E9, 0.0, 2022-11-20 15:38:38.596
92.0, -17229.08225406197, 23275.11737050025, -36550.69012054087, -35642.27052238829, -28454.284781728362, -29417.041470651802, -24654.30941037052, -4022.3975804326037, -26407.60259718926, -3935.8292741571995, -29466.63999159813, -34469.13921465149, -27884.114132417933, -11433.967820878963, -23239.913372983145, -35692.69605787946, 0.076, 0.9580000000000001, -0.12, 192.0, 0.0, 0.0, 0.0, 0.0, 0.0, 0.0, 0.0, 0.0, 0.0, 1.6689767185963216E9, 0.0, 2022-11-20 15:38:38.596
94.0, -17209.949160808224, 23582.073877104984, -36527.623120263, -35625.81963846918, -28429.20612444951, -29398.981261131918, -24635.82451770598, -4002.6386383341123, -26331.427852085573, -3866.3153489011943, -29380.29520276728, -34389.18702473486, -27797.83639882045, -11350.037020449285, -23164.699752891036, -35613.61558599658, 0.076, 0.9580000000000001, -0.12, 192.0, 0.0, 0.0, 0.0, 0.0, 0.0, 0.0, 0.0, 0.0, 0.0, 1.6689767185963287E9, 0.0, 2022-11-20 15:38:38.596
96.0, -17247.008353115125, 23323.263028056983, -36558.24501016677, -35649.19956316943, -28458.39750270814, -29429.334930102224, -24664.63591630887, -4030.84653983671, -26410.731841413002, -3935.9633846239312, -29473.97136377947, -34473.698970520374, -27884.538815562584, -11433.923117390052, -23242.26030615095, -35687.48810142137, 0.076, 0.962, -0.122, 192.0, 1.0, 48.0, 15.0, 8.0, 126.0, 24.0, 0.0, 0.0, 0.0, 1.6689767185963364E9, 0.0, 2022-11-20 15:38:38.596
98.0, -17196.269893201577, 23522.03709149803, -36500.93513738336, -35601.18801607943, -28403.792191003824, -29377.434179477, -24614.791526173536, -3978.364643855649, -26336.30053237683, -3873.870238527088, -29387.090133081692, -34392.673896869885, -27795.1094859969, -11353.054505950751, -23161.972840067487, -35605.85953067059, 0.076, 0.962, -0.122, 192.0, 0.0, 0.0, 0.0, 0.0, 0.0, 0.0, 0.0, 0.0, 0.0, 1.6689767185963438E9, 0.0, 2022-11-20 15:38:38.596
100.0, -17244.59436471395, 23400.8235813169, -36555.831021765596, -35647.79140326875, -28458.464557941505, -29429.87137196915, -24672.07904721249, -4037.060324795285, -26391.107009781244, -3921.3453437501603, -29457.855756027195, -34454.2306010998, -27868.110283387934, -11423.708370173976, -23221.69670125207, -35668.51147037881, 0.076, 0.962, -0.122, 192.0, 0.0, 0.0, 0.0, 0.0, 0.0, 0.0, 0.0, 0.0, 0.0, 1.6689767185963535E9, 0.0, 2022-11-20 15:38:38.596
102.0, -17194.369994922876, 23453.283125553506, -36502.45505600632, -35591.44265549692, -28410.43065910705, -29372.963830585937, -24621.54175299904, -3987.3053416377716, -26333.08188117527, -3871.0986222146303, -29380.988106845394, -34385.25311771072, -27797.322308697978, -11355.177921674005, -23162.73279937897, -35608.407629538495, 0.076, 0.962, -0.122, 192.0, 0.0, 0.0, 0.0, 0.0, 0.0, 0.0, 0.0, 0.0, 0.0, 1.6689767185963607E9, 0.0, 2022-11-20 15:38:38.596
104.0, -17255.211443330223, 23476.752457231578, -36565.17405094791, -35643.03048169977, -28469.081636557778, -29432.10654641468, -24682.584367106483, -4049.1973220345167, -26389.430628947095, -3910.4823959448813, -29449.831479767738, -34439.83607767059, -27871.843024711972, -11415.840556125708, -23218.41099481714, -35661.314208664204, 0.076, 0.962, -0.122, 192.0, 0.0, 0.0, 0.0, 0.0, 0.0, 0.0, 0.0, 0.0, 0.0, 1.6689767190764976E9, 0.0, 2022-11-20 15:38:39.076
106.0, -17197.2086664687, 23374.090894948353, -36507.19362583085, -35589.20748105139, -28403.501618325907, -29369.544013684277, -24622.614636732895, -3992.334484140216, -26353.891355263157, -3891.5951718801466, -29398.35541228717, -34400.34054521806, -27815.06959379549, -11367.627843335611, -23176.143846052153, -35617.68360348744, 0.078, 0.961, -0.12, 192.0, 1.0, 64.0, 15.0, 0.0, 126.0, 40.0, 0.0, 0.0, 0.0, 1.668976719076579E9, 0.0, 2022-11-20 15:38:39.076
108.0, -17269.98594641518, 23530.128422990852, -36585.737655846795, -35672.803005314236, -28479.095218073755, -29439.81789825176, -24696.50950390214, -4066.3634617761927, -26392.559873170838, -3918.2384512708727, -29455.26295367038, -34447.4803742743, -27867.819710710017, -11419.97562884994, -23220.06502390683, -35664.30934242122, 0.078, 0.961, -0.12, 192.0, 0.0, 0.0, 0.0, 0.0, 0.0, 0.0, 0.0, 0.0, 0.0, 1.668976719076644E9, 0.0, 2022-11-20 15:38:39.076
110.0, -17168.19610216571, 23313.22709479655, -36484.59601218653, -35580.53500420273, -28375.8972139236, -29344.46535640542, -24595.72548815316, -3970.742698996389, -26354.517204107906, -3893.4503666699375, -29404.14451410109, -34410.13060928948, -27814.42139320629, -11370.399459648068, -23185.956261868032, -35629.84295247113, 0.078, 0.961, -0.12, 192.0, 0.0, 0.0, 0.0, 0.0, 0.0, 0.0, 0.0, 0.0, 0.0, 1.6689767190766506E9, 0.0, 2022-11-20 15:38:39.076
112.0, -17263.57099575651, 23595.127295866885, -36565.62108583702, -35674.881717548575, -28465.684171400568, -29436.5992470502, -24682.606718850937, -4054.1817610480502, -26353.60078258524, -3891.2375439688617, -29418.226113107936, -34420.434763483376, -27828.324178257488, -11393.354701203669, -23188.124381080197, -35641.08587993215, 0.078, 0.961, -0.12, 192.0, 0.0, 0.0, 0.0, 0.0, 0.0, 0.0, 0.0, 0.0, 0.0, 1.6689767190766585E9, 0.0, 2022-11-20 15:38:39.076
114.0, -17172.174712678756, 23261.03577149341, -36475.32003823758, -35579.64093442451, -28375.070199378755, -29348.466318662922, -24594.67495616376, -3972.3073211082606, -26355.41127388612, -3900.3347039621717, -29399.271833809835, -34410.91292034542, -27812.767364116597, -11381.39651792008, -23179.29544202035, -35637.30843511921, 0.078, 0.961, -0.12, 192.0, 0.0, 0.0, 0.0, 0.0, 0.0, 0.0, 0.0, 0.0, 0.0, 1.6689767190766652E9, 0.0, 2022-11-20 15:38:39.076
116.0, -17278.457257563743, 23638.243810921173, -36578.16041447645, -35684.64942987555, -28481.44215124156, -29458.54866010531, -24699.79521033707, -4075.393566536137, -26363.726122823493, -3895.685541115468, -29423.05408991028, -34420.83709488357, -27834.627370193884, -11399.523782673334, -23185.39746825665, -35650.071281203185, 0.08, 0.9595, -0.121, 192.0, 1.0, 72.0, 14.5, 120.0, 126.0, 24.0, 0.0, 0.0, 0.0, 1.668976719076672E9, 0.0, 2022-11-20 15:38:39.076
118.0, -17179.72960230465, 23206.810439444835, -36486.205337787316, -35574.47768145534, -28390.179978630542, -29365.05131304876, -24610.075308093466, -3988.445280604992, -26380.98166954299, -3917.009105325831, -29428.753784746386, -34428.34728102056, -27838.807146407027, -11407.995093821895, -23201.15544809764, -35663.549383109734, 0.08, 0.9595, -0.121, 192.0, 0.0, 0.0, 0.0, 0.0, 0.0, 0.0, 0.0, 0.0, 0.0, 1.66897671907668E9, 0.0, 2022-11-20 15:38:39.076
120.0, -17252.529233995585, 23692.893826114396, -36551.204210663345, -35640.68354853196, -28457.190508507552, -29431.368938847656, -24674.224814680198, -4047.2080167779945, -26341.709654535014, -3869.7128140584014, -29399.76357218785, -34390.32696370208, -27812.297977483035, -11371.96408175994, -23165.72793313598, -35622.26571110079, 0.08, 0.9595, -0.121, 192.0, 0.0, 0.0, 0.0, 0.0, 0.0, 0.0, 0.0, 0.0, 0.0, 1.668976719076687E9, 0.0, 2022-11-20 15:38:39.076
122.0, -17162.563462562975, 23186.40329675714, -36463.63007588746, -35544.34752992958, -28375.13725461212, -29346.834641317684, -24591.992746829124, -3969.7145187514448, -26367.83884380327, -3908.4483871994485, -29412.10173512718, -34417.55138844864, -27828.03360557957, -11389.912532557551, -23189.39843051415, -35636.34731010763, 0.08, 0.9595, -0.121, 192.0, 0.0, 0.0, 0.0, 0.0, 0.0, 0.0, 0.0, 0.0, 0.0, 1.668976719076695E9, 0.0, 2022-11-20 15:38:39.076
