%OpenBCI Raw EEG Data
%Number of channels = 16
%Sample Rate = 125 Hz
%Board = OpenBCI_GUI$BoardCytonSerialDaisy
Sample Index, EXG Channel 0, EXG Channel 1, EXG Channel 2, EXG Channel 3, EXG Channel 4, EXG Channel 5, EXG Channel 6, EXG Channel 7, EXG Channel 8, EXG Channel 9, EXG Channel 10, EXG Channel 11, EXG Channel 12, EXG Channel 13, EXG Channel 14, EXG Channel 15, Accel Channel 0, Accel Channel 1, Accel Channel 2, Other, Other, Other, Other, Other, Other, Other, Analog Channel 0, Analog Channel 1, Analog Channel 2, Timestamp, Other, Timestamp (Formatted)
0.0, -11674.78551564044, -1951.5308083928596, -39161.86561129876, -39293.83031056289, -29614.76500210345, -32014.51534205858, -27969.520147981664, -11096.076499948085, 0.0, 0.0, 0.0, 0.0, 0.0, 0.0, 0.0, 0.0, 0.0, 0.0, 0.0, 192.0, 0.0, 0.0, 0.0, 0.0, 0.0, 0.0, 0.0, 0.0, 0.0, 1.6689765724322183E9, 0.0, 2022-11-20 15:36:12.432
152.0, -11768.215807463625, -2053.812391020345, -39244.030623916464, -39371.346160333895, -29694.024287941967, -32090.35481099544, -28049.78526232067, -11171.893617140488, -28893.250691086138, -7147.663193662548, -33000.093162070894, -37163.954933161134, -29056.3066668876, -15509.763718815295, -27050.461119468346, -38633.872703775494, 0.0, 0.0, 0.0, 192.0, 0.0, 0.0, 0.0, 0.0, 0.0, 0.0, 0.0, 0.0, 0.0, 1.6689765724322278E9, 0.0, 2022-11-20 15:36:12.432
154.0, -11667.40943997019, -1951.1508287371194, -39139.670329054636, -39280.28515342297, -29594.46961813803, -31995.717524971667, -27952.264601262166, -11077.189275883351, -28850.648266154323, -7116.102530491654, -32939.25171366354, -37116.63629014925, -28993.945299857296, -15456.164235611468, -27003.34364215656, -38590.51031953219, 0.04, 0.481, -0.062, 192.0, 1.0, 64.0, 15.0, 8.0, 126.0, 16.0, 0.0, 0.0, 0.0, 1.6689765724322352E9, 0.0, 2022-11-20 15:36:12.432
156.0, -11770.383926675788, -2051.8230857638223, -39243.069498904886, -39383.08082617293, -29695.901834476215, -32098.44614248826, -28048.73473033127, -11173.301777041172, -28878.52089149009, -7135.705010378959, -32985.16219677475, -37155.12599410129, -29041.487460313736, -15501.001834988814, -27032.132689014994, -38621.82511351408, 0.04, 0.481, -0.062, 192.0, 0.0, 0.0, 0.0, 0.0, 0.0, 0.0, 0.0, 0.0, 0.0, 1.6689765724322424E9, 0.0, 2022-11-20 15:36:12.432
158.0, -11697.137260095747, -1986.3995297431386, -39166.13479448972, -39298.837101320874, -29614.899112570183, -32016.124667659366, -27969.743665426216, -11092.701386535333, -28870.9660018642, -7142.097609293176, -32963.61511511983, -37143.23486605106, -29016.83348617953, -15480.862913234581, -27018.855752808544, -38606.73768600675, 0.04, 0.481, -0.062, 192.0, 0.0, 0.0, 0.0, 0.0, 0.0, 0.0, 0.0, 0.0, 0.0, 1.6689765724322498E9, 0.0, 2022-11-20 15:36:12.432
160.0, -11761.689098082674, -2037.3168036123282, -39252.77015599849, -39385.74068376311, -29700.34983162282, -32099.295508777563, -28052.31100944412, -11178.040346865697, -28882.23128106967, -7146.053868061766, -32997.76858064754, -37166.59243900686, -29053.535050575145, -15511.708320582906, -27043.979113576308, -38625.71431704931, 0.04, 0.481, -0.062, 192.0, 0.0, 0.0, 0.0, 0.0, 0.0, 0.0, 0.0, 0.0, 0.0, 1.6689765724322557E9, 0.0, 2022-11-20 15:36:12.432
162.0, -11681.423983743667, -1979.9622273400103, -39155.47301238454, -39281.76036855702, -29608.037127022402, -32002.870083197366, -27958.143110053912, -11081.05612767412, -28867.23326054016, -7141.024725559321, -32960.731740085095, -37140.93263637217, -29018.621625735956, -15483.858046991594, -27027.841154079575, -38605.44128482834, 0.04, 0.481, -0.062, 192.0, 0.0, 0.0, 0.0, 0.0, 0.0, 0.0, 0.0, 0.0, 0.0, 1.668976572432261E9, 0.0, 2022-11-20 15:36:12.432
164.0, -11740.298478638946, -2010.4276550325937, -39241.14724888173, -39374.296590601996, -29691.58794779634, -32088.432560972284, -28038.296465670643, -11163.422305991926, -28849.173051020272, -7108.614696099126, -32958.85419355085, -37125.97931933157, -29017.951073402295, -15477.890131222026, -27013.133706227985, -38593.43839805584, 0.063, 0.7185, -0.093, 192.0, 1.0, 88.0, 14.5, 112.0, 126.0, 16.0, 0.0, 0.0, 0.0, 1.668976572432266E9, 0.0, 2022-11-20 15:36:12.432
166.0, -11728.22853663308, -2027.7502569854566, -39192.37574248025, -39313.41043870574, -29635.261551768966, -32029.826287010466, -27987.267433079178, -11109.018159987709, -28892.28956607456, -7159.867246135145, -32992.56062418946, -37164.42431979469, -29045.39901559341, -15508.176744958968, -27052.182203791406, -38627.81538102811, 0.063, 0.7185, -0.093, 192.0, 0.0, 0.0, 0.0, 0.0, 0.0, 0.0, 0.0, 0.0, 0.0, 1.6689765724322712E9, 0.0, 2022-11-20 15:36:12.432
168.0, -11763.499589383555, -2025.7385999844792, -39256.905228722724, -39391.976820466145, -29704.239035158043, -32101.396572756363, -28051.305180943633, -11177.369794532036, -28873.7152664322, -7129.424170187017, -32988.984345076606, -37150.36507253231, -29037.575905034057, -15492.3070063957, -27029.964569802833, -38605.59774703953, 0.063, 0.7185, -0.093, 192.0, 0.0, 0.0, 0.0, 0.0, 0.0, 0.0, 0.0, 0.0, 0.0, 1.6689765724322765E9, 0.0, 2022-11-20 15:36:12.432
170.0, -11731.89422272375, -2032.868806465722, -39185.08907378782, -39305.140293257275, -29627.684310398618, -32019.76800200558, -27977.276203307654, -11099.563372083114, -28916.697671019756, -7176.251074820885, -33014.73355468912, -37182.283363614486, -29061.626382067967, -15518.771471830783, -27061.368770762536, -38636.800782299135, 0.063, 0.7185, -0.093, 192.0, 0.0, 0.0, 0.0, 0.0, 0.0, 0.0, 0.0, 0.0, 0.0, 1.6689765724322815E9, 0.0, 2022-11-20 15:36:12.432
172.0, -11740.27612689449, -2001.2857915503732, -39237.50391453552, -39374.45305281318, -29689.956270451105, -32089.036058072576, -28032.50736385672, -11161.433000735404, -28856.99616157963, -7109.642876344071, -32961.8269755634, -37123.408868719205, -29015.537085001124, -15471.475180563353, -27006.80816254713, -38586.7105229748, 0.063, 0.7185, -0.093, 192.0, 0.0, 0.0, 0.0, 0.0, 0.0, 0.0, 0.0, 0.0, 0.0, 1.6689765724322882E9, 0.0, 2022-11-20 15:36:12.432
174.0, -11715.622152760287, -2024.866881950722, -39165.93362878962, -39281.55920285692, -29618.542446916395, -32014.58239729195, -27965.697999679807, -11088.231037644273, -28912.093211661962, -7179.80500218928, -33006.39635400729, -37177.030703667486, -29062.922783246373, -15529.45560568042, -27065.749712675777, -38641.36053816802, 0.07350000000000001, 0.83725, -0.1095, 192.0, 1.0, 80.0, 14.5, 112.0, 126.0, 8.0, 0.0, 0.0, 0.0, 1.6689765724322956E9, 0.0, 2022-11-20 15:36:12.432
176.0, -11701.160574097703, -1962.5949218982366, -39190.364085479276, -39330.88950286979, -29654.953438634093, -32053.988522766656, -28001.48314255275, -11129.96174454233, -28812.583245346934, -7073.969492193401, -32912.98841392856, -37080.76174029848, -28969.60425014547, -15438.640467958507, -26964.85393820452, -38542.90110384239, 0.07350000000000001, 0.83725, -0.1095, 192.0, 0.0, 0.0, 0.0, 0.0, 0.0, 0.0, 0.0, 0.0, 0.0, 1.6689765724323025E9, 0.0, 2022-11-20 15:36:12.432
178.0, -11731.335429112367, -2040.803675747356, -39167.72176834605, -39295.93137454169, -29621.24700799549, -32026.764098020092, -27977.745589941216, -11101.284456406172, -28893.34009806396, -7164.650519448581, -32994.12524630132, -37163.57495350539, -29043.633227781444, -15521.54308814324, -27039.7322821298, -38622.67447980338, 0.07350000000000001, 0.83725, -0.1095, 192.0, 0.0, 0.0, 0.0, 0.0, 0.0, 0.0, 0.0, 0.0, 0.0, 1.6689765724323096E9, 0.0, 2022-11-20 15:36:12.432
180.0, -11710.548306768931, -1973.4578697035158, -39207.53022522095, -39352.86126766935, -29660.38491253673, -32069.45592992973, -28012.457849080307, -11143.618660404523, -28817.74649831611, -7089.123974934098, -32924.41015534522, -37090.350638669806, -28970.297154223583, -15450.330430308633, -26963.9151649374, -38557.809717394084, 0.07350000000000001, 0.83725, -0.1095, 192.0, 0.0, 0.0, 0.0, 0.0, 0.0, 0.0, 0.0, 0.0, 0.0, 1.6689765724323168E9, 0.0, 2022-11-20 15:36:12.432
182.0, -11744.366496129811, -2055.779344532412, -39201.91993736267, -39322.328784743404, -29641.58709544982, -32046.21011569621, -27999.49383729623, -11125.022009017708, -28917.502333820146, -7187.002263903888, -33022.57901699293, -37185.81493923842, -29075.395056652436, -15546.085303555168, -27069.638916211003, -38661.11948026651, 0.07350000000000001, 0.83725, -0.1095, 192.0, 0.0, 0.0, 0.0, 0.0, 0.0, 0.0, 0.0, 0.0, 0.0, 1.6689765724323287E9, 0.0, 2022-11-20 15:36:12.432
184.0, -11704.669797977185, -1969.322796979284, -39213.58754796834, -39352.01190138005, -29669.25855508549, -32067.064293273008, -28014.625968292472, -11142.813997604133, -28828.162411232282, -7093.616675569615, -32924.96894895661, -37089.9036037807, -28984.714029397255, -15449.615174486064, -26985.931633225875, -38573.27712455716, 0.07575000000000001, 0.894625, -0.11875, 192.0, 1.0, 56.0, 14.5, 96.0, 126.0, 0.0, 0.0, 0.0, 0.0, 1.6689765724323351E9, 0.0, 2022-11-20 15:36:12.432
186.0, -11760.727973071096, -2074.2418854524954, -39219.488408504534, -39340.67956694121, -29669.48207253004, -32066.639610128357, -28019.811573006104, -11142.590480159579, -28929.549924081555, -7189.5503627717935, -33030.31272057447, -37194.26389864253, -29094.908129561918, -15554.400152492542, -27084.569881507145, -38673.63645716148, 0.07575000000000001, 0.894625, -0.11875, 192.0, 0.0, 0.0, 0.0, 0.0, 0.0, 0.0, 0.0, 0.0, 0.0, 1.6689765724323404E9, 0.0, 2022-11-20 15:36:12.432
188.0, -11689.336501280844, -1958.3704421961836, -39190.341733734815, -39332.185904048194, -29650.706607187585, -32050.211077953707, -28000.723183241273, -11127.570107885613, -28823.245027452118, -7091.090928446166, -32917.63757677526, -37086.43908339013, -28984.043477063595, -15447.424703529443, -26982.355354113028, -38571.243115811725, 0.07575000000000001, 0.894625, -0.11875, 192.0, 0.0, 0.0, 0.0, 0.0, 0.0, 0.0, 0.0, 0.0, 0.0, 1.6689765724323459E9, 0.0, 2022-11-20 15:36:12.432
190.0, -11751.630813077785, -2061.300225412873, -39211.33002177835, -39334.48813372709, -29665.503462016997, -32062.705703104224, -28021.487953840253, -11144.177454015906, -28913.76959249611, -7173.568865486249, -33016.36523203435, -37176.69542750066, -29078.300783431627, -15541.525547686286, -27069.72832318882, -38657.78907034267, 0.07575000000000001, 0.894625, -0.11875, 192.0, 0.0, 0.0, 0.0, 0.0, 0.0, 0.0, 0.0, 0.0, 0.0, 1.6689765724323509E9, 0.0, 2022-11-20 15:36:12.432
192.0, -11678.339443008834, -1950.4355729145495, -39171.99095153701, -39311.287022982484, -29630.3441679888, -32037.358824891908, -27985.971031900768, -11118.562354870124, -28825.36844317537, -7086.754690021836, -32915.000070929535, -37079.28652516443, -28973.7393228697, -15442.037933115715, -26976.655659276923, -38564.35877851949, 0.07575000000000001, 0.894625, -0.11875, 192.0, 0.0, 0.0, 0.0, 0.0, 0.0, 0.0, 0.0, 0.0, 0.0, 1.668976572432356E9, 0.0, 2022-11-20 15:36:12.432
194.0, -11757.464618380622, -2061.635501579702, -39216.00153636951, -39346.87100015533, -29671.851357442305, -32075.78147361058, -28023.656073052418, -11152.939337842387, -28906.72879299269, -7162.504751980871, -33008.85504589737, -37168.849965196845, -29070.589431594544, -15534.730617371872, -27054.327971259114, -38646.523791137195, 0.079875, 0.9233125, -0.121375, 192.0, 1.0, 80.0, 14.5, 96.0, 126.0, 16.0, 0.0, 0.0, 0.0, 1.6689765724323623E9, 0.0, 2022-11-20 15:36:12.432
196.0, -11672.505637706, -1958.1245730071753, -39157.59642810779, -39299.37354318781, -29624.085679541313, -32029.870990499378, -27972.470578249762, -11103.29611340715, -28833.213905479184, -7098.846983772157, -32919.11279190931, -37089.74714156952, -28982.098875295982, -15450.48689251982, -26976.968583699298, -38568.24798205471, 0.079875, 0.9233125, -0.121375, 192.0, 0.0, 0.0, 0.0, 0.0, 0.0, 0.0, 0.0, 0.0, 0.0, 1.6689765724323695E9, 0.0, 2022-11-20 15:36:12.432
198.0, -11767.433496407688, -2075.4265279086267, -39231.58070225486, -39360.572619506434, -29694.1583984087, -32100.547206467058, -28043.63853259546, -11173.25707355226, -28906.080592403483, -7166.75158342738, -33010.75494417607, -37171.845098953854, -29075.551518863624, -15536.339942972654, -27057.41251199395, -38645.00387251424, 0.079875, 0.9233125, -0.121375, 192.0, 0.0, 0.0, 0.0, 0.0, 0.0, 0.0, 0.0, 0.0, 0.0, 1.6689765724323764E9, 0.0, 2022-11-20 15:36:12.432
200.0, -11659.698088133107, -1949.7650205808905, -39134.842352252286, -39275.45717662063, -29601.823342063828, -32010.156751889797, -27953.471595462754, -11085.973511454285, -28824.6531873528, -7099.159908194531, -32917.592873286354, -37089.72478982506, -28977.82969210502, -15451.783293698229, -26979.67314477839, -38569.43262451084, 0.079875, 0.9233125, -0.121375, 192.0, 0.0, 0.0, 0.0, 0.0, 0.0, 0.0, 0.0, 0.0, 0.0, 1.668976572432383E9, 0.0, 2022-11-20 15:36:12.432
202.0, -11765.868874295817, -2063.8483242807774, -39234.57583601187, -39369.13333763282, -29700.12631417827, -32103.654098946346, -28050.813442565614, -11181.102535856073, -28881.091342102452, -7140.734152881402, -32986.12332178633, -37147.07936609738, -29049.690550528834, -15518.726768341872, -27034.189049504883, -38625.58020658257, 0.079875, 0.9233125, -0.121375, 192.0, 0.0, 0.0, 0.0, 0.0, 0.0, 0.0, 0.0, 0.0, 0.0, 1.668976572432417E9, 0.0, 2022-11-20 15:36:12.432
204.0, -11672.63974817273, -1970.1721632685858, -39146.08527971331, -39277.42413013269, -29605.75724908796, -32007.38513557734, -27958.67955192084, -11087.068746932597, -28846.64730389682, -7120.662286360537, -32934.91547523921, -37104.09696150982, -28998.259186537172, -15469.3517648401, -26996.660470564424, -38586.129377618956, 0.0829375, 0.9396562500000001, -0.1226875, 192.0, 1.0, 88.0, 14.5, 112.0, 126.0, 16.0, 0.0, 0.0, 0.0, 1.668976572432422E9, 0.0, 2022-11-20 15:36:12.432
206.0, -11750.915557255215, -2046.6374810501911, -39233.99469065603, -39361.08670962891, -29691.655003029708, -32085.079799303985, -28039.50345987123, -11168.183227560905, -28875.726923433176, -7137.3143359797405, -32982.614097906844, -37140.10562182732, -29043.253248125704, -15510.143698471034, -27033.049110537664, -38613.44320934334, 0.0829375, 0.9396562500000001, -0.1226875, 192.0, 0.0, 0.0, 0.0, 0.0, 0.0, 0.0, 0.0, 0.0, 0.0, 1.6689765724324284E9, 0.0, 2022-11-20 15:36:12.432
208.0, -11672.326823750356, -1977.257666260918, -39145.07945121282, -39267.70112129464, -29599.297594940377, -31989.28022256854, -27951.795214628604, -11075.62465377148, -28844.322722473473, -7113.107396734643, -32934.08846069437, -37100.05129576341, -28995.286404524613, -15457.706505978884, -27000.370860144005, -38570.25963905569, 0.0829375, 0.9396562500000001, -0.1226875, 192.0, 0.0, 0.0, 0.0, 0.0, 0.0, 0.0, 0.0, 0.0, 0.0, 1.6689765724324355E9, 0.0, 2022-11-20 15:36:12.432
210.0, -11765.019508006515, -2051.7113270415457, -39252.367824598296, -39379.68336101573, -29704.88723574725, -32094.847511630956, -28054.27796295619, -11180.052003866675, -28864.685161672256, -7119.567050882227, -32973.807510591454, -37128.75093564403, -29033.17261137636, -15487.031994704246, -27025.20364823385, -38593.01371491119, 0.0829375, 0.9396562500000001, -0.1226875, 192.0, 0.0, 0.0, 0.0, 0.0, 0.0, 0.0, 0.0, 0.0, 0.0, 1.668976572432443E9, 0.0, 2022-11-20 15:36:12.432
212.0, -11718.214955117102, -2023.5257772834036, -39176.61776263926, -39293.98677277408, -29623.48218244102, -32015.52117055907, -27979.041991119622, -11104.167831440906, -28899.03979290006, -7158.414382745551, -32986.65976365325, -37148.42047076469, -29047.23185863875, -15501.06889022218, -27048.96355258984, -38617.511226834205, 0.0829375, 0.9396562500000001, -0.1226875, 192.0, 0.0, 0.0, 0.0, 0.0, 0.0, 0.0, 0.0, 0.0, 0.0, 1.66897657243245E9, 0.0, 2022-11-20 15:36:12.432
214.0, -11763.723106828107, -2045.7657630164342, -39250.08794666385, -39378.38695983731, -29694.44897108662, -32093.037020330077, -28048.220640208798, -11179.202637577371, -28877.135083333862, -7122.718646850425, -32980.75890311705, -37133.35539500182, -29043.11913765897, -15491.457640106397, -27029.048148280162, -38603.7649039942, 0.0829375, 0.9396562500000001, -0.1226875, 192.0, 0.0, 0.0, 0.0, 0.0, 0.0, 0.0, 0.0, 0.0, 0.0, 1.6689765724324589E9, 0.0, 2022-11-20 15:36:12.432
216.0, -11713.834013203861, -2028.0184779189203, -39165.15131773369, -39282.9226592687, -29613.2897869694, -32003.71944948667, -27968.357857269988, -11094.400119113938, -28891.66371722981, -7152.133542553609, -32983.39640896278, -37146.408813763715, -29042.783861492142, -15498.252570420811, -27038.6817501404, -38616.192473911346, 0.082, 0.9540000000000001, -0.124, 192.0, 1.0, 72.0, 14.5, 104.0, 126.0, 16.0, 0.0, 0.0, 0.0, 1.668976572432466E9, 0.0, 2022-11-20 15:36:12.432
218.0, -11742.690115295663, -2022.0505621493535, -39231.15601911021, -39365.22178235314, -29687.72109600557, -32082.509348691627, -28038.07294822609, -11169.278463039216, -28844.43448119575, -7104.278457674797, -32953.62388534831, -37111.54009241344, -29011.6478814659, -15469.843503218115, -27000.370860144005, -38579.71442696029, 0.082, 0.9540000000000001, -0.124, 192.0, 0.0, 0.0, 0.0, 0.0, 0.0, 0.0, 0.0, 0.0, 0.0, 1.668976572432473E9, 0.0, 2022-11-20 15:36:12.432
220.0, -11716.002132416026, -2036.3780303452052, -39150.0415384819, -39268.14815618374, -29605.33256594331, -31993.19177784822, -27959.3501042545, -11084.252427131227, -28897.095191132452, -7171.6466154630925, -32995.66751666874, -37160.602171492836, -29051.635152296443, -15514.390529917542, -27045.476680454813, -38624.52967459318, 0.082, 0.9540000000000001, -0.124, 192.0, 0.0, 0.0, 0.0, 0.0, 0.0, 0.0, 0.0, 0.0, 0.0, 1.66897657243248E9, 0.0, 2022-11-20 15:36:12.432
222.0, -11747.205167675635, -2027.4596843075378, -39224.606957984804, -39362.89720092979, -29681.462607558085, -32073.7698166096, -28031.725052800783, -11164.070506581129, -28828.8553153104, -7098.824632027702, -32936.92713224019, -37096.92205153967, -28987.977384087728, -15448.408180285476, -26976.543900554647, -38552.37824349145, 0.082, 0.9540000000000001, -0.124, 192.0, 0.0, 0.0, 0.0, 0.0, 0.0, 0.0, 0.0, 0.0, 0.0, 1.6689765724324872E9, 0.0, 2022-11-20 15:36:12.432
224.0, -11738.756208271529, -2066.1058504707635, -39176.28248647243, -39289.35996167183, -29620.15177251718, -32012.28016761305, -27979.779598686648, -11107.945276253853, -28919.15636290984, -7191.830240706235, -33020.433249525224, -37182.43982582567, -29066.722579803776, -15528.047445779735, -27057.77013990523, -38636.174933454386, 0.082, 0.9540000000000001, -0.124, 192.0, 0.0, 0.0, 0.0, 0.0, 0.0, 0.0, 0.0, 0.0, 0.0, 1.6689765724324944E9, 0.0, 2022-11-20 15:36:12.432
226.0, -11734.50937682502, -2009.5112335099261, -39227.64679523072, -39359.85736368386, -29676.43346505564, -32072.093435775452, -28031.948570245335, -11164.986928103797, -28837.147812503317, -7098.467004116417, -32944.81729803292, -37097.99493527352, -28994.660555679868, -15451.515072764763, -26982.109484924018, -38563.01767385217, 0.078, 0.9580000000000001, -0.136, 192.0, 1.0, 56.0, 14.5, 120.0, 125.5, 96.0, 0.0, 0.0, 0.0, 1.6689765724325016E9, 0.0, 2022-11-20 15:36:12.432
228.0, -11738.599746060341, -2065.3682429037385, -39186.430178455135, -39296.91485129772, -29634.367481990754, -32020.460906083696, -27986.954508656803, -11111.543907111158, -28918.172886153807, -7180.721423711947, -33019.65093846928, -37175.06375015542, -29071.37174265048, -15533.233050493367, -27062.195785307384, -38645.18268646988, 0.078, 0.9580000000000001, -0.136, 192.0, 0.0, 0.0, 0.0, 0.0, 0.0, 0.0, 0.0, 0.0, 0.0, 1.668976572432508E9, 0.0, 2022-11-20 15:36:12.432
230.0, -11710.36949281329, -1990.355788511728, -39207.686687432135, -39341.99831986408, -29668.87857542975, -32054.726130333678, -28013.061346180602, -11141.227023747806, -28823.937931530232, -7084.944198720957, -32923.42667858919, -37079.04065597542, -28984.870491608443, -15440.652124959484, -26976.163920898907, -38554.68047317034, 0.078, 0.9580000000000001, -0.136, 192.0, 0.0, 0.0, 0.0, 0.0, 0.0, 0.0, 0.0, 0.0, 0.0, 1.668976572432513E9, 0.0, 2022-11-20 15:36:12.432
232.0, -11748.456865365133, -2077.415833165149, -39190.498195946006, -39306.70491536915, -29646.370368763255, -32028.306368387508, -27988.429723790854, -11113.264991434216, -28919.893970476864, -7187.873981937645, -33018.622758224345, -37178.59532577936, -29082.90524278942, -15538.195137762445, -27071.40470402297, -38651.39647142845, 0.078, 0.9580000000000001, -0.136, 192.0, 0.0, 0.0, 0.0, 0.0, 0.0, 0.0, 0.0, 0.0, 0.0, 1.668976572432518E9, 0.0, 2022-11-20 15:36:12.432
234.0, -11695.818507172884, -1976.5424104383483, -39189.581774423335, -39329.52604645801, -29656.607467723785, -32040.733938304656, -27995.29170933863, -11121.736302582778, -28819.46758263917, -7084.385405109573, -32913.90483545123, -37074.72676929555, -28976.622697904433, -15428.135148064513, -26971.47005456329, -38546.7456038887, 0.078, 0.9580000000000001, -0.136, 192.0, 0.0, 0.0, 0.0, 0.0, 0.0, 0.0, 0.0, 0.0, 0.0, 1.6689765724325233E9, 0.0, 2022-11-20 15:36:12.432
236.0, -11751.541406099965, -2071.425565651127, -39196.30964950439, -39316.807903862944, -29656.54041249042, -32038.074080714476, -27999.940872185336, -11122.920945038908, -28922.978511211695, -7176.385185287618, -33023.11545885986, -37179.198822879654, -29083.776960823176, -15527.622762635085, -27077.50673025927, -38649.31775919411, 0.08, 0.9580000000000001, -0.14400000000000002, 192.0, 1.0, 64.0, 14.5, 120.0, 125.5, 64.0, 0.0, 0.0, 0.0, 1.6689765724325285E9, 0.0, 2022-11-20 15:36:12.432
238.0, -11661.195655011614, -1938.745610564424, -39157.50702112997, -39291.59513611736, -29625.069156297348, -32008.793295478023, -27965.586240957527, -11092.43316560187, -28815.13134421484, -7070.34850959164, -32901.41021030071, -37060.46635633306, -28963.234002975703, -15407.303322232166, -26966.239746360752, -38534.51919967165, 0.08, 0.9580000000000001, -0.14400000000000002, 192.0, 0.0, 0.0, 0.0, 0.0, 0.0, 0.0, 0.0, 0.0, 0.0, 1.6689765724325335E9, 0.0, 2022-11-20 15:36:12.432
240.0, -11727.669743021697, -2042.6365187926913, -39190.78876862393, -39301.92164205571, -29647.644418197207, -32032.597903322927, -27989.837883691536, -11115.075482735096, -28890.68024047378, -7135.034458045299, -32987.95616483166, -37139.904456127224, -29053.535050575145, -15486.316738881676, -27047.153061288962, -38613.465561087796, 0.08, 0.9580000000000001, -0.14400000000000002, 192.0, 0.0, 0.0, 0.0, 0.0, 0.0, 0.0, 0.0, 0.0, 0.0, 1.6689765724325385E9, 0.0, 2022-11-20 15:36:12.432
242.0, -11648.611622883276, -1923.166444679075, -39146.06292796885, -39272.43969111916, -29609.266472967443, -31999.29380408452, -27948.91183959387, -11082.017252685697, -28810.169256945763, -7051.371878549085, -32892.38010554077, -37048.79874572739, -28957.579011628513, -15390.383051679499, -26960.00360965772, -38528.32776645753, 0.08, 0.9580000000000001, -0.14400000000000002, 192.0, 0.0, 0.0, 0.0, 0.0, 0.0, 0.0, 0.0, 0.0, 0.0, 1.6689765724325435E9, 0.0, 2022-11-20 15:36:12.432
244.0, -11723.333504597367, -2027.124408140708, -39191.45932095758, -39307.9789648031, -29647.353845519287, -32039.05755747051, -27993.280052337654, -11122.026875260697, -28897.519874277103, -7126.876071319112, -32989.36432473234, -37141.0667468389, -29057.044274454627, -15483.880398736048, -27036.02189255022, -38607.34118310704, 0.08, 0.9580000000000001, -0.14400000000000002, 192.0, 0.0, 0.0, 0.0, 0.0, 0.0, 0.0, 0.0, 0.0, 0.0, 1.6689765724325485E9, 0.0, 2022-11-20 15:36:12.432
246.0, -11635.312334932369, -1920.0819039442426, -39133.8365237518, -39267.38819687226, -29600.638699607694, -31990.509568513582, -27946.453147703785, -11074.887046204454, -28816.293634926515, -7060.469038542395, -32898.83975968835, -37066.54603082491, -28964.575107643024, -15399.346101206078, -26955.957943911308, -38527.70191761279, 0.076, 0.9520000000000001, -0.14, 192.0, 1.0, 48.0, 14.5, 96.0, 125.5, 80.0, 0.0, 0.0, 0.0, 1.6689765724325552E9, 0.0, 2022-11-20 15:36:12.432
248.0, -11710.12362362428, -2010.4723585215045, -39200.13179780624, -39328.81079063544, -29664.430578283143, -32051.440423898748, -28013.21780839179, -11136.399046945458, -28875.391647266348, -7116.974248525411, -32975.72976061461, -37140.172677060684, -29041.50981205819, -15477.130171910547, -27024.68955811138, -38596.54529053513, 0.076, 0.9520000000000001, -0.14, 192.0, 0.0, 0.0, 0.0, 0.0, 0.0, 0.0, 0.0, 0.0, 0.0, 1.6689765724325604E9, 0.0, 2022-11-20 15:36:12.432
250.0, -11608.423186352633, -1893.4162728090612, -39113.1835118751, -39244.41060357221, -29576.297649895867, -31962.055797821977, -27926.761260838663, -11050.903624403909, -28812.471486624658, -7064.380593822074, -32895.35288755332, -37071.37400762725, -28965.715046610243, -15402.274179729722, -26964.965696926796, -38535.83795259451, 0.076, 0.9520000000000001, -0.14, 192.0, 0.0, 0.0, 0.0, 0.0, 0.0, 0.0, 0.0, 0.0, 0.0, 1.6689765724325657E9, 0.0, 2022-11-20 15:36:12.432
252.0, -11707.575524756376, -1996.3684077702055, -39207.48552173204, -39331.850627881366, -29664.11765386077, -32045.651322084825, -28012.2119798913, -11136.48845392328, -28850.894135343333, -7088.565181322716, -32951.6792835807, -37115.96573781559, -29020.92385541485, -15447.15648259598, -27005.981148002287, -38574.14884259091, 0.076, 0.9520000000000001, -0.14, 192.0, 0.0, 0.0, 0.0, 0.0, 0.0, 0.0, 0.0, 0.0, 0.0, 1.6689765724325707E9, 0.0, 2022-11-20 15:36:12.432
254.0, -11616.246296911992, -1902.356970591184, -39111.50713104095, -39237.2133418576, -29564.630039290198, -31950.18702151621, -27917.2394177007, -11038.878385886954, -28825.793126320023, -7068.090983401655, -32907.244015603545, -37078.258344919486, -28974.655744392367, -15399.14493550598, -26975.426313331882, -38541.62705440844, 0.076, 0.9520000000000001, -0.14, 192.0, 0.0, 0.0, 0.0, 0.0, 0.0, 0.0, 0.0, 0.0, 0.0, 1.6689765724325757E9, 0.0, 2022-11-20 15:36:12.432
0.0, -11680.842838387829, -1964.3607097102058, -39187.838338355825, -39319.53481668649, -29648.516136230963, -32028.976920721165, -27992.654203492904, -11116.081311235585, -28847.29550448603, -7081.166753908009, -32946.270161422515, -37111.450685435615, -29012.631358221934, -15433.656028944974, -27002.941310756363, -38563.97879886375, 0.08, 0.9480000000000001, -0.13, 192.0, 1.0, 64.0, 14.5, 80.0, 125.5, 120.0, 0.0, 0.0, 0.0, 1.6689765724325807E9, 0.0, 2022-11-20 15:36:12.432
2.0, -11586.339662830791, -1885.3472930606954, -39091.47996800899, -39214.16869332417, -29548.760300726928, -31927.947035783178, -27896.340536634987, -11019.655885655391, -28804.201341176195, -7048.2649860697975, -32885.160492081704, -37065.8978302357, -28954.91915403833, -15379.2295311963, -26961.925859680876, -38521.4434291653, 0.08, 0.9480000000000001, -0.13, 192.0, 0.0, 0.0, 0.0, 0.0, 0.0, 0.0, 0.0, 0.0, 0.0, 1.6689765724325857E9, 0.0, 2022-11-20 15:36:12.432
4.0, -11659.698088133107, -1936.912767519089, -39191.191100024116, -39314.75154337306, -29652.427691510642, -32027.8593334984, -27995.023488405168, -11118.875279292499, -28803.419030120258, -7039.234881309853, -32906.79698071444, -37073.60918207278, -28981.271860751138, -15396.529781404708, -26972.364124341504, -38527.16547574586, 0.08, 0.9480000000000001, -0.13, 192.0, 0.0, 0.0, 0.0, 0.0, 0.0, 0.0, 0.0, 0.0, 0.0, 1.6689765724325907E9, 0.0, 2022-11-20 15:36:12.432
6.0, -11601.158869404659, -1902.9604676914773, -39104.62279374871, -39218.728449193055, -29560.98670494398, -31940.08403302241, -27910.62330134193, -11030.876461371954, -28826.731899587143, -7075.534114305272, -32912.18375112817, -37091.24470844802, -28990.078448066528, -15408.331502477111, -26991.027830961684, -38544.95746433228, 0.08, 0.9480000000000001, -0.13, 192.0, 0.0, 0.0, 0.0, 0.0, 0.0, 0.0, 0.0, 0.0, 0.0, 1.668976572432596E9, 0.0, 2022-11-20 15:36:12.432
8.0, -11656.121809020258, -1932.1741976945636, -39195.90731810419, -39320.11596204233, -29646.549182718896, -32036.665920813793, -27999.225616362768, -11126.385465429481, -28801.139152185817, -7038.206701064909, -32900.85141668933, -37070.81521401587, -28982.098875295982, -15392.350005191567, -26968.318458595095, -38529.33359495802, 0.08, 0.9480000000000001, -0.13, 192.0, 0.0, 0.0, 0.0, 0.0, 0.0, 0.0, 0.0, 0.0, 0.0, 1.668976572432601E9, 0.0, 2022-11-20 15:36:12.432
10.0, -11623.130634204226, -1933.1800261950525, -39124.38173584721, -39235.98399591255, -29570.732065526496, -31958.635980920313, -27924.99547302669, -11049.674278458868, -28844.255667240104, -7092.275570902297, -32932.79205951596, -37111.942423813634, -29008.853913408988, -15426.324656763632, -27005.981148002287, -38568.62796171045, 0.082, 0.9480000000000001, -0.128, 192.0, 1.0, 72.0, 14.5, 80.0, 126.0, 0.0, 0.0, 0.0, 0.0, 1.668976572432606E9, 0.0, 2022-11-20 15:36:12.432
12.0, -11665.911873091683, -1939.8855495316448, -39202.97046935207, -39337.59502620638, -29660.116691603267, -32052.066272743497, -28009.194494389834, -11139.416532446925, -28811.30919591298, -7049.047297125733, -32909.70270749363, -37082.84045253282, -28985.65280266438, -15403.682339630406, -26974.442836575847, -38545.38214747693, 0.082, 0.9480000000000001, -0.128, 192.0, 0.0, 0.0, 0.0, 0.0, 0.0, 0.0, 0.0, 0.0, 0.0, 1.6689765724326131E9, 0.0, 2022-11-20 15:36:12.432
14.0, -11615.240468411503, -1933.5823575952481, -39108.53434902839, -39227.91501616419, -29560.47261482151, -31948.957675571168, -27916.85943804496, -11043.706362689301, -28859.38779823635, -7106.938315264978, -32943.878524765794, -37128.013328077, -29027.003529906695, -15446.597688984597, -27020.688595853877, -38594.444226556334, 0.082, 0.9480000000000001, -0.128, 192.0, 0.0, 0.0, 0.0, 0.0, 0.0, 0.0, 0.0, 0.0, 0.0, 1.6689765724326203E9, 0.0, 2022-11-20 15:36:12.432
16.0, -11648.07518101635, -1917.71261903198, -39191.45932095758, -39331.62711043681, -29648.33732227532, -32034.587208579447, -27995.96226167229, -11126.698389851856, -28778.116855396853, -7021.129968301055, -32871.72709366406, -37051.391548084204, -28957.802529073066, -15372.300490415157, -26947.352522296016, -38519.67764135333, 0.082, 0.9480000000000001, -0.128, 192.0, 0.0, 0.0, 0.0, 0.0, 0.0, 0.0, 0.0, 0.0, 0.0, 1.6689765724326265E9, 0.0, 2022-11-20 15:36:12.432
0.0, -5864.6060066945565, -1039.8925590387057, -19581.558654494125, -19638.108567966054, -14807.583666751823, -15996.338843862874, -13975.539979403018, -5536.147121923819, -14451.945060723432, -3571.0935081354987, -16499.767184229753, -18588.470648344835, -14542.179053089507, -7748.098104965461, -13536.641125278607, -19323.48541301315, 0.083, 0.9500000000000001, -0.129, 192.0, 1.0, 80.0, 14.5, 96.0, 125.5, 120.0, 0.0, 0.0, 0.0, 1.668976572999384E9, 0.0, 2022-11-20 15:36:12.999
2.0, -11645.281212959435, -1963.5560469098148, -39117.296232854875, -39252.792507742946, -29565.680571279598, -31958.27835300903, -27906.89056001789, -11035.570327707568, -28854.358655733904, -7050.567215748694, -32908.40630631522, -37081.58875484333, -29013.480724511235, -15369.417115380422, -26963.177557370374, -38541.023557308145, 0.083, 0.9500000000000001, -0.129, 192.0, 0.0, 0.0, 0.0, 0.0, 0.0, 0.0, 0.0, 0.0, 0.0, 1.6689765729994233E9, 0.0, 2022-11-20 15:36:12.999
4.0, -11745.551138585943, -2073.481926141015, -39213.54284447942, -39345.82046816593, -29661.949534648604, -32052.446252399237, -27997.30336633961, -11127.324238696605, -28901.90081619034, -7099.338722150174, -32976.48971992609, -37145.850020152335, -29080.960641021808, -15438.707523191873, -27015.81591556262, -38601.03799117065, 0.083, 0.9500000000000001, -0.129, 192.0, 0.0, 0.0, 0.0, 0.0, 0.0, 0.0, 0.0, 0.0, 0.0, 1.6689765729994724E9, 0.0, 2022-11-20 15:36:12.999
6.0, -11648.96925079456, -1978.0176255723984, -39122.97357594652, -39251.9654931981, -29571.648487049162, -31960.245306521098, -27910.265673430644, -11036.643211441424, -28868.641420440847, -7080.965588207911, -32925.66185303472, -37105.2592522215, -29035.430137566345, -15397.80383083866, -26980.813083745612, -38565.38695876443, 0.083, 0.9500000000000001, -0.129, 192.0, 0.0, 0.0, 0.0, 0.0, 0.0, 0.0, 0.0, 0.0, 0.0, 1.668976572999483E9, 0.0, 2022-11-20 15:36:12.999
8.0, -11715.55509752692, -2038.970832702021, -39197.42723672715, -39318.79720911947, -29648.15850831968, -32030.76506027759, -27982.126531854457, -11105.8218605306, -28885.315821804503, -7081.837306241669, -32959.07771099541, -37124.459400708605, -29073.830434540563, -15426.145842807991, -26999.946176999354, -38580.943772905324, 0.082, 0.9520000000000001, -0.13, 192.0, 1.0, 72.0, 14.5, 96.0, 125.5, 120.0, 0.0, 0.0, 0.0, 1.6689765729994884E9, 0.0, 2022-11-20 15:36:12.999
10.0, -11622.951820248583, -1956.068212517287, -39092.7763691874, -39206.61380369828, -29547.32978908179, -31924.92955028171, -27884.94114696278, -11005.060196526074, -28848.793071364533, -7049.471980270384, -32903.91360567971, -37074.65971406218, -29018.196942591305, -15371.764048548228, -26961.300010836127, -38537.22376075074, 0.082, 0.9520000000000001, -0.13, 192.0, 0.0, 0.0, 0.0, 0.0, 0.0, 0.0, 0.0, 0.0, 0.0, 1.6689765729994936E9, 0.0, 2022-11-20 15:36:12.999
12.0, -11716.918553938694, -2030.678335509102, -39200.46707397307, -39329.481342969106, -29663.581211993842, -32041.449194127228, -27996.34224132803, -11122.317447938616, -28859.298391258526, -7047.214454080397, -32929.416946103214, -37090.66356309218, -29048.215335394783, -15394.607531381553, -26983.987031458266, -38558.100290072005, 0.082, 0.9520000000000001, -0.13, 192.0, 0.0, 0.0, 0.0, 0.0, 0.0, 0.0, 0.0, 0.0, 0.0, 1.668976572999499E9, 0.0, 2022-11-20 15:36:12.999
14.0, -11675.389012740734, -2012.7298847114903, -39133.8365237518, -39254.20066764363, -29587.89820526817, -31969.610687447872, -27926.694205605294, -11047.506159246703, -28892.557787008023, -7092.789661024769, -32946.80660328944, -37120.36903147329, -29064.33094314706, -15416.512240947754, -27017.11231674103, -38589.32567707606, 0.082, 0.9520000000000001, -0.13, 192.0, 0.0, 0.0, 0.0, 0.0, 0.0, 0.0, 0.0, 0.0, 0.0, 1.6689765729995043E9, 0.0, 2022-11-20 15:36:12.999
16.0, -11721.3665510853, -2033.44995182156, -39205.80914089789, -39335.73983141659, -29664.76585444997, -32042.611484838904, -27995.582282016552, -11121.848061305054, -28872.441216998246, -7066.548713034238, -32947.43245213419, -37109.88606332375, -29060.754664034208, -15410.47726994482, -27003.321290412106, -38573.94767689081, 0.082, 0.9520000000000001, -0.13, 192.0, 0.0, 0.0, 0.0, 0.0, 0.0, 0.0, 0.0, 0.0, 0.0, 1.6689765729995096E9, 0.0, 2022-11-20 15:36:12.999
18.0, -11666.090687047326, -2015.3450388127612, -39116.69273575458, -39234.732298223054, -29570.530899826397, -31953.025693062034, -27906.51058036215, -11030.89881311641, -28894.211816097715, -7101.126861706599, -32951.925152769705, -37124.4146972197, -29067.527242604167, -15421.38492123901, -27011.323214927106, -38586.28583983015, 0.076, 0.9500000000000001, -0.13, 192.0, 1.0, 48.0, 14.5, 88.0, 125.5, 120.0, 0.0, 0.0, 0.0, 1.6689765729995148E9, 0.0, 2022-11-20 15:36:12.999
20.0, -11697.986626385049, -2005.8902509081663, -39187.12308253325, -39319.87009285332, -29645.83392689633, -32031.05563295551, -27978.550252741607, -11106.201840186339, -28837.79601309252, -7036.798541164225, -32909.88152144927, -37074.413844873176, -29025.975349661752, -15377.240225939779, -26955.354446811016, -38533.066336282056, 0.076, 0.9500000000000001, -0.13, 192.0, 0.0, 0.0, 0.0, 0.0, 0.0, 0.0, 0.0, 0.0, 0.0, 1.66897657299952E9, 0.0, 2022-11-20 15:36:12.999
22.0, -11694.253885061013, -2044.581120560303, -39140.02795696592, -39259.52038282399, -29592.77088555943, -31978.9984201191, -27932.48330741922, -11055.776304695166, -28913.367261095915, -7113.688542090481, -32973.96397280264, -37141.245560794545, -29089.00726902572, -15445.122473850546, -27025.449517422858, -38603.049648171625, 0.076, 0.9500000000000001, -0.13, 192.0, 0.0, 0.0, 0.0, 0.0, 0.0, 0.0, 0.0, 0.0, 0.0, 1.6689765729995253E9, 0.0, 2022-11-20 15:36:12.999
24.0, -11696.153783339714, -2003.7221316960017, -39187.681876144634, -39327.872017368325, -29643.084662328325, -32036.800031280523, -27978.72906669725, -11109.599305343545, -28849.53067893156, -7046.901529658024, -32919.93980645416, -37081.81227228788, -29034.334902088038, -15395.14397324848, -26961.85880444751, -38543.23638000922, 0.076, 0.9500000000000001, -0.13, 192.0, 0.0, 0.0, 0.0, 0.0, 0.0, 0.0, 0.0, 0.0, 0.0, 1.6689765729995303E9, 0.0, 2022-11-20 15:36:12.999
26.0, -11691.54932398192, -2045.4975420829705, -39132.62952955122, -39248.74684199654, -29586.557100600854, -31965.587373445916, -27920.43571715781, -11043.639307455935, -28914.462496574226, -7116.2366409583865, -32978.0319902935, -37141.62554045028, -29087.979088780772, -15451.15744485348, -27020.5768371316, -38604.59191853904, 0.076, 0.9500000000000001, -0.13, 192.0, 0.0, 0.0, 0.0, 0.0, 0.0, 0.0, 0.0, 0.0, 0.0, 1.6689765729995356E9, 0.0, 2022-11-20 15:36:12.999
28.0, -11680.082879076348, -1983.8514308752337, -39171.58862013681, -39304.15681650124, -29629.15952553267, -32006.53576928804, -27959.52891821014, -11084.632406786968, -28826.016643764575, -7019.520642700272, -32898.34802131033, -37053.246742874, -29001.65665169438, -15361.862225754527, -26940.579943726058, -38518.13537098591, 0.07200000000000001, 0.9540000000000001, -0.128, 192.0, 1.0, 32.0, 14.5, 104.0, 126.0, 0.0, 0.0, 0.0, 0.0, 1.668976572999541E9, 0.0, 2022-11-20 15:36:12.999
30.0, -11686.721347179575, -2039.3955158466717, -39129.56734056084, -39240.834324459356, -29581.505606353952, -31952.310437239463, -27918.893446790393, -11039.32542077606, -28907.57815928199, -7095.628332570593, -32974.27689722501, -37127.43218272116, -29077.94315552034, -15433.432511500421, -27019.883933053487, -38591.18087186586, 0.07200000000000001, 0.9540000000000001, -0.128, 192.0, 0.0, 0.0, 0.0, 0.0, 0.0, 0.0, 0.0, 0.0, 0.0, 1.6689765729995463E9, 0.0, 2022-11-20 15:36:12.999
32.0, -11662.670870145665, -1966.394718455639, -39153.68487282811, -39287.169490715205, -29620.19647600609, -31995.337545315928, -27954.276258263144, -11079.804429984622, -28814.97488200365, -6999.962866301878, -32880.64543970173, -37032.459620530564, -28989.005564332674, -15340.315144099612, -26932.309798277594, -38496.67769630882, 0.07200000000000001, 0.9540000000000001, -0.128, 192.0, 0.0, 0.0, 0.0, 0.0, 0.0, 0.0, 0.0, 0.0, 0.0, 1.6689765729995515E9, 0.0, 2022-11-20 15:36:12.999
34.0, -11697.807812429406, -2051.6889752970906, -39141.190247677594, -39253.28424612096, -29603.745592086983, -31979.356048030386, -27941.87104009045, -11065.409906555404, -28914.797772741054, -7106.4912803758725, -32978.79194960499, -37132.46132522361, -29093.611728383512, -15446.664744217962, -27032.669130881925, -38600.2109766258, 0.07200000000000001, 0.9540000000000001, -0.128, 192.0, 0.0, 0.0, 0.0, 0.0, 0.0, 0.0, 0.0, 0.0, 0.0, 1.6689765729995568E9, 0.0, 2022-11-20 15:36:12.999
36.0, -11640.743808835008, -1948.5803781247591, -39132.65188129567, -39263.543696825946, -29608.14888574468, -31985.23455682213, -27942.228668001735, -11070.796676969132, -28802.70377429769, -6999.448776179407, -32863.12167204877, -37021.0378791139, -28983.261166007658, -15339.108149899024, -26928.398242997915, -38496.14125444189, 0.07200000000000001, 0.9540000000000001, -0.128, 192.0, 0.0, 0.0, 0.0, 0.0, 0.0, 0.0, 0.0, 0.0, 0.0, 1.6689765729995637E9, 0.0, 2022-11-20 15:36:12.999
38.0, -11705.921495666684, -2061.970777746532, -39154.82481179533, -39264.54952532644, -29624.10803128577, -31999.360859317883, -27962.367589755966, -11086.845229488043, -28901.81140921252, -7099.6292948280925, -32970.18652798969, -37126.94044434315, -29089.99074578175, -15448.318773307656, -27031.618598892524, -38600.814473726095, 0.074, 0.9540000000000001, -0.128, 192.0, 1.0, 40.0, 14.5, 104.0, 126.0, 0.0, 0.0, 0.0, 0.0, 1.668976572999569E9, 0.0, 2022-11-20 15:36:12.999
40.0, -11647.494035660511, -1964.4724684324824, -39127.98036670451, -39260.548563068936, -29603.05268800887, -31989.324926057452, -27942.653351146386, -11072.204836869818, -28812.449134880204, -7017.5089856992945, -32871.72709366406, -37035.52180952094, -28992.805360890077, -15353.547376817152, -26942.502193749213, -38516.16841747385, 0.074, 0.9540000000000001, -0.128, 192.0, 0.0, 0.0, 0.0, 0.0, 0.0, 0.0, 0.0, 0.0, 0.0, 1.6689765729995744E9, 0.0, 2022-11-20 15:36:12.999
42.0, -11730.061379678415, -2082.1767547341296, -39166.76064333447, -39279.32402841139, -29635.127441302237, -32012.28016761305, -27974.05755210609, -11097.238790659761, -28902.14668537935, -7104.569030352715, -32972.37699894631, -37131.656662423215, -29092.069458016096, -15448.989325641314, -27024.7789650892, -38599.24985161422, 0.074, 0.9540000000000001, -0.128, 192.0, 0.0, 0.0, 0.0, 0.0, 0.0, 0.0, 0.0, 0.0, 0.0, 1.6689765729995797E9, 0.0, 2022-11-20 15:36:12.999
44.0, -11654.981870053038, -1972.9661313254992, -39122.0348026794, -39249.283283863464, -29592.502664625965, -31972.583469460427, -27930.53870565161, -11056.648022728923, -28833.191553734727, -7039.033715609756, -32891.866015418294, -37051.50330680649, -29010.50794249868, -15365.505560100743, -26951.733464209257, -38519.632937864415, 0.074, 0.9540000000000001, -0.128, 192.0, 0.0, 0.0, 0.0, 0.0, 0.0, 0.0, 0.0, 0.0, 0.0, 1.668976572999585E9, 0.0, 2022-11-20 15:36:12.999
46.0, -11727.669743021697, -2075.448879653082, -39178.875288829244, -39296.73603734208, -29641.90001987219, -32017.063440926486, -27978.796121930616, -11100.725662794788, -28913.09904016245, -7108.055902487744, -32984.96103107465, -37135.858790380815, -29103.647661643943, -15452.453846031887, -27030.121032014016, -38596.23236611275, 0.074, 0.9540000000000001, -0.128, 192.0, 0.0, 0.0, 0.0, 0.0, 0.0, 0.0, 0.0, 0.0, 0.0, 1.66897657299959E9, 0.0, 2022-11-20 15:36:12.999
48.0, -11624.739959805007, -1954.8835700611558, -39108.04261065038, -39241.12489713728, -29574.442455106077, -31955.75260588558, -27914.557208366063, -11037.783150408644, -28819.802858806, -7030.830625394658, -32885.3616577818, -37050.45277481709, -29001.12020982745, -15364.857359511538, -26952.649885731924, -38522.493961154694, 0.074, 0.9520000000000001, -0.132, 192.0, 1.0, 40.0, 14.5, 96.0, 125.5, 112.0, 0.0, 0.0, 0.0, 1.6689765729995952E9, 0.0, 2022-11-20 15:36:12.999
50.0, -11719.17608012868, -2068.5868941053027, -39176.66246612817, -39305.36381070183, -29641.743557661004, -32027.568760820483, -27981.813607432083, -11107.118261709007, -28877.33624903396, -7089.347492378652, -32957.62484760581, -37118.87146459478, -29078.27843168717, -15443.490796505308, -27010.697366082357, -38589.39273230943, 0.074, 0.9520000000000001, -0.132, 192.0, 0.0, 0.0, 0.0, 0.0, 0.0, 0.0, 0.0, 0.0, 0.0, 1.6689765729996004E9, 0.0, 2022-11-20 15:36:12.999
52.0, -11633.658305842675, -1980.4763174624823, -39097.31377331183, -39244.92469369468, -29564.67474277911, -31965.743835657104, -27909.57276935253, -11042.23114755525, -28820.80868730649, -7059.2396925973535, -32884.78051242596, -37062.0980336783, -29005.277634296137, -15386.113868488535, -26947.888964162943, -38536.37439446144, 0.074, 0.9520000000000001, -0.132, 192.0, 0.0, 0.0, 0.0, 0.0, 0.0, 0.0, 0.0, 0.0, 0.0, 1.668976572999606E9, 0.0, 2022-11-20 15:36:12.999
54.0, -11741.818397261906, -2099.745225876001, -39194.58856518132, -39333.01291859304, -29659.759063691985, -32055.39668266734, -28000.298500096622, -11130.542889898168, -28869.24491754114, -7111.520422878316, -32953.28860918148, -37123.3641652303, -29067.639001326443, -15456.544215267208, -26991.787790273167, -38589.549194520616, 0.074, 0.9520000000000001, -0.132, 192.0, 0.0, 0.0, 0.0, 0.0, 0.0, 0.0, 0.0, 0.0, 0.0, 1.668976572999611E9, 0.0, 2022-11-20 15:36:12.999
56.0, -11651.942032807117, -2010.2711928214067, -39106.72385772751, -39232.8100481999, -29566.798158502363, -31959.172422787244, -27908.99162399669, -11034.676257929357, -28852.27994349956, -7107.720626320914, -32925.55009431244, -37097.905528295705, -29030.490402041723, -15419.686188660407, -26974.62165053149, -38560.38016800644, 0.074, 0.9520000000000001, -0.132, 192.0, 0.0, 0.0, 0.0, 0.0, 0.0, 0.0, 0.0, 0.0, 0.0, 1.6689765729996173E9, 0.0, 2022-11-20 15:36:12.999
58.0, -11735.023466947492, -2088.189373992607, -39204.87036763076, -39326.10622955635, -29667.02338063996, -32055.888421045354, -28005.104125154514, -11129.402950930948, -28858.60548718041, -7106.424225142507, -32952.7298155701, -37113.909377325705, -29060.821719267577, -15441.143863337502, -26993.642985062957, -38567.800947165604, 0.077, 0.9500000000000001, -0.129, 192.0, 1.0, 64.0, 14.5, 80.0, 126.0, 8.0, 0.0, 0.0, 0.0, 1.6689765729996228E9, 0.0, 2022-11-20 15:36:12.999
60.0, -11649.326878705846, -2013.4674922785155, -39101.27003208042, -39214.52632123546, -29568.072207936315, -31945.85078309188, -27905.750621050673, -11026.361408991983, -28854.91744934529, -7112.794472312269, -32931.786231015474, -37104.94632779912, -29040.45928006879, -15423.463633473353, -26990.692554794856, -38552.087670813526, 0.077, 0.9500000000000001, -0.129, 192.0, 0.0, 0.0, 0.0, 0.0, 0.0, 0.0, 0.0, 0.0, 0.0, 1.6689765729996283E9, 0.0, 2022-11-20 15:36:12.999
62.0, -11708.93898116815, -2052.3148241418394, -39187.03367555543, -39314.080991039395, -29660.42961602564, -32043.34909240593, -27995.24700584972, -11122.697427594356, -28840.299408471517, -7081.010291696822, -32933.70848103863, -37094.91039453869, -29048.394149350424, -15420.915534605449, -26975.269851120695, -38540.15183927439, 0.077, 0.9500000000000001, -0.129, 192.0, 0.0, 0.0, 0.0, 0.0, 0.0, 0.0, 0.0, 0.0, 0.0, 1.6689765729996338E9, 0.0, 2022-11-20 15:36:12.999
64.0, -11638.620393111754, -2008.1254253536972, -39093.13399709869, -39225.25515857401, -29568.47453933651, -31958.770091387047, -27911.85264728697, -11039.459531242792, -28853.777510378066, -7105.396044897562, -32926.533571068474, -37103.64992662072, -29047.857707483498, -15428.783348653717, -26986.892758237453, -38561.587162207026, 0.077, 0.9500000000000001, -0.129, 192.0, 0.0, 0.0, 0.0, 0.0, 0.0, 0.0, 0.0, 0.0, 0.0, 1.66897657299964E9, 0.0, 2022-11-20 15:36:12.999
66.0, -11690.275274547968, -2031.8182744763226, -39164.45841365557, -39320.16066553124, -29648.0467495974, -32049.406415153317, -27989.72612496926, -11125.357285184537, -28815.55602735949, -7068.068631657199, -32899.93499516666, -37076.514908851976, -29027.07058514006, -15413.00301706827, -26952.62753398747, -38544.041042809615, 0.077, 0.9500000000000001, -0.129, 192.0, 0.0, 0.0, 0.0, 0.0, 0.0, 0.0, 0.0, 0.0, 0.0, 1.6689765729996452E9, 0.0, 2022-11-20 15:36:12.999
68.0, -11659.049887543904, -2033.315841354828, -39089.37890403019, -39224.875178918264, -29558.930344454093, -31964.22391703414, -27903.560150094054, -11040.420656254371, -28862.80761513801, -7131.6146411436375, -32936.30128339545, -37118.71500238359, -29056.910163987897, -15453.81730244366, -26988.14445592695, -38584.45299678481, 0.0815, 0.9520000000000001, -0.1255, 192.0, 1.0, 88.0, 14.5, 104.0, 126.0, 24.0, 0.0, 0.0, 0.0, 1.668976572999652E9, 0.0, 2022-11-20 15:36:12.999
70.0, -11707.55317301192, -2039.7307920135013, -39176.304838216885, -39312.38225846079, -29648.896115886702, -32045.897191273834, -27981.12070335397, -11116.841270547066, -28816.919483771264, -7068.582721779671, -32908.719230737595, -37070.077606448845, -29017.615797235467, -15409.113813533046, -26938.680045447356, -38526.360812945466, 0.0815, 0.9520000000000001, -0.1255, 192.0, 0.0, 0.0, 0.0, 0.0, 0.0, 0.0, 0.0, 0.0, 0.0, 1.6689765729996572E9, 0.0, 2022-11-20 15:36:12.999
72.0, -11691.75048968202, -2067.6034173492694, -39119.039668922385, -39234.48642903405, -29576.85644350725, -31973.544594472005, -27914.110173476958, -11046.790903424133, -28895.8211416985, -7148.9372430965, -32978.72489437162, -37141.60318870583, -29082.122931733484, -15468.792971228717, -27006.405831146938, -38579.58031649355, 0.0815, 0.9520000000000001, -0.1255, 192.0, 0.0, 0.0, 0.0, 0.0, 0.0, 0.0, 0.0, 0.0, 0.0, 1.6689765729996624E9, 0.0, 2022-11-20 15:36:12.999
74.0, -11659.251053244001, -1992.4121490016162, -39146.375852391226, -39286.58834535937, -29608.327699700323, -32014.51534205858, -27942.92157207985, -11086.57700855458, -28802.815533019966, -7052.042430882744, -32889.85435841732, -37053.82788822983, -29001.25432029418, -15385.778592321705, -26916.104783547496, -38497.72822829822, 0.0815, 0.9520000000000001, -0.1255, 192.0, 0.0, 0.0, 0.0, 0.0, 0.0, 0.0, 0.0, 0.0, 0.0, 1.6689765729996676E9, 0.0, 2022-11-20 15:36:12.999
76.0, -11663.542588179422, -2046.9504054725655, -39114.61402352024, -39238.375632569274, -29572.408446360645, -31974.48336773913, -27912.210275198257, -11051.797694182122, -28860.974772092675, -7118.985905526389, -32937.50827759603, -37112.32240346938, -29061.805196023608, -15450.643354731006, -26984.277604136183, -38570.55021173361, 0.0815, 0.9520000000000001, -0.1255, 192.0, 0.0, 0.0, 0.0, 0.0, 0.0, 0.0, 0.0, 0.0, 0.0, 1.668976572999673E9, 0.0, 2022-11-20 15:36:12.999
78.0, -11656.68060263164, -1991.96511411251, -39159.63043685322, -39308.02366829201, -29626.67848189813, -32036.017720224587, -27965.787406657626, -11112.01329374472, -28793.941890471207, -7050.500160515328, -32873.02349484247, -37048.93285619412, -29004.56237847357, -15392.506467402753, -26934.05323434511, -38527.120772256945, 0.07875, 0.9530000000000001, -0.12575, 192.0, 1.0, 48.0, 14.5, 104.0, 126.0, 8.0, 0.0, 0.0, 0.0, 1.6689765729996784E9, 0.0, 2022-11-20 15:36:12.999
80.0, -11689.64942570322, -2071.962007518054, -39126.43809633709, -39262.00142645853, -29600.638699607694, -32002.959490175188, -27941.4463569458, -11082.464287574803, -28875.592812966446, -7136.420266201529, -32952.95333301465, -37131.321386256386, -29084.64867885693, -15474.537369553731, -27019.77217433121, -38615.32075587759, 0.07875, 0.9530000000000001, -0.12575, 192.0, 0.0, 0.0, 0.0, 0.0, 0.0, 0.0, 0.0, 0.0, 0.0, 1.6689765729996836E9, 0.0, 2022-11-20 15:36:12.999
82.0, -11659.385163710735, -1991.58513445677, -39141.70433780007, -39294.88084255229, -29627.438441209608, -32025.132420674854, -27963.06049383408, -11105.575991341591, -28795.730030027633, -7053.361183805608, -32879.907832134704, -37052.12915565123, -28997.387468503413, -15392.104136002557, -26940.311722792594, -38535.5473799166, 0.07875, 0.9530000000000001, -0.12575, 192.0, 0.0, 0.0, 0.0, 0.0, 0.0, 0.0, 0.0, 0.0, 0.0, 1.6689765729996889E9, 0.0, 2022-11-20 15:36:12.999
84.0, -11703.507507265509, -2084.188411735107, -39140.11736394374, -39261.867315991796, -29619.928255072628, -32007.675708255258, -27957.807833887084, -11092.47786909078, -28896.849321943442, -7153.005260587366, -32980.49068218359, -37146.9676073751, -29099.244367986248, -15489.624797061062, -27040.96162807484, -38625.51315134921, 0.07875, 0.9530000000000001, -0.12575, 192.0, 0.0, 0.0, 0.0, 0.0, 0.0, 0.0, 0.0, 0.0, 0.0, 1.6689765729996948E9, 0.0, 2022-11-20 15:36:12.999
86.0, -11633.412436653667, -1973.9272563370773, -39115.17281713162, -39248.27745536297, -29602.069211252834, -31992.208301092185, -27937.28893247711, -11078.597435784035, -28785.738800256113, -7046.007459879811, -32863.009913326496, -37030.38090829622, -28983.752904385678, -15374.356850905044, -26929.784051154144, -38507.45123713627, 0.07875, 0.9530000000000001, -0.12575, 192.0, 0.0, 0.0, 0.0, 0.0, 0.0, 0.0, 0.0, 0.0, 0.0, 1.6689765729997003E9, 0.0, 2022-11-20 15:36:12.999
88.0, -11703.149879354225, -2091.631542638724, -39142.687814556106, -39250.62438853078, -29624.68917664161, -32011.117876901375, -27962.479348478242, -11097.462308104314, -28882.18657758076, -7135.302678978763, -32965.202088976155, -37127.320423998885, -29087.397943424934, -15471.564587541174, -27019.459249908836, -38593.751322478216, 0.076375, 0.9525000000000001, -0.12887500000000002, 192.0, 1.0, 40.0, 14.5, 96.0, 125.5, 112.0, 0.0, 0.0, 0.0, 1.6689765729997053E9, 0.0, 2022-11-20 15:36:12.999
90.0, -11621.387198136712, -1971.714433636002, -39106.12036062722, -39239.89555119223, -29598.828208306815, -31991.694210969716, -27937.53480166612, -11078.977415439775, -28781.581375787424, -7042.855863911613, -32856.907887090194, -37026.69287046109, -28985.58574743101, -15373.03809798218, -26923.123231306465, -38491.91677473984, 0.076375, 0.9525000000000001, -0.12887500000000002, 192.0, 0.0, 0.0, 0.0, 0.0, 0.0, 0.0, 0.0, 0.0, 0.0, 1.6689765729997108E9, 0.0, 2022-11-20 15:36:12.999
92.0, -11709.497774779533, -2093.3973304506935, -39162.35734967677, -39286.70010408165, -29644.62693269574, -32038.923447003777, -27988.832055191047, -11130.028799775697, -28870.94365011974, -7131.100551021165, -32957.55779237244, -37125.19700827563, -29090.974222537785, -15478.694794022418, -27020.375671431506, -38590.48796778774, 0.076375, 0.9525000000000001, -0.12887500000000002, 192.0, 0.0, 0.0, 0.0, 0.0, 0.0, 0.0, 0.0, 0.0, 0.0, 1.668976572999716E9, 0.0, 2022-11-20 15:36:12.999
94.0, -11629.366770907256, -1980.5433726958481, -39103.728723970504, -39252.03254843147, -29592.167388459136, -31992.85650168139, -27932.416252185852, -11076.652834016424, -28797.65228005079, -7061.564274020705, -32868.88842211824, -37044.01547241396, -28993.766485901655, -15396.105098260057, -26941.71988269328, -38514.62614710643, 0.076375, 0.9525000000000001, -0.12887500000000002, 192.0, 0.0, 0.0, 0.0, 0.0, 0.0, 0.0, 0.0, 0.0, 0.0, 1.6689765729997213E9, 0.0, 2022-11-20 15:36:12.999
96.0, -11710.525955024475, -2089.1952024930956, -39151.5391053604, -39293.24916520705, -29635.261551768966, -32030.496839344127, -27970.593031715518, -11110.783947799677, -28875.6151647109, -7132.799283599768, -32958.11658598382, -37128.48271471056, -29082.167635222395, -15480.102953923102, -27011.747898071757, -38585.704694474305, 0.076375, 0.9525000000000001, -0.12887500000000002, 192.0, 0.0, 0.0, 0.0, 0.0, 0.0, 0.0, 0.0, 0.0, 0.0, 1.6689765729997263E9, 0.0, 2022-11-20 15:36:12.999
98.0, -11615.978075978528, -1978.2411430169516, -39083.43334000508, -39229.59139699834, -29566.686399780087, -31961.22878327713, -27900.922644248327, -11041.784112666144, -28795.84178874991, -7060.334928075663, -32865.42390172767, -37042.80847821337, -28984.803436375078, -15385.3315574326, -26925.38075749645, -38495.35894338595, 0.07618749999999999, 0.95225, -0.1294375, 192.0, 1.0, 48.0, 14.5, 96.0, 125.5, 120.0, 0.0, 0.0, 0.0, 1.6689765729997315E9, 0.0, 2022-11-20 15:36:12.999
100.0, -11722.998228430537, -2101.8909933437103, -39180.32815221884, -39309.65534563725, -29656.518060745962, -32043.706720317212, -27988.653241235406, -11127.883032307987, -28870.921298375288, -7129.580632398204, -32960.57527787391, -37126.20283677612, -29078.479597387268, -15470.961090440882, -27004.997671246252, -38574.08178735754, 0.07618749999999999, 0.95225, -0.1294375, 192.0, 0.0, 0.0, 0.0, 0.0, 0.0, 0.0, 0.0, 0.0, 0.0, 1.6689765729997385E9, 0.0, 2022-11-20 15:36:12.999
102.0, -11628.20448019558, -1998.804747915834, -39098.49841576796, -39220.67305096067, -29574.554213828353, -31959.28418150952, -27906.66704257334, -11044.80159816761, -28817.7017948272, -7091.694425546459, -32893.69885846363, -37066.72484478055, -29011.022032621153, -15402.654159385464, -26957.611973001003, -38521.108152998466, 0.07618749999999999, 0.95225, -0.1294375, 192.0, 0.0, 0.0, 0.0, 0.0, 0.0, 0.0, 0.0, 0.0, 0.0, 1.6689765729997437E9, 0.0, 2022-11-20 15:36:12.999
104.0, -11718.706693495118, -2082.1096995007633, -39192.42044596916, -39305.11794151282, -29675.24882259951, -32049.786394809056, -27997.571587273073, -11132.979230043797, -28853.553992933514, -7109.6652280885255, -32948.23711493458, -37103.627574876264, -29076.065608986093, -15450.911575664471, -27007.05403173614, -38566.83982215403, 0.07618749999999999, 0.95225, -0.1294375, 192.0, 0.0, 0.0, 0.0, 0.0, 0.0, 0.0, 0.0, 0.0, 0.0, 1.6689765729997487E9, 0.0, 2022-11-20 15:36:12.999
106.0, -11649.371582194755, -2014.16039635663, -39115.485741553995, -39232.13949586624, -29600.39283041869, -31983.08878935442, -27926.04600501609, -11062.973566409775, -28835.73965260263, -7097.21530642692, -32909.23332086007, -37073.67623730615, -29038.134698645437, -15420.021464827236, -26989.932595483377, -38549.71838590126, 0.07618749999999999, 0.95225, -0.1294375, 192.0, 0.0, 0.0, 0.0, 0.0, 0.0, 0.0, 0.0, 0.0, 0.0, 1.668976572999754E9, 0.0, 2022-11-20 15:36:12.999
108.0, -11714.661027748709, -2074.264237196951, -39180.909297574675, -39312.136389271785, -29672.54426152042, -32061.67752285928, -27998.59976751802, -11139.371828958016, -28854.89509760083, -7105.328989664196, -32941.06220496442, -37099.93953704114, -29074.99272525224, -15452.140921609513, -27008.193970703363, -38574.41706352438, 0.07809374999999999, 0.9501250000000001, -0.12871875, 192.0, 1.0, 64.0, 14.5, 80.0, 126.0, 0.0, 0.0, 0.0, 0.0, 1.6689765729997592E9, 0.0, 2022-11-20 15:36:12.999
110.0, -11630.3949511522, -2009.8241579323005, -39073.71033116702, -39213.31932703487, -29570.530899826397, -31966.749664157593, -27908.052850729568, -11047.99789762472, -28839.405338693305, -7104.747844308358, -32906.57346326989, -37079.33122865334, -29042.31447485858, -15430.459729487864, -26987.25038614874, -38558.68143542784, 0.07809374999999999, 0.9501250000000001, -0.12871875, 192.0, 0.0, 0.0, 0.0, 0.0, 0.0, 0.0, 0.0, 0.0, 0.0, 1.6689765729997644E9, 0.0, 2022-11-20 15:36:12.999
112.0, -11705.854440433317, -2066.5975888487806, -39169.599314880295, -39318.573691674916, -29666.933973662137, -32067.310162462018, -28003.807723976104, -11149.050134307163, -28826.731899587143, -7083.737204520369, -32912.02728891698, -37075.97846698505, -29048.304742372602, -15436.941735379904, -26974.28637436466, -38559.46374648377, 0.07809374999999999, 0.9501250000000001, -0.12871875, 192.0, 0.0, 0.0, 0.0, 0.0, 0.0, 0.0, 0.0, 0.0, 0.0, 1.6689765729997697E9, 0.0, 2022-11-20 15:36:12.999
114.0, -11632.898346531194, -2017.4908062804707, -39076.39254050166, -39204.75860890849, -29564.205356145547, -31958.524222198037, -27905.48240011721, -11046.321516790571, -28844.23331549565, -7108.234716443386, -32915.40240232973, -37085.72382756756, -29050.405806351402, -15441.702656948884, -26985.23872914776, -38568.91853438837, 0.07809374999999999, 0.9501250000000001, -0.12871875, 192.0, 0.0, 0.0, 0.0, 0.0, 0.0, 0.0, 0.0, 0.0, 0.0, 1.668976572999775E9, 0.0, 2022-11-20 15:36:12.999
116.0, -11686.989568113038, -2043.552940315359, -39166.53712588992, -39305.855549079846, -29654.215831067067, -32046.25481918512, -27988.87675867996, -11132.666305621422, -28804.380155131836, -7061.9666054209, -32890.43550377316, -37052.442080073604, -29030.579809019546, -15413.070072301636, -26949.09595836353, -38531.85934208147, 0.07809374999999999, 0.9501250000000001, -0.12871875, 192.0, 0.0, 0.0, 0.0, 0.0, 0.0, 0.0, 0.0, 0.0, 0.0, 1.6689765729997804E9, 0.0, 2022-11-20 15:36:12.999
118.0, -11644.744771092508, -2036.4450855785713, -39089.825938919304, -39211.08415258934, -29570.03916144838, -31959.66416116526, -27905.2365309282, -11044.958060378798, -28847.675484141768, -7111.833347300691, -32920.3197861099, -37088.54014736893, -29052.708036030297, -15443.021409871748, -26990.424333861392, -38570.192583822325, 0.07904687499999999, 0.9500625, -0.129359375, 192.0, 1.0, 64.0, 14.5, 88.0, 125.5, 120.0, 0.0, 0.0, 0.0, 1.6689765729997857E9, 0.0, 2022-11-20 15:36:12.999
120.0, -11686.676643690664, -2043.128257170708, -39173.443814926606, -39308.80597934795, -29651.466566499064, -32047.282999430063, -27980.91953765387, -11126.117244496018, -28807.732916800134, -7056.199855351431, -32890.99429738454, -37046.0941846483, -29022.488477526724, -15402.721214618829, -26949.408882785905, -38533.71453687126, 0.07904687499999999, 0.9500625, -0.129359375, 192.0, 0.0, 0.0, 0.0, 0.0, 0.0, 0.0, 0.0, 0.0, 0.0, 1.6689765734794996E9, 0.0, 2022-11-20 15:36:13.479
122.0, -11666.604777169798, -2070.9785307620205, -39111.909462441145, -39235.42520230117, -29580.90210925366, -31981.43476026473, -27920.1898479688, -11061.699516975823, -28872.038885598053, -7129.4465219314725, -32948.43828063468, -37109.59549064583, -29075.260946185703, -15458.757037968284, -27012.01611900522, -38601.2615086152, 0.07904687499999999, 0.9500625, -0.129359375, 192.0, 0.0, 0.0, 0.0, 0.0, 0.0, 0.0, 0.0, 0.0, 0.0, 1.6689765734795492E9, 0.0, 2022-11-20 15:36:13.479
124.0, -11684.329710522856, -2043.6870507820906, -39169.6440183692, -39316.15970327374, -29650.214868809566, -32057.63185711287, -27988.094447624022, -11134.834424833587, -28803.150809186795, -7067.532189790272, -32891.93307065166, -37057.78414699843, -29020.32035831456, -15405.76105186475, -26956.42733054487, -38548.69020565632, 0.07904687499999999, 0.9500625, -0.129359375, 192.0, 0.0, 0.0, 0.0, 0.0, 0.0, 0.0, 0.0, 0.0, 0.0, 1.6689765734796371E9, 0.0, 2022-11-20 15:36:13.479
126.0, -11680.93224536565, -2083.2943419568946, -39114.32345084232, -39240.901379692725, -29590.915690769638, -31994.33171681544, -27935.210220242767, -11074.104735148518, -28872.016533853595, -7139.46010344745, -32953.84740279286, -37124.92878734217, -29082.03352475566, -15469.999965429302, -27022.364976688026, -38610.29161337514, 0.07904687499999999, 0.9500625, -0.129359375, 192.0, 0.0, 0.0, 0.0, 0.0, 0.0, 0.0, 0.0, 0.0, 0.0, 1.6689765734796562E9, 0.0, 2022-11-20 15:36:13.479
128.0, -11679.054698831404, -2027.1691116296188, -39156.47884088503, -39307.28606072498, -29650.90777288768, -32050.76987156509, -27987.423895290365, -11130.319372453616, -28804.424858620747, -7070.437916569462, -32891.77660844047, -37056.443042331106, -29011.31260529907, -15410.47726994482, -26957.29904857863, -38540.86709509696, 0.07904687499999999, 0.9500625, -0.129359375, 192.0, 0.0, 0.0, 0.0, 0.0, 0.0, 0.0, 0.0, 0.0, 0.0, 1.668976573479705E9, 0.0, 2022-11-20 15:36:13.479
130.0, -11658.871073588261, -2058.3050916558614, -39092.03876162037, -39222.57294923937, -29583.47255986602, -31977.344391029408, -27919.563999124053, -11055.441028528337, -28867.09915007343, -7131.145254510076, -32948.57239110141, -37112.72473486957, -29069.494196116233, -15472.078677663647, -27012.686671338877, -38595.8076829681, 0.078, 0.9520000000000001, -0.128, 192.0, 1.0, 56.0, 14.5, 96.0, 126.0, 0.0, 0.0, 0.0, 0.0, 1.6689765734797251E9, 0.0, 2022-11-20 15:36:13.479
132.0, -11623.331799904323, -1977.3694249831947, -39112.91529094163, -39262.02377820299, -29608.461810167053, -32007.496894299617, -27937.91478132186, -11081.927845707876, -28759.900183665777, -7027.477863726362, -32837.774793836456, -37000.47427421502, -28966.49735766618, -15370.288833414179, -26908.482838688236, -38490.79918751707, 0.078, 0.9520000000000001, -0.128, 192.0, 0.0, 0.0, 0.0, 0.0, 0.0, 0.0, 0.0, 0.0, 0.0, 1.6689765734797535E9, 0.0, 2022-11-20 15:36:13.479
134.0, -11683.994434356027, -2085.417757680149, -39125.40991609215, -39250.132650152766, -29609.24412122299, -32004.09942914241, -27941.28989473461, -11080.407927084914, -28863.500519216126, -7136.6661353905365, -32945.33138815539, -37104.92397605467, -29075.730332819265, -15478.314814366677, -27012.418450405414, -38598.3110783471, 0.078, 0.9520000000000001, -0.128, 192.0, 0.0, 0.0, 0.0, 0.0, 0.0, 0.0, 0.0, 0.0, 0.0, 1.6689765734797637E9, 0.0, 2022-11-20 15:36:13.479
136.0, -11629.3444191628, -1993.1721083130967, -39111.86475895224, -39258.380443856775, -29595.743667571984, -31999.71848722917, -27928.43764167281, -11073.52358979268, -28780.195567631195, -7060.603149009126, -32858.71837839107, -37022.71425994805, -28977.852043849474, -15380.525932374709, -26930.096975576518, -38512.033344749616, 0.078, 0.9520000000000001, -0.128, 192.0, 0.0, 0.0, 0.0, 0.0, 0.0, 0.0, 0.0, 0.0, 0.0, 1.6689765734797714E9, 0.0, 2022-11-20 15:36:13.479
138.0, -11697.628998473763, -2099.4993566869925, -39130.46141033905, -39265.8682782493, -29602.538597886396, -32008.882702455845, -27941.803984857084, -11082.866618974998, -28866.62976343987, -7142.991679071389, -32955.68024583819, -37121.62072916278, -29066.007323981208, -15465.44020956042, -27011.94906377185, -38595.271241101174, 0.078, 0.9520000000000001, -0.128, 192.0, 0.0, 0.0, 0.0, 0.0, 0.0, 0.0, 0.0, 0.0, 0.0, 1.6689765734797788E9, 0.0, 2022-11-20 15:36:13.479
140.0, -11625.008180738472, -1985.8630878762112, -39097.157311100644, -39252.88191472077, -29568.049856191858, -31985.726295200147, -27911.29385367559, -11057.922072162875, -28781.715486254157, -7058.993823408345, -32862.31700924838, -37034.87360893174, -28961.088235507996, -15364.007993222236, -26924.441984229325, -38506.065428980044, 0.074, 0.9580000000000001, -0.128, 192.0, 1.0, 40.0, 14.5, 120.0, 126.0, 0.0, 0.0, 0.0, 0.0, 1.668976573479786E9, 0.0, 2022-11-20 15:36:13.479
142.0, -11708.134318367758, -2100.4604816985707, -39156.50119262948, -39295.95372628614, -29615.122630014735, -32030.027452710565, -27958.098406565, -11101.217401172806, -28871.90477513132, -7133.335725466696, -32967.4819669106, -37131.164924045195, -29061.738140790243, -15456.924194922949, -27013.20076146135, -38595.24888935672, 0.074, 0.9580000000000001, -0.128, 192.0, 0.0, 0.0, 0.0, 0.0, 0.0, 0.0, 0.0, 0.0, 0.0, 1.6689765734797928E9, 0.0, 2022-11-20 15:36:13.479
144.0, -11631.221965697046, -1991.9874658569654, -39119.799628233864, -39272.551449841434, -29590.96039425855, -31997.304498827994, -27928.66115911736, -11070.439049057848, -28798.903977740287, -7068.2250938683865, -32882.88061414726, -37056.443042331106, -28981.271860751138, -15372.188731692879, -26943.977408883264, -38519.18590297531, 0.074, 0.9580000000000001, -0.128, 192.0, 0.0, 0.0, 0.0, 0.0, 0.0, 0.0, 0.0, 0.0, 0.0, 1.6689765734797995E9, 0.0, 2022-11-20 15:36:13.479
146.0, -11706.390882300244, -2086.8706210697437, -39174.44964342709, -39313.96923231712, -29646.906810630182, -32040.82334528248, -27979.153749841902, -11115.410758901926, -28882.14187409185, -7138.767199369336, -32977.27203098202, -37146.54292423045, -29085.609803868512, -15466.736610738828, -27035.57485766111, -38607.69881101833, 0.074, 0.9580000000000001, -0.128, 192.0, 0.0, 0.0, 0.0, 0.0, 0.0, 0.0, 0.0, 0.0, 0.0, 1.668976573479807E9, 0.0, 2022-11-20 15:36:13.479
148.0, -11615.732206789518, -1978.3752534836835, -39101.20297684705, -39246.846943717836, -29574.554213828353, -31966.548498457494, -27907.114077462447, -11044.153397578406, -28804.916596998766, -7064.849980455635, -32880.13134957926, -37057.76179525397, -28992.000698089683, -15372.076972970603, -26955.37679855547, -38523.38803093291, 0.074, 0.9580000000000001, -0.128, 192.0, 0.0, 0.0, 0.0, 0.0, 0.0, 0.0, 0.0, 0.0, 0.0, 1.6689765734798136E9, 0.0, 2022-11-20 15:36:13.479
150.0, -11717.142071383247, -2087.7199873590457, -39184.64203889872, -39323.49107545508, -29658.39560728021, -32042.276208672072, -27984.920499911368, -11119.612886859524, -28877.11273158941, -7122.897460806068, -32965.135033742794, -37135.523514213986, -29076.22207119728, -15449.838691930616, -27026.187124989883, -38594.35481957851, 0.08, 0.9540000000000001, -0.126, 192.0, 1.0, 64.0, 14.5, 104.0, 126.0, 8.0, 0.0, 0.0, 0.0, 1.6689765734798205E9, 0.0, 2022-11-20 15:36:13.479
152.0, -11623.331799904323, -1988.9476286110437, -39096.01737213342, -39239.1132401363, -29569.033332947893, -31957.60780067537, -27901.794362282082, -11036.196176552317, -28826.7542513316, -7090.867411001613, -32897.5657102544, -37083.1533769552, -29005.322337785048, -15385.018633010226, -26972.252365619228, -38534.92153107185, 0.08, 0.9540000000000001, -0.126, 192.0, 0.0, 0.0, 0.0, 0.0, 0.0, 0.0, 0.0, 0.0, 0.0, 1.668976573479827E9, 0.0, 2022-11-20 15:36:13.479
154.0, -11693.538629238443, -2063.0883649692973, -39177.26596322846, -39312.96340381663, -29651.086586843325, -32040.264551671095, -27981.634793476438, -11118.182375214385, -28852.078777799463, -7111.095739733665, -32942.984454987585, -37116.34571747133, -29057.670123299376, -15432.96312486686, -27002.11429621152, -38565.0516825976, 0.08, 0.9540000000000001, -0.126, 192.0, 0.0, 0.0, 0.0, 0.0, 0.0, 0.0, 0.0, 0.0, 0.0, 1.6689765734798343E9, 0.0, 2022-11-20 15:36:13.479
156.0, -11601.404738593666, -1972.6755586475801, -39087.81428191833, -39219.019021870976, -29560.450263077055, -31953.71859714015, -27891.981946466203, -11026.495519458715, -28823.736765830134, -7092.052053457744, -32894.03413463046, -37076.62666757425, -29014.911236156375, -15393.71346160334, -26972.185310385863, -38535.72619387224, 0.08, 0.9540000000000001, -0.126, 192.0, 0.0, 0.0, 0.0, 0.0, 0.0, 0.0, 0.0, 0.0, 0.0, 1.6689765734798422E9, 0.0, 2022-11-20 15:36:13.479
158.0, -11682.094536077326, -2036.8921204676774, -39178.51766091796, -39314.63978465078, -29653.657037455683, -32048.646455841837, -27978.19262483032, -11114.561392612624, -28830.017606022073, -7084.273646387297, -32919.13514365377, -37090.976487514556, -29042.001550436205, -15420.110871805058, -26986.088095437062, -38550.34423474601, 0.08, 0.9540000000000001, -0.126, 192.0, 0.0, 0.0, 0.0, 0.0, 0.0, 0.0, 0.0, 0.0, 0.0, 1.66897657347985E9, 0.0, 2022-11-20 15:36:13.479
160.0, -11608.020854952438, -1980.0292825733761, -39079.186508558574, -39214.123989835265, -29550.682550750083, -31951.908105839266, -27879.19674863777, -11016.437234453826, -28829.592922877422, -7091.314445890719, -32900.69495447814, -37082.39341764372, -29017.951073402295, -15403.749394863773, -26974.75576099822, -38542.76699337566, 0.07200000000000001, 0.9500000000000001, -0.126, 192.0, 1.0, 32.0, 14.5, 88.0, 126.0, 8.0, 0.0, 0.0, 0.0, 1.6689765734798577E9, 0.0, 2022-11-20 15:36:13.479
162.0, -11695.997321128527, -2045.162265916141, -39191.07934130184, -39332.54353195948, -29668.43154054064, -32069.232412485173, -27992.430686048352, -11132.979230043797, -28827.670672854267, -7078.350434106641, -32915.849437218836, -37089.27775493595, -29034.871343954965, -15409.091461788592, -26974.241670875752, -38548.511391700675, 0.07200000000000001, 0.9500000000000001, -0.126, 192.0, 0.0, 0.0, 0.0, 0.0, 0.0, 0.0, 0.0, 0.0, 0.0, 1.6689765734798653E9, 0.0, 2022-11-20 15:36:13.479
164.0, -11626.72926506153, -2009.198309087552, -39097.93962215658, -39227.22211208607, -29575.51533883993, -31968.448396736196, -27903.85072277197, -11039.906566131898, -28862.226469782174, -7129.759446353847, -32936.837725262376, -37122.559502429904, -29053.490347086234, -15433.208994055867, -27018.475773152804, -38588.722179975775, 0.07200000000000001, 0.9500000000000001, -0.126, 192.0, 0.0, 0.0, 0.0, 0.0, 0.0, 0.0, 0.0, 0.0, 0.0, 1.6689765734798746E9, 0.0, 2022-11-20 15:36:13.479
166.0, -11678.182980797646, -2024.509254039437, -39179.81406209637, -39331.73886915909, -29670.264383585978, -32063.040979271052, -27997.72804948426, -11139.43888419138, -28800.915634741265, -7064.402945566529, -32891.664849718196, -37072.35748438328, -29015.559436745578, -15390.830086568605, -26976.901528465933, -38543.37049047595, 0.07200000000000001, 0.9500000000000001, -0.126, 192.0, 0.0, 0.0, 0.0, 0.0, 0.0, 0.0, 0.0, 0.0, 0.0, 1.6689765734798825E9, 0.0, 2022-11-20 15:36:13.479
168.0, -11633.233622698024, -2021.1788441155963, -39087.724874940504, -39228.56321675339, -29571.60378356025, -31961.98874258861, -27904.029536727612, -11043.75106617821, -28861.04182732604, -7132.374600455118, -32936.16717292871, -37127.678051910174, -29061.04523671213, -15442.574374982642, -27028.802279091156, -38596.478235301765, 0.07200000000000001, 0.9500000000000001, -0.126, 192.0, 0.0, 0.0, 0.0, 0.0, 0.0, 0.0, 0.0, 0.0, 0.0, 1.6689765734798899E9, 0.0, 2022-11-20 15:36:13.479
170.0, -11663.855512601795, -2013.579251000792, -39156.165916462654, -39311.7787613605, -29643.57640070634, -32035.078946957467, -27968.737836925728, -11112.169755955907, -28801.250910908093, -7066.325195589686, -32886.70276244912, -37067.66361804767, -29007.31164304157, -15385.890351043983, -26952.13579560945, -38526.58433039002, 0.07200000000000001, 0.9540000000000001, -0.122, 192.0, 1.0, 32.0, 14.5, 104.0, 126.0, 24.0, 0.0, 0.0, 0.0, 1.6689765734798973E9, 0.0, 2022-11-20 15:36:13.479
172.0, -11650.444465928611, -2049.543207829381, -39098.36430530123, -39232.4077167997, -29570.285030637388, -31958.747739642593, -27904.029536727612, -11039.928917876354, -28865.311010517005, -7139.683620892003, -32942.693882309664, -37127.63334842126, -29058.407730866402, -15439.601592970086, -27000.86259852202, -38573.34417979052, 0.07200000000000001, 0.9540000000000001, -0.122, 192.0, 0.0, 0.0, 0.0, 0.0, 0.0, 0.0, 0.0, 0.0, 0.0, 1.668976573479905E9, 0.0, 2022-11-20 15:36:13.479
174.0, -11650.64563162871, -2002.5598409843258, -39152.679044327626, -39302.346325200364, -29631.01472032246, -32029.20043816572, -27960.691208921817, -11100.47979360578, -28798.009907962074, -7066.749878734337, -32882.590041469346, -37065.54020232442, -29002.729535428232, -15380.257711441245, -26941.362254781994, -38508.41236214786, 0.07200000000000001, 0.9540000000000001, -0.122, 192.0, 0.0, 0.0, 0.0, 0.0, 0.0, 0.0, 0.0, 0.0, 0.0, 1.6689765734799123E9, 0.0, 2022-11-20 15:36:13.479
176.0, -11637.525157633443, -2039.0155361909315, -39092.64225872067, -39220.24836781602, -29570.866175993226, -31967.80019614699, -27903.00135648267, -11038.051371342108, -28863.411112238304, -7139.504806936361, -32939.60934157483, -37130.65083392273, -29067.37078039298, -15445.301287806189, -27012.284339938684, -38572.76303443468, 0.07200000000000001, 0.9540000000000001, -0.122, 192.0, 0.0, 0.0, 0.0, 0.0, 0.0, 0.0, 0.0, 0.0, 0.0, 1.6689765734799197E9, 0.0, 2022-11-20 15:36:13.479
178.0, -11632.808939553373, -1986.6006954432364, -39137.301044142376, -39292.08687449538, -29626.589074920306, -32031.34620563343, -27956.24321177521, -11097.954046482331, -28776.775750729532, -7047.035640124755, -32849.73297712004, -37043.97076892504, -28990.436075977814, -15364.56678683362, -26935.14846982342, -38491.04505670608, 0.07200000000000001, 0.9540000000000001, -0.122, 192.0, 0.0, 0.0, 0.0, 0.0, 0.0, 0.0, 0.0, 0.0, 0.0, 1.6689765734799263E9, 0.0, 2022-11-20 15:36:13.479
180.0, -11672.684451661642, -2077.8405163098, -39126.46044808155, -39263.67780729268, -29606.472504910533, -32008.972109433667, -27940.14995576739, -11077.278682861172, -28882.924185147785, -7152.826446631724, -32953.48977488158, -37146.92290388619, -29091.75653359372, -15468.949433439904, -27037.608866406546, -38594.935964934346, 0.078, 0.9520000000000001, -0.122, 192.0, 1.0, 56.0, 14.5, 96.0, 126.0, 24.0, 0.0, 0.0, 0.0, 1.6689765734799333E9, 0.0, 2022-11-20 15:36:13.479
182.0, -11625.231698183024, -1984.1867070420633, -39128.270939382426, -39288.33178142688, -29615.122630014735, -32020.550313061514, -27944.262676747167, -11086.71111902131, -28796.154713172284, -7064.11237288861, -32867.03322732845, -37056.085414419824, -28999.55558771558, -15380.682394585896, -26946.79372868463, -38512.41332440535, 0.078, 0.9520000000000001, -0.122, 192.0, 0.0, 0.0, 0.0, 0.0, 0.0, 0.0, 0.0, 0.0, 0.0, 1.6689765734799404E9, 0.0, 2022-11-20 15:36:13.479
184.0, -11676.975986597061, -2079.7180628440456, -39136.83165750881, -39267.34349338335, -29607.903016555672, -32006.446362310217, -27941.736929623716, -11075.155267137918, -28889.47324627319, -7157.296795522785, -32968.5324989, -37152.287322555465, -29097.500931918734, -15475.386735843033, -27039.195840262873, -38604.524863305676, 0.078, 0.9520000000000001, -0.122, 192.0, 0.0, 0.0, 0.0, 0.0, 0.0, 0.0, 0.0, 0.0, 0.0, 1.668976573479947E9, 0.0, 2022-11-20 15:36:13.479
186.0, -11618.392064379701, -1981.258628518418, -39124.426439336115, -39272.93142949718, -29608.037127022402, -32002.311289585985, -27933.980874297726, -11073.322424092583, -28783.481274066125, -7058.63619549706, -32861.959381337096, -37050.85510621728, -28990.92781435583, -15367.89719675746, -26943.75389143871, -38505.14900745738, 0.078, 0.9520000000000001, -0.122, 192.0, 0.0, 0.0, 0.0, 0.0, 0.0, 0.0, 0.0, 0.0, 0.0, 1.668976573479954E9, 0.0, 2022-11-20 15:36:13.479
188.0, -11677.087745319337, -2085.2165919800514, -39146.80053553588, -39280.01693248951, -29623.325720229834, -32022.1596386623, -27953.315133251566, -11091.159116167917, -28877.5150629896, -7149.496036707883, -32961.156423229746, -37151.01327312151, -29093.298803961137, -15468.323584595155, -27034.189049504883, -38598.37813358047, 0.078, 0.9520000000000001, -0.122, 192.0, 0.0, 0.0, 0.0, 0.0, 0.0, 0.0, 0.0, 0.0, 0.0, 1.668976573479961E9, 0.0, 2022-11-20 15:36:13.479
190.0, -11587.546657031377, -1954.2353694719518, -39093.961011643536, -39253.79833624343, -29578.3316586413, -31988.766132446068, -27914.244283943688, -11058.257348329706, -28786.543463056503, -7060.133762375565, -32853.59982891081, -37051.749175995494, -28995.241701035706, -15373.462781126831, -26940.646998959422, -38508.01003074766, 0.078, 0.9540000000000001, -0.124, 192.0, 1.0, 56.0, 14.5, 104.0, 126.0, 16.0, 0.0, 0.0, 0.0, 1.6689765734799676E9, 0.0, 2022-11-20 15:36:13.479
192.0, -11673.26559701748, -2068.765708060945, -39142.57605583382, -39287.99650526005, -29616.86606608225, -32031.39090912234, -27959.48421472123, -11098.512840093714, -28860.23716452565, -7120.528175893805, -32937.26240840703, -37129.68970891115, -29080.290088688147, -15458.220596101357, -27007.43401139188, -38584.74356946273, 0.078, 0.9540000000000001, -0.124, 192.0, 0.0, 0.0, 0.0, 0.0, 0.0, 0.0, 0.0, 0.0, 0.0, 1.668976573479974E9, 0.0, 2022-11-20 15:36:13.479
194.0, -11591.949950689072, -1958.415145685094, -39073.39740674465, -39229.6584522317, -29549.497908293954, -31965.632076934828, -27893.077181944514, -11034.922127118365, -28790.49972182509, -7052.86944542759, -32856.013817311985, -37048.530524793925, -28990.257262022173, -15369.819446780617, -26926.967731352775, -38504.65726907936, 0.078, 0.9540000000000001, -0.124, 192.0, 0.0, 0.0, 0.0, 0.0, 0.0, 0.0, 0.0, 0.0, 0.0, 1.6689765734799807E9, 0.0, 2022-11-20 15:36:13.479
196.0, -11685.223780301068, -2071.4702691400375, -39138.01629996494, -39280.531022611984, -29607.210112477558, -32023.94777821872, -27953.315133251566, -11090.980302212276, -28855.163318534294, -7110.224021699909, -32940.83868751987, -37119.45260995062, -29066.119082703484, -15440.093331348102, -26987.384496615472, -38569.67849369985, 0.078, 0.9540000000000001, -0.124, 192.0, 0.0, 0.0, 0.0, 0.0, 0.0, 0.0, 0.0, 0.0, 0.0, 1.6689765734799883E9, 0.0, 2022-11-20 15:36:13.479
198.0, -11593.20164837857, -1963.5783986542701, -39067.11656655271, -39211.48648398954, -29550.28021934989, -31951.70694013917, -27886.75163826366, -11019.454719955293, -28792.77959975953, -7060.245521097841, -32861.84762261482, -37047.971731182544, -28978.03085780512, -15361.996336221258, -26923.525562706658, -38501.34921089998, 0.078, 0.9540000000000001, -0.124, 192.0, 0.0, 0.0, 0.0, 0.0, 0.0, 0.0, 0.0, 0.0, 0.0, 1.6689765734799955E9, 0.0, 2022-11-20 15:36:13.479
200.0, -11687.481306491054, -2068.6986528275793, -39162.64792235469, -39286.409531403726, -29644.224601295544, -32034.810726024, -27976.046857362613, -11105.687750063867, -28864.595754694434, -7117.5330421367935, -32946.694844567166, -37117.820932605384, -29071.95288800632, -15441.76971218225, -27002.33781365607, -38571.89131640093, 0.082, 0.9520000000000001, -0.126, 192.0, 1.0, 72.0, 14.5, 96.0, 126.0, 8.0, 0.0, 0.0, 0.0, 1.668976573480003E9, 0.0, 2022-11-20 15:36:13.480
202.0, -11581.846962195274, -1961.678500375569, -39061.1710025276, -39182.40686445318, -29546.3239605813, -31933.80319283047, -27879.442617826775, -11011.452795440293, -28804.111934198372, -7067.174561878987, -32866.4073784837, -37046.18359162612, -29000.092029582505, -15364.902063000449, -26940.37877802596, -38506.62422259143, 0.082, 0.9520000000000001, -0.126, 192.0, 0.0, 0.0, 0.0, 0.0, 0.0, 0.0, 0.0, 0.0, 0.0, 1.668976573480011E9, 0.0, 2022-11-20 15:36:13.480
204.0, -11683.21212330009, -2060.5626178458474, -39158.75871881947, -39281.358037156824, -29641.810612894373, -32030.072156199476, -27972.91761313887, -11106.514764608713, -28834.264437468584, -7084.87714348759, -32914.77655348498, -37084.539185111425, -29048.729425517253, -15404.487002430798, -26967.80436847262, -38538.74367937371, 0.082, 0.9520000000000001, -0.126, 192.0, 0.0, 0.0, 0.0, 0.0, 0.0, 0.0, 0.0, 0.0, 0.0, 1.6689765734800189E9, 0.0, 2022-11-20 15:36:13.480
206.0, -11613.742901532996, -1999.1176723382084, -39073.50916546693, -39201.33879200683, -29549.766129227417, -31943.101518523876, -27887.9809842087, -11019.879403099943, -28827.402451920803, -7089.727472034392, -32892.73773345205, -37073.60918207278, -29020.856800181486, -15382.42583065341, -26952.62753398747, -38522.2927954546, 0.082, 0.9520000000000001, -0.126, 192.0, 0.0, 0.0, 0.0, 0.0, 0.0, 0.0, 0.0, 0.0, 0.0, 1.6689765734800265E9, 0.0, 2022-11-20 15:36:13.480
208.0, -11688.956521625105, -2064.585931847803, -39168.191154979606, -39312.337554971884, -29645.45394724059, -32042.00798773861, -27979.48902600873, -11112.90736352293, -28841.394643949825, -7101.484489617884, -32931.62976880428, -37107.20385398911, -29051.83631799654, -15420.982589838815, -26975.20279588733, -38546.05269981059, 0.082, 0.9520000000000001, -0.126, 192.0, 0.0, 0.0, 0.0, 0.0, 0.0, 0.0, 0.0, 0.0, 0.0, 1.6689765734800336E9, 0.0, 2022-11-20 15:36:13.480
210.0, -11614.078177699826, -2011.2770213218955, -39081.01935160391, -39228.56321675339, -29554.057664162836, -31957.65250416428, -27892.585443566495, -11025.690856658322, -28828.94472228822, -7105.284286175285, -32903.10894287931, -37095.69270559463, -29025.729480472743, -15405.984569309303, -26967.022057416685, -38538.81073460707, 0.078, 0.9500000000000001, -0.131, 192.0, 1.0, 40.0, 14.5, 80.0, 125.5, 96.0, 0.0, 0.0, 0.0, 1.6689765734800403E9, 0.0, 2022-11-20 15:36:13.480
212.0, -11683.055661088903, -2056.673414310624, -39184.351466220796, -39341.417174508235, -29658.01562762447, -32061.38695018136, -27990.843712192025, -11130.140558497973, -28829.928199044254, -7101.037454728777, -32918.59870178684, -37105.75099059952, -29049.73525401774, -15426.726988163828, -26977.43797033286, -38552.17707779135, 0.078, 0.9500000000000001, -0.131, 192.0, 0.0, 0.0, 0.0, 0.0, 0.0, 0.0, 0.0, 0.0, 0.0, 1.6689765734800475E9, 0.0, 2022-11-20 15:36:13.480
214.0, -11623.957648749072, -2031.035963420387, -39095.30211631085, -39239.62733025877, -29561.880774722194, -31964.84976587889, -27897.368716879933, -11034.631554440446, -28868.462606485202, -7147.059696562254, -32936.971835729106, -37136.6634531812, -29069.673010071878, -15451.023334386748, -27009.78094455969, -38581.21199383879, 0.078, 0.9500000000000001, -0.131, 192.0, 0.0, 0.0, 0.0, 0.0, 0.0, 0.0, 0.0, 0.0, 0.0, 1.6689765734800544E9, 0.0, 2022-11-20 15:36:13.480
216.0, -11656.814713098373, -2027.9514226855545, -39164.190192722104, -39323.602834177356, -29638.457851226074, -32041.091566215942, -27967.463787491775, -11107.364130898015, -28811.353899401893, -7078.015157939811, -32893.69885846363, -37084.114501966775, -29022.510829271177, -15396.350967449067, -26954.6615427329, -38529.60181589149, 0.078, 0.9500000000000001, -0.131, 192.0, 0.0, 0.0, 0.0, 0.0, 0.0, 0.0, 0.0, 0.0, 0.0, 1.6689765734800613E9, 0.0, 2022-11-20 15:36:13.480
218.0, -11625.790491794407, -2035.774533244912, -39091.36820928672, -39231.71481272159, -29563.445396834064, -31961.966390844154, -27900.252091914666, -11035.27975502965, -28860.48303371466, -7134.386257456095, -32935.004882217036, -37130.51672345599, -29064.040370469138, -15433.633677200518, -27006.00349974674, -38579.91559266038, 0.078, 0.9500000000000001, -0.131, 192.0, 0.0, 0.0, 0.0, 0.0, 0.0, 0.0, 0.0, 0.0, 0.0, 1.6689765734800684E9, 0.0, 2022-11-20 15:36:13.480
220.0, -11636.96636402206, -2004.9514776410435, -39144.990044235, -39294.88084255229, -29630.925313344636, -32029.848638754924, -27961.58527870003, -11098.423433115893, -28788.376306101836, -7053.651756483527, -32876.622125699774, -37063.215620901065, -29007.490456997213, -15372.211083437334, -26946.61491472899, -38518.67181285284, 0.079, 0.9490000000000001, -0.1345, 192.0, 1.0, 64.0, 14.5, 80.0, 125.5, 88.0, 0.0, 0.0, 0.0, 1.6689765734800758E9, 0.0, 2022-11-20 15:36:13.480
222.0, -11637.97219252255, -2047.1962746615739, -39094.49745351046, -39224.22697832906, -29578.018734218924, -31971.57764095994, -27914.177228710323, -11044.354563278504, -28860.43833022575, -7130.184129498498, -32938.20118167414, -37126.426354220675, -29072.84695778453, -15438.14872958049, -27015.86061905153, -38582.843671184026, 0.079, 0.9490000000000001, -0.1345, 192.0, 0.0, 0.0, 0.0, 0.0, 0.0, 0.0, 0.0, 0.0, 0.0, 1.6689765734800832E9, 0.0, 2022-11-20 15:36:13.480
224.0, -11631.82546279734, -1999.1847275715743, -39132.85304699577, -39285.60486860334, -29626.76788887595, -32024.886551485844, -27958.031351331636, -11093.617808058001, -28789.73976251361, -7050.164884348498, -32865.62506742776, -37047.278827104434, -29008.116305841962, -15370.624109581007, -26936.199001812816, -38502.26563242264, 0.079, 0.9490000000000001, -0.1345, 192.0, 0.0, 0.0, 0.0, 0.0, 0.0, 0.0, 0.0, 0.0, 0.0, 1.6689765734800909E9, 0.0, 2022-11-20 15:36:13.480
226.0, -11636.809901810873, -2050.325518885317, -39085.95908712853, -39213.60989971279, -29563.1771759006, -31961.0946728104, -27903.358984393955, -11036.710266674789, -28873.24587979864, -7140.6000424146705, -32941.151611942245, -37129.82381937788, -29085.90037654643, -15450.598651242097, -27005.221188690804, -38569.63379021094, 0.079, 0.9490000000000001, -0.1345, 192.0, 0.0, 0.0, 0.0, 0.0, 0.0, 0.0, 0.0, 0.0, 0.0, 1.668976573480098E9, 0.0, 2022-11-20 15:36:13.480
228.0, -11619.532003346922, -1978.911695350611, -39122.258320123954, -39265.04126370445, -29595.453094894066, -31998.28797558403, -27931.365720196452, -11072.629520014469, -28778.496835052592, -7034.161035318499, -32848.72714861955, -37030.53737050741, -28991.285442267115, -15349.032324437181, -26901.643204884913, -38463.150079625855, 0.079, 0.9490000000000001, -0.1345, 192.0, 0.0, 0.0, 0.0, 0.0, 0.0, 0.0, 0.0, 0.0, 0.0, 1.6689765734801073E9, 0.0, 2022-11-20 15:36:13.480
230.0, -11666.157742280691, -2075.873562797733, -39128.069773682335, -39256.92758046718, -29595.743667571984, -31994.287013326528, -27932.282141719123, -11069.388517068448, -28885.740504949154, -7141.494112192883, -32961.69286509667, -37140.97733986108, -29092.449437671836, -15456.968898411858, -27016.508819640738, -38583.24600258422, 0.0795, 0.9485000000000001, -0.13625, 192.0, 1.0, 64.0, 14.5, 80.0, 125.5, 88.0, 0.0, 0.0, 0.0, 1.6689765734801147E9, 0.0, 2022-11-20 15:36:13.480
232.0, -11615.642799811698, -1984.2090587865187, -39132.607177806756, -39289.561127371926, -29611.121667757234, -32013.1071821579, -27943.27919999113, -11085.459421331814, -28791.147922414297, -7058.524436774784, -32869.93895410764, -37055.97365569755, -28999.935567371318, -15375.005051494249, -26942.23397281575, -38522.13633324341, 0.0795, 0.9485000000000001, -0.13625, 192.0, 0.0, 0.0, 0.0, 0.0, 0.0, 0.0, 0.0, 0.0, 0.0, 1.6689765734801219E9, 0.0, 2022-11-20 15:36:13.480
234.0, -11664.59312016882, -2075.359472675261, -39132.83069525131, -39266.38236837177, -29611.456943924066, -32003.25006285311, -27945.33556048102, -11080.117354406995, -28869.490786730148, -7137.001411557367, -32954.09327198187, -37139.6138834493, -29089.14137949245, -15462.601538014596, -27026.38829068998, -38613.376154109974, 0.0795, 0.9485000000000001, -0.13625, 192.0, 0.0, 0.0, 0.0, 0.0, 0.0, 0.0, 0.0, 0.0, 0.0, 1.6689765734801292E9, 0.0, 2022-11-20 15:36:13.480
236.0, -11602.187049649603, -1966.5064771779155, -39107.26029959444, -39251.07142341989, -29596.302461183368, -31987.737952201125, -27925.598970126986, -11063.867636187988, -28772.975954172132, -7039.413695265495, -32851.16348876518, -37034.694794976094, -28988.960860843763, -15357.146007674457, -26928.91233312039, -38508.47941738122, 0.0795, 0.9485000000000001, -0.13625, 192.0, 0.0, 0.0, 0.0, 0.0, 0.0, 0.0, 0.0, 0.0, 0.0, 1.6689765734801364E9, 0.0, 2022-11-20 15:36:13.480
238.0, -11674.941977851628, -2080.2992081998837, -39137.09987844228, -39259.02864444598, -29611.121667757234, -32003.67474599776, -27943.837993602516, -11078.955063695319, -28869.200214052227, -7126.876071319112, -32951.45576613615, -37127.320423998885, -29093.008231283216, -15454.10787512158, -27010.809124804633, -38583.84949968452, 0.0795, 0.9485000000000001, -0.13625, 192.0, 0.0, 0.0, 0.0, 0.0, 0.0, 0.0, 0.0, 0.0, 0.0, 1.6689765734801438E9, 0.0, 2022-11-20 15:36:13.480
240.0, -11589.334796587802, -1962.2149422424964, -39086.16025282863, -39227.87031267528, -29572.497853338464, -31955.618495418847, -27898.128676191413, -11032.061103828086, -28788.532768313024, -7051.058954126711, -32857.98077082405, -37040.930931679126, -28998.862683637464, -15363.225682166301, -26922.51973420617, -38487.71464678224, 0.07475000000000001, 0.95025, -0.134125, 192.0, 1.0, 24.0, 14.5, 96.0, 125.5, 112.0, 0.0, 0.0, 0.0, 1.6689765739592876E9, 0.0, 2022-11-20 15:36:13.959
242.0, -11670.046945815915, -2073.034891251909, -39135.468201097035, -39269.17633642868, -29619.660034139164, -32004.769981476067, -27947.77190062665, -11079.916188706899, -28854.939801089742, -7109.1958414549645, -32933.552018827446, -37110.93659531315, -29082.43585615586, -15439.556889481175, -26993.799447274145, -38549.60662717898, 0.07475000000000001, 0.95025, -0.134125, 192.0, 0.0, 0.0, 0.0, 0.0, 0.0, 0.0, 0.0, 0.0, 0.0, 1.6689765739593956E9, 0.0, 2022-11-20 15:36:13.959
244.0, -11591.927598944618, -1967.355843467217, -39070.64814217665, -39232.54182726644, -29564.071245678813, -31971.13060607083, -27902.129638448914, -11042.94640337782, -28783.50362581058, -7055.0152128953005, -32849.420052697664, -37040.081565389824, -28998.750924915188, -15368.634804324485, -26930.119327320976, -38498.15291144287, 0.07475000000000001, 0.95025, -0.134125, 192.0, 0.0, 0.0, 0.0, 0.0, 0.0, 0.0, 0.0, 0.0, 0.0, 1.6689765739594667E9, 0.0, 2022-11-20 15:36:13.959
246.0, -11684.754393667507, -2081.4391471671042, -39133.68006154062, -39286.09660698135, -29621.67169114014, -32038.074080714476, -27965.072150835058, -11107.811165787121, -28853.174013277774, -7119.656457860048, -32934.8260682614, -37119.76553437299, -29079.731295076766, -15454.666668732962, -27000.549674099646, -38589.750360220714, 0.07475000000000001, 0.95025, -0.134125, 192.0, 0.0, 0.0, 0.0, 0.0, 0.0, 0.0, 0.0, 0.0, 0.0, 1.668976573959505E9, 0.0, 2022-11-20 15:36:13.959
248.0, -11596.934389702606, -1975.7824511268677, -39061.1710025276, -39215.37568752476, -29546.815698959315, -31967.934306613723, -27896.273481401622, -11041.538243477136, -28787.012849690065, -7064.11237288861, -32852.59400041032, -37045.44598405909, -28991.710125411766, -15373.28396717119, -26925.760737152188, -38522.60571987697, 0.07475000000000001, 0.95025, -0.134125, 192.0, 0.0, 0.0, 0.0, 0.0, 0.0, 0.0, 0.0, 0.0, 0.0, 1.6689765739595144E9, 0.0, 2022-11-20 15:36:13.959
250.0, -11681.938073866138, -2072.7219668295347, -39146.375852391226, -39287.9741535156, -29637.139098303214, -32044.39962439533, -27980.2042818313, -11124.910250295432, -28839.762966604587, -7114.157928724043, -32925.1701146567, -37108.67906912316, -29066.901393759417, -15447.290593062711, -26982.91414772441, -38581.12258686097, 0.07337500000000001, 0.953125, -0.1340625, 192.0, 1.0, 32.0, 14.5, 112.0, 125.5, 104.0, 0.0, 0.0, 0.0, 1.6689765739595227E9, 0.0, 2022-11-20 15:36:13.959
252.0, -11584.484468041, -1968.8534103457225, -39056.275970491886, -39191.816948868865, -29549.140280382668, -31946.588390658904, -27889.545606320575, -11029.714170660278, -28793.003117204087, -7072.538980548261, -32858.96424758009, -37047.412937571164, -29005.858779651975, -15383.85634229855, -26936.04253960163, -38520.683469853815, 0.07337500000000001, 0.953125, -0.1340625, 192.0, 0.0, 0.0, 0.0, 0.0, 0.0, 0.0, 0.0, 0.0, 0.0, 1.6689765739595315E9, 0.0, 2022-11-20 15:36:13.959
254.0, -11659.83219859984, -2040.0213646914203, -39132.5848260623, -39273.91490625321, -29630.3441679888, -32019.589188049937, -27963.462825234274, -11099.943351738853, -28819.51228612808, -7080.563256807716, -32901.387858556256, -37074.21267917308, -29051.99278020773, -15418.032159570714, -26961.501176536225, -38537.67079563985, 0.07337500000000001, 0.953125, -0.1340625, 192.0, 0.0, 0.0, 0.0, 0.0, 0.0, 0.0, 0.0, 0.0, 0.0, 1.6689765739595394E9, 0.0, 2022-11-20 15:36:13.959
0.0, -11607.171488663136, -2002.3363235397726, -39063.78615662887, -39207.552576965405, -29559.578545043296, -31943.436794690704, -27896.47464710172, -11027.32253400356, -28806.078887710442, -7083.156059164532, -32870.341285507835, -37055.750138252995, -29018.711032713778, -15390.919493546427, -26934.924952378864, -38509.8875772819, 0.07337500000000001, 0.953125, -0.1340625, 192.0, 0.0, 0.0, 0.0, 0.0, 0.0, 0.0, 0.0, 0.0, 0.0, 1.6689765739595473E9, 0.0, 2022-11-20 15:36:13.959
2.0, -11685.044966345426, -2070.7550133174677, -39165.1960212226, -39312.695182883166, -29650.036054853925, -32031.81559226699, -27982.037124876635, -11111.186279199872, -28836.052577025006, -7102.69148381847, -32918.75516399803, -37096.60912711729, -29064.75562629171, -15426.883450375015, -26957.76843521219, -38528.171304246345, 0.07337500000000001, 0.953125, -0.1340625, 192.0, 0.0, 0.0, 0.0, 0.0, 0.0, 0.0, 0.0, 0.0, 0.0, 1.668976573959555E9, 0.0, 2022-11-20 15:36:13.959
4.0, -11608.91492473065, -2017.5578615138368, -39079.09710158075, -39221.34360329433, -29550.123757138703, -31943.526201668526, -27891.28904238809, -11019.387664721926, -28840.254704982606, -7119.544699137771, -32907.37812607028, -37097.39143817323, -29054.004437208707, -15419.730892149317, -26963.937516681854, -38525.42203967834, 0.0736875, 0.9535625000000001, -0.13303125, 192.0, 1.0, 40.0, 14.5, 104.0, 125.5, 112.0, 0.0, 0.0, 0.0, 1.6689765739595711E9, 0.0, 2022-11-20 15:36:13.959
6.0, -11657.373506709757, -2038.188521646085, -39161.955018276574, -39317.74667713007, -29636.78147039193, -32041.404490638317, -27976.38213352944, -11110.202802443839, -28815.578379103947, -7087.6487598000485, -32901.05258238943, -37081.34288565432, -29043.40971033689, -15415.841688614093, -26958.23782184575, -38519.87880705343, 0.0736875, 0.9535625000000001, -0.13303125, 192.0, 0.0, 0.0, 0.0, 0.0, 0.0, 0.0, 0.0, 0.0, 0.0, 1.6689765739595797E9, 0.0, 2022-11-20 15:36:13.959
8.0, -11597.023796680427, -2004.839718918767, -39058.421737959594, -39205.11623681978, -29536.13156510968, -31946.1413557698, -27885.030553940604, -11018.091263543518, -28832.766870590076, -7108.12295772111, -32898.996221899535, -37084.896813022715, -29042.38153009195, -15422.636618928507, -26973.28054586417, -38544.1975050208, 0.0736875, 0.9535625000000001, -0.13303125, 192.0, 0.0, 0.0, 0.0, 0.0, 0.0, 0.0, 0.0, 0.0, 0.0, 1.6689765739595883E9, 0.0, 2022-11-20 15:36:13.959
10.0, -11658.669907888165, -2026.900890696155, -39144.990044235, -39303.93329905669, -29636.267380269455, -32044.77960405107, -27979.44432251982, -11117.310657180627, -28791.662012536766, -7058.144457119043, -32874.14108206524, -37050.18455388362, -29013.92775940034, -15394.115793003535, -26936.489574490737, -38515.83314130702, 0.0736875, 0.9535625000000001, -0.13303125, 192.0, 0.0, 0.0, 0.0, 0.0, 0.0, 0.0, 0.0, 0.0, 0.0, 1.6689765739596038E9, 0.0, 2022-11-20 15:36:13.959
12.0, -11635.424093654645, -2042.5694635593254, -39081.86871789321, -39204.51273971948, -29569.547423070366, -31961.72052165515, -27907.628167584917, -11039.593641709524, -28860.125405803374, -7132.464007432939, -32934.96017872813, -37115.31753722639, -29068.42131238238, -15446.038895373214, -26998.24744442075, -38571.57839197855, 0.0736875, 0.9535625000000001, -0.13303125, 192.0, 0.0, 0.0, 0.0, 0.0, 0.0, 0.0, 0.0, 0.0, 0.0, 1.6689765739596145E9, 0.0, 2022-11-20 15:36:13.959
14.0, -11657.999355554504, -2021.1341406266858, -39147.18051519162, -39278.56406909991, -29637.42967098113, -32031.413260866793, -27966.882642135937, -11102.893782006953, -28794.299518382493, -7052.3777070495735, -32878.656134445206, -37047.54704803789, -29013.056041366584, -15377.933130017893, -26925.492516218725, -38495.11307419695, 0.07484375, 0.9547812500000001, -0.131515625, 192.0, 1.0, 48.0, 14.5, 112.0, 125.5, 120.0, 0.0, 0.0, 0.0, 1.6689765739596252E9, 0.0, 2022-11-20 15:36:13.959
16.0, -11652.634936885232, -2069.6821295836126, -39098.49841576796, -39209.43012349965, -29584.81366453334, -31966.23557403512, -27912.031461242612, -11038.453702742303, -28872.62003095389, -7140.488283692394, -32949.42175739071, -37122.62655766327, -29083.151111978426, -15449.81634018616, -26995.006441474732, -38557.36268250498, 0.07484375, 0.9547812500000001, -0.131515625, 192.0, 0.0, 0.0, 0.0, 0.0, 0.0, 0.0, 0.0, 0.0, 0.0, 1.6689765739596367E9, 0.0, 2022-11-20 15:36:13.959
18.0, -11641.59317512431, -2012.416960289116, -39143.00073897847, -39277.24531617705, -29634.009854079468, -32018.985690949645, -27959.685380421328, -11092.790793513155, -28796.17706491674, -7063.687689743959, -32877.38208501125, -37046.585923026316, -29020.208599592283, -15379.542455618675, -26923.81613538458, -38483.7360362692, 0.07484375, 0.9547812500000001, -0.131515625, 192.0, 0.0, 0.0, 0.0, 0.0, 0.0, 0.0, 0.0, 0.0, 0.0, 1.6689765739596484E9, 0.0, 2022-11-20 15:36:13.959
20.0, -11652.701992118597, -2066.6199405932357, -39095.95031690005, -39220.337774793836, -29576.14118768468, -31960.71469315466, -27913.70784207676, -11042.924051633365, -28873.692914687745, -7139.393048214084, -32945.95723700014, -37117.887987838745, -29094.796370839642, -15447.447055273899, -26999.365031643516, -38556.267447026665, 0.07484375, 0.9547812500000001, -0.131515625, 192.0, 0.0, 0.0, 0.0, 0.0, 0.0, 0.0, 0.0, 0.0, 0.0, 1.6689765739596567E9, 0.0, 2022-11-20 15:36:13.959
22.0, -11631.669000586153, -1995.809614158823, -39122.23596837949, -39271.3221038964, -29605.824304321326, -31998.422086050763, -27945.044987803103, -11081.100831163028, -28784.42004733325, -7038.989012120845, -32857.690198146134, -37026.22348382753, -29003.86947439545, -15354.776722762195, -26913.489629446227, -38472.96249544174, 0.07484375, 0.9547812500000001, -0.131515625, 192.0, 0.0, 0.0, 0.0, 0.0, 0.0, 0.0, 0.0, 0.0, 0.0, 1.6689765739596648E9, 0.0, 2022-11-20 15:36:13.959
24.0, -11672.3044720059, -2084.9260193021323, -39115.41868632063, -39242.62246401578, -29587.920557012625, -31979.959545130678, -27929.979912040224, -11064.538188521647, -28888.735638706166, -7141.874091848624, -32962.341065685876, -37131.030813578465, -29107.626272156987, -15458.53352052373, -27015.368880673515, -38579.289743815636, 0.07484375, 0.9547812500000001, -0.131515625, 192.0, 0.0, 0.0, 0.0, 0.0, 0.0, 0.0, 0.0, 0.0, 0.0, 1.6689765739596732E9, 0.0, 2022-11-20 15:36:13.959
26.0, -11628.226831940035, -1994.222640302496, -39118.6820410111, -39265.778871271476, -29602.762115330952, -31994.264661582074, -27937.221877243745, -11076.496371805237, -28779.63677401981, -7045.850997668625, -32856.75142487901, -37031.677309474624, -29005.41174476287, -15360.699935042852, -26913.243760257217, -38482.32787636851, 0.078, 0.9540000000000001, -0.124, 192.0, 1.0, 56.0, 14.5, 104.0, 126.0, 16.0, 0.0, 0.0, 0.0, 1.6689765739596815E9, 0.0, 2022-11-20 15:36:13.959
28.0, -11685.782573912451, -2094.7831386069224, -39126.57220680382, -39245.997577428534, -29608.327699700323, -31983.8487486659, -27939.255885989176, -11070.327290335572, -28879.95140313523, -7142.5893476711935, -32963.9280395422, -37135.63527293626, -29106.4192779564, -15465.77548572725, -27012.39609866096, -38584.095368873524, 0.078, 0.9540000000000001, -0.124, 192.0, 0.0, 0.0, 0.0, 0.0, 0.0, 0.0, 0.0, 0.0, 0.0, 1.66897657395969E9, 0.0, 2022-11-20 15:36:13.959
30.0, -11614.279343399923, -1980.1410412956527, -39094.74332269947, -39233.8605801893, -29591.161559958648, -31965.699132168193, -27916.367699666942, -11050.054258114607, -28777.580413529926, -7043.057029611711, -32854.49389868902, -37024.25653031546, -28992.98417484572, -15355.313164629122, -26906.98527180973, -38481.59026880148, 0.078, 0.9540000000000001, -0.124, 192.0, 0.0, 0.0, 0.0, 0.0, 0.0, 0.0, 0.0, 0.0, 0.0, 1.668976573959699E9, 0.0, 2022-11-20 15:36:13.959
32.0, -11692.868076904784, -2096.548926418892, -39129.54498881638, -39262.02377820299, -29630.165354033157, -32006.938100688232, -27955.930287352836, -11085.57118005409, -28870.541318719545, -7139.549510425271, -32954.27208593751, -37123.20770301911, -29096.718620862797, -15461.863930447571, -27002.650738078446, -38578.28391531514, 0.078, 0.9540000000000001, -0.124, 192.0, 0.0, 0.0, 0.0, 0.0, 0.0, 0.0, 0.0, 0.0, 0.0, 1.6689765739597073E9, 0.0, 2022-11-20 15:36:13.959
34.0, -11601.270628126935, -1976.5871139272588, -39081.13111032618, -39229.569045253884, -29588.90403376866, -31968.604858947383, -27913.126696720923, -11044.533377234147, -28784.487102566614, -7061.027832153778, -32854.58330566684, -37034.828905442824, -29000.963747616264, -15374.781534049695, -26920.105745804998, -38491.603850317464, 0.078, 0.9540000000000001, -0.124, 192.0, 0.0, 0.0, 0.0, 0.0, 0.0, 0.0, 0.0, 0.0, 0.0, 1.6689765739597156E9, 0.0, 2022-11-20 15:36:13.959
36.0, -11685.670815190175, -2090.5363071604143, -39138.84331450979, -39268.662246306216, -29636.513249458465, -32024.975958463667, -27968.491967736718, -11097.663473804412, -28863.545222705034, -7130.5641091542375, -32944.593780588366, -37118.446781450126, -29094.550501650632, -15462.556834525685, -27001.91313051142, -38564.11290933048, 0.082, 0.9580000000000001, -0.122, 192.0, 1.0, 72.0, 14.5, 120.0, 126.0, 24.0, 0.0, 0.0, 0.0, 1.6689765739597263E9, 0.0, 2022-11-20 15:36:13.959
38.0, -11583.210418607046, -1964.6289306436695, -39061.59568567225, -39203.283393774436, -29567.356952113743, -31956.490213452606, -27901.839065770993, -11034.072760829064, -28783.7941984885, -7054.702288472926, -32849.710625375585, -37031.25262632997, -29002.528369728134, -15371.249958425757, -26922.452678972804, -38483.04313219108, 0.082, 0.9580000000000001, -0.122, 192.0, 0.0, 0.0, 0.0, 0.0, 0.0, 0.0, 0.0, 0.0, 0.0, 1.6689765739597342E9, 0.0, 2022-11-20 15:36:13.959
40.0, -11675.59017844083, -2074.93478953061, -39135.334090630306, -39268.72930153958, -29642.10118557229, -32029.356900376908, -27980.696020209318, -11110.448671632848, -28830.531696144546, -7097.304713404741, -32912.295509850446, -37084.829757789346, -29072.5116816177, -15436.67351444644, -26981.684801779367, -38544.55513293209, 0.082, 0.9580000000000001, -0.122, 192.0, 0.0, 0.0, 0.0, 0.0, 0.0, 0.0, 0.0, 0.0, 0.0, 1.668976573959742E9, 0.0, 2022-11-20 15:36:13.959
42.0, -11586.093793641781, -1976.2741895048846, -39048.072880276784, -39195.21441402607, -29565.121777668213, -31955.596143674393, -27907.069373973536, -11038.52075797567, -28794.478332338138, -7068.87329445759, -32852.39283471023, -37035.119478120745, -29017.995776891206, -15383.364603920532, -26935.46139424579, -38503.31616441204, 0.082, 0.9580000000000001, -0.122, 192.0, 0.0, 0.0, 0.0, 0.0, 0.0, 0.0, 0.0, 0.0, 0.0, 1.6689765739597502E9, 0.0, 2022-11-20 15:36:13.959
44.0, -11678.495905220021, -2070.9561790175653, -39138.86566625424, -39283.43674939117, -29647.934990875125, -32042.812650539003, -27991.313098825587, -11125.893727051465, -28823.356786174394, -7092.45438485794, -32900.65025098923, -37074.056216961886, -29065.31441990309, -15428.090444575602, -26963.49048179275, -38541.15766777488, 0.082, 0.9580000000000001, -0.122, 192.0, 0.0, 0.0, 0.0, 0.0, 0.0, 0.0, 0.0, 0.0, 0.0, 1.6689765739597583E9, 0.0, 2022-11-20 15:36:13.959
46.0, -11590.251218110468, -1988.545297210848, -39058.13116528167, -39202.97046935207, -29554.817623474315, -31954.679722151726, -27900.833237270504, -11038.498406231214, -28804.871893509855, -7086.7099865329255, -32867.43555872865, -37052.442080073604, -29028.724614229755, -15398.80965933915, -26939.909391392397, -38524.81854257805, 0.078, 0.96, -0.122, 192.0, 1.0, 56.0, 15.0, 0.0, 126.0, 24.0, 0.0, 0.0, 0.0, 1.6689765739597666E9, 0.0, 2022-11-20 15:36:13.959
48.0, -11667.677660903653, -2066.6646440821464, -39146.66642506915, -39294.59026987437, -29641.408281494176, -32039.884572015355, -27979.757246942194, -11115.120186224007, -28824.56378037498, -7099.048149472255, -32908.13808538176, -37084.114501966775, -29065.18030943636, -15432.2925725332, -26966.127987638472, -38552.17707779135, 0.078, 0.96, -0.122, 192.0, 0.0, 0.0, 0.0, 0.0, 0.0, 0.0, 0.0, 0.0, 0.0, 1.6689765739597754E9, 0.0, 2022-11-20 15:36:13.959
50.0, -11588.351319831769, -1997.5083467374263, -39056.275970491886, -39199.774169894954, -29549.542611782865, -31946.789556359003, -27888.763295264638, -11024.193289779818, -28806.41416387727, -7094.3989866255515, -32874.78928265444, -37062.723882523045, -29028.299931085105, -15403.816450097138, -26950.90644966441, -38530.62999613643, 0.078, 0.96, -0.122, 192.0, 0.0, 0.0, 0.0, 0.0, 0.0, 0.0, 0.0, 0.0, 0.0, 1.6689765739597836E9, 0.0, 2022-11-20 15:36:13.959
52.0, -11671.320995249867, -2061.7472603019787, -39154.13190771722, -39305.81084559093, -29653.34411303331, -32055.664903600802, -27987.69211622383, -11125.692561351367, -28807.487047611125, -7086.441765599462, -32891.97777414057, -37067.46245234757, -29049.109405172996, -15424.223592784834, -26958.506042779216, -38536.66496713936, 0.078, 0.96, -0.122, 192.0, 0.0, 0.0, 0.0, 0.0, 0.0, 0.0, 0.0, 0.0, 0.0, 1.668976573959792E9, 0.0, 2022-11-20 15:36:13.959
54.0, -11618.414416124157, -2033.9863936884874, -39067.2730287639, -39211.08415258934, -29558.013922931426, -31961.0946728104, -27897.256958157657, -11032.172862550362, -28832.02926302305, -7120.952859038456, -32895.48699802005, -37081.83462403234, -29051.70220752981, -15433.633677200518, -26968.921955695387, -38548.95842658978, 0.078, 0.96, -0.122, 192.0, 0.0, 0.0, 0.0, 0.0, 0.0, 0.0, 0.0, 0.0, 0.0, 1.6689765739598E9, 0.0, 2022-11-20 15:36:13.959
56.0, -11679.635844187242, -2067.9163417716436, -39152.23200943852, -39304.73796185708, -29636.803822136382, -32042.812650539003, -27975.48806375123, -11113.600267601047, -28820.451059395204, -7104.010236741333, -32904.29358533544, -37083.46630137757, -29054.540879075634, -15432.404331255477, -26951.353484553514, -38534.13922001591, 0.076, 0.9540000000000001, -0.12, 192.0, 1.0, 48.0, 14.5, 104.0, 126.0, 32.0, 0.0, 0.0, 0.0, 1.668976573959808E9, 0.0, 2022-11-20 15:36:13.959
58.0, -11626.014009238961, -2045.4304868496047, -39063.24971476194, -39198.67893441665, -29549.4755565495, -31940.642826633793, -27885.969327207724, -11016.817214109566, -28839.382986948847, -7129.5582806537495, -32911.021460416494, -37095.67035385017, -29057.200736665814, -15433.633677200518, -26969.279583606673, -38543.10226954249, 0.076, 0.9540000000000001, -0.12, 192.0, 0.0, 0.0, 0.0, 0.0, 0.0, 0.0, 0.0, 0.0, 0.0, 1.6689765739598157E9, 0.0, 2022-11-20 15:36:13.959
60.0, -11656.702954376096, -2036.5121408119371, -39137.1892854201, -39282.31916216841, -29629.047766810392, -32017.57753104896, -27956.265563519668, -11093.506049335725, -28794.27716663804, -7071.600207281138, -32877.89617513373, -37049.37989108323, -29028.83637295203, -15393.512295903241, -26928.442946486826, -38500.969231244235, 0.076, 0.9540000000000001, -0.12, 192.0, 0.0, 0.0, 0.0, 0.0, 0.0, 0.0, 0.0, 0.0, 0.0, 1.668976573959824E9, 0.0, 2022-11-20 15:36:13.959
62.0, -11633.948878520594, -2055.5334753434036, -39078.44890099155, -39200.04239082842, -29563.3783416007, -31946.9907220591, -27894.977080223212, -11027.568403192568, -28853.106958044405, -7128.373638197618, -32927.78526875797, -37098.732542840546, -29079.172501465382, -15436.070017346146, -26983.182368657872, -38558.97200810576, 0.076, 0.9540000000000001, -0.12, 192.0, 0.0, 0.0, 0.0, 0.0, 0.0, 0.0, 0.0, 0.0, 0.0, 1.6689765739598324E9, 0.0, 2022-11-20 15:36:13.959
64.0, -11640.050904756894, -2019.904794681644, -39132.29425338438, -39272.79731903045, -29622.454002196075, -32018.650414782813, -27954.790348385617, -11099.138688938463, -28782.609556032367, -7049.337869803652, -32866.988523839536, -37026.64816697218, -29020.7003379703, -15371.048792725658, -26917.200019025808, -38501.55037660008, 0.076, 0.9540000000000001, -0.12, 192.0, 0.0, 0.0, 0.0, 0.0, 0.0, 0.0, 0.0, 0.0, 0.0, 1.6689765739598424E9, 0.0, 2022-11-20 15:36:13.959
66.0, -11634.619430854253, -2061.277873668417, -39073.799738144844, -39205.295050775414, -29556.918687453115, -31966.392036246307, -27901.168513437333, -11044.891005145431, -28851.743501632634, -7129.468873675928, -32929.32753912539, -37097.21262421759, -29080.155978221417, -15443.267279060756, -26985.6187088035, -38580.608496738496, 0.07200000000000001, 0.9540000000000001, -0.128, 192.0, 1.0, 32.0, 14.5, 104.0, 126.0, 0.0, 0.0, 0.0, 0.0, 1.6689765739598515E9, 0.0, 2022-11-20 15:36:13.959
68.0, -11640.96732627956, -2018.966021414521, -39131.422535350626, -39289.561127371926, -29627.72901388753, -32039.63870282635, -27965.608592701985, -11115.097834479551, -28775.07701815093, -7055.506951273317, -32858.248991757515, -37030.13503910721, -29001.679003438832, -15381.397650408466, -26914.69662364681, -38517.397763418885, 0.07200000000000001, 0.9540000000000001, -0.128, 192.0, 0.0, 0.0, 0.0, 0.0, 0.0, 0.0, 0.0, 0.0, 0.0, 1.668976573959862E9, 0.0, 2022-11-20 15:36:13.959
70.0, -11656.524140420455, -2081.0144640224535, -39104.75690421544, -39236.11810637928, -29588.971089002025, -31990.95660340269, -27930.181077740323, -11068.025060656675, -28864.14871980533, -7148.266690762841, -32946.60543758934, -37121.08428729585, -29085.69921084633, -15471.072849163158, -27012.172581216408, -38605.150712150426, 0.07200000000000001, 0.9540000000000001, -0.128, 192.0, 0.0, 0.0, 0.0, 0.0, 0.0, 0.0, 0.0, 0.0, 0.0, 1.6689765739598708E9, 0.0, 2022-11-20 15:36:13.959
72.0, -11604.422224095133, -1987.2935995213509, -39112.87058745272, -39262.493164836545, -29602.67270835313, -32002.825379708458, -27936.819545843548, -11077.949235194832, -28759.631962732314, -7041.112427844099, -32846.76019510748, -37017.6851174456, -28988.782046888122, -15369.886502013982, -26923.100879562007, -38506.26659468014, 0.07200000000000001, 0.9540000000000001, -0.128, 192.0, 0.0, 0.0, 0.0, 0.0, 0.0, 0.0, 0.0, 0.0, 0.0, 1.6689765739598787E9, 0.0, 2022-11-20 15:36:13.959
74.0, -11661.441524200622, -2088.547001903892, -39115.753962487455, -39245.75170823952, -29602.538597886396, -31997.90799592829, -27936.841897588005, -11073.680052003867, -28849.57538242047, -7129.714742864936, -32937.21770491811, -37107.1591505002, -29080.155978221417, -15460.187549613423, -27009.400964903947, -38591.89612768843, 0.07200000000000001, 0.9540000000000001, -0.128, 192.0, 0.0, 0.0, 0.0, 0.0, 0.0, 0.0, 0.0, 0.0, 0.0, 1.6689765739598873E9, 0.0, 2022-11-20 15:36:13.959
76.0, -11617.028607967926, -1997.2177740595073, -39112.624718263716, -39260.615618302305, -29603.186798475603, -32001.596033763413, -27937.065415032557, -11080.43027882937, -28772.372457071837, -7051.662451227004, -32858.65132315771, -37028.21278908406, -28999.332070271026, -15375.89912127246, -26930.678120932356, -38510.60283310447, 0.076, 0.9580000000000001, -0.128, 192.0, 1.0, 48.0, 14.5, 120.0, 126.0, 0.0, 0.0, 0.0, 0.0, 1.6689765739598956E9, 0.0, 2022-11-20 15:36:13.959
78.0, -11678.339443008834, -2103.0979875442968, -39125.8345992368, -39253.887743221254, -29611.658109624164, -32002.870083197366, -27943.27919999113, -11083.403060841925, -28859.812481381, -7140.130655781109, -32953.5791818594, -37123.54297918594, -29092.09180976055, -15464.166160126468, -27009.91505502642, -38588.2080898533, 0.076, 0.9580000000000001, -0.128, 192.0, 0.0, 0.0, 0.0, 0.0, 0.0, 0.0, 0.0, 0.0, 0.0, 1.668976573959904E9, 0.0, 2022-11-20 15:36:13.959
80.0, -11606.34447411829, -1989.8193466448006, -39091.61407847572, -39233.59235925584, -29584.076056966314, -31979.8477864084, -27912.009109498158, -11056.849188429022, -28774.92055593974, -7059.619672253093, -32858.114881290785, -37034.15835310917, -28998.594462704, -15367.830141524095, -26910.203923011297, -38490.03922820559, 0.076, 0.9580000000000001, -0.128, 192.0, 0.0, 0.0, 0.0, 0.0, 0.0, 0.0, 0.0, 0.0, 0.0, 1.6689765739599125E9, 0.0, 2022-11-20 15:36:13.959
82.0, -11679.188809298135, -2105.0425893119086, -39130.34965161677, -39245.05880416141, -29617.894246327192, -31998.556196517493, -27943.122737779944, -11080.273816618183, -28863.94755410523, -7135.772065612325, -32952.10396672535, -37119.18438901715, -29099.33377496407, -15457.706505978884, -26997.554540342637, -38562.570638963065, 0.076, 0.9580000000000001, -0.128, 192.0, 0.0, 0.0, 0.0, 0.0, 0.0, 0.0, 0.0, 0.0, 0.0, 1.6689765739599197E9, 0.0, 2022-11-20 15:36:13.959
84.0, -11593.425165823122, -1990.1769745560855, -39076.884278879676, -39206.88202463174, -29570.441492848575, -31947.013073803555, -27895.714687790238, -11032.597545695013, -28768.97499191463, -7043.414657522996, -32841.194610738115, -37009.526730719415, -28990.54783470009, -15346.372466847, -26899.966824050764, -38451.817745187014, 0.076, 0.9580000000000001, -0.128, 192.0, 0.0, 0.0, 0.0, 0.0, 0.0, 0.0, 0.0, 0.0, 0.0, 1.6689765739599268E9, 0.0, 2022-11-20 15:36:13.959
86.0, -11689.671777447675, -2115.480853972537, -39150.17564894863, -39271.00917947402, -29636.62500818074, -32012.928368202254, -27964.04397059011, -11098.401081371438, -28866.272135528583, -7133.469835933428, -32953.15449871475, -37112.63532789175, -29103.6700133884, -15455.024296644247, -27007.344604414062, -38561.76597616267, 0.076, 0.964, -0.134, 192.0, 1.0, 48.0, 15.0, 16.0, 125.5, 104.0, 0.0, 0.0, 0.0, 1.668976573959934E9, 0.0, 2022-11-20 15:36:13.959
88.0, -11602.924657216628, -2004.0797596072866, -39085.422645261606, -39226.68567021914, -29570.41914110412, -31963.642771678304, -27904.275405916622, -11043.95223187831, -28789.56094855797, -7069.052108413232, -32861.57940168135, -37030.67148097414, -29012.11726809946, -15367.584272335085, -26936.780147168654, -38496.87886200892, 0.076, 0.964, -0.134, 192.0, 0.0, 0.0, 0.0, 0.0, 0.0, 0.0, 0.0, 0.0, 0.0, 1.6689765739599411E9, 0.0, 2022-11-20 15:36:13.959
90.0, -11699.193620585636, -2112.575127193347, -39164.30195144439, -39311.06350553793, -29653.165299077667, -32053.72030183319, -27983.244119077222, -11127.413645674425, -28867.4120744958, -7148.333745996207, -32957.602495861356, -37123.610034419304, -29109.23559775777, -15470.335241596133, -27019.794526075668, -38597.14878763542, 0.076, 0.964, -0.134, 192.0, 0.0, 0.0, 0.0, 0.0, 0.0, 0.0, 0.0, 0.0, 0.0, 1.6689765739599485E9, 0.0, 2022-11-20 15:36:13.959
92.0, -11595.190953635092, -1999.609410716225, -39068.16709854211, -39231.91597842169, -29559.310324109832, -31973.47753923864, -27894.15006567837, -11041.068856843574, -28803.217864420163, -7093.951951736445, -32874.252840787514, -37057.15829815368, -29019.828619936543, -15397.80383083866, -26950.213545586295, -38550.36658649047, 0.076, 0.964, -0.134, 192.0, 0.0, 0.0, 0.0, 0.0, 0.0, 0.0, 0.0, 0.0, 0.0, 1.6689765739599557E9, 0.0, 2022-11-20 15:36:13.959
94.0, -11682.228646544057, -2092.7938333504003, -39149.77331754843, -39312.44931369416, -29637.697891914595, -32058.414168168805, -27972.24706080521, -11120.596363615557, -28838.84654508192, -7122.2269084724085, -32929.23813214757, -37106.46624642208, -29071.014114739195, -15449.503415763786, -26980.656621534425, -38596.23236611275, 0.076, 0.964, -0.134, 192.0, 0.0, 0.0, 0.0, 0.0, 0.0, 0.0, 0.0, 0.0, 0.0, 1.668976573959963E9, 0.0, 2022-11-20 15:36:13.959
96.0, -11586.451421553067, -1996.8601461482224, -39058.555848426324, -39212.35820202329, -29543.88762043567, -31959.530050698526, -27878.95087944876, -11025.266173513672, -28805.050707465496, -7094.421338370006, -32877.89617513373, -37062.522716822954, -29014.665366967365, -15394.33931044809, -26941.786937926645, -38550.098365557, 0.076, 0.964, -0.13, 192.0, 1.0, 48.0, 15.0, 16.0, 126.0, 8.0, 0.0, 0.0, 0.0, 1.6689765739599712E9, 0.0, 2022-11-20 15:36:13.959
98.0, -11648.701029861097, -2050.1020014407636, -39140.45264011057, -39285.24724069205, -29627.95253133208, -32030.608598066403, -27954.76799664116, -11100.010406972218, -28817.88060878284, -7086.978207466389, -32907.266367348, -37077.87836526374, -29048.640018539434, -15411.10311878957, -26965.90447019392, -38557.54149646062, 0.076, 0.964, -0.13, 192.0, 0.0, 0.0, 0.0, 0.0, 0.0, 0.0, 0.0, 0.0, 0.0, 1.6689765739600103E9, 0.0, 2022-11-20 15:36:13.960
100.0, -11587.189029120093, -1999.6764659495911, -39062.35564498373, -39200.26590827297, -29548.201507115547, -31945.873134836333, -27880.98488819419, -11022.427501967848, -28806.458867366182, -7079.468021329406, -32875.6610006882, -37059.10289992129, -29020.07448912555, -15376.703784072852, -26952.71694096529, -38531.76993510365, 0.076, 0.964, -0.13, 192.0, 0.0, 0.0, 0.0, 0.0, 0.0, 0.0, 0.0, 0.0, 0.0, 1.6689765739600215E9, 0.0, 2022-11-20 15:36:13.960
102.0, -11656.121809020258, -2048.6938415400796, -39152.7908030499, -39296.37840943079, -29644.4481187401, -32031.122688188876, -27970.43656950433, -11112.706197822834, -28814.66195758128, -7078.842172484658, -32901.92430042318, -37078.72773155305, -29043.007378936694, -15392.61822612503, -26965.680952749368, -38542.05173755309, 0.076, 0.964, -0.13, 192.0, 0.0, 0.0, 0.0, 0.0, 0.0, 0.0, 0.0, 0.0, 0.0, 1.6689765739600296E9, 0.0, 2022-11-20 15:36:13.960
104.0, -11581.735203472997, -2001.710474695024, -39049.79396459985, -39182.54097491992, -29533.874038919694, -31911.026765230512, -27864.60105950845, -11000.142812745908, -28827.42480366526, -7100.9256960065, -32898.8174079439, -37087.824891546356, -29037.330035845047, -15383.051679498158, -26971.738275496755, -38536.66496713936, 0.076, 0.964, -0.13, 192.0, 0.0, 0.0, 0.0, 0.0, 0.0, 0.0, 0.0, 0.0, 0.0, 1.668976574441116E9, 0.0, 2022-11-20 15:36:14.441
106.0, -11641.660230357675, -2031.5053500539484, -39140.11736394374, -39286.96832501511, -29623.526885929932, -32005.060554153988, -27947.928362837836, -11087.158153910417, -28783.704791510678, -7054.009384394812, -32873.11290182029, -37056.219524886554, -29011.13379134343, -15354.46379833982, -26928.018263342175, -38488.04992294907, 0.076, 0.96, -0.125, 192.0, 1.0, 48.0, 14.5, 112.0, 126.0, 32.0, 0.0, 0.0, 0.0, 1.668976574441154E9, 0.0, 2022-11-20 15:36:14.441
108.0, -11595.570933290832, -2022.1846726160852, -39065.30607525183, -39200.8023501399, -29543.373530313198, -31930.89746605128, -27871.17247237831, -11007.65299888289, -28832.90098105681, -7116.840138058679, -32910.6191290163, -37104.09696150982, -29048.818832495075, -15401.62597914052, -26972.185310385863, -38535.301510727586, 0.076, 0.96, -0.125, 192.0, 0.0, 0.0, 0.0, 0.0, 0.0, 0.0, 0.0, 0.0, 0.0, 1.6689765744412167E9, 0.0, 2022-11-20 15:36:14.441
110.0, -11635.178224465637, -2025.1127511397306, -39145.817058779845, -39302.7263048561, -29623.68334814112, -32036.978845236164, -27951.415234972865, -11100.658607561423, -28783.771846744043, -7059.552617019727, -32871.32476226387, -37058.20883014308, -29013.5477797446, -15370.758220047739, -26927.95120810881, -38500.410437632854, 0.076, 0.96, -0.125, 192.0, 0.0, 0.0, 0.0, 0.0, 0.0, 0.0, 0.0, 0.0, 0.0, 1.668976574441269E9, 0.0, 2022-11-20 15:36:14.441
112.0, -11613.407625366168, -2049.0738211958196, -39075.766691656914, -39224.31638530688, -29555.577582785798, -31979.445455008205, -27889.970289465226, -11040.532414976647, -28855.14096678984, -7146.679716906514, -32929.26048389202, -37129.30972925541, -29069.13656820495, -15443.446093016399, -26995.9228629974, -38582.575450250566, 0.076, 0.96, -0.125, 192.0, 0.0, 0.0, 0.0, 0.0, 0.0, 0.0, 0.0, 0.0, 0.0, 1.6689765744412951E9, 0.0, 2022-11-20 15:36:14.441
114.0, -11616.134538189715, -2007.454873020038, -39124.44879108057, -39296.892499553265, -29614.027394536424, -32043.997292995133, -27946.274333748144, -11103.832555274077, -28775.88168095132, -7066.30284384523, -32858.47250920207, -37055.727786508534, -29000.963747616264, -15378.849551540561, -26924.129059806954, -38519.32001344204, 0.076, 0.96, -0.125, 192.0, 0.0, 0.0, 0.0, 0.0, 0.0, 0.0, 0.0, 0.0, 0.0, 1.6689765744413376E9, 0.0, 2022-11-20 15:36:14.441
116.0, -11618.481471357522, -2056.8969317551773, -39084.59563071676, -39233.413545300195, -29567.535766069388, -31989.43668477973, -27906.46587687324, -11056.223339584272, -28857.37614123537, -7149.451333218973, -32929.3722426143, -37133.24363627954, -29081.027696255172, -15455.20311059989, -27009.266854437217, -38604.25664237221, 0.077, 0.9570000000000001, -0.1265, 192.0, 1.0, 56.0, 14.5, 104.0, 126.0, 0.0, 0.0, 0.0, 0.0, 1.6689765744413428E9, 0.0, 2022-11-20 15:36:14.441
118.0, -11605.405700851166, -1997.418939759605, -39131.131962672705, -39296.199595475155, -29616.91076957116, -32033.62608356787, -27951.90697335088, -11103.541982596158, -28764.772863957034, -7050.075477370678, -32845.30733171789, -37044.1942863696, -29002.483666239223, -15367.89719675746, -26933.51679247818, -38520.34819368699, 0.077, 0.9570000000000001, -0.1265, 192.0, 0.0, 0.0, 0.0, 0.0, 0.0, 0.0, 0.0, 0.0, 0.0, 1.6689765744413478E9, 0.0, 2022-11-20 15:36:14.441
120.0, -11620.604887080775, -2065.524705114926, -39093.91630815462, -39233.905283678214, -29564.697094523563, -31970.28123978153, -27902.263748915644, -11046.589737724034, -28856.973809835174, -7143.528120938316, -32935.94365548416, -37137.44576423714, -29092.203568482826, -15455.113703622068, -27021.761479587734, -38601.999116182225, 0.077, 0.9570000000000001, -0.1265, 192.0, 0.0, 0.0, 0.0, 0.0, 0.0, 0.0, 0.0, 0.0, 0.0, 1.6689765744413528E9, 0.0, 2022-11-20 15:36:14.441
