%OpenBCI Raw EEG Data
%Number of channels = 16
%Sample Rate = 125 Hz
%Board = OpenBCI_GUI$BoardCytonSerialDaisy
Sample Index, EXG Channel 0, EXG Channel 1, EXG Channel 2, EXG Channel 3, EXG Channel 4, EXG Channel 5, EXG Channel 6, EXG Channel 7, EXG Channel 8, EXG Channel 9, EXG Channel 10, EXG Channel 11, EXG Channel 12, EXG Channel 13, EXG Channel 14, EXG Channel 15, Accel Channel 0, Accel Channel 1, Accel Channel 2, Other, Other, Other, Other, Other, Other, Other, Analog Channel 0, Analog Channel 1, Analog Channel 2, Timestamp, Other, Timestamp (Formatted)
44.0, -22718.201305651823, -20859.765512915317, -51092.757414908105, -52943.92889069663, -21032.92447721058, -35113.09297240889, -49901.61060114034, -32700.110399736215, -11050.18836858134, -53667.87954185958, -54267.5097903621, -62434.03255153091, -50311.742760150766, -45670.738300173085, -46263.50656312783, -46535.81786582683, 0.0, 0.0, 0.0, 192.0, 0.0, 0.0, 0.0, 0.0, 0.0, 0.0, 0.0, 0.0, 0.0, 1.6581655889553292E9, 0.0, 2022-07-18 13:33:08.955
46.0, -22750.20900371182, -20891.728507486405, -51121.68057223327, -52977.72472831306, -21059.277183923386, -35158.57877237544, -49939.1391800808, -32751.944095128074, -11119.925811281897, -53771.63633962111, -54360.15777112934, -62526.18879392014, -50400.90386878298, -45761.50873440609, -46357.40624158457, -46635.01490771949, 0.08600000000000001, 0.9380000000000001, 0.22, 192.0, 1.0, 88.0, 14.5, 40.0, 3.0, 112.0, 0.0, 0.0, 0.0, 1.658165588955336E9, 0.0, 2022-07-18 13:33:08.955
48.0, -22718.380119607464, -20869.533225242285, -51079.055795557004, -52933.93766092511, -21009.321035065776, -35108.01912641754, -49890.21121146813, -32697.271728190393, -11069.47792404627, -53682.3187687777, -54285.592351626445, -62448.9411650826, -50315.69901891935, -45681.17656483371, -46269.9215137865, -46553.185171268604, 0.08600000000000001, 0.9380000000000001, 0.22, 192.0, 0.0, 0.0, 0.0, 0.0, 0.0, 0.0, 0.0, 0.0, 0.0, 1.6581655889553409E9, 0.0, 2022-07-18 13:33:08.955
50.0, -22741.804747796625, -20867.722733941406, -51126.70971473571, -52980.76456555898, -21061.26648917991, -35156.00832176308, -49949.71155520816, -32737.10253680975, -11108.459366376324, -53757.73355456991, -54351.66410823633, -62514.63294203675, -50385.7940895312, -45749.21527495567, -46345.31394783425, -46618.295802866916, 0.08600000000000001, 0.9380000000000001, 0.22, 192.0, 0.0, 0.0, 0.0, 0.0, 0.0, 0.0, 0.0, 0.0, 0.0, 1.6581655889553459E9, 0.0, 2022-07-18 13:33:08.955
52.0, -22714.69208177234, -20878.13864685758, -51083.0567578145, -52938.58682377182, -21016.96533166949, -35113.316489853445, -49889.272438201006, -32696.690582834555, -11060.447819286326, -53684.46453624541, -54285.79351732654, -62446.92950808162, -50318.29182127617, -45687.725625959116, -46274.01188302182, -46549.16185726665, 0.08600000000000001, 0.9380000000000001, 0.22, 192.0, 0.0, 0.0, 0.0, 0.0, 0.0, 0.0, 0.0, 0.0, 0.0, 1.6581655889553506E9, 0.0, 2022-07-18 13:33:08.955
54.0, -22759.127349749488, -20873.042449121767, -51146.33454636748, -52997.17074598918, -21083.819399335312, -35170.51460391458, -49954.31601456595, -32776.01692390644, -11130.744055598267, -53772.6421681216, -54365.61159677644, -62527.820471265375, -50398.40047340399, -45768.28131297604, -46352.73472699341, -46630.47750359506, 0.08600000000000001, 0.9380000000000001, 0.22, 192.0, 0.0, 0.0, 0.0, 0.0, 0.0, 0.0, 0.0, 0.0, 0.0, 1.6581655889553554E9, 0.0, 2022-07-18 13:33:08.955
56.0, -22710.109974159, -20883.99480390487, -51070.76329836408, -52919.29726830689, -21004.53776175234, -35105.51573103854, -49876.77781305049, -32676.529309335867, -11080.452630573825, -53688.04081535826, -54294.01895928609, -62453.27740350693, -50334.92151915092, -45694.006466151055, -46274.9730080334, -46554.660386402655, 0.08, 0.9480000000000001, 0.222, 192.0, 1.0, 64.0, 14.5, 80.0, 3.0, 120.0, 0.0, 0.0, 0.0, 1.65816558895536E9, 0.0, 2022-07-18 13:33:08.955
58.0, -22766.436370186373, -20864.1241030841, -51142.44534283225, -52993.97444653207, -21088.848541837757, -35176.77309236206, -49963.83785770391, -32760.147185343172, -11118.472947892304, -53749.8880922661, -54350.747686713665, -62511.41429083518, -50392.745482056795, -45752.00924301258, -46337.64729948608, -46611.769093485964, 0.08, 0.9480000000000001, 0.222, 192.0, 0.0, 0.0, 0.0, 0.0, 0.0, 0.0, 0.0, 0.0, 0.0, 1.6581655889553652E9, 0.0, 2022-07-18 13:33:08.955
60.0, -22706.488991557242, -20896.400022077563, -51056.43583016823, -52914.89397464919, -21014.081956634756, -35096.66444023424, -49886.03143525499, -32695.90827177862, -11078.731546250767, -53692.19823982695, -54297.55053491003, -62459.96057509907, -50332.3287167941, -45700.868451698836, -46280.270371469305, -46559.130735293715, 0.08, 0.9480000000000001, 0.222, 192.0, 0.0, 0.0, 0.0, 0.0, 0.0, 0.0, 0.0, 0.0, 0.0, 1.6581655889553697E9, 0.0, 2022-07-18 13:33:08.955
62.0, -22767.64336438696, -20861.576004216196, -51146.64747078985, -53005.552650159916, -21095.37525121871, -35169.53112715854, -49970.141049640304, -32769.110234869746, -11110.716892566312, -53748.055249220764, -54337.381343529385, -62504.50760179849, -50377.88157199402, -45746.443658643206, -46326.270261558326, -46602.493119537015, 0.08, 0.9480000000000001, 0.222, 192.0, 0.0, 0.0, 0.0, 0.0, 0.0, 0.0, 0.0, 0.0, 0.0, 1.6581655889553747E9, 0.0, 2022-07-18 13:33:08.955
64.0, -22708.031261924658, -20892.935501686992, -51047.51748413056, -52914.06696010435, -21005.565941997284, -35104.37579207132, -49864.931388489174, -32681.26787916039, -11096.344720881549, -53706.81628070072, -54311.07334030549, -62476.590272973815, -50352.60174901507, -45722.124960675836, -46293.0779210422, -46577.01213085796, 0.08, 0.9480000000000001, 0.222, 192.0, 0.0, 0.0, 0.0, 0.0, 0.0, 0.0, 0.0, 0.0, 0.0, 1.6581655889553792E9, 0.0, 2022-07-18 13:33:08.955
66.0, -22766.190500997367, -20845.058065063724, -51144.83697948897, -53000.45645242411, -21086.143980758665, -35181.57871741995, -49968.196447872695, -32792.35604910327, -11100.81506977261, -53719.668533762524, -54319.58935494297, -62481.395898031704, -50361.14011539699, -45727.95876597867, -46301.57158393521, -46594.53589851093, 0.074, 0.9420000000000001, 0.22, 192.0, 1.0, 40.0, 14.5, 56.0, 3.0, 112.0, 0.0, 0.0, 0.0, 1.658165588955384E9, 0.0, 2022-07-18 13:33:08.955
68.0, -22701.43749731034, -20890.096830141167, -51052.39016442182, -52906.64618094519, -21014.81956420178, -35104.711068238146, -49883.192763709165, -32695.193015956047, -11109.44284313236, -53705.07284463321, -54321.69041892176, -62474.46685725056, -50355.01573741624, -45723.376658365334, -46307.15952004904, -46595.09469212231, 0.074, 0.9420000000000001, 0.22, 192.0, 0.0, 0.0, 0.0, 0.0, 0.0, 0.0, 0.0, 0.0, 0.0, 1.658165588955389E9, 0.0, 2022-07-18 13:33:08.955
70.0, -22759.686143360872, -20843.94047784096, -51146.13338066738, -52991.6051616198, -21094.32471922931, -35166.580696890436, -49966.11773563835, -32748.121946826217, -11090.354453367527, -53703.10589112114, -54310.73806413866, -62467.18018855813, -50349.45015304687, -45710.99379193709, -46299.58227867869, -46575.64867444619, 0.074, 0.9420000000000001, 0.22, 192.0, 0.0, 0.0, 0.0, 0.0, 0.0, 0.0, 0.0, 0.0, 0.0, 1.6581655889553938E9, 0.0, 2022-07-18 13:33:08.955
72.0, -22707.427764824362, -20899.90924595705, -51051.63020511034, -52903.56164021035, -21011.198581600023, -35110.589577029896, -49879.16944970721, -32716.80715284433, -11110.023988488198, -53720.8308244742, -54326.25017479064, -62483.67577596615, -50367.95739745586, -45729.948071235194, -46315.49672073087, -46591.67487522065, 0.074, 0.9420000000000001, 0.22, 192.0, 0.0, 0.0, 0.0, 0.0, 0.0, 0.0, 0.0, 0.0, 0.0, 1.6581655889553983E9, 0.0, 2022-07-18 13:33:08.955
74.0, -22766.101094019545, -20851.249498277844, -51138.71260150822, -52982.5080016265, -21087.46273368153, -35162.28916195502, -49958.67460473473, -32771.971258160025, -11087.113450421508, -53703.99996089935, -54303.496098935146, -62464.07329607884, -50338.38603954149, -45697.3368760749, -46287.467633183915, -46565.25511327447, 0.074, 0.9420000000000001, 0.22, 192.0, 0.0, 0.0, 0.0, 0.0, 0.0, 0.0, 0.0, 0.0, 0.0, 1.658165588955403E9, 0.0, 2022-07-18 13:33:08.955
76.0, -22699.02350890917, -20882.698402726463, -51039.403800893284, -52890.530573192904, -20999.866247161182, -35091.769408198525, -49867.83711526837, -32689.403914142124, -11117.668285091911, -53727.73751351089, -54335.19087257277, -62491.07420338085, -50377.56864757164, -45728.87518750134, -46321.26347080034, -46595.78759620042, 0.076, 0.9380000000000001, 0.22, 192.0, 1.0, 48.0, 14.5, 40.0, 3.0, 112.0, 0.0, 0.0, 0.0, 1.6581655889554117E9, 0.0, 2022-07-18 13:33:08.955
78.0, -22753.181785724377, -20843.471091207397, -51124.5192437791, -52968.33699564183, -21062.2723176804, -35146.41942339175, -49948.772781941036, -32723.535027925376, -11057.653851229412, -53662.85039935713, -54272.31541541999, -62427.19291772758, -50314.40261774095, -45671.69942518466, -46259.34913865914, -46528.62060411222, 0.076, 0.9380000000000001, 0.22, 192.0, 0.0, 0.0, 0.0, 0.0, 0.0, 0.0, 0.0, 0.0, 0.0, 1.6581655889554172E9, 0.0, 2022-07-18 13:33:08.955
80.0, -22719.49770683023, -20896.355318588652, -51062.51550466008, -52910.87066064723, -21017.658235747604, -35111.81892297494, -49896.179127237694, -32708.4699521625, -11135.057942278141, -53745.171874186024, -54351.999384403156, -62503.79234597592, -50388.45394712138, -45753.372699424355, -46340.329508820716, -46608.68455275113, 0.076, 0.9380000000000001, 0.22, 192.0, 0.0, 0.0, 0.0, 0.0, 0.0, 0.0, 0.0, 0.0, 0.0, 1.6581655889554236E9, 0.0, 2022-07-18 13:33:08.955
82.0, -22736.82030878309, -20835.31270448121, -51101.67576094577, -52951.66259427817, -21042.2675063929, -35124.73823127011, -49916.56391818094, -32738.331882754792, -11065.789886211143, -53663.878579602075, -54271.93543576425, -62425.74005433799, -50302.53384143518, -45670.85005889536, -46247.63682456456, -46522.518577875926, 0.076, 0.9380000000000001, 0.22, 192.0, 0.0, 0.0, 0.0, 0.0, 0.0, 0.0, 0.0, 0.0, 0.0, 1.6581655889554298E9, 0.0, 2022-07-18 13:33:08.955
84.0, -22724.616256310495, -20890.387402819088, -51073.333748976445, -52934.027067902935, -21027.604762030216, -35127.33103362692, -49902.10233951835, -32766.092749368283, -11129.335895697583, -53751.005679488866, -54355.218035604725, -62510.09553791232, -50390.800880289185, -45761.553437894996, -46337.84846518618, -46620.307459867894, 0.076, 0.9380000000000001, 0.22, 192.0, 0.0, 0.0, 0.0, 0.0, 0.0, 0.0, 0.0, 0.0, 0.0, 1.6581655889554355E9, 0.0, 2022-07-18 13:33:08.955
86.0, -22729.243067412743, -20833.166937013502, -51095.57373470948, -52949.762695999474, -21053.890413509656, -35126.32520512643, -49929.77379915402, -32709.408725429625, -11050.344830792526, -53655.94371032044, -54265.31931940548, -62420.30858043535, -50303.204393768836, -45667.49729722706, -46247.145086186545, -46524.9325662771, 0.076, 0.9420000000000001, 0.222, 192.0, 1.0, 48.0, 14.5, 56.0, 3.0, 120.0, 0.0, 0.0, 0.0, 1.6581655889554412E9, 0.0, 2022-07-18 13:33:08.955
88.0, -22723.275151643178, -20872.1260275991, -51085.560153193495, -52935.65874524817, -21052.996343731447, -35139.892714010806, -49934.80294165647, -32754.5816009738, -11125.804320073643, -53750.7374585554, -54359.80014321806, -62511.79427049092, -50400.05450249368, -45760.90523730579, -46362.055404431274, -46632.22093966257, 0.076, 0.9420000000000001, 0.222, 192.0, 0.0, 0.0, 0.0, 0.0, 0.0, 0.0, 0.0, 0.0, 0.0, 1.6581655889554477E9, 0.0, 2022-07-18 13:33:08.955
90.0, -22716.72609051777, -20832.384625957566, -51090.946923607225, -52932.775370213436, -21038.937096469057, -35117.160989899756, -49912.8311768569, -32724.6749668926, -11038.632516697946, -53635.60362286611, -54256.02099371207, -62405.15409769465, -50296.565925665614, -45656.43318372169, -46259.52795261478, -46524.887862788186, 0.076, 0.9420000000000001, 0.222, 192.0, 0.0, 0.0, 0.0, 0.0, 0.0, 0.0, 0.0, 0.0, 0.0, 1.658165588955454E9, 0.0, 2022-07-18 13:33:08.955
92.0, -22732.037035469657, -20866.18046357399, -51110.6164587279, -52951.46142857808, -21061.333544413275, -35158.1987927197, -49943.49777024958, -32780.73314198651, -11122.988000272275, -53752.659708578554, -54361.655338007855, -62510.050834423404, -50411.431540421436, -45762.62632162885, -46374.7958987708, -46639.127628699265, 0.076, 0.9420000000000001, 0.222, 192.0, 0.0, 0.0, 0.0, 0.0, 0.0, 0.0, 0.0, 0.0, 0.0, 1.65816558895546E9, 0.0, 2022-07-18 13:33:08.955
94.0, -22709.372366591975, -20846.734445897873, -51100.53582197855, -52934.92113768114, -21043.54155582685, -35116.37867884382, -49936.233453301604, -32725.636091904176, -11061.364240808993, -53656.32368997618, -54272.7624503091, -62422.14142348069, -50317.35304800905, -45673.28639904099, -46283.24315348186, -46541.89754031868, 0.076, 0.9420000000000001, 0.222, 192.0, 0.0, 0.0, 0.0, 0.0, 0.0, 0.0, 0.0, 0.0, 0.0, 1.6581655889554665E9, 0.0, 2022-07-18 13:33:08.955
96.0, -22712.367500348988, -20841.660599906518, -51114.97504889668, -52949.38271634373, -21059.008962989923, -35143.82662103494, -49939.92149113673, -32750.424176505112, -11122.6750758499, -53745.66361256404, -54356.402678060855, -62502.6524070087, -50409.88927005402, -45750.93635927873, -46375.24293365991, -46624.3531256143, 0.08, 0.9420000000000001, 0.216, 192.0, 1.0, 64.0, 14.5, 56.0, 3.0, 96.0, 0.0, 0.0, 0.0, 1.6581655889554725E9, 0.0, 2022-07-18 13:33:08.955
98.0, -22690.73101171625, -20842.26409700681, -51078.4075949678, -52911.85413740327, -21029.281142864365, -35102.29707983698, -49914.440502457684, -32725.70314713754, -11054.748124450223, -53642.353849691615, -54263.03944147104, -62407.41162388464, -50324.77382716821, -45657.39430873327, -46274.66008361102, -46533.7838570814, 0.08, 0.9420000000000001, 0.216, 192.0, 0.0, 0.0, 0.0, 0.0, 0.0, 0.0, 0.0, 0.0, 0.0, 1.6581655889555397E9, 0.0, 2022-07-18 13:33:08.955
100.0, -22714.088584672045, -20822.77337584178, -51108.02365637108, -52949.02508843245, -21056.21499493301, -35140.920894255745, -49932.50071197757, -32752.01115036144, -11111.879183277988, -53727.80456874426, -54336.554328984545, -62483.60872073278, -50399.13808097102, -45737.01122248307, -46353.204113626976, -46616.48531156604, 0.08, 0.9420000000000001, 0.216, 192.0, 0.0, 0.0, 0.0, 0.0, 0.0, 0.0, 0.0, 0.0, 0.0, 1.6581655889555452E9, 0.0, 2022-07-18 13:33:08.955
102.0, -22676.02356386466, -20830.998817801337, -51052.61368186637, -52899.60538144176, -20991.327880779252, -35094.228100088614, -49879.32591191839, -32704.021955015894, -11049.651926714412, -53639.53752989024, -54257.78678152404, -62403.812993027335, -50311.20631828384, -45663.384576247285, -46258.63388283657, -46539.64001412869, 0.08, 0.9420000000000001, 0.216, 192.0, 0.0, 0.0, 0.0, 0.0, 0.0, 0.0, 0.0, 0.0, 0.0, 1.65816558895555E9, 0.0, 2022-07-18 13:33:08.955
104.0, -22725.35386387752, -20822.393396186042, -51125.39096181285, -52975.40014688971, -21069.916614284113, -35156.67887409674, -49961.46857279165, -32778.117987885234, -11099.161040682917, -53724.89884196506, -54330.02761960359, -62477.55139798539, -50378.574476072135, -45734.552530592984, -46338.40725879756, -46612.84197721982, 0.08, 0.9420000000000001, 0.216, 192.0, 0.0, 0.0, 0.0, 0.0, 0.0, 0.0, 0.0, 0.0, 0.0, 1.6581655889555547E9, 0.0, 2022-07-18 13:33:08.955
106.0, -22689.255796582198, -20857.93266986998, -51053.53010338904, -52916.50330024998, -20996.28996804833, -35099.99485015808, -49876.73310956158, -32724.317338981313, -11067.421563556381, -53673.19925703994, -54284.675930103775, -62438.189975999594, -50319.74468466576, -45695.347570818376, -46282.05851102573, -46562.59525568429, 0.078, 0.9440000000000001, 0.21, 192.0, 1.0, 56.0, 14.5, 64.0, 3.0, 72.0, 0.0, 0.0, 0.0, 1.6581655889555597E9, 0.0, 2022-07-18 13:33:08.955
108.0, -22761.40722768393, -20844.767492385807, -51141.193645142754, -53006.804347849415, -21081.427762678595, -35177.063665039976, -49979.68524452273, -32783.169482132136, -11105.575991341591, -53733.39250485808, -54337.89543365186, -62496.1033458833, -50367.0856794221, -45742.465048130165, -46332.17112209453, -46615.36772434327, 0.078, 0.9440000000000001, 0.21, 192.0, 0.0, 0.0, 0.0, 0.0, 0.0, 0.0, 0.0, 0.0, 0.0, 1.6581655889555664E9, 0.0, 2022-07-18 13:33:08.955
110.0, -22689.278148326655, -20864.191158317466, -51044.12001897336, -52916.212727572056, -21001.073241361766, -35106.47685605012, -49878.923580518196, -32696.28825143436, -11081.100831163028, -53685.135088579074, -54303.831375101974, -62462.799246644885, -50338.00605988575, -45707.90925120226, -46299.67168565651, -46578.420290758644, 0.078, 0.9440000000000001, 0.21, 192.0, 0.0, 0.0, 0.0, 0.0, 0.0, 0.0, 0.0, 0.0, 0.0, 1.6581655889555712E9, 0.0, 2022-07-18 13:33:08.955
112.0, -22758.188576482367, -20828.69658812244, -51143.89820622185, -53004.32330421488, -21091.195475005567, -35177.51069992909, -49996.06907320846, -32792.62427003673, -11093.662511546912, -53710.68313249149, -54328.66416319182, -62484.480438766535, -50375.132307426014, -45732.02678346953, -46346.43153505702, -46617.64760227771, 0.078, 0.9440000000000001, 0.21, 192.0, 0.0, 0.0, 0.0, 0.0, 0.0, 0.0, 0.0, 0.0, 0.0, 1.658165588955576E9, 0.0, 2022-07-18 13:33:08.955
114.0, -22689.63577623794, -20856.613916947117, -51029.09964669939, -52885.07674754581, -20978.408572484088, -35091.09885586487, -49861.668033798705, -32713.409687687123, -11092.567276068601, -53678.04958558674, -54303.80902335752, -62448.963516827054, -50350.79125771418, -45697.80626270846, -46316.32373527572, -46585.55049723989, 0.078, 0.9440000000000001, 0.21, 192.0, 0.0, 0.0, 0.0, 0.0, 0.0, 0.0, 0.0, 0.0, 0.0, 1.6581655889555807E9, 0.0, 2022-07-18 13:33:08.955
116.0, -22774.50534993474, -20827.199021243934, -51135.38219158437, -52972.114440454774, -21068.35199217224, -35162.020941021554, -49948.30339530747, -32750.133603827195, -11092.790793513155, -53677.71430941991, -54307.76528212611, -62446.46012144806, -50351.81943795913, -45686.608038736355, -46306.84659562667, -46579.135546581216, 0.076, 0.9380000000000001, 0.20800000000000002, 192.0, 1.0, 48.0, 14.5, 40.0, 3.0, 64.0, 0.0, 0.0, 0.0, 1.6581655889555857E9, 0.0, 2022-07-18 13:33:08.955
118.0, -22736.373273893987, -20888.80042896276, -51054.178303978246, -52895.76088139545, -21001.475572761963, -35109.3378793404, -49892.22286846911, -32727.178362271592, -11134.499148666759, -53682.81050715572, -54335.95083188425, -62462.93335711162, -50372.98653995831, -45695.034646396, -46329.64537497108, -46589.9984943865, 0.076, 0.9380000000000001, 0.20800000000000002, 192.0, 0.0, 0.0, 0.0, 0.0, 0.0, 0.0, 0.0, 0.0, 0.0, 1.6581655889555902E9, 0.0, 2022-07-18 13:33:08.955
120.0, -22768.47037893181, -20809.83171580216, -51119.02071464309, -52957.518751325464, -21049.64358206315, -35132.78485927401, -49941.419058015235, -32753.329903284302, -11110.180450699383, -53654.46849518639, -54313.91201185132, -62440.40279870067, -50354.74751648278, -45667.60905594934, -46305.90782235954, -46561.87999986172, 0.076, 0.9380000000000001, 0.20800000000000002, 192.0, 0.0, 0.0, 0.0, 0.0, 0.0, 0.0, 0.0, 0.0, 0.0, 1.6581655889555948E9, 0.0, 2022-07-18 13:33:08.955
122.0, -22719.251837641223, -20859.877271637593, -51035.73811480262, -52887.066052802336, -20995.284139547843, -35078.89480339227, -49855.431897095674, -32663.744111507433, -11128.7771020862, -53663.07391680169, -54332.24044230467, -62456.27253726394, -50370.77371725723, -45685.22223058012, -46321.62109871163, -46577.70503493608, 0.076, 0.9380000000000001, 0.20800000000000002, 192.0, 0.0, 0.0, 0.0, 0.0, 0.0, 0.0, 0.0, 0.0, 0.0, 1.6581655889555998E9, 0.0, 2022-07-18 13:33:08.955
124.0, -22761.36252419502, -20800.443983130932, -51113.92451690728, -52962.57024557236, -21049.867099507705, -35134.282426152524, -49925.191691540684, -32730.732289639986, -11083.112488164006, -53615.26353541178, -54286.709938849206, -62411.412586142134, -50325.19851031286, -45639.46820968011, -46272.40255742104, -46532.04042101389, 0.076, 0.9380000000000001, 0.20800000000000002, 192.0, 0.0, 0.0, 0.0, 0.0, 0.0, 0.0, 0.0, 0.0, 0.0, 1.6581655889556046E9, 0.0, 2022-07-18 13:33:08.955
126.0, -22722.20226790932, -20855.83160589118, -51044.38823990682, -52891.96108483805, -20997.519313993373, -35090.49535876457, -49852.32500461638, -32681.156120438114, -11135.974363800808, -53672.8192773842, -54342.209320331734, -62460.5417204549, -50378.73093828332, -45693.872355684325, -46330.89707266058, -46594.714712466564, 0.078, 0.9390000000000001, 0.20800000000000002, 192.0, 1.0, 64.0, 14.5, 48.0, 3.0, 64.0, 0.0, 0.0, 0.0, 1.6581655889556093E9, 0.0, 2022-07-18 13:33:08.955
128.0, -22761.40722768393, -20801.740384309338, -51118.97601115418, -52950.2991378664, -21045.4191023611, -35119.32910911192, -49916.98860132559, -32708.581710884777, -11085.012386442708, -53619.979753491854, -54288.855706316914, -62405.48937386148, -50321.19754805536, -45631.95802354313, -46272.06728125421, -46530.8334268133, 0.078, 0.9390000000000001, 0.20800000000000002, 192.0, 0.0, 0.0, 0.0, 0.0, 0.0, 0.0, 0.0, 0.0, 0.0, 1.6581655889556143E9, 0.0, 2022-07-18 13:33:08.955
130.0, -22722.895171987435, -20837.324361482188, -51069.71276637468, -52904.36630301074, -21017.769994469883, -35089.668344219725, -49876.71075781713, -32695.729457822974, -11137.87426207951, -53680.12829782109, -54355.642718749375, -62468.43188624763, -50390.040920977706, -45693.62648649532, -46345.11278213415, -46598.40275030169, 0.078, 0.9390000000000001, 0.20800000000000002, 192.0, 0.0, 0.0, 0.0, 0.0, 0.0, 0.0, 0.0, 0.0, 0.0, 1.658165588955619E9, 0.0, 2022-07-18 13:33:08.955
132.0, -22727.566686578597, -20775.432381085444, -51114.88564191886, -52945.33705059732, -21046.380227372676, -35103.95110892667, -49909.8807465888, -32702.680850348577, -11067.130990878462, -53596.82334623615, -54275.243493943635, -62391.430126599094, -50311.63100142849, -45619.2175292036, -46270.39090042006, -46522.96561276503, 0.078, 0.9390000000000001, 0.20800000000000002, 192.0, 0.0, 0.0, 0.0, 0.0, 0.0, 0.0, 0.0, 0.0, 0.0, 1.658165588955624E9, 0.0, 2022-07-18 13:33:08.955
134.0, -22713.552142805118, -20812.201000714424, -51084.59902818192, -52925.62281198774, -21033.43856733305, -35102.23002460361, -49890.63589461278, -32713.76731559841, -11127.81597707462, -53686.878524646585, -54350.9265006693, -62473.21515956106, -50403.07198799515, -45700.35436157636, -46365.78814575531, -46617.66995402217, 0.078, 0.9390000000000001, 0.20800000000000002, 192.0, 0.0, 0.0, 0.0, 0.0, 0.0, 0.0, 0.0, 0.0, 0.0, 1.6581655889556284E9, 0.0, 2022-07-18 13:33:08.955
136.0, -22716.904904473413, -20767.58691878163, -51096.78072891006, -52934.518806280954, -21036.009017945413, -35090.160082597744, -49893.63102836979, -32733.70507165254, -11059.821970441577, -53588.32968334314, -54261.944205992724, -62383.53996080637, -50312.793292140166, -45610.12036921029, -46269.25096145284, -46525.96074652204, 0.076, 0.9375, 0.20500000000000002, 192.0, 1.0, 40.0, 14.5, 32.0, 3.0, 40.0, 0.0, 0.0, 0.0, 1.6581655889556332E9, 0.0, 2022-07-18 13:33:08.955
138.0, -22724.12451793248, -20804.377890155065, -51092.332731763454, -52927.9920969, -21042.0663406928, -35104.17462637122, -49903.1305197633, -32710.794533585853, -11127.458349163337, -53680.24005654336, -54347.9760704012, -62468.186017058615, -50396.00883674727, -45695.4369777962, -46357.96503519596, -46617.84876797781, 0.076, 0.9375, 0.20500000000000002, 192.0, 0.0, 0.0, 0.0, 0.0, 0.0, 0.0, 0.0, 0.0, 0.0, 1.658165588955638E9, 0.0, 2022-07-18 13:33:08.955
140.0, -22720.83881149755, -20781.73557302184, -51095.93136262076, -52922.739436953, -21029.750529497927, -35098.40787630175, -49907.35499946535, -32691.147350209638, -11076.205799127318, -53595.21402063537, -54268.7614880516, -62387.026832941396, -50309.82051012761, -45613.7190000676, -46267.66398759651, -46520.03753424138, 0.076, 0.9375, 0.20500000000000002, 192.0, 0.0, 0.0, 0.0, 0.0, 0.0, 0.0, 0.0, 0.0, 0.0, 1.6581655889556441E9, 0.0, 2022-07-18 13:33:08.955
142.0, -22718.894209729937, -20785.758887023796, -51096.98189461016, -52924.54992825389, -21037.216012146, -35112.80239973097, -49925.057581073954, -32743.67394967961, -11134.20857598884, -53683.70457693393, -54348.154884356845, -62466.28611877991, -50401.015627505265, -45705.29409710099, -46364.75996551037, -46617.96052670009, 0.076, 0.9375, 0.20500000000000002, 192.0, 0.0, 0.0, 0.0, 0.0, 0.0, 0.0, 0.0, 0.0, 0.0, 1.658165588955649E9, 0.0, 2022-07-18 13:33:08.955
144.0, -22689.255796582198, -20768.883319960038, -51063.610740138385, -52897.61607618524, -21026.286009107353, -35081.442902260176, -49891.06057775743, -32680.574975082276, -11057.676202973867, -53581.26653209526, -54248.1531796638, -62367.603167009736, -50308.94879209385, -45615.26127043501, -46261.316092171204, -46515.61188883924, 0.076, 0.9375, 0.20500000000000002, 192.0, 0.0, 0.0, 0.0, 0.0, 0.0, 0.0, 0.0, 0.0, 0.0, 1.6581655889556537E9, 0.0, 2022-07-18 13:33:08.955
146.0, -22727.41022436741, -20784.3060236342, -51098.32299927748, -52944.018297674455, -21069.089599739265, -35121.139600412804, -49943.18484582721, -32731.738118140474, -11129.559413142135, -53679.01071059832, -54334.22974756119, -62457.81480763135, -50395.91942976945, -45702.29896334398, -46355.86397121716, -46614.49600630951, 0.075, 0.9397500000000001, 0.20550000000000002, 192.0, 1.0, 40.0, 14.5, 56.0, 3.0, 56.0, 0.0, 0.0, 0.0, 1.6581655889556584E9, 0.0, 2022-07-18 13:33:08.955
148.0, -22710.467602070286, -20802.232122687357, -51061.33086220394, -52912.81526241485, -21027.895334708137, -35088.03666687449, -49895.843851070866, -32695.23771944496, -11079.357395095516, -53591.70479675589, -54266.59336883943, -62387.49621957496, -50320.884623632985, -45624.55959612842, -46274.59302837766, -46542.009299040954, 0.075, 0.9397500000000001, 0.20550000000000002, 192.0, 0.0, 0.0, 0.0, 0.0, 0.0, 0.0, 0.0, 0.0, 0.0, 1.6581655889556632E9, 0.0, 2022-07-18 13:33:08.955
150.0, -22738.675503572882, -20788.418744613977, -51113.47748201818, -52960.69269903812, -21072.911748041126, -35136.13762094231, -49924.3870287403, -32737.68368216559, -11136.331991712093, -53681.514105977316, -54346.14322735587, -62466.6437466912, -50398.46752863735, -45699.6391057538, -46354.45581131647, -46616.48531156604, 0.075, 0.9397500000000001, 0.20550000000000002, 192.0, 0.0, 0.0, 0.0, 0.0, 0.0, 0.0, 0.0, 0.0, 0.0, 1.658165588955668E9, 0.0, 2022-07-18 13:33:08.955
152.0, -22699.62700600946, -20816.73840483885, -51057.1510859908, -52906.40031175617, -21017.412366558598, -35084.594498228376, -49874.11795546031, -32711.33097545278, -11087.24756088824, -53606.479299840845, -54276.919874777785, -62400.504934847944, -50326.80783591364, -45628.49350315255, -46276.224705722896, -46539.05886877285, 0.075, 0.9397500000000001, 0.20550000000000002, 192.0, 0.0, 0.0, 0.0, 0.0, 0.0, 0.0, 0.0, 0.0, 0.0, 1.6581655889556725E9, 0.0, 2022-07-18 13:33:08.955
154.0, -22728.930142990368, -20771.699639761406, -51113.34337155144, -52957.76462051447, -21076.286861453875, -35128.962710972155, -49933.93122362271, -32750.223010805013, -11127.190128229873, -53682.00584435533, -54336.01788711762, -62466.48728448001, -50393.460737879366, -45699.84027145389, -46348.778468224824, -46605.04121840492, 0.075, 0.9397500000000001, 0.20550000000000002, 192.0, 0.0, 0.0, 0.0, 0.0, 0.0, 0.0, 0.0, 0.0, 0.0, 1.6581655889556775E9, 0.0, 2022-07-18 13:33:08.955
156.0, -22689.412258793385, -20810.479916391363, -51043.71768757316, -52893.39159648318, -21009.58925599924, -35075.4302830017, -49862.271530898994, -32689.94035600905, -11089.616845800501, -53602.299523627706, -54277.03163350006, -62400.43787961458, -50328.663030703436, -45637.79182884596, -46276.53763014527, -46539.774124595424, 0.07050000000000001, 0.943875, 0.20975, 192.0, 1.0, 8.0, 14.5, 80.0, 3.0, 88.0, 0.0, 0.0, 0.0, 1.658165588955682E9, 0.0, 2022-07-18 13:33:08.955
158.0, -22746.92329727689, -20777.712259019885, -51126.039162402056, -52972.18149568814, -21087.194512748065, -35144.2960076685, -49948.191636585194, -32761.44358652158, -11127.033666018686, -53660.50346618932, -54327.56892771351, -62449.90229009418, -50385.36940638655, -45688.79850969297, -46331.4335145275, -46594.91587816666, 0.07050000000000001, 0.943875, 0.20975, 192.0, 0.0, 0.0, 0.0, 0.0, 0.0, 0.0, 0.0, 0.0, 0.0, 1.6581655889556868E9, 0.0, 2022-07-18 13:33:08.955
160.0, -22681.656203467395, -20815.464355404896, -51027.06563795396, -52873.498543917965, -20991.372584268163, -35070.28938177698, -49845.48537081306, -32685.939393751552, -11104.078424463085, -53616.135253445544, -54287.067566760496, -62408.23863842948, -50343.01285064374, -45648.09598303986, -46282.796118592756, -46553.56515092435, 0.07050000000000001, 0.943875, 0.20975, 192.0, 0.0, 0.0, 0.0, 0.0, 0.0, 0.0, 0.0, 0.0, 0.0, 1.6581655889556913E9, 0.0, 2022-07-18 13:33:08.955
162.0, -22754.634649113974, -20788.083468447145, -51124.16161586781, -52966.392393874215, -21074.45401840854, -35122.10072542438, -49936.524025979525, -32734.5767896863, -11110.918058266408, -53649.975794550875, -54307.117081536904, -62433.63022013071, -50362.45886831986, -45661.03764307948, -46294.68724664298, -46559.37660448273, 0.07050000000000001, 0.943875, 0.20975, 192.0, 0.0, 0.0, 0.0, 0.0, 0.0, 0.0, 0.0, 0.0, 0.0, 1.658165588955696E9, 0.0, 2022-07-18 13:33:08.955
164.0, -22693.413221050887, -20836.385588215064, -51029.703143799685, -52879.779384109905, -20987.61749119967, -35056.2748380035, -49846.08886791335, -32684.84415827324, -11118.785872314676, -53645.48309391536, -54310.42513971629, -62440.24633648949, -50357.519132795234, -45666.49146872658, -46290.909801830036, -46559.80128762738, 0.07050000000000001, 0.943875, 0.20975, 192.0, 0.0, 0.0, 0.0, 0.0, 0.0, 0.0, 0.0, 0.0, 0.0, 1.6581655889557009E9, 0.0, 2022-07-18 13:33:08.955
0.0, -11370.421811392524, -10349.751752585382, -25550.860232217343, -26481.363353891775, -10534.041885619388, -17552.33318237462, -24951.900536048477, -16380.632386282969, -5583.130488768875, -26855.50920432916, -27186.069153078697, -31249.549239820153, -25205.883408294132, -22861.0960079546, -23175.406238485128, -23309.963740106075, 0.066, 0.9440000000000001, 0.202, 192.0, 1.0, 8.0, 14.5, 64.0, 3.0, 40.0, 0.0, 0.0, 0.0, 1.6581655895562625E9, 0.0, 2022-07-18 13:33:09.556
2.0, -22682.907901156894, -20713.741566388795, -51018.437864594205, -52882.41688995563, -20994.30066279181, -35021.78609630896, -49817.4562832661, -32660.99484693943, -11009.351731461493, -53565.866180165554, -54274.327072420965, -62369.19014086606, -50304.67960890289, -45581.55483979641, -46298.21882226692, -46544.244473486484, 0.066, 0.9440000000000001, 0.202, 192.0, 0.0, 0.0, 0.0, 0.0, 0.0, 0.0, 0.0, 0.0, 0.0, 1.658165589556352E9, 0.0, 2022-07-18 13:33:09.556
4.0, -22758.36739043801, -20687.008880020247, -51121.79233095555, -52981.32335917036, -21094.54823667386, -35092.9316989102, -49920.78839788299, -32704.871321305196, -11021.689894400823, -53600.73490151583, -54302.51262217911, -62398.80620226934, -50345.985632656295, -45607.818139531395, -46327.61136622565, -46557.47670620403, 0.066, 0.9440000000000001, 0.202, 192.0, 0.0, 0.0, 0.0, 0.0, 0.0, 0.0, 0.0, 0.0, 0.0, 1.65816558955639E9, 0.0, 2022-07-18 13:33:09.556
6.0, -22677.63288946544, -20715.28383675621, -51008.33487610041, -52878.75120386496, -20998.793363427325, -35012.68893631565, -49820.98785889005, -32650.601285767712, -11029.781225893645, -53583.81463096316, -54298.33284596597, -62392.5253620774, -50343.10225762156, -45605.94059299715, -46314.9826306084, -46554.16864802464, 0.066, 0.9440000000000001, 0.202, 192.0, 0.0, 0.0, 0.0, 0.0, 0.0, 0.0, 0.0, 0.0, 0.0, 1.6581655895564015E9, 0.0, 2022-07-18 13:33:09.556
8.0, -22718.69304402984, -20649.07796967959, -51081.358025235895, -52943.414800574166, -21059.187776945564, -35062.15334679525, -49884.869144543314, -32697.42819040158, -10987.31291142856, -53556.858427150066, -54258.680851302255, -62354.795617436845, -50307.674742659896, -45562.75702270949, -46278.25871446833, -46528.240624456485, 0.064, 0.9440000000000001, 0.20600000000000002, 192.0, 1.0, 0.0, 14.5, 64.0, 3.0, 56.0, 0.0, 0.0, 0.0, 1.6581655895564065E9, 0.0, 2022-07-18 13:33:09.556
10.0, -22663.26071778068, -20704.95733081786, -50994.34268407139, -52863.10498274625, -20990.389107512132, -35017.472209629086, -49817.411579777196, -32661.84421322873, -11014.403225708393, -53566.64849122149, -54272.717746820184, -62366.15030362014, -50321.35401026655, -45579.140851395234, -46294.41902570952, -46550.190037511595, 0.064, 0.9440000000000001, 0.20600000000000002, 192.0, 0.0, 0.0, 0.0, 0.0, 0.0, 0.0, 0.0, 0.0, 0.0, 1.658165589556411E9, 0.0, 2022-07-18 13:33:09.556
12.0, -22735.278038415676, -20681.689164839885, -51089.98579859565, -52957.96578621457, -21073.157617230132, -35084.505091250554, -49908.33847622138, -32715.533103410376, -10985.770641061144, -53562.22284581934, -54255.171627422766, -62359.847111683746, -50302.220917012804, -45569.06021464589, -46284.8748308271, -46533.761505336945, 0.064, 0.9440000000000001, 0.20600000000000002, 192.0, 0.0, 0.0, 0.0, 0.0, 0.0, 0.0, 0.0, 0.0, 0.0, 1.6581655895564156E9, 0.0, 2022-07-18 13:33:09.556
14.0, -22693.323814073065, -20742.01652312476, -50998.70127424017, -52873.16326775113, -20998.636901216138, -35025.362375421806, -49821.50194901251, -32640.587704251735, -11026.853147369999, -53610.94964873191, -54298.77988085507, -62407.38927214018, -50334.00509762825, -45613.607241345315, -46316.63665969809, -46556.2920637479, 0.064, 0.9440000000000001, 0.20600000000000002, 192.0, 0.0, 0.0, 0.0, 0.0, 0.0, 0.0, 0.0, 0.0, 0.0, 1.6581655895564203E9, 0.0, 2022-07-18 13:33:09.556
16.0, -22734.562782593108, -20698.587083648097, -51086.878906116355, -52955.73061176904, -21058.628983334183, -35069.70823642114, -49895.150946992755, -32687.88399551916, -10977.969882246243, -53576.08092738163, -54256.91506349028, -62367.91609143211, -50284.96537029331, -45568.16614486768, -46266.61345560711, -46501.038551454374, 0.064, 0.9440000000000001, 0.20600000000000002, 192.0, 0.0, 0.0, 0.0, 0.0, 0.0, 0.0, 0.0, 0.0, 0.0, 1.658165589556425E9, 0.0, 2022-07-18 13:33:09.556
18.0, -22698.420011808874, -20762.423665812454, -51031.42422812274, -52908.50137573497, -21011.176229855566, -35043.60139889734, -49837.43874280915, -32672.997733711927, -11030.496481716214, -53645.974832293374, -54324.75260791214, -62434.077255019816, -50352.17706587042, -45641.52457017, -46335.81445644074, -46575.82748840183, 0.06, 0.9420000000000001, 0.21, 192.0, 0.5, 112.0, 14.5, 56.0, 3.0, 72.0, 0.0, 0.0, 0.0, 1.6581655895564296E9, 0.0, 2022-07-18 13:33:09.556
20.0, -22726.002064466724, -20717.116679801547, -51089.94109510673, -52970.43805962063, -21059.21012869002, -35094.07163787742, -49907.086778531884, -32711.263920219415, -10963.150675672374, -53586.74270948681, -54254.769296022576, -62372.207626367526, -50282.32786444758, -45589.44500558913, -46265.40646140653, -46511.65563007064, 0.06, 0.9420000000000001, 0.21, 192.0, 0.0, 0.0, 0.0, 0.0, 0.0, 0.0, 0.0, 0.0, 0.0, 1.6581655895564344E9, 0.0, 2022-07-18 13:33:09.556
22.0, -22696.743630974728, -20768.48098855984, -51037.258033425576, -52929.15438761168, -21025.88367770716, -35091.54589075397, -49852.4144115942, -32731.693414651563, -11029.982391593741, -53679.413041998516, -54328.97708761419, -62450.52813893893, -50368.560894556154, -45683.14351834578, -46353.85231421618, -46611.52322429696, 0.06, 0.9420000000000001, 0.21, 192.0, 0.0, 0.0, 0.0, 0.0, 0.0, 0.0, 0.0, 0.0, 0.0, 1.6581655895564392E9, 0.0, 2022-07-18 13:33:09.556
24.0, -22703.203285122312, -20718.77070889124, -51065.06360352798, -52956.42351584715, -21055.052704221333, -35099.2348908466, -49881.62814159729, -32713.99083304296, -10950.276070866117, -53581.33358732863, -54229.936507932725, -62357.70134421603, -50279.04215801265, -45590.137909667246, -46258.455068880925, -46523.52440637641, 0.06, 0.9420000000000001, 0.21, 192.0, 0.0, 0.0, 0.0, 0.0, 0.0, 0.0, 0.0, 0.0, 0.0, 1.658165589556444E9, 0.0, 2022-07-18 13:33:09.556
26.0, -22685.88068316945, -20757.573337265654, -51027.91500424326, -52928.997925400494, -21035.003189444924, -35095.6362599893, -49871.659263570225, -32735.917894353617, -11021.488728700726, -53683.79398391175, -54315.49898570764, -62446.48247319251, -50362.21299913085, -45685.51280325804, -46357.16037239556, -46628.59995706081, 0.06, 0.9420000000000001, 0.21, 192.0, 0.0, 0.0, 0.0, 0.0, 0.0, 0.0, 0.0, 0.0, 0.0, 1.6581655895564487E9, 0.0, 2022-07-18 13:33:09.556
28.0, -22704.36557583399, -20736.00390386628, -51048.54566437551, -52940.97846042854, -21037.439529590552, -35087.433169774195, -49883.28217068699, -32736.342577498268, -10942.475312051214, -53582.31706408466, -54222.91806017376, -62352.9180709026, -50257.539779846644, -45586.78514799895, -46252.06246996671, -46525.40195291066, 0.064, 0.9440000000000001, 0.20800000000000002, 192.0, 1.0, 0.0, 14.5, 64.0, 3.0, 64.0, 0.0, 0.0, 0.0, 1.6581655895564535E9, 0.0, 2022-07-18 13:33:09.556
30.0, -22717.55310506262, -20774.44890432941, -51057.95574879119, -52942.408972073674, -21044.860308749714, -35104.018164160036, -49896.67086561571, -32764.99751388997, -11024.7520833912, -53688.46549850291, -54329.982916114684, -62452.673906406635, -50358.234388617806, -45686.07159686942, -46358.94851195199, -46624.19666340312, 0.064, 0.9440000000000001, 0.20800000000000002, 192.0, 0.0, 0.0, 0.0, 0.0, 0.0, 0.0, 0.0, 0.0, 0.0, 1.6581655895564582E9, 0.0, 2022-07-18 13:33:09.556
32.0, -22694.709622229293, -20741.413026024464, -51044.790571307014, -52919.81135842936, -21016.294779335833, -35059.627599671796, -49858.53878957496, -32669.577916810267, -10958.859140736955, -53583.88168619653, -54246.856778485395, -62363.8704256857, -50269.721480574786, -45600.15149118322, -46263.6183218501, -46513.488473115984, 0.064, 0.9440000000000001, 0.20800000000000002, 192.0, 0.0, 0.0, 0.0, 0.0, 0.0, 0.0, 0.0, 0.0, 0.0, 1.6581655895564628E9, 0.0, 2022-07-18 13:33:09.556
34.0, -22708.992386936236, -20751.895994174003, -51067.72346111816, -52945.58291978633, -21049.576526829784, -35093.42343728822, -49889.18303122318, -32723.91500758112, -11014.917315830866, -53673.109850062116, -54323.45620673373, -62439.97811555602, -50352.04295540368, -45678.986093877094, -46354.1428868941, -46593.038331632415, 0.064, 0.9440000000000001, 0.20800000000000002, 192.0, 0.0, 0.0, 0.0, 0.0, 0.0, 0.0, 0.0, 0.0, 0.0, 1.6581655895564675E9, 0.0, 2022-07-18 13:33:09.556
36.0, -22678.370497032465, -20742.64237196951, -51031.26776591156, -52905.997980355976, -21014.081956634756, -35052.65385540174, -49865.24431291155, -32680.172643682083, -10953.964108701242, -53581.15477337298, -54237.04436266951, -62352.78396043587, -50271.6660823424, -45587.99214219954, -46266.21112420692, -46501.48558634348, 0.064, 0.9440000000000001, 0.20800000000000002, 192.0, 0.0, 0.0, 0.0, 0.0, 0.0, 0.0, 0.0, 0.0, 0.0, 1.6581655895564723E9, 0.0, 2022-07-18 13:33:09.556
38.0, -22715.63085503946, -20749.370247050556, -51076.39593796682, -52953.406030345686, -21068.150826472145, -35104.55460602696, -49922.35301999486, -32738.890676366173, -11013.285638485628, -53671.74639365034, -54319.3211340095, -62436.22302248753, -50352.66880424843, -45668.011387349536, -46362.7930119983, -46596.189927600615, 0.07, 0.9460000000000001, 0.20400000000000001, 192.0, 1.0, 24.0, 14.5, 72.0, 3.0, 48.0, 0.0, 0.0, 0.0, 1.6581655895564787E9, 0.0, 2022-07-18 13:33:09.556
40.0, -22680.605671477995, -20758.757979721784, -51022.014143707056, -52906.78029141192, -20998.189866327033, -35049.79283211146, -49847.78760049196, -32697.00350725693, -10961.071963438031, -53586.765061231265, -54245.35921160689, -62367.53611177637, -50268.15685846291, -45588.97561895557, -46277.744624345854, -46522.00448775345, 0.07, 0.9460000000000001, 0.20400000000000001, 192.0, 0.0, 0.0, 0.0, 0.0, 0.0, 0.0, 0.0, 0.0, 0.0, 1.6581655895564835E9, 0.0, 2022-07-18 13:33:09.556
42.0, -22719.609465552505, -20745.995133637804, -51089.22583928417, -52972.42736487715, -21063.83693979227, -35103.48172229311, -49920.34136299388, -32763.96933364503, -11011.586905907025, -53670.98643433886, -54321.06457007701, -62447.06361854835, -50346.544426267676, -45666.31265477093, -46355.618102028144, -46607.298744594904, 0.07, 0.9460000000000001, 0.20400000000000001, 192.0, 0.0, 0.0, 0.0, 0.0, 0.0, 0.0, 0.0, 0.0, 0.0, 1.658165589556488E9, 0.0, 2022-07-18 13:33:09.556
44.0, -22663.216014291767, -20751.806587196184, -51010.90532671277, -52899.73949190849, -20986.566959210275, -35035.286549959965, -49834.93534743015, -32688.88982401965, -10963.329489628017, -53589.69313975491, -54251.5059413321, -62373.9734141795, -50282.05964351412, -45601.20202317262, -46286.998246550356, -46538.96946179503, 0.07, 0.9460000000000001, 0.20400000000000001, 192.0, 0.0, 0.0, 0.0, 0.0, 0.0, 0.0, 0.0, 0.0, 0.0, 1.6581655895564928E9, 0.0, 2022-07-18 13:33:09.556
46.0, -22709.12649740297, -20724.24688628279, -51087.929438105755, -52970.23689392053, -21057.891375767158, -35092.484664021096, -49914.239336757586, -32733.794478630363, -10986.50824862817, -53643.404381681015, -54292.431985429765, -62416.531135622405, -50328.7300859368, -45641.54692191445, -46338.36255530865, -46588.299761807895, 0.07, 0.9460000000000001, 0.20400000000000001, 192.0, 0.0, 0.0, 0.0, 0.0, 0.0, 0.0, 0.0, 0.0, 0.0, 1.6581655895564976E9, 0.0, 2022-07-18 13:33:09.556
48.0, -22670.234462050732, -20767.49751180381, -51016.64972503779, -52894.17390753912, -20997.87694190466, -35033.207837725626, -49846.848827224836, -32706.480646905977, -10971.17495193183, -53595.862221224575, -54258.680851302255, -62377.236768869974, -50293.61549539751, -45596.95519172611, -46301.817453124226, -46543.08218277481, 0.074, 0.9480000000000001, 0.202, 192.0, 1.0, 40.0, 14.5, 80.0, 3.0, 40.0, 0.0, 0.0, 0.0, 1.658165589556502E9, 0.0, 2022-07-18 13:33:09.556
50.0, -22720.816459753092, -20729.365435763055, -51101.005208612114, -52969.253417164495, -21077.113875998723, -35099.36900131333, -49907.73497912109, -32727.848914605253, -10997.7958795781, -53646.533625904754, -54299.763357611104, -62418.632199601205, -50336.10616160705, -45637.00951779002, -46352.22063687094, -46583.85176466129, 0.074, 0.9480000000000001, 0.202, 192.0, 0.0, 0.0, 0.0, 0.0, 0.0, 0.0, 0.0, 0.0, 0.0, 1.6581655895565069E9, 0.0, 2022-07-18 13:33:09.556
52.0, -22658.05276132259, -20766.87166295906, -51005.40679757676, -52882.014558555435, -20992.11019183519, -35032.492581903054, -49822.775998446465, -32635.782079193843, -10967.084582696509, -53596.063386924674, -54257.78678152404, -62374.75572523543, -50292.7214256193, -45600.01738071649, -46306.60072643766, -46536.711935605046, 0.074, 0.9480000000000001, 0.202, 192.0, 0.0, 0.0, 0.0, 0.0, 0.0, 0.0, 0.0, 0.0, 0.0, 1.6581655895565116E9, 0.0, 2022-07-18 13:33:09.556
54.0, -22713.73095676076, -20718.3907292355, -51100.15584232281, -52973.746117800016, -21078.678498110592, -35099.10078037987, -49932.00897359955, -32740.075318822306, -10972.672518810336, -53618.10220695761, -54271.57780785296, -62394.782888267386, -50310.535765950175, -45625.78894207346, -46332.05936337225, -46568.51846796495, 0.074, 0.9480000000000001, 0.202, 192.0, 0.0, 0.0, 0.0, 0.0, 0.0, 0.0, 0.0, 0.0, 0.0, 1.6581655895565162E9, 0.0, 2022-07-18 13:33:09.556
56.0, -22646.854537350482, -20758.02037215476, -50993.76153871555, -52872.26919797292, -20989.360927267186, -35023.84245679885, -49835.5611962749, -32675.18820466855, -10980.763850303156, -53606.25578239629, -54265.83340952795, -62388.63615854218, -50309.641696171966, -45619.2175292036, -46331.657031972056, -46575.0451773459, 0.074, 0.9480000000000001, 0.202, 192.0, 0.0, 0.0, 0.0, 0.0, 0.0, 0.0, 0.0, 0.0, 0.0, 1.6581655895565207E9, 0.0, 2022-07-18 13:33:09.556
58.0, -22704.186761878344, -20712.24399951029, -51076.194772266725, -52950.947338455604, -21057.98078274498, -35075.765559168525, -49899.66599937272, -32720.58459765728, -10954.500550568171, -53593.492936312316, -54241.78293249404, -62363.37868730768, -50289.81569884011, -45592.6636567907, -46297.950601333454, -46541.316394962836, 0.074, 0.9450000000000001, 0.21300000000000002, 192.0, 1.0, 40.0, 14.5, 56.0, 3.5, 0.0, 0.0, 0.0, 0.0, 1.6581655895565257E9, 0.0, 2022-07-18 13:33:09.556
60.0, -22684.271357568665, -20789.715145792383, -51008.06665516695, -52892.09519530478, -21000.492096005928, -35043.60139889734, -49833.08015264037, -32694.544815366844, -10991.470335897247, -53629.12161697407, -54282.999549269625, -62401.04137671488, -50321.10814107754, -45627.97941303008, -46324.45977025745, -46571.20067729958, 0.074, 0.9450000000000001, 0.21300000000000002, 192.0, 0.0, 0.0, 0.0, 0.0, 0.0, 0.0, 0.0, 0.0, 0.0, 1.6581655895565302E9, 0.0, 2022-07-18 13:33:09.556
62.0, -22714.423860838877, -20726.035025839214, -51087.68356891675, -52960.6479955492, -21064.75336131494, -35085.823844173414, -49902.147043007266, -32706.927681795085, -10973.74540254419, -53611.88842199903, -54267.77801129556, -62382.891760217164, -50308.725274649296, -45606.78995928645, -46303.06915081372, -46544.177418253115, 0.074, 0.9450000000000001, 0.21300000000000002, 192.0, 0.0, 0.0, 0.0, 0.0, 0.0, 0.0, 0.0, 0.0, 0.0, 1.6581655895565348E9, 0.0, 2022-07-18 13:33:09.556
64.0, -22662.00902009118, -20765.48585480283, -51006.1891086327, -52888.92124759212, -21003.554284996306, -35036.56059939392, -49837.4163910647, -32695.684754334066, -10991.671501597346, -53629.09926522962, -54290.80030808453, -62406.76342329544, -50329.355934781546, -45640.541093413965, -46333.80279943977, -46573.972293612045, 0.074, 0.9450000000000001, 0.21300000000000002, 192.0, 0.0, 0.0, 0.0, 0.0, 0.0, 0.0, 0.0, 0.0, 0.0, 1.6581655895565412E9, 0.0, 2022-07-18 13:33:09.556
66.0, -22694.329642573553, -20709.76295587575, -51068.237551240636, -52949.36036459928, -21055.186814688066, -35075.89966963526, -49892.02170276901, -32702.09970499274, -10942.967050429232, -53574.51630526976, -54228.59540326541, -62349.29708830084, -50274.30358818812, -45585.28758112044, -46271.10615624263, -46516.01422023943, 0.074, 0.9450000000000001, 0.21300000000000002, 192.0, 0.0, 0.0, 0.0, 0.0, 0.0, 0.0, 0.0, 0.0, 0.0, 1.6581655895565476E9, 0.0, 2022-07-18 13:33:09.556
68.0, -22668.24515679421, -20765.999944925305, -51005.96559118815, -52900.43239598661, -21006.504715264407, -35055.40311996974, -49834.80123696342, -32701.451504403536, -10996.611237121968, -53634.0613524987, -54283.1113079919, -62406.07051921732, -50334.318022050626, -45647.33602372838, -46322.17989232301, -46579.96256112606, 0.074, 0.9435, 0.21550000000000002, 192.0, 1.0, 40.0, 14.5, 56.0, 3.0, 104.0, 0.0, 0.0, 0.0, 1.6581655895565543E9, 0.0, 2022-07-18 13:33:09.556
70.0, -22708.321834602575, -20730.23715379681, -51060.325033703455, -52952.73547801203, -21046.380227372676, -35085.84619591787, -49878.923580518196, -32748.792499159874, -10952.846521478477, -53580.484221039325, -54231.85875795588, -62356.404943037625, -50272.448393398336, -45588.14860441072, -46240.216045405396, -46524.35142092126, 0.074, 0.9435, 0.21550000000000002, 192.0, 0.0, 0.0, 0.0, 0.0, 0.0, 0.0, 0.0, 0.0, 0.0, 1.658165589556563E9, 0.0, 2022-07-18 13:33:09.556
72.0, -22689.456962282296, -20774.851235729606, -51030.03841996651, -52922.784140441916, -21029.191735886543, -35074.51386147903, -49854.49312382855, -32699.775123569387, -11021.891060100921, -53658.983547566364, -54314.29199150706, -62433.13848175269, -50348.80195245767, -45666.826744893406, -46326.71729644744, -46602.18019511464, 0.074, 0.9435, 0.21550000000000002, 192.0, 0.0, 0.0, 0.0, 0.0, 0.0, 0.0, 0.0, 0.0, 0.0, 1.6581655895565677E9, 0.0, 2022-07-18 13:33:09.556
74.0, -22708.25477936921, -20740.183680079423, -51065.220065739166, -52950.746172755506, -21044.77090177189, -35081.308791793446, -49878.94593226266, -32694.164835711104, -10963.8882832394, -53570.87297092354, -54240.777103993554, -62353.70038195854, -50272.80602130962, -45586.53927880994, -46245.33459488566, -46515.83540628379, 0.074, 0.9435, 0.21550000000000002, 192.0, 0.0, 0.0, 0.0, 0.0, 0.0, 0.0, 0.0, 0.0, 0.0, 1.6581655895565724E9, 0.0, 2022-07-18 13:33:09.556
76.0, -22692.80972395059, -20764.524729791254, -51045.61758585186, -52934.13882662521, -21040.166442414098, -35089.86950991982, -49884.77973756549, -32744.500964224455, -11032.105807316997, -53670.025309327284, -54329.17825331429, -62441.3862754567, -50364.60463578757, -45686.250410825065, -46351.572436281735, -46623.41435234718, 0.074, 0.9435, 0.21550000000000002, 192.0, 0.0, 0.0, 0.0, 0.0, 0.0, 0.0, 0.0, 0.0, 0.0, 1.6581655895565772E9, 0.0, 2022-07-18 13:33:09.556
78.0, -22679.219863321767, -20729.3430840186, -51041.43780963872, -52925.4439980321, -21027.023616674378, -35076.36905626882, -49875.637874083266, -32736.700205409554, -10943.682306251801, -53563.47454350883, -54225.08617938592, -62336.78011140587, -50266.12284971748, -45589.33324686685, -46252.665967067005, -46529.49232214598, 0.07200000000000001, 0.94075, 0.21275, 192.0, 1.0, 24.0, 14.5, 40.0, 3.0, 72.0, 0.0, 0.0, 0.0, 1.6581655895565817E9, 0.0, 2022-07-18 13:33:09.556
80.0, -22702.91271244439, -20767.58691878163, -51054.446524911706, -52943.66066976317, -21052.079922208777, -35102.29707983698, -49878.76711830701, -32729.100612294747, -11016.03490305363, -53659.251768499824, -54313.04029381756, -62427.081159005305, -50358.05557466216, -45677.95791363215, -46350.36544208115, -46623.23553839154, 0.07200000000000001, 0.94075, 0.21275, 192.0, 0.0, 0.0, 0.0, 0.0, 0.0, 0.0, 0.0, 0.0, 0.0, 1.6581655895565865E9, 0.0, 2022-07-18 13:33:09.556
82.0, -22684.271357568665, -20754.466444786365, -51029.68079205523, -52920.86189041876, -21021.54743928283, -35064.56733519642, -49856.66124304071, -32687.168739696594, -10962.100143682974, -53571.56587500166, -54234.138635890326, -62348.782998178365, -50274.43769865486, -45592.0601596904, -46258.83504853667, -46530.408743668646, 0.07200000000000001, 0.94075, 0.21275, 192.0, 0.0, 0.0, 0.0, 0.0, 0.0, 0.0, 0.0, 0.0, 0.0, 1.6581655895565913E9, 0.0, 2022-07-18 13:33:09.556
84.0, -22700.49872404322, -20763.40714256849, -51055.20648422319, -52949.22625413254, -21047.02842796188, -35099.30194607996, -49886.523173633, -32735.58261818679, -11019.789996122123, -53663.40919296852, -54315.54368919655, -62435.35130445377, -50353.56287402665, -45674.783965919494, -46349.67253800303, -46620.46392207908, 0.07200000000000001, 0.94075, 0.21275, 192.0, 0.0, 0.0, 0.0, 0.0, 0.0, 0.0, 0.0, 0.0, 0.0, 1.658165589556596E9, 0.0, 2022-07-18 13:33:09.556
86.0, -22668.78159866114, -20761.261375100778, -51012.71581801365, -52896.61024768475, -20992.020784857366, -35041.9697215521, -49832.297841584426, -32693.5166351219, -10956.288690124595, -53569.777735445234, -54232.663420756275, -62352.62749822468, -50253.71763154479, -45588.14860441072, -46249.67083330999, -46523.770275565425, 0.07200000000000001, 0.94075, 0.21275, 192.0, 0.0, 0.0, 0.0, 0.0, 0.0, 0.0, 0.0, 0.0, 0.0, 1.6581655895566008E9, 0.0, 2022-07-18 13:33:09.556
88.0, -22708.657110769407, -20756.83572969863, -51069.95863556369, -52949.539178554915, -21054.940945499056, -35098.56433851294, -49906.01389479803, -32745.149164813658, -11011.65396114039, -53656.86013184311, -54304.85955534691, -62420.88972579119, -50337.71548720783, -45661.9764163466, -46328.438380770494, -46598.31334332387, 0.07, 0.938375, 0.210375, 192.0, 1.0, 16.0, 14.5, 32.0, 3.0, 64.0, 0.0, 0.0, 0.0, 1.6581655895566056E9, 0.0, 2022-07-18 13:33:09.556
90.0, -22665.652354437396, -20763.63066001304, -51004.669190009736, -52885.926113835114, -20987.25986328839, -35035.845343571345, -49813.835300664345, -32671.746036022432, -10963.754172772668, -53569.91184591196, -54233.62454576785, -62346.257251054914, -50268.20156195183, -45588.528584066466, -46252.12952520008, -46520.417513897126, 0.07, 0.938375, 0.210375, 192.0, 0.0, 0.0, 0.0, 0.0, 0.0, 0.0, 0.0, 0.0, 0.0, 1.6581655895566103E9, 0.0, 2022-07-18 13:33:09.556
92.0, -22722.336378376054, -20757.171005865457, -51086.320112504975, -52968.2028851751, -21062.384076402675, -35099.48076003561, -49899.3754266948, -32733.34744374126, -11008.301199472095, -53643.85141657012, -54301.529145423076, -62415.72647282201, -50333.55806273915, -45648.74418362906, -46317.48602598739, -46587.58450598532, 0.07, 0.938375, 0.210375, 192.0, 0.0, 0.0, 0.0, 0.0, 0.0, 0.0, 0.0, 0.0, 0.0, 1.658165589556615E9, 0.0, 2022-07-18 13:33:09.556
94.0, -22675.621232464462, -20792.15148593801, -51019.778969261526, -52905.28272453341, -20996.11115409269, -35040.047471528946, -49835.158864874706, -32684.12890245067, -10986.642359094902, -53594.185840390426, -54267.24156942863, -62378.80139098185, -50288.92162906189, -45604.0630464629, -46269.20625796393, -46537.5836536388, 0.07, 0.938375, 0.210375, 192.0, 0.0, 0.0, 0.0, 0.0, 0.0, 0.0, 0.0, 0.0, 0.0, 1.6581655895566196E9, 0.0, 2022-07-18 13:33:09.556
96.0, -22723.811593510105, -20755.427569797943, -51100.84874640092, -52982.86562953778, -21067.92730902759, -35107.54973978397, -49902.81759534092, -32764.371665045222, -11011.430443695837, -53649.99814629533, -54311.02863681658, -62429.3386851953, -50336.687306962885, -45652.40986971973, -46326.73964819189, -46592.92657291014, 0.07, 0.938375, 0.210375, 192.0, 0.0, 0.0, 0.0, 0.0, 0.0, 0.0, 0.0, 0.0, 0.0, 1.6581655895566244E9, 0.0, 2022-07-18 13:33:09.556
98.0, -22664.24419453671, -20791.145657437522, -51002.97045743113, -52891.9834365825, -20981.53781670783, -35036.94057904966, -49812.315382041386, -32683.167777439092, -10982.216713692751, -53600.84666023811, -54264.469953116175, -62381.9753386945, -50290.10627151803, -45610.321534910385, -46279.91274355802, -46543.73038336401, 0.07100000000000001, 0.9371875000000001, 0.20818750000000003, 192.0, 1.0, 32.0, 14.5, 32.0, 3.0, 56.0, 0.0, 0.0, 0.0, 1.6581655895566292E9, 0.0, 2022-07-18 13:33:09.556
100.0, -22733.087567459057, -20755.427569797943, -51085.04606307102, -52971.153315443196, -21060.77475080189, -35098.7878559575, -49902.16939475172, -32737.258999020938, -10996.633588866423, -53635.93889903294, -54285.25707545961, -62406.85283027325, -50320.37053351051, -45640.541093413965, -46313.79798815227, -46574.48638373451, 0.07100000000000001, 0.9371875000000001, 0.20818750000000003, 192.0, 0.0, 0.0, 0.0, 0.0, 0.0, 0.0, 0.0, 0.0, 0.0, 1.6581655895566337E9, 0.0, 2022-07-18 13:33:09.556
102.0, -22671.352049273497, -20802.142715709535, -50982.786832187994, -52873.36443345123, -20972.261842758875, -35022.300186431436, -49818.08213211085, -32678.004524469918, -10995.471298154747, -53611.66490455448, -54270.10259271891, -62388.50204807545, -50302.04210305716, -45619.23988094806, -46295.44720595446, -46551.26292124545, 0.07100000000000001, 0.9371875000000001, 0.20818750000000003, 192.0, 0.0, 0.0, 0.0, 0.0, 0.0, 0.0, 0.0, 0.0, 0.0, 1.65816558955664E9, 0.0, 2022-07-18 13:33:09.556
104.0, -22737.133233205466, -20757.372171565556, -51087.68356891675, -52963.84429500631, -21063.993402003456, -35089.80245468646, -49906.9303163207, -32734.420327475113, -10981.300292170083, -53614.43652086693, -54269.856723529905, -62388.278530630894, -50300.544536178655, -45610.65681107722, -46288.42875819549, -46544.40093569767, 0.07100000000000001, 0.9371875000000001, 0.20818750000000003, 192.0, 0.0, 0.0, 0.0, 0.0, 0.0, 0.0, 0.0, 0.0, 0.0, 1.658165589556645E9, 0.0, 2022-07-18 13:33:09.556
106.0, -22670.86031089548, -20800.17576219747, -50998.455405051165, -52875.64431138567, -20986.857531888192, -35030.23505571306, -49828.654507238214, -32693.09195197725, -11010.379911706437, -53629.2557274408, -54295.293008720044, -62408.81978378532, -50327.2772225472, -45634.394363688756, -46312.41217999604, -46565.47863071902, 0.07100000000000001, 0.9371875000000001, 0.20818750000000003, 192.0, 0.0, 0.0, 0.0, 0.0, 0.0, 0.0, 0.0, 0.0, 0.0, 1.6581655895566497E9, 0.0, 2022-07-18 13:33:09.556
108.0, -22718.044843440635, -20747.872680172048, -51093.606781197406, -52962.19026591662, -21065.245099692955, -35086.09206510688, -49905.566859908926, -32745.931475869595, -10976.517018856648, -53598.522078814756, -54257.11622919038, -62375.068649657806, -50296.18594600987, -45603.481901107065, -46278.92926680199, -46534.16383673714, 0.07050000000000001, 0.93559375, 0.20709375000000002, 192.0, 1.0, 24.0, 14.5, 24.0, 3.0, 56.0, 0.0, 0.0, 0.0, 1.6581655895566545E9, 0.0, 2022-07-18 13:33:09.556
110.0, -22655.415255476866, -20794.83369527265, -50998.47775679562, -52874.34791020727, -20986.67871793255, -35031.307939446924, -49810.840166907336, -32684.24066117295, -11014.17970826384, -53634.2625181988, -54295.13654650886, -62415.30178967736, -50342.141132609984, -45650.33115748539, -46319.54238647728, -46571.11127032176, 0.07050000000000001, 0.93559375, 0.20709375000000002, 192.0, 0.0, 0.0, 0.0, 0.0, 0.0, 0.0, 0.0, 0.0, 0.0, 1.6581655895566587E9, 0.0, 2022-07-18 13:33:09.556
112.0, -22718.603637052016, -20749.526709261743, -51080.39690022432, -52954.38950710172, -21050.49294835245, -35074.3797510123, -49885.4726416436, -32716.583635399777, -10957.294518625084, -53576.282093081725, -54234.16098763478, -62359.53418726137, -50285.658274371424, -45589.3108951224, -46258.5668276032, -46512.16972019312, 0.07050000000000001, 0.93559375, 0.20709375000000002, 192.0, 0.0, 0.0, 0.0, 0.0, 0.0, 0.0, 0.0, 0.0, 0.0, 1.6581655895566635E9, 0.0, 2022-07-18 13:33:09.556
114.0, -22688.071154126068, -20810.70343383592, -51010.59240229039, -52896.52084070693, -20996.424078515065, -35044.33900646437, -49830.755571217014, -32701.13857998116, -11027.188423536829, -53652.47918992987, -54308.52524143759, -62433.49610966398, -50352.3335280816, -45662.356396002346, -46330.36063079365, -46585.1928693286, 0.07050000000000001, 0.93559375, 0.20709375000000002, 192.0, 0.0, 0.0, 0.0, 0.0, 0.0, 0.0, 0.0, 0.0, 0.0, 1.6581655895566683E9, 0.0, 2022-07-18 13:33:09.556
116.0, -22711.674596270874, -20759.853215200095, -51062.828429082445, -52942.61013777377, -21036.612515045705, -35067.69657942016, -49880.08587122987, -32715.890731321662, -10961.295480882583, -53590.27428511075, -54242.095856916414, -62369.86069319972, -50275.42117541089, -45592.0601596904, -46251.1684001885, -46508.325220146806, 0.07050000000000001, 0.93559375, 0.20709375000000002, 192.0, 0.0, 0.0, 0.0, 0.0, 0.0, 0.0, 0.0, 0.0, 0.0, 1.658165589556674E9, 0.0, 2022-07-18 13:33:09.556
118.0, -22696.833037952547, -20819.666483362496, -51021.5447570735, -52914.0893118488, -21010.170401355077, -35076.41375975773, -49842.847864967334, -32726.686623893576, -11017.197193765307, -53667.34309999265, -54314.20258452924, -62440.648667889676, -50352.24412110378, -45674.6275037083, -46330.1371133491, -46592.144261854206, 0.07225000000000001, 0.9397968750000001, 0.20654687500000002, 192.0, 1.0, 40.0, 14.5, 64.0, 3.0, 56.0, 0.0, 0.0, 0.0, 1.6581655895566788E9, 0.0, 2022-07-18 13:33:09.556
120.0, -22698.509418786696, -20752.63360174103, -51052.59133012192, -52932.10481787978, -21028.007093430413, -35069.37296025431, -49864.529057088985, -32713.36498419821, -10958.501512825671, -53590.050767666195, -54237.424342325256, -62362.23874834046, -50274.90708528842, -45602.431369117665, -46253.068298467195, -46517.623545840215, 0.07225000000000001, 0.9397968750000001, 0.20654687500000002, 192.0, 0.0, 0.0, 0.0, 0.0, 0.0, 0.0, 0.0, 0.0, 0.0, 1.6581655900356357E9, 0.0, 2022-07-18 13:33:10.035
122.0, -22689.859293682493, -20790.095125448122, -51036.296908414, -52915.67628570513, -21027.29183760784, -35074.53621322349, -49857.51060933001, -32708.4699521625, -11015.453757697793, -53653.35090796363, -54310.93922983876, -62426.87999330521, -50355.59688277208, -45665.619750692815, -46341.62590999912, -46594.155918855184, 0.07225000000000001, 0.9397968750000001, 0.20654687500000002, 192.0, 0.0, 0.0, 0.0, 0.0, 0.0, 0.0, 0.0, 0.0, 0.0, 1.6581655900357015E9, 0.0, 2022-07-18 13:33:10.035
124.0, -22691.334508816544, -20754.73466571983, -51054.73709758963, -52927.9920969, -21036.29959062333, -35061.572201439405, -49876.01785373901, -32707.687641106564, -10960.826094249021, -53567.0955261106, -54236.06088591348, -62349.833530167765, -50280.04798651314, -45584.14764215322, -46261.45020263794, -46513.86845277172, 0.07225000000000001, 0.9397968750000001, 0.20654687500000002, 192.0, 0.0, 0.0, 0.0, 0.0, 0.0, 0.0, 0.0, 0.0, 0.0, 1.6581655900357404E9, 0.0, 2022-07-18 13:33:10.035
126.0, -22693.457924539798, -20786.854122502104, -51049.283271942535, -52928.46148353356, -21034.31028536681, -35078.71598943663, -49862.562103576915, -32736.275522264903, -11017.823042610054, -53659.408230711015, -54317.532994453075, -62432.400874185674, -50359.84371421859, -45664.4798117256, -46348.018508913345, -46597.531032267936, 0.07225000000000001, 0.9397968750000001, 0.20654687500000002, 192.0, 0.0, 0.0, 0.0, 0.0, 0.0, 0.0, 0.0, 0.0, 0.0, 1.658165590035764E9, 0.0, 2022-07-18 13:33:10.035
128.0, -22687.1547326034, -20761.037857656225, -51033.32412640144, -52918.80552992887, -21012.24911358942, -35062.1756985397, -49833.19191136264, -32687.727533307974, -10956.065172680042, -53568.88366566702, -54232.93164168974, -62346.883099899664, -50273.54362887664, -45580.750176996014, -46248.955577487424, -46506.44767361256, 0.07212500000000001, 0.9428984375, 0.2112734375, 192.0, 1.0, 32.0, 14.5, 72.0, 3.0, 96.0, 0.0, 0.0, 0.0, 1.6581655900357707E9, 0.0, 2022-07-18 13:33:10.035
130.0, -22692.720316972773, -20765.754075736295, -51038.71089681517, -52934.027067902935, -21030.01875043139, -35081.68877144918, -49853.57670230588, -32689.627431586676, -11016.191365264818, -53666.38197498107, -54312.07916880598, -62427.39408342768, -50345.15861811145, -45673.19699206317, -46331.61232848315, -46593.50771826598, 0.07212500000000001, 0.9428984375, 0.2112734375, 192.0, 0.0, 0.0, 0.0, 0.0, 0.0, 0.0, 0.0, 0.0, 0.0, 1.6581655900357769E9, 0.0, 2022-07-18 13:33:10.035
132.0, -22666.568775960062, -20747.984438894324, -51010.30182961248, -52899.15834655266, -20993.294834291322, -35035.06303251541, -49827.87219618228, -32654.579896280757, -10949.002021432165, -53564.1450958425, -54221.80047295099, -62335.97544860547, -50248.688489042346, -45576.995083927526, -46237.62324304858, -46501.329124132295, 0.07212500000000001, 0.9428984375, 0.2112734375, 192.0, 0.0, 0.0, 0.0, 0.0, 0.0, 0.0, 0.0, 0.0, 0.0, 1.6581655900357833E9, 0.0, 2022-07-18 13:33:10.035
134.0, -22701.48220079925, -20755.78519770923, -51064.77303085006, -52942.990117429516, -21049.442416363054, -35087.07554186291, -49885.58440036588, -32722.66330989162, -11006.378949448937, -53658.067126043694, -54304.14429952435, -62420.62150485772, -50335.90499590695, -45655.09207905437, -46333.489875017396, -46590.15495659768, 0.07212500000000001, 0.9428984375, 0.2112734375, 192.0, 0.0, 0.0, 0.0, 0.0, 0.0, 0.0, 0.0, 0.0, 0.0, 1.6581655900358016E9, 0.0, 2022-07-18 13:33:10.035
136.0, -22653.493005453707, -20742.664723713962, -51006.88201271081, -52879.5335149209, -20987.215159799478, -35025.83176205537, -49798.949038857114, -32663.811166740797, -10948.26441386514, -53564.07804060913, -54227.276650342545, -62338.59060270675, -50259.81965778109, -45572.39062456973, -46249.29085365425, -46505.35243813425, 0.07212500000000001, 0.9428984375, 0.2112734375, 192.0, 0.0, 0.0, 0.0, 0.0, 0.0, 0.0, 0.0, 0.0, 0.0, 1.658165590035808E9, 0.0, 2022-07-18 13:33:10.035
138.0, -22693.837904195538, -20731.73472067532, -51071.9032373313, -52940.35261158379, -21055.767960043904, -35088.93073665271, -49875.95079850564, -32709.721649852, -10987.31291142856, -53633.52491063177, -54285.14531673733, -62394.089984189275, -50326.49491149127, -45636.629538134286, -46316.614307953634, -46571.088918577305, 0.07212500000000001, 0.9428984375, 0.2112734375, 192.0, 0.0, 0.0, 0.0, 0.0, 0.0, 0.0, 0.0, 0.0, 0.0, 1.6581655900358143E9, 0.0, 2022-07-18 13:33:10.035
140.0, -22648.262697251164, -20750.554889506686, -50997.538983528495, -52873.140916006676, -20997.139334337633, -35016.68989857315, -49809.83433840684, -32646.51091653239, -10958.322698870028, -53577.6455494935, -54227.23194685364, -62338.858823640214, -50273.47657364328, -45585.667560776186, -46258.745641558846, -46513.7790457939, 0.074, 0.9400000000000001, 0.214, 192.0, 1.0, 40.0, 14.5, 48.0, 3.0, 88.0, 0.0, 0.0, 0.0, 1.658165590035821E9, 0.0, 2022-07-18 13:33:10.035
142.0, -22719.274189385676, -20746.218651082356, -51093.89735387533, -52971.645053821216, -21089.65320463815, -35098.31846932393, -49906.326819220405, -32724.89848433715, -10998.712301100768, -53642.01857352479, -54280.67496784627, -62398.35916738024, -50337.00023138526, -45646.263139994524, -46320.70467718896, -46571.871229633245, 0.074, 0.9400000000000001, 0.214, 192.0, 0.0, 0.0, 0.0, 0.0, 0.0, 0.0, 0.0, 0.0, 0.0, 1.6581655900358276E9, 0.0, 2022-07-18 13:33:10.035
144.0, -22647.927421084336, -20766.804607725695, -50998.67892249572, -52883.556828922854, -20997.25109305991, -35028.33515743437, -49807.889736639234, -32668.12505342067, -10980.27211192514, -53600.44432883791, -54252.13179017685, -62367.71492573201, -50299.650466400446, -45610.321534910385, -46280.80681333623, -46541.33874670729, 0.074, 0.9400000000000001, 0.214, 192.0, 0.0, 0.0, 0.0, 0.0, 0.0, 0.0, 0.0, 0.0, 0.0, 1.6581655900358355E9, 0.0, 2022-07-18 13:33:10.035
146.0, -22717.217828895788, -20733.902839887483, -51087.54945845002, -52967.97936773054, -21075.929233542593, -35095.25628033355, -49895.93325804869, -32716.784801099875, -10987.111745728464, -53626.88644252854, -54275.84699104393, -62394.69348128957, -50317.68832417588, -45630.28164270898, -46304.678476414505, -46569.12196506524, 0.074, 0.9400000000000001, 0.214, 192.0, 0.0, 0.0, 0.0, 0.0, 0.0, 0.0, 0.0, 0.0, 0.0, 1.6581655900358424E9, 0.0, 2022-07-18 13:33:10.035
148.0, -22651.347237986, -20772.928985706447, -50998.097777139876, -52883.22155275602, -20996.66994770407, -35034.12425924829, -49815.019943120475, -32670.315524377293, -10972.985443232708, -53589.33551184363, -54249.11430467538, -62363.15516986313, -50286.52999240518, -45606.633497075265, -46274.59302837766, -46546.010261298456, 0.074, 0.9400000000000001, 0.214, 192.0, 0.0, 0.0, 0.0, 0.0, 0.0, 0.0, 0.0, 0.0, 0.0, 1.658165590035849E9, 0.0, 2022-07-18 13:33:10.035
150.0, -22706.35488109051, -20731.265334041756, -51086.454222971704, -52969.0522514644, -21077.851483565748, -35088.215480830135, -49902.281153473996, -32712.470914420002, -10981.546161359092, -53627.735808817844, -54264.961691494194, -62385.68572827408, -50308.41235022692, -45631.443933420655, -46302.085674057686, -46569.70311042108, 0.07200000000000001, 0.9400000000000001, 0.214, 192.0, 1.0, 32.0, 14.5, 48.0, 3.0, 88.0, 0.0, 0.0, 0.0, 1.658165590035856E9, 0.0, 2022-07-18 13:33:10.035
152.0, -22645.044046049603, -20775.477084574355, -50978.47294550812, -52874.90670381865, -20985.985813854437, -35010.27494791448, -49799.86546037978, -32640.095965873716, -10979.713318313756, -53605.60758180709, -54250.96949946517, -62374.57691127979, -50294.2189924978, -45621.56446237141, -46284.36074070463, -46550.36885146724, 0.07200000000000001, 0.9400000000000001, 0.214, 192.0, 0.0, 0.0, 0.0, 0.0, 0.0, 0.0, 0.0, 0.0, 0.0, 1.6581655900358624E9, 0.0, 2022-07-18 13:33:10.035
154.0, -22726.15852667791, -20749.884337173025, -51088.912914861794, -52981.59158010383, -21082.21007373453, -35090.450655275665, -49905.45510118665, -32732.699243152052, -10966.749306529679, -53608.62506730856, -54248.555511064, -62374.375745579695, -50292.296742474646, -45612.62376458928, -46278.25871446833, -46538.45537167256, 0.07200000000000001, 0.9400000000000001, 0.214, 192.0, 0.0, 0.0, 0.0, 0.0, 0.0, 0.0, 0.0, 0.0, 0.0, 1.658165590035869E9, 0.0, 2022-07-18 13:33:10.035
156.0, -22668.96041261678, -20796.979462740357, -50991.48166078111, -52890.84349761528, -21000.20152332801, -35037.34291044986, -49813.4553210086, -32680.37380938218, -11009.46349018377, -53641.459779913406, -54290.50973540661, -62414.25125768796, -50322.561004467134, -45649.41473596272, -46314.82616839721, -46579.73904368151, 0.07200000000000001, 0.9400000000000001, 0.214, 192.0, 0.0, 0.0, 0.0, 0.0, 0.0, 0.0, 0.0, 0.0, 0.0, 1.658165590035875E9, 0.0, 2022-07-18 13:33:10.035
158.0, -22706.15371539041, -20742.374151036045, -51079.99456882413, -52964.82777176235, -21069.626041606196, -35086.15912034024, -49887.01491201102, -32696.198844456536, -10958.859140736955, -53599.080872426144, -54243.19109239472, -62366.44087629806, -50274.124774232485, -45600.24089816104, -46262.657196838525, -46527.39125816718, 0.07200000000000001, 0.9400000000000001, 0.214, 192.0, 0.0, 0.0, 0.0, 0.0, 0.0, 0.0, 0.0, 0.0, 0.0, 1.6581655900358815E9, 0.0, 2022-07-18 13:33:10.035
160.0, -22670.346220773008, -20801.986253498348, -51013.85575698087, -52900.1865267976, -21020.206334615512, -35052.475041446094, -49825.793483947935, -32673.601230812223, -11003.964961047765, -53642.66677411399, -54295.67298837579, -62414.20655419905, -50335.837940673584, -45655.18148603219, -46326.69494470298, -46590.26671531996, 0.07200000000000001, 0.9440000000000001, 0.202, 192.0, 1.0, 32.0, 14.5, 64.0, 3.0, 40.0, 0.0, 0.0, 0.0, 1.658165590035888E9, 0.0, 2022-07-18 13:33:10.035
162.0, -22712.501610815718, -20752.655953485486, -51077.088842044934, -52965.85595200729, -21074.699887597548, -35088.349591296865, -49883.50568813154, -32710.593367885755, -10956.668669780334, -53579.500744283294, -54230.137673632824, -62353.09688485824, -50276.203486466824, -45600.79969177243, -46264.4229846505, -46526.60894711124, 0.07200000000000001, 0.9440000000000001, 0.202, 192.0, 0.0, 0.0, 0.0, 0.0, 0.0, 0.0, 0.0, 0.0, 0.0, 1.6581655900358944E9, 0.0, 2022-07-18 13:33:10.035
164.0, -22680.471561011265, -20803.126192465566, -51003.93158244272, -52903.963971610545, -21014.998378157423, -35052.56444842392, -49822.261908324, -32698.769295068898, -11018.739464132723, -53648.96996605038, -54293.974255797184, -62419.950952524065, -50335.569719740124, -45669.08427108339, -46324.683287702, -46592.0995583653, 0.07200000000000001, 0.9440000000000001, 0.202, 192.0, 0.0, 0.0, 0.0, 0.0, 0.0, 0.0, 0.0, 0.0, 0.0, 1.6581655900359013E9, 0.0, 2022-07-18 13:33:10.035
166.0, -22703.404450822407, -20755.494625031308, -51052.61368186637, -52945.40410583068, -21043.74272152695, -35065.46140497463, -49860.63985355376, -32690.968536253997, -10958.970899459231, -53579.12076462755, -54228.39423756531, -62351.46520751301, -50259.12675370297, -45590.45083408962, -46242.786496017754, -46516.64006908418, 0.07200000000000001, 0.9440000000000001, 0.202, 192.0, 0.0, 0.0, 0.0, 0.0, 0.0, 0.0, 0.0, 0.0, 0.0, 1.65816559003591E9, 0.0, 2022-07-18 13:33:10.035
168.0, -22685.724220958262, -20810.92695128047, -51024.942222230704, -52921.599497985786, -21034.73496851146, -35062.84625087336, -49855.789525006956, -32677.758655280908, -11023.075702557053, -53664.303262746726, -54310.536898438564, -62429.29398170638, -50342.990498899286, -45673.9793031191, -46327.85723541465, -46596.43579678963, 0.07200000000000001, 0.9440000000000001, 0.202, 192.0, 0.0, 0.0, 0.0, 0.0, 0.0, 0.0, 0.0, 0.0, 0.0, 1.6581655900359163E9, 0.0, 2022-07-18 13:33:10.035
170.0, -22695.693098985328, -20765.68702050293, -51051.98783302162, -52941.313736595366, -21047.92249774009, -35067.49541372006, -49859.43285935317, -32689.538024608857, -10954.187626145796, -53570.87297092354, -54230.60706026639, -62345.363181276705, -50255.23755016775, -45592.283677134954, -46245.28989139675, -46511.879147515196, 0.074, 0.9500000000000001, 0.202, 192.0, 1.0, 40.0, 14.5, 88.0, 3.0, 40.0, 0.0, 0.0, 0.0, 1.658165590035923E9, 0.0, 2022-07-18 13:33:10.035
172.0, -22685.67951746935, -20799.013471485792, -51034.75463804658, -52922.67238171964, -21043.206279660022, -35066.98132359759, -49858.53878957496, -32721.47866743549, -11023.254516512694, -53658.223588254885, -54313.062645562015, -62424.64481885968, -50346.87970243451, -45677.82380316542, -46339.56954950924, -46602.22489860355, 0.074, 0.9500000000000001, 0.202, 192.0, 0.0, 0.0, 0.0, 0.0, 0.0, 0.0, 0.0, 0.0, 0.0, 1.6581655900359297E9, 0.0, 2022-07-18 13:33:10.035
174.0, -22682.505569756697, -20769.576224038152, -51042.220120694656, -52925.53340500992, -21045.26264014991, -35049.65872164473, -49869.64760656925, -32678.94329773704, -10955.97576570222, -53558.26658705075, -54223.11922587386, -62335.081378827264, -50263.6641578274, -45583.74531075303, -46259.4161938925, -46509.82278702531, 0.074, 0.9500000000000001, 0.202, 192.0, 0.0, 0.0, 0.0, 0.0, 0.0, 0.0, 0.0, 0.0, 0.0, 1.6581655900359364E9, 0.0, 2022-07-18 13:33:10.035
176.0, -22684.986613391236, -20789.93866323694, -51030.597213577894, -52933.49062603601, -21043.429797104574, -35073.776253912, -49860.326929131385, -32706.61475737271, -11020.371141477961, -53653.61912889709, -54303.7196163797, -62422.45434790306, -50347.326737323616, -45669.84423039487, -46350.61131127016, -46599.29682007991, 0.074, 0.9500000000000001, 0.202, 192.0, 0.0, 0.0, 0.0, 0.0, 0.0, 0.0, 0.0, 0.0, 0.0, 1.6581655900359428E9, 0.0, 2022-07-18 13:33:10.035
178.0, -22681.54444474512, -20781.333241621644, -51016.18033840422, -52917.12914909472, -21022.419157316584, -35044.02608204199, -49828.67685898267, -32660.346646350226, -10945.939832441787, -53556.07611609413, -54212.47979551313, -62334.56728870479, -50244.17343666237, -45577.062139160895, -46240.10428668312, -46492.74605426146, 0.074, 0.9500000000000001, 0.202, 192.0, 0.0, 0.0, 0.0, 0.0, 0.0, 0.0, 0.0, 0.0, 0.0, 1.6581655900359497E9, 0.0, 2022-07-18 13:33:10.035
180.0, -22702.465677555287, -20791.97267198237, -51044.23177769563, -52937.82686446034, -21063.83693979227, -35082.3816755273, -49873.313292659914, -32729.23472276148, -11026.204946780796, -53659.74350687784, -54313.84495661795, -62428.57872588381, -50347.01381290124, -45672.414681007234, -46344.0398984003, -46591.63017173173, 0.074, 0.9480000000000001, 0.20400000000000001, 192.0, 1.0, 40.0, 14.5, 80.0, 3.0, 48.0, 0.0, 0.0, 0.0, 1.6581655900359564E9, 0.0, 2022-07-18 13:33:10.035
182.0, -22665.451188737297, -20779.58980555413, -50999.4388818072, -52882.10396553326, -21012.427927545064, -35015.84053228385, -49820.51847225648, -32648.4555183, -10960.155541915363, -53555.29380503819, -54226.11435963087, -62333.85203288222, -50256.62335832398, -45575.005778671, -46251.03428972176, -46491.09202517176, 0.074, 0.9480000000000001, 0.20400000000000001, 192.0, 0.0, 0.0, 0.0, 0.0, 0.0, 0.0, 0.0, 0.0, 0.0, 1.6581655900359633E9, 0.0, 2022-07-18 13:33:10.035
184.0, -22693.50262802871, -20771.096142661114, -51046.73517307463, -52929.266146333954, -21063.971050259002, -35062.60038168435, -49871.27928391448, -32680.217347170994, -11005.708397115279, -53634.2625181988, -54288.98981678365, -62395.60990281223, -50323.902109134455, -45644.56440741592, -46326.04674411377, -46556.40382247017, 0.074, 0.9480000000000001, 0.20400000000000001, 192.0, 0.0, 0.0, 0.0, 0.0, 0.0, 0.0, 0.0, 0.0, 0.0, 1.6581655900359702E9, 0.0, 2022-07-18 13:33:10.035
186.0, -22651.503700197187, -20780.86385498808, -50990.81110844745, -52876.27016023042, -21007.175267598068, -35026.12233473329, -49814.9081843982, -32651.629466012655, -10952.555948800558, -53548.29770902368, -54215.810205436974, -62321.804442620814, -50251.683622799355, -45576.81626997188, -46253.38122288957, -46494.198917651054, 0.074, 0.9480000000000001, 0.20400000000000001, 192.0, 0.0, 0.0, 0.0, 0.0, 0.0, 0.0, 0.0, 0.0, 0.0, 1.6581655900359764E9, 0.0, 2022-07-18 13:33:10.035
188.0, -22707.718337502283, -20773.06309617318, -51071.053871042, -52944.48768430802, -21088.1779895041, -35094.026934388516, -49900.13538600629, -32720.741059868466, -11002.623856380445, -53631.89323328653, -54284.00537777012, -62393.933521978084, -50327.6795539474, -45649.45943945163, -46331.56762499423, -46574.35227326778, 0.074, 0.9480000000000001, 0.20400000000000001, 192.0, 0.0, 0.0, 0.0, 0.0, 0.0, 0.0, 0.0, 0.0, 0.0, 1.658165590035983E9, 0.0, 2022-07-18 13:33:10.035
190.0, -22644.418197204854, -20782.942567222424, -50976.97537862961, -52851.10209597374, -21000.045061116823, -35014.34296540534, -49813.58943147534, -32646.086233387738, -10968.40333561937, -53559.786505673714, -54224.974420663646, -62332.46622472599, -50274.97414052179, -45585.1087671648, -46268.245132952354, -46509.576917836304, 0.078, 0.9420000000000001, 0.20600000000000002, 192.0, 1.0, 56.0, 14.5, 56.0, 3.0, 56.0, 0.0, 0.0, 0.0, 1.6581655900359895E9, 0.0, 2022-07-18 13:33:10.035
192.0, -22711.29461661513, -20767.07282865916, -51072.21616175368, -52945.918195953156, -21086.859236581236, -35095.74801871157, -49903.666961630224, -32730.642882662167, -10989.302216685082, -53615.26353541178, -54267.129810706356, -62377.63910027017, -50321.21989979981, -45628.53820664146, -46314.7814649083, -46558.88486610471, 0.078, 0.9420000000000001, 0.20600000000000002, 192.0, 0.0, 0.0, 0.0, 0.0, 0.0, 0.0, 0.0, 0.0, 0.0, 1.658165590035996E9, 0.0, 2022-07-18 13:33:10.035
194.0, -22652.867156608958, -20804.69081457744, -50983.45738452165, -52867.620035126216, -21006.504715264407, -35023.350718420836, -49796.82562313385, -32638.911323417586, -10981.546161359092, -53581.31123558417, -54241.55941504949, -62349.94528889004, -50291.26856222971, -45605.94059299715, -46276.358816189626, -46524.41847615463, 0.078, 0.9420000000000001, 0.20600000000000002, 192.0, 0.0, 0.0, 0.0, 0.0, 0.0, 0.0, 0.0, 0.0, 0.0, 1.6581655900360026E9, 0.0, 2022-07-18 13:33:10.036
196.0, -22699.49289554273, -20752.164215107467, -51064.99654829461, -52942.81130347387, -21073.068210252313, -35075.65380044625, -49881.80695555294, -32692.84608278824, -10984.541295116103, -53605.60758180709, -54258.70320304671, -62369.50306528844, -50304.7243123918, -45619.08341873687, -46295.87188909911, -46538.8353513283, 0.078, 0.9420000000000001, 0.20600000000000002, 192.0, 0.0, 0.0, 0.0, 0.0, 0.0, 0.0, 0.0, 0.0, 0.0, 1.6581655900360093E9, 0.0, 2022-07-18 13:33:10.036
198.0, -22657.62807817794, -20815.41965191599, -50986.85484967886, -52863.17203797961, -21002.906084407103, -35014.43237238316, -49800.29014352443, -32637.056128627795, -10987.22350445074, -53581.400642561995, -54252.802342510506, -62362.417562296105, -50296.05183554314, -45609.51687211, -46287.48998492837, -46522.16094996464, 0.078, 0.9420000000000001, 0.20600000000000002, 192.0, 0.0, 0.0, 0.0, 0.0, 0.0, 0.0, 0.0, 0.0, 0.0, 1.6581655900360177E9, 0.0, 2022-07-18 13:33:10.036
200.0, -22716.07788992857, -20774.82888398515, -51080.173382779765, -52954.724783268546, -21088.535617415386, -35084.862719161836, -49897.31906620492, -32721.031632546383, -10984.831867794022, -53603.30535212819, -54259.306700147, -62372.565254278816, -50297.79527161065, -45616.468264635594, -46300.45399671245, -46532.42040066962, 0.076, 0.9420000000000001, 0.202, 192.0, 1.0, 48.0, 14.5, 56.0, 3.0, 40.0, 0.0, 0.0, 0.0, 1.658165590036024E9, 0.0, 2022-07-18 13:33:10.036
202.0, -22675.10714234199, -20835.424463203486, -50994.45444279366, -52881.455764944054, -21027.023616674378, -35041.07565177389, -49831.49317878404, -32681.647858816134, -11002.355635446982, -53614.07889295565, -54271.68956657524, -62385.86454222972, -50315.58726019708, -45632.80738983243, -46314.60265095266, -46552.67108114613, 0.076, 0.9420000000000001, 0.202, 192.0, 0.0, 0.0, 0.0, 0.0, 0.0, 0.0, 0.0, 0.0, 0.0, 1.6581655900360343E9, 0.0, 2022-07-18 13:33:10.036
204.0, -22693.793200706627, -20750.845462184607, -51049.59619636491, -52933.66943999165, -21067.480274138485, -35064.54498345196, -49885.0256067545, -32679.122111692683, -10972.31489089905, -53588.664959509966, -54240.46417957118, -62359.17655935008, -50289.502774417735, -45605.67237206369, -46283.913705815525, -46520.01518249693, 0.076, 0.9420000000000001, 0.202, 192.0, 0.0, 0.0, 0.0, 0.0, 0.0, 0.0, 0.0, 0.0, 0.0, 1.6581655900360446E9, 0.0, 2022-07-18 13:33:10.036
206.0, -22656.957525844282, -20817.096032750134, -50972.34856752736, -52865.04958451386, -20999.888598905636, -35020.93673001966, -49811.75658843, -32656.70331200401, -10980.473277625237, -53601.316046871674, -54252.89174948833, -62374.643966513155, -50301.21508851231, -45620.15630247072, -46301.325714746206, -46537.65070887217, 0.076, 0.9420000000000001, 0.202, 192.0, 0.0, 0.0, 0.0, 0.0, 0.0, 0.0, 0.0, 0.0, 0.0, 1.6581655900360513E9, 0.0, 2022-07-18 13:33:10.036
208.0, -22714.468564327784, -20775.275918874257, -51062.87313257136, -52945.26999536395, -21074.99046027547, -35073.17275681171, -49889.272438201006, -32705.653632361133, -10965.385850117904, -53578.98665416082, -54231.88110970034, -62351.84518716874, -50272.53780037616, -45592.842470746335, -46270.413252164515, -46506.58178407929, 0.076, 0.9420000000000001, 0.202, 192.0, 0.0, 0.0, 0.0, 0.0, 0.0, 0.0, 0.0, 0.0, 0.0, 1.6581655900360577E9, 0.0, 2022-07-18 13:33:10.036
210.0, -22680.516264500173, -20830.238858489854, -50996.644913750286, -52888.22834351401, -21025.950732940524, -35038.862829072816, -49830.24148109454, -32673.93650697905, -11018.381836221437, -53631.736771075346, -54292.90137206333, -62406.182277939595, -50326.763132424734, -45654.019195320514, -46331.56762499423, -46566.41740398615, 0.075, 0.9400000000000001, 0.20500000000000002, 192.0, 1.0, 40.0, 14.5, 40.0, 3.0, 64.0, 0.0, 0.0, 0.0, 1.6581655900360649E9, 0.0, 2022-07-18 13:33:10.036
212.0, -22713.21686663829, -20773.44307582892, -51054.29006270052, -52944.57709128584, -21063.21109094752, -35061.5274979505, -49876.06255722792, -32686.52053910739, -10961.071963438031, -53575.11980237005, -54231.903461444796, -62348.06774235579, -50265.42994563937, -45594.675313791675, -46255.41523163501, -46500.30094388735, 0.075, 0.9400000000000001, 0.20500000000000002, 192.0, 0.0, 0.0, 0.0, 0.0, 0.0, 0.0, 0.0, 0.0, 0.0, 1.6581655900360715E9, 0.0, 2022-07-18 13:33:10.036
214.0, -22689.255796582198, -20837.41376846001, -51023.131730929825, -52917.01739037244, -21045.508509338917, -35059.15821303823, -49869.60290308033, -32707.218254473002, -11014.447929197304, -53643.829064825666, -54298.51165992161, -62415.10062397726, -50338.27428081921, -45667.18437280469, -46332.46169477245, -46584.27644780594, 0.075, 0.9400000000000001, 0.20500000000000002, 192.0, 0.0, 0.0, 0.0, 0.0, 0.0, 0.0, 0.0, 0.0, 0.0, 1.6581655900360785E9, 0.0, 2022-07-18 13:33:10.036
216.0, -22715.094413172534, -20798.477029618865, -51069.37749020785, -52954.791838501915, -21070.363649173218, -35088.17077734122, -49874.319121160406, -32727.513638438424, -10966.190512918296, -53586.51919204226, -54238.76544699258, -62358.95304190553, -50276.11407948901, -45613.27196517849, -46270.74852833134, -46531.30281344686, 0.075, 0.9400000000000001, 0.20500000000000002, 192.0, 0.0, 0.0, 0.0, 0.0, 0.0, 0.0, 0.0, 0.0, 0.0, 1.6581655900360851E9, 0.0, 2022-07-18 13:33:10.036
218.0, -22694.664918740382, -20834.12806202508, -51030.23958566661, -52912.636448459205, -21045.59791631674, -35081.93464063819, -49848.860484225814, -32714.594330143256, -11028.261307270683, -53665.19733252494, -54314.20258452924, -62429.1375194952, -50351.17123736993, -45686.13865210279, -46356.37806133963, -46612.84197721982, 0.075, 0.9400000000000001, 0.20500000000000002, 192.0, 0.0, 0.0, 0.0, 0.0, 0.0, 0.0, 0.0, 0.0, 0.0, 1.6581655900360916E9, 0.0, 2022-07-18 13:33:10.036
220.0, -22701.34809033252, -20796.286558662243, -51043.09183872841, -52920.77248344094, -21044.21210816051, -35058.24179151557, -49854.58253080637, -32681.3125826493, -10962.681289038812, -53568.21311333336, -54226.226118353145, -62333.561460204306, -50264.60293109452, -45589.80263350042, -46253.64944382304, -46505.173624178606, 0.07350000000000001, 0.9440000000000001, 0.20650000000000002, 192.0, 1.0, 32.0, 14.5, 80.0, 3.0, 64.0, 0.0, 0.0, 0.0, 1.658165590036098E9, 0.0, 2022-07-18 13:33:10.036
222.0, -22701.236331610246, -20831.4682044349, -51034.53112060203, -52920.95129739658, -21044.815605260803, -35066.534288708484, -49859.65637679773, -32705.13954223866, -11034.922127118365, -53661.665756901, -54314.71667465171, -62422.65551360316, -50345.5833012561, -45675.18629731969, -46338.63077624211, -46589.84203217531, 0.07350000000000001, 0.9440000000000001, 0.20650000000000002, 192.0, 0.0, 0.0, 0.0, 0.0, 0.0, 0.0, 0.0, 0.0, 0.0, 1.6581655900361044E9, 0.0, 2022-07-18 13:33:10.036
224.0, -22698.420011808874, -20809.69760533543, -51032.363001389866, -52915.229250816024, -21032.812718488305, -35039.063994772914, -49842.80316147842, -32669.309695876804, -10965.296443140083, -53569.867142423056, -54227.768388720564, -62341.228108552474, -50253.225893166775, -45584.952304953615, -46246.02749896378, -46494.73535951798, 0.07350000000000001, 0.9440000000000001, 0.20650000000000002, 192.0, 0.0, 0.0, 0.0, 0.0, 0.0, 0.0, 0.0, 0.0, 0.0, 1.658165590036111E9, 0.0, 2022-07-18 13:33:10.036
226.0, -22721.487012086753, -20838.911335338515, -51057.50871390208, -52944.97942268603, -21070.65422185114, -35090.025972131014, -49880.13057471879, -32739.181249044093, -11037.067894586075, -53679.547152465246, -54321.08692182147, -62439.039342288896, -50360.38015608551, -45684.39521603528, -46351.728898492926, -46598.31334332387, 0.07350000000000001, 0.9440000000000001, 0.20650000000000002, 192.0, 0.0, 0.0, 0.0, 0.0, 0.0, 0.0, 0.0, 0.0, 0.0, 1.658165590036117E9, 0.0, 2022-07-18 13:33:10.036
228.0, -22683.62315697946, -20812.715090836893, -51020.00248670608, -52905.48389023351, -21036.567811556793, -35040.94154130716, -49835.87412069728, -32667.856832487207, -10964.871759995433, -53572.48229652432, -54224.08035088544, -62342.43510275306, -50271.129640475476, -45599.05625570491, -46248.396783876036, -46499.719798531514, 0.07350000000000001, 0.9440000000000001, 0.20650000000000002, 192.0, 0.0, 0.0, 0.0, 0.0, 0.0, 0.0, 0.0, 0.0, 0.0, 1.6581655900361235E9, 0.0, 2022-07-18 13:33:10.036
230.0, -22715.183820150356, -20823.60039038663, -51065.95767330619, -52947.035783175925, -21086.434553436586, -35086.382637784794, -49889.8759353013, -32695.99767875644, -11035.32445851856, -53662.58217842367, -54314.29199150706, -62431.39504568518, -50362.905903208964, -45684.90930615775, -46339.971880909434, -46589.10442460828, 0.07075000000000001, 0.9470000000000001, 0.20525000000000002, 192.0, 1.0, 16.0, 14.5, 88.0, 3.0, 48.0, 0.0, 0.0, 0.0, 1.6581655900361323E9, 0.0, 2022-07-18 13:33:10.036
232.0, -22680.225691822256, -20819.152393240023, -51011.35236160188, -52892.922209849625, -21022.53091603886, -35034.92892204868, -49824.8100071919, -32672.237774400448, -10974.840638022499, -53571.878799424034, -54232.9986969231, -62343.57504172028, -50266.88280902896, -45595.792901014436, -46248.24032166485, -46501.5749933213, 0.07075000000000001, 0.9470000000000001, 0.20525000000000002, 192.0, 0.0, 0.0, 0.0, 0.0, 0.0, 0.0, 0.0, 0.0, 0.0, 1.6581655900361388E9, 0.0, 2022-07-18 13:33:10.036
234.0, -22721.64347429794, -20802.07566047617, -51066.62822563985, -52945.26999536395, -21070.229538706488, -35085.73443719559, -49889.04892075645, -32713.074411520294, -11021.13110078944, -53644.07493401467, -54303.339636723955, -62409.02094948542, -50337.42491452991, -45656.45553546614, -46327.61136622565, -46575.44750874609, 0.07075000000000001, 0.9470000000000001, 0.20525000000000002, 192.0, 0.0, 0.0, 0.0, 0.0, 0.0, 0.0, 0.0, 0.0, 0.0, 1.6581655900361452E9, 0.0, 2022-07-18 13:33:10.036
236.0, -22680.829188922547, -20825.142660754045, -51006.81495747745, -52890.128241792714, -21015.177192113068, -35038.08051801688, -49823.9606409026, -32673.176547667572, -10979.60155959148, -53578.0478808937, -54246.76737150757, -62347.24072781095, -50277.254018456224, -45604.13010169627, -46272.514316143315, -46516.550662106354, 0.07075000000000001, 0.9470000000000001, 0.20525000000000002, 192.0, 0.0, 0.0, 0.0, 0.0, 0.0, 0.0, 0.0, 0.0, 0.0, 1.6581655900361524E9, 0.0, 2022-07-18 13:33:10.036
238.0, -22709.50647705871, -20785.60242481261, -51069.73511811914, -52951.55083555589, -21080.10900975573, -35090.62946923131, -49899.755406350545, -32728.18419077208, -11011.251629740194, -53637.21294846689, -54294.98008429767, -62395.94517897906, -50328.081885347594, -45659.8753523678, -46344.64339550059, -46583.203564072086, 0.07075000000000001, 0.9470000000000001, 0.20525000000000002, 192.0, 0.0, 0.0, 0.0, 0.0, 0.0, 0.0, 0.0, 0.0, 0.0, 1.6581655900361607E9, 0.0, 2022-07-18 13:33:10.036
240.0, -22652.934211842326, -20810.748137324827, -50989.648817735775, -52879.019424798425, -21004.649520474617, -35031.35264293583, -49812.225975063564, -32664.83934698574, -10970.057364709064, -53564.86035166507, -54235.323278346455, -62337.7635881619, -50276.47170740029, -45602.90075575122, -46289.859269840636, -46528.46414190104, 0.069375, 0.9465000000000001, 0.202625, 192.0, 1.0, 16.0, 14.5, 72.0, 3.0, 32.0, 0.0, 0.0, 0.0, 1.6581655905166447E9, 0.0, 2022-07-18 13:33:10.516
242.0, -22709.0594421696, -20778.181645653447, -51074.786612366035, -52960.111553682276, -21075.929233542593, -35092.59642274337, -49892.91577254722, -32721.411612202122, -10997.885286555922, -53617.07402671266, -54273.72357532068, -62380.25425437144, -50316.59308869757, -45644.11737252681, -46329.354802293165, -46570.954808110575, 0.069375, 0.9465000000000001, 0.202625, 192.0, 0.0, 0.0, 0.0, 0.0, 0.0, 0.0, 0.0, 0.0, 0.0, 1.6581655905167096E9, 0.0, 2022-07-18 13:33:10.516
244.0, -22674.503645241697, -20834.999780058835, -50996.13082362781, -52879.622921898714, -21005.990625141934, -35020.69086083065, -49814.37174253127, -32682.586632083254, -10988.832830051522, -53585.69217749741, -54256.24451115663, -62357.656640727124, -50286.68645461636, -45616.334154168864, -46295.648371654555, -46535.706107104554, 0.069375, 0.9465000000000001, 0.202625, 192.0, 0.0, 0.0, 0.0, 0.0, 0.0, 0.0, 0.0, 0.0, 0.0, 1.6581655905167882E9, 0.0, 2022-07-18 13:33:10.516
246.0, -22731.32177964709, -20788.82107601417, -51079.547533935016, -52955.06005943538, -21083.372364446208, -35081.487605749084, -49900.56006915094, -32729.39118497267, -11005.686045370823, -53616.626991823556, -54282.84308705844, -62379.96368169352, -50315.90018461945, -45636.473075923095, -46314.1332643191, -46551.106459034265, 0.069375, 0.9465000000000001, 0.202625, 192.0, 0.0, 0.0, 0.0, 0.0, 0.0, 0.0, 0.0, 0.0, 0.0, 1.658165590516794E9, 0.0, 2022-07-18 13:33:10.516
248.0, -22674.682459197338, -20842.97935282938, -50991.593419503384, -52866.927131048105, -21009.87982867716, -35018.07570672938, -49816.89748965472, -32668.54973656532, -11008.234144238728, -53601.76308176078, -54275.087031732444, -62371.648832756146, -50310.692228161366, -45627.89000605226, -46298.7776158783, -46530.58755762429, 0.069375, 0.9465000000000001, 0.202625, 192.0, 0.0, 0.0, 0.0, 0.0, 0.0, 0.0, 0.0, 0.0, 0.0, 1.6581655905167997E9, 0.0, 2022-07-18 13:33:10.516
250.0, -22713.35097710502, -20782.562587566685, -51072.35027222041, -52937.29042259341, -21078.343221943764, -35067.160137553234, -49900.15773775074, -32714.460219676523, -10993.280827198128, -53594.521116557255, -54262.63711007084, -62362.77519020739, -50299.4716524448, -45610.477997121576, -46292.519127430816, -46518.651726085154, 0.06668750000000001, 0.9472500000000001, 0.2043125, 192.0, 1.0, 0.0, 14.5, 80.0, 3.0, 56.0, 0.0, 0.0, 0.0, 1.6581655905168056E9, 0.0, 2022-07-18 13:33:10.516
252.0, -22671.374401017954, -20841.32532373969, -50985.312579311445, -52852.97964250799, -21000.469744261474, -35010.43141012567, -49804.112291826284, -32669.08617843225, -11011.765719862668, -53602.59009630563, -54277.92570327827, -62376.02977466938, -50310.31224850562, -45621.877386793785, -46300.901031601556, -46530.8334268133, 0.06668750000000001, 0.9472500000000001, 0.2043125, 192.0, 0.0, 0.0, 0.0, 0.0, 0.0, 0.0, 0.0, 0.0, 0.0, 1.6581655905168111E9, 0.0, 2022-07-18 13:33:10.516
254.0, -22740.284829173666, -20805.78605005575, -51086.454222971704, -52954.14363791271, -21080.243120222465, -35080.884108648796, -49893.51926964751, -32733.638016419176, -10993.347882431493, -53591.12365140005, -54263.68764206024, -62360.5176640174, -50291.313265718614, -45602.431369117665, -46273.11781324361, -46512.81792078232, 0.06668750000000001, 0.9472500000000001, 0.2043125, 192.0, 0.0, 0.0, 0.0, 0.0, 0.0, 0.0, 0.0, 0.0, 0.0, 1.658165590516817E9, 0.0, 2022-07-18 13:33:10.516
0.0, -22687.579415748052, -20855.161053557524, -50997.404873061765, -52884.92028533462, -21006.817639686782, -35038.996939539546, -49823.133626357754, -32679.010352970407, -11034.27392652916, -53641.012745024294, -54311.587430427964, -62408.64096982968, -50339.07894361961, -45659.18244828969, -46322.850444656666, -46569.52429646544, 0.06668750000000001, 0.9472500000000001, 0.2043125, 192.0, 0.0, 0.0, 0.0, 0.0, 0.0, 0.0, 0.0, 0.0, 0.0, 1.658165590516823E9, 0.0, 2022-07-18 13:33:10.516
2.0, -22726.851430756025, -20802.723861065373, -51063.253112227096, -52952.31079486738, -21059.657163579126, -35079.386541770284, -49888.40072016725, -32716.29306272186, -10983.110783470964, -53580.86420069507, -54254.92575823376, -62356.94138490455, -50281.65731211392, -45605.7617790415, -46267.194600962954, -46517.02004873992, 0.06668750000000001, 0.9472500000000001, 0.2043125, 192.0, 0.0, 0.0, 0.0, 0.0, 0.0, 0.0, 0.0, 0.0, 0.0, 1.6581655905168288E9, 0.0, 2022-07-18 13:33:10.516
4.0, -22702.77860197766, -20870.56140548723, -51009.85479472337, -52902.55581170986, -21028.476480063975, -35057.41477697072, -49837.10346664232, -32700.356268925225, -11036.889080630432, -53645.706611359914, -54314.739026396164, -62420.241525201985, -50341.15765585395, -45667.89962862726, -46330.7853139383, -46581.68364544912, 0.07134375000000001, 0.950625, 0.20415625, 192.0, 1.0, 48.0, 14.5, 104.0, 3.0, 48.0, 0.0, 0.0, 0.0, 1.658165590516835E9, 0.0, 2022-07-18 13:33:10.516
6.0, -22710.266436370188, -20806.74717506733, -51054.22300746715, -52935.09995163679, -21057.444340878053, -35065.841384630374, -49865.91486524521, -32698.456370646523, -10973.812457777556, -53582.093546640106, -54243.72753426165, -62355.15324534813, -50272.85072479853, -45597.26811614849, -46267.08284224068, -46508.74990329146, 0.07134375000000001, 0.950625, 0.20415625, 192.0, 0.0, 0.0, 0.0, 0.0, 0.0, 0.0, 0.0, 0.0, 0.0, 1.6581655905168505E9, 0.0, 2022-07-18 13:33:10.516
8.0, -22675.218901064265, -20839.715998138905, -51005.585611532406, -52890.66468365964, -21023.961427684, -35050.41868095621, -49831.89551018424, -32700.870359047698, -11015.587868164524, -53646.77949509377, -54301.30562797852, -62413.312484420836, -50334.586242984085, -45664.65862568124, -46333.66868897303, -46578.59910471429, 0.07134375000000001, 0.950625, 0.20415625, 192.0, 0.0, 0.0, 0.0, 0.0, 0.0, 0.0, 0.0, 0.0, 0.0, 1.6581655905168564E9, 0.0, 2022-07-18 13:33:10.516
10.0, -22689.859293682493, -20796.666538317986, -51052.03253651054, -52925.55575675437, -21054.963297243514, -35059.40408222724, -49863.411469866216, -32681.245527415937, -10944.97870743021, -53553.55036897068, -54215.899612414796, -62322.67616065457, -50253.360003633505, -45570.624836757765, -46248.77676353178, -46491.539060060866, 0.07134375000000001, 0.950625, 0.20415625, 192.0, 0.0, 0.0, 0.0, 0.0, 0.0, 0.0, 0.0, 0.0, 0.0, 1.658165590516863E9, 0.0, 2022-07-18 13:33:10.516
12.0, -22683.62315697946, -20826.662579377007, -51029.837254266415, -52904.321599521834, -21042.222802903987, -35052.72091063511, -49841.8643882113, -32678.65272505912, -11029.200080537807, -53651.07103002918, -54313.64379091785, -62417.35815016725, -50349.561911769146, -45662.44580298016, -46350.72306999243, -46587.8974304077, 0.07134375000000001, 0.950625, 0.20415625, 192.0, 0.0, 0.0, 0.0, 0.0, 0.0, 0.0, 0.0, 0.0, 0.0, 1.6581655905168695E9, 0.0, 2022-07-18 13:33:10.516
14.0, -22696.11778212998, -20797.582959840653, -51054.06654525597, -52925.80162594338, -21046.760207028416, -35055.492526947564, -49848.368745847794, -32672.461291845, -10966.659899551858, -53560.03237486272, -54231.0987986444, -62332.68974217054, -50265.20642819482, -45573.23999085903, -46260.15380145953, -46496.25527814094, 0.074671875, 0.9493125, 0.204078125, 192.0, 1.0, 56.0, 14.5, 80.0, 3.0, 48.0, 0.0, 0.0, 0.0, 1.6581655905168765E9, 0.0, 2022-07-18 13:33:10.516
16.0, -22712.72512826027, -20831.311742223712, -51065.89061807282, -52944.375925585744, -21066.094465982256, -35074.8267859014, -49857.15298141873, -32699.03751600236, -11036.643211441424, -53662.403364468024, -54325.46786373471, -62429.27162996193, -50360.804839230164, -45671.98999786258, -46359.194381140995, -46599.25211659099, 0.074671875, 0.9493125, 0.204078125, 192.0, 0.0, 0.0, 0.0, 0.0, 0.0, 0.0, 0.0, 0.0, 0.0, 1.658165590516883E9, 0.0, 2022-07-18 13:33:10.516
18.0, -22686.417125036376, -20806.83658204515, -51046.66811784126, -52925.511053265465, -21051.007038474923, -35036.51589590501, -49840.59033877735, -32662.42535858457, -10970.146771686885, -53574.44925003639, -54244.95688020669, -62349.989992378956, -50269.587370108056, -45596.619915559284, -46273.87777255509, -46515.366019650224, 0.074671875, 0.9493125, 0.204078125, 192.0, 0.0, 0.0, 0.0, 0.0, 0.0, 0.0, 0.0, 0.0, 0.0, 1.6581655905168896E9, 0.0, 2022-07-18 13:33:10.516
20.0, -22712.188686393343, -20811.664558847497, -51067.67875762925, -52943.258338362975, -21082.187721990078, -35069.23884978758, -49873.000368237546, -32693.89661477764, -11027.434292725837, -53652.72505911888, -54317.75651189763, -62420.91207753564, -50346.969109412326, -45664.90449487025, -46353.829962471726, -46589.81968043085, 0.074671875, 0.9493125, 0.204078125, 192.0, 0.0, 0.0, 0.0, 0.0, 0.0, 0.0, 0.0, 0.0, 0.0, 1.6581655905168962E9, 0.0, 2022-07-18 13:33:10.516
22.0, -22681.320927300567, -20802.0086052428, -51026.61860306485, -52903.673398932624, -21036.701922023527, -35030.97266328009, -49829.012135149496, -32662.201841140017, -10966.838713507499, -53562.6922324529, -54234.004525423596, -62336.22131779449, -50265.876980528476, -45581.42072932968, -46261.673720082494, -46503.94427823356, 0.074671875, 0.9493125, 0.204078125, 192.0, 0.0, 0.0, 0.0, 0.0, 0.0, 0.0, 0.0, 0.0, 0.0, 1.6581655905169032E9, 0.0, 2022-07-18 13:33:10.516
24.0, -22714.714433516794, -20800.891018020036, -51070.69624313072, -52952.37785010074, -21086.12162901421, -35078.73834118108, -49871.301635658936, -32689.38156239767, -11024.7520833912, -53663.543303435246, -54311.49802345014, -62417.02287400042, -50343.59399599958, -45661.998768091056, -46341.9388344215, -46584.164689083664, 0.074671875, 0.9493125, 0.204078125, 192.0, 0.0, 0.0, 0.0, 0.0, 0.0, 0.0, 0.0, 0.0, 0.0, 1.6581655905169098E9, 0.0, 2022-07-18 13:33:10.516
26.0, -22668.491025983218, -20800.958073253405, -50997.06959689494, -52887.71425339154, -21016.78651771385, -35013.18067469367, -49810.39313201823, -32633.63631172613, -10966.88341699641, -53570.42593603444, -54232.953993434196, -62340.15522481862, -50265.362890406, -45585.26522937599, -46247.30154839773, -46497.81990025281, 0.078, 0.9420000000000001, 0.20400000000000001, 192.0, 1.0, 56.0, 14.5, 56.0, 3.0, 48.0, 0.0, 0.0, 0.0, 1.6581655905169165E9, 0.0, 2022-07-18 13:33:10.516
28.0, -22729.77950927967, -20801.1592389535, -51076.66415890028, -52963.12903918375, -21093.31889072882, -35083.521614494515, -49881.11405147482, -32695.170664211593, -11015.364350719972, -53646.3101084602, -54304.1666512688, -62410.652626830655, -50338.00605988575, -45660.277683768, -46313.03802884079, -46570.41836624365, 0.078, 0.9420000000000001, 0.20400000000000001, 192.0, 0.0, 0.0, 0.0, 0.0, 0.0, 0.0, 0.0, 0.0, 0.0, 1.658165590516923E9, 0.0, 2022-07-18 13:33:10.516
30.0, -22674.369534774964, -20819.822945573684, -51004.22215512063, -52890.24000051499, -21020.452203804518, -35015.46055262811, -49803.15116681471, -32642.532306019344, -10978.752193302178, -53575.27626458124, -54252.64588029932, -62354.70621045902, -50277.72340508979, -45598.11748243779, -46253.068298467195, -46511.52151960391, 0.078, 0.9420000000000001, 0.20400000000000001, 192.0, 0.0, 0.0, 0.0, 0.0, 0.0, 0.0, 0.0, 0.0, 0.0, 1.6581655905169296E9, 0.0, 2022-07-18 13:33:10.516
32.0, -22713.373328849477, -20784.216616656377, -51082.900295603315, -52961.072678693854, -21090.45786743854, -35073.61979170082, -49887.953685278146, -32734.599141430754, -11004.747272103701, -53636.676506599964, -54293.907200563815, -62396.63808305718, -50324.86323414603, -45642.79861960395, -46313.57447070772, -46568.5408197094, 0.078, 0.9420000000000001, 0.20400000000000001, 192.0, 0.0, 0.0, 0.0, 0.0, 0.0, 0.0, 0.0, 0.0, 0.0, 1.6581655905169363E9, 0.0, 2022-07-18 13:33:10.516
34.0, -22664.601822447996, -20827.221372988388, -51007.28434411101, -52886.26139000194, -21030.73400625396, -35021.1155439753, -49816.38339953225, -32634.753898948897, -10989.749251574189, -53585.312197841675, -54251.97532796566, -62350.79465517934, -50290.396844195944, -45608.48869186505, -46279.979798791384, -46530.58755762429, 0.078, 0.9420000000000001, 0.20400000000000001, 192.0, 0.0, 0.0, 0.0, 0.0, 0.0, 0.0, 0.0, 0.0, 0.0, 1.6581655905169432E9, 0.0, 2022-07-18 13:33:10.516
36.0, -22713.30627361611, -20780.617985799076, -51087.12477530537, -52965.0512892069, -21108.540428702883, -35092.43996053219, -49902.23644998508, -32720.025804045894, -11002.355635446982, -53622.32668665966, -54276.80811605551, -62376.543864791856, -50331.34524003807, -45645.011442305025, -46320.190587066485, -46567.669101675645, 0.078, 0.9400000000000001, 0.20800000000000002, 192.0, 1.0, 56.0, 14.5, 48.0, 3.0, 64.0, 0.0, 0.0, 0.0, 1.65816559051695E9, 0.0, 2022-07-18 13:33:10.516
38.0, -22663.48423522523, -20829.657713134016, -50992.19691660368, -52885.90376209066, -21023.514392794896, -35029.631558612775, -49817.56804198838, -32675.434073857556, -10987.715242828757, -53593.761157245775, -54252.42236285477, -62352.73925694696, -50304.85842285853, -45620.98331701557, -46289.59104890717, -46545.987909553995, 0.078, 0.9400000000000001, 0.20800000000000002, 192.0, 0.0, 0.0, 0.0, 0.0, 0.0, 0.0, 0.0, 0.0, 0.0, 1.658165590516959E9, 0.0, 2022-07-18 13:33:10.516
40.0, -22708.88062821396, -20782.048497444215, -51069.51160067459, -52958.211655403575, -21087.775658103903, -35081.24173656008, -49887.30548468894, -32726.32899598229, -10989.41397540736, -53607.14985217451, -54260.80426702551, -62366.463228042514, -50307.674742659896, -45630.058125264426, -46290.552173918746, -46556.761450381455, 0.078, 0.9400000000000001, 0.20800000000000002, 192.0, 0.0, 0.0, 0.0, 0.0, 0.0, 0.0, 0.0, 0.0, 0.0, 1.658165590516966E9, 0.0, 2022-07-18 13:33:10.516
42.0, -22670.033296350633, -20844.454567963432, -50990.699349725175, -52877.4324509421, -21023.134413139156, -35024.960044021616, -49811.9577541301, -32662.04537892883, -10997.237085966717, -53603.30535212819, -54261.117191447884, -62362.909300674124, -50299.69516988935, -45624.514892639505, -46285.76890060531, -46545.384412453706, 0.078, 0.9400000000000001, 0.20800000000000002, 192.0, 0.0, 0.0, 0.0, 0.0, 0.0, 0.0, 0.0, 0.0, 0.0, 1.6581655905169723E9, 0.0, 2022-07-18 13:33:10.516
44.0, -22720.4141283529, -20792.97850048286, -51074.67485364376, -52955.37298385775, -21085.249910980452, -35065.10377706335, -49880.309388674425, -32694.5671671113, -10989.41397540736, -53594.2975991127, -54254.6575373003, -62355.57792849278, -50289.72629186229, -45612.914337267204, -46267.73104282988, -46520.126941219205, 0.078, 0.9400000000000001, 0.20800000000000002, 192.0, 0.0, 0.0, 0.0, 0.0, 0.0, 0.0, 0.0, 0.0, 0.0, 1.6581655905169787E9, 0.0, 2022-07-18 13:33:10.516
46.0, -22673.006078363193, -20859.16201581502, -50997.673093995225, -52886.26139000194, -21019.78165147086, -35019.97560500808, -49810.840166907336, -32662.693579518032, -11025.065007813575, -53622.59490759312, -54290.97912204017, -62390.06667018732, -50323.745646923264, -45645.346718471854, -46301.19160427948, -46552.69343289059, 0.068, 0.9420000000000001, 0.20400000000000001, 192.0, 1.0, 16.0, 14.5, 56.0, 3.0, 48.0, 0.0, 0.0, 0.0, 1.658165590516986E9, 0.0, 2022-07-18 13:33:10.516
48.0, -22703.471506055776, -20790.944491737428, -51069.198676252214, -52953.13780941222, -21074.074038752802, -35062.063939817424, -49869.267626913505, -32672.930678478562, -10978.41691713535, -53581.870029195554, -54244.062810428484, -62354.08036161427, -50281.23262896927, -45599.078607449366, -46261.83018229368, -46508.191109680076, 0.068, 0.9420000000000001, 0.20400000000000001, 192.0, 0.0, 0.0, 0.0, 0.0, 0.0, 0.0, 0.0, 0.0, 0.0, 1.6581655905169926E9, 0.0, 2022-07-18 13:33:10.516
50.0, -22674.928328386348, -20860.301954782244, -50996.46609979464, -52885.70259639056, -21021.413328816096, -35024.803581810425, -49808.56028897289, -32653.350550335712, -11023.835661868532, -53626.46175938389, -54289.74977609513, -62400.728452292504, -50329.691210948375, -45647.738355128575, -46315.80964515325, -46564.02576732943, 0.068, 0.9420000000000001, 0.20400000000000001, 192.0, 0.0, 0.0, 0.0, 0.0, 0.0, 0.0, 0.0, 0.0, 0.0, 1.6581655905169995E9, 0.0, 2022-07-18 13:33:10.516
52.0, -22724.035110954657, -20812.469221647887, -51061.800248837506, -52947.7510389985, -21073.895224797157, -35055.93956183667, -49863.07619369939, -32679.300925648324, -10979.668614824846, -53572.52700001324, -54233.1998626232, -62344.84909115423, -50272.06841374259, -45585.04171193144, -46253.94001650096, -46502.15613867714, 0.068, 0.9420000000000001, 0.20400000000000001, 192.0, 0.0, 0.0, 0.0, 0.0, 0.0, 0.0, 0.0, 0.0, 0.0, 1.6581655905170064E9, 0.0, 2022-07-18 13:33:10.517
54.0, -22692.116819872477, -20865.33109728469, -51008.67015226724, -52904.81333789985, -21034.48909932245, -35046.3730152098, -49834.44360905214, -32697.651707846133, -11045.941537134831, -53642.26444271379, -54309.17344202679, -62414.005388498954, -50347.527903023714, -45662.334044257885, -46329.86889241563, -46587.00336062949, 0.068, 0.9420000000000001, 0.20400000000000001, 192.0, 0.0, 0.0, 0.0, 0.0, 0.0, 0.0, 0.0, 0.0, 0.0, 1.6581655905170128E9, 0.0, 2022-07-18 13:33:10.517
56.0, -22721.509363831206, -20824.136832253556, -51057.06167901298, -52945.73938199752, -21061.177082202088, -35065.55081195245, -49867.90417050173, -32697.294079934847, -10986.552952117081, -53565.77677318773, -54241.22413888266, -62343.8656143982, -50272.582503865066, -45592.82011900188, -46260.17615320399, -46515.99186849497, 0.07200000000000001, 0.9440000000000001, 0.20400000000000001, 192.0, 1.0, 32.0, 14.5, 64.0, 3.0, 48.0, 0.0, 0.0, 0.0, 1.6581655905170188E9, 0.0, 2022-07-18 13:33:10.517
58.0, -22700.2081513653, -20861.88892863857, -51017.16381516025, -52905.573297211326, -21024.721386995483, -35044.16019250872, -49828.40863804921, -32670.98607671095, -11050.389534281438, -53649.0146695393, -54322.18215729978, -62423.77310082592, -50350.8359612031, -45672.03470135149, -46341.581206510215, -46600.593221258314, 0.07200000000000001, 0.9440000000000001, 0.20400000000000001, 192.0, 0.0, 0.0, 0.0, 0.0, 0.0, 0.0, 0.0, 0.0, 0.0, 1.6581655905170252E9, 0.0, 2022-07-18 13:33:10.517
60.0, -22716.50257307322, -20824.516811909296, -51051.56314987697, -52928.930870167125, -21051.1187971972, -35039.44397442865, -49855.29778662894, -32674.31648663479, -10988.229332951229, -53544.22969153282, -54237.37963883635, -62331.77332064788, -50256.26573041269, -45572.4576798031, -46241.892426239545, -46498.24458339746, 0.07200000000000001, 0.9440000000000001, 0.20400000000000001, 192.0, 0.0, 0.0, 0.0, 0.0, 0.0, 0.0, 0.0, 0.0, 0.0, 1.6581655905170317E9, 0.0, 2022-07-18 13:33:10.517
62.0, -22709.215904380788, -20855.69749542445, -51034.77698979104, -52916.36918978324, -21046.246116905942, -35052.31857923491, -49846.424144080185, -32699.17162646909, -11064.739354221745, -53638.442294411936, -54326.25017479064, -62418.92277227912, -50357.36267058404, -45664.435108236685, -46334.76392445135, -46588.5456309969, 0.07200000000000001, 0.9440000000000001, 0.20400000000000001, 192.0, 0.0, 0.0, 0.0, 0.0, 0.0, 0.0, 0.0, 0.0, 0.0, 1.6581655905170376E9, 0.0, 2022-07-18 13:33:10.517
64.0, -22696.028375152157, -20816.60429437212, -51019.354286116875, -52896.40908198465, -21027.06832016329, -35019.23799744106, -49826.486388026045, -32651.18243112355, -10994.957208032276, -53546.2413485338, -54234.58567077943, -62331.035713080855, -50267.2180851958, -45577.77739498346, -46233.0634871797, -46491.91903971661, 0.07200000000000001, 0.9440000000000001, 0.20400000000000001, 192.0, 0.0, 0.0, 0.0, 0.0, 0.0, 0.0, 0.0, 0.0, 0.0, 1.6581655905170455E9, 0.0, 2022-07-18 13:33:10.517
66.0, -22695.760154218693, -20820.73936709635, -51016.225041893136, -52899.18069829711, -21040.21114590301, -35037.253503472035, -49839.65156551023, -32655.47396605897, -11035.190348051829, -53618.32572440216, -54292.007302285114, -62388.412641097624, -50336.70965870735, -45644.34088997137, -46302.33154324669, -46551.15116252317, 0.07, 0.9440000000000001, 0.20400000000000001, 192.0, 1.0, 24.0, 14.5, 64.0, 3.0, 48.0, 0.0, 0.0, 0.0, 1.658165590517052E9, 0.0, 2022-07-18 13:33:10.517
68.0, -22678.191683076824, -20806.031919244757, -50998.36599807334, -52879.488811431984, -21023.313227094797, -35010.14083744775, -49830.62146075028, -32640.721814718465, -10970.370289131439, -53524.5825081566, -54205.5954582209, -62303.833640078745, -50254.45523911181, -45561.3041593199, -46222.20053937442, -46473.076519140785, 0.07, 0.9440000000000001, 0.20400000000000001, 192.0, 0.0, 0.0, 0.0, 0.0, 0.0, 0.0, 0.0, 0.0, 0.0, 1.658165590517059E9, 0.0, 2022-07-18 13:33:10.517
70.0, -22685.92538665836, -20800.511038364297, -51028.451446110186, -52900.812375642345, -21058.11489321171, -35038.75107035054, -49853.04026043895, -32696.779989812374, -11028.32836250405, -53612.000180721305, -54280.764374824095, -62376.879140958685, -50337.53667325219, -45635.06491602241, -46319.45297949946, -46559.130735293715, 0.07, 0.9440000000000001, 0.20400000000000001, 192.0, 0.0, 0.0, 0.0, 0.0, 0.0, 0.0, 0.0, 0.0, 0.0, 1.6581655905170677E9, 0.0, 2022-07-18 13:33:10.517
72.0, -22647.458034450774, -20794.185494683446, -50975.76838442903, -52846.11765696021, -21000.469744261474, -34984.23516562404, -49777.78193685794, -32628.562465734776, -10975.242969422696, -53516.938211552886, -54200.61101920736, -62291.07079399476, -50263.641806082946, -45548.58601672483, -46224.905100453514, -46471.333083073274, 0.07, 0.9440000000000001, 0.20400000000000001, 192.0, 0.0, 0.0, 0.0, 0.0, 0.0, 0.0, 0.0, 0.0, 0.0, 1.6581655905170739E9, 0.0, 2022-07-18 13:33:10.517
74.0, -22697.861218197493, -20798.96876799688, -51045.10349572939, -52917.598535728284, -21071.190663718065, -35045.05426228693, -49863.9702634776, -32690.588556598253, -11026.294353758616, -53595.63870378002, -54268.806191540505, -62359.10950411672, -50335.994402884775, -45621.47505539359, -46301.951563590956, -46547.99956655497, 0.07, 0.9440000000000001, 0.20400000000000001, 192.0, 0.0, 0.0, 0.0, 0.0, 0.0, 0.0, 0.0, 0.0, 0.0, 1.65816559051708E9, 0.0, 2022-07-18 13:33:10.517
76.0, -22651.749569386193, -20810.16699196899, -50973.68967219468, -52850.632709340185, -20997.04992735981, -34985.933898202646, -49800.42425399116, -32634.485678015433, -10983.55781836007, -53529.097560536575, -54213.664437969266, -62306.42644243556, -50272.67191084289, -45563.51698202098, -46236.03626919226, -46489.28153387088, 0.076, 0.9380000000000001, 0.2, 192.0, 1.0, 48.0, 14.5, 40.0, 3.0, 32.0, 0.0, 0.0, 0.0, 1.6581655905170863E9, 0.0, 2022-07-18 13:33:10.517
78.0, -22708.88062821396, -20798.87936101906, -51047.875112041846, -52925.60046024328, -21065.088637481767, -35057.235963015075, -49869.37938563578, -32710.503960907932, -11017.84539435451, -53595.61635203557, -54265.72165080567, -62363.0210593964, -50319.632925943486, -45616.87059603579, -46289.47929018489, -46541.249339729475, 0.076, 0.9380000000000001, 0.2, 192.0, 0.0, 0.0, 0.0, 0.0, 0.0, 0.0, 0.0, 0.0, 0.0, 1.6581655905170932E9, 0.0, 2022-07-18 13:33:10.517
80.0, -22667.95458411629, -20837.79374811575, -50975.81308791794, -52860.40042166715, -20995.418250014576, -35005.82695076787, -49802.659428436695, -32648.969608422474, -11001.41686217986, -53552.49983698128, -54232.953993434196, -62327.52648920137, -50277.18696322286, -45580.63841827374, -46245.42400186348, -46504.86069975623, 0.076, 0.9380000000000001, 0.2, 192.0, 0.0, 0.0, 0.0, 0.0, 0.0, 0.0, 0.0, 0.0, 0.0, 1.6581655905170996E9, 0.0, 2022-07-18 13:33:10.517
82.0, -22712.680424771363, -20796.755945295805, -51048.992699264614, -52932.32833532433, -21074.342259686266, -35070.55760271044, -49887.70781608913, -32707.598234128745, -11020.572307178058, -53602.88066898354, -54268.537970607045, -62365.09977163074, -50315.45314973035, -45622.212662960614, -46295.6260199101, -46554.14629628018, 0.076, 0.9380000000000001, 0.2, 192.0, 0.0, 0.0, 0.0, 0.0, 0.0, 0.0, 0.0, 0.0, 0.0, 1.658165590517106E9, 0.0, 2022-07-18 13:33:10.517
84.0, -22644.82052860505, -20827.69075962195, -50956.277663264, -52842.0719912138, -20988.757430166894, -34999.859034998306, -49793.29404750992, -32623.958006376986, -11002.534449402625, -53548.521226468234, -54223.38744680732, -62321.178593776065, -50283.28898945916, -45586.1592991542, -46259.639711337055, -46512.05796147084, 0.076, 0.9380000000000001, 0.2, 192.0, 0.0, 0.0, 0.0, 0.0, 0.0, 0.0, 0.0, 0.0, 0.0, 1.658165590517112E9, 0.0, 2022-07-18 13:33:10.517
86.0, -22705.55021829012, -20786.49649459082, -51048.72447833115, -52929.60142250078, -21074.40931491963, -35059.91817234972, -49881.20345845264, -32699.43984740256, -11009.664655883867, -53576.349148315094, -54241.13473190484, -62342.412751008604, -50307.51828044871, -45609.136892454255, -46286.48415642788, -46538.589482139294, 0.076, 0.934, 0.198, 192.0, 1.0, 48.0, 14.5, 24.0, 3.0, 24.0, 0.0, 0.0, 0.0, 1.6581655905171185E9, 0.0, 2022-07-18 13:33:10.517
88.0, -22651.079017052536, -20830.618838145594, -50957.73052665359, -52842.56372959182, -20986.43284874354, -34982.93876444564, -49788.1531462852, -32619.822933652755, -11007.921219816353, -53560.56881672965, -54229.48947304362, -62327.70530315701, -50295.38128320948, -45592.6636567907, -46264.4229846505, -46514.13667370519, 0.076, 0.934, 0.198, 192.0, 0.0, 0.0, 0.0, 0.0, 0.0, 0.0, 0.0, 0.0, 0.0, 1.6581655905171251E9, 0.0, 2022-07-18 13:33:10.517
90.0, -22709.797049736626, -20782.96491896688, -51057.53106564654, -52933.110646380264, -21060.26066067942, -35047.93763732167, -49871.525153103496, -32679.03270471486, -11002.579152891536, -53565.374441787535, -54235.882071957836, -62330.52162295838, -50293.213163997316, -45589.713226522596, -46257.002205491335, -46508.63814456918, 0.076, 0.934, 0.198, 192.0, 0.0, 0.0, 0.0, 0.0, 0.0, 0.0, 0.0, 0.0, 0.0, 1.6581655905171316E9, 0.0, 2022-07-18 13:33:10.517
92.0, -22668.714543427774, -20849.059027321226, -50974.65079720626, -52862.45678215704, -20974.96640383797, -34997.467398341585, -49786.4544137066, -32621.11933483116, -11026.786092136634, -53578.33845357162, -54265.2075606832, -62354.57209999229, -50301.39390246796, -45609.09218896535, -46261.606664849125, -46525.379601166205, 0.076, 0.934, 0.198, 192.0, 0.0, 0.0, 0.0, 0.0, 0.0, 0.0, 0.0, 0.0, 0.0, 1.6581655905171375E9, 0.0, 2022-07-18 13:33:10.517
94.0, -22734.98746573776, -20808.78118381276, -51070.83035359745, -52957.07171643636, -21051.58818383076, -35060.812242127926, -49876.66605432821, -32699.305736935825, -11016.303123987094, -53572.862276180065, -54258.390278624334, -62351.48755925746, -50288.42989068388, -45605.18063368567, -46241.93712972845, -46516.68477257309, 0.076, 0.934, 0.198, 192.0, 0.0, 0.0, 0.0, 0.0, 0.0, 0.0, 0.0, 0.0, 0.0, 1.6581655905171425E9, 0.0, 2022-07-18 13:33:10.517
96.0, -22673.877796396948, -20848.187309287467, -50978.49529725257, -52872.73858460648, -20983.013031841878, -35011.77251479298, -49813.92470764217, -32669.913192977096, -11045.941537134831, -53597.89622997001, -54289.16863073929, -62378.10848690373, -50324.99734461276, -45636.674241623194, -46277.9234383015, -46553.92277883563, 0.076, 0.9380000000000001, 0.197, 192.0, 1.0, 48.0, 14.5, 56.0, 3.0, 16.0, 0.0, 0.0, 0.0, 1.6581655905171475E9, 0.0, 2022-07-18 13:33:10.517
98.0, -22732.05938721411, -20807.529486123265, -51070.316263474975, -52957.317585625366, -21064.820416548304, -35065.57316369691, -49876.44253688366, -32695.170664211593, -11000.522792401647, -53559.31711904015, -54241.760580749586, -62335.12608231617, -50275.599989366536, -45592.35073236832, -46239.947824471936, -46510.02395272541, 0.076, 0.9380000000000001, 0.197, 192.0, 0.0, 0.0, 0.0, 0.0, 0.0, 0.0, 0.0, 0.0, 0.0, 1.6581655905171523E9, 0.0, 2022-07-18 13:33:10.517
100.0, -22672.849616152005, -20841.727655139883, -50988.598285746375, -52879.84643934327, -20997.787534926836, -35016.60049159533, -49801.16186155818, -32655.69748350352, -11053.675240716368, -53612.76014003279, -54294.71186336421, -62385.551617807345, -50335.8826441625, -45649.25827375153, -46302.24213626888, -46566.86443887525, 0.076, 0.9380000000000001, 0.197, 192.0, 0.0, 0.0, 0.0, 0.0, 0.0, 0.0, 0.0, 0.0, 0.0, 1.6581655905171573E9, 0.0, 2022-07-18 13:33:10.517
102.0, -22700.409317065398, -20787.4576196024, -51044.00826025108, -52926.04749513239, -21044.525032582886, -35031.33029119138, -49848.70402201462, -32679.993829726438, -10985.45771663877, -53533.47850244981, -54215.4972810146, -62307.78989884733, -50260.89254151494, -45568.814345456885, -46227.31908885468, -46485.86171696922, 0.076, 0.9380000000000001, 0.197, 192.0, 0.0, 0.0, 0.0, 0.0, 0.0, 0.0, 0.0, 0.0, 0.0, 1.658165590517164E9, 0.0, 2022-07-18 13:33:10.517
104.0, -22687.91469191488, -20842.30880049572, -51000.86939345234, -52887.75895688045, -21018.328788081264, -35025.54118937745, -49816.070475109875, -32666.716893519988, -11050.657755214901, -53615.88938425653, -54294.13071800837, -62384.70225151804, -50343.4822372773, -45652.45457320864, -46314.20031955246, -46567.87026737574, 0.076, 0.9380000000000001, 0.197, 192.0, 0.0, 0.0, 0.0, 0.0, 0.0, 0.0, 0.0, 0.0, 0.0, 1.658165590997766E9, 0.0, 2022-07-18 13:33:10.997
106.0, -22707.539523546642, -20799.63932033054, -51032.65357406779, -52915.96685838305, -21043.452148849028, -35033.83368657037, -49847.63113828077, -32672.37188486718, -10991.515039386159, -53535.19958677288, -54219.11826361636, -62309.354520959205, -50265.63111133947, -45575.63162751575, -46233.48817032435, -46484.76648149091, 0.077, 0.9420000000000001, 0.2015, 192.0, 1.0, 56.0, 14.5, 72.0, 3.0, 56.0, 0.0, 0.0, 0.0, 1.658165590997802E9, 0.0, 2022-07-18 13:33:10.997
108.0, -22700.945758932325, -20841.481785950877, -51012.157024402266, -52894.44212847258, -21029.035273675356, -35037.1193930053, -49837.57285327588, -32680.88789950465, -11061.341889064537, -53617.72222730186, -54297.77405235459, -62384.791658495866, -50356.98269092831, -45651.11346854133, -46318.871834143625, -46565.702148163575, 0.077, 0.9420000000000001, 0.2015, 192.0, 0.0, 0.0, 0.0, 0.0, 0.0, 0.0, 0.0, 0.0, 0.0, 1.6581655909978223E9, 0.0, 2022-07-18 13:33:10.997
110.0, -22698.35295657551, -20805.271959933278, -51029.05494321048, -52902.86873613224, -21031.87394522118, -35014.00768923851, -49840.612690521804, -32663.140614407137, -11003.205001736284, -53528.56111866965, -54222.78394970703, -62305.867648824176, -50273.16364922091, -45566.087432633336, -46234.62810929157, -46481.92780994509, 0.077, 0.9420000000000001, 0.2015, 192.0, 0.0, 0.0, 0.0, 0.0, 0.0, 0.0, 0.0, 0.0, 0.0, 1.6581655909978564E9, 0.0, 2022-07-18 13:33:10.997
112.0, -22701.817476966084, -20829.858878834115, -51025.366905375355, -52904.20984079956, -21031.65042777663, -35035.10773600432, -49843.42901032317, -32686.341725151746, -11058.257348329706, -53609.80970976469, -54300.3668547114, -62384.94812070706, -50346.65618498995, -45647.671299895206, -46319.40827601055, -46573.03352034492, 0.077, 0.9420000000000001, 0.2015, 192.0, 0.0, 0.0, 0.0, 0.0, 0.0, 0.0, 0.0, 0.0, 0.0, 1.6581655909978988E9, 0.0, 2022-07-18 13:33:10.997
114.0, -22689.501665771208, -20815.73257633836, -51022.23766115161, -52895.447956973076, -21019.424023559575, -35013.270081671486, -49823.491254269036, -32649.997788667417, -10998.980522034231, -53522.526147666715, -54223.365095062865, -62307.052291280306, -50264.66998632789, -45563.51698202098, -46230.493036567335, -46485.325275102296, 0.077, 0.9420000000000001, 0.2015, 192.0, 0.0, 0.0, 0.0, 0.0, 0.0, 0.0, 0.0, 0.0, 0.0, 1.6581655909979167E9, 0.0, 2022-07-18 13:33:10.997
116.0, -22708.43359332485, -20830.194155000943, -51041.236643938624, -52917.48677700601, -21048.45893960702, -35051.31275073442, -49865.289016400464, -32705.541873638856, -11059.017307641187, -53617.09637845712, -54305.306590236025, -62391.2736643879, -50361.60950203056, -45653.259236009035, -46330.606499982656, -46576.67685469113, 0.0795, 0.9420000000000001, 0.20575, 192.0, 1.0, 72.0, 14.5, 56.0, 3.0, 72.0, 0.0, 0.0, 0.0, 1.6581655909979234E9, 0.0, 2022-07-18 13:33:10.997
118.0, -22683.511398257186, -20821.029939774267, -51000.66822775224, -52878.88531433169, -21009.902180421614, -35000.686049543154, -49818.104483855306, -32632.02698612535, -10984.764812560656, -53519.240441231785, -54212.16687109076, -62297.753965586904, -50263.217122938295, -45558.756060452, -46233.17524590198, -46474.618789508204, 0.0795, 0.9420000000000001, 0.20575, 192.0, 0.0, 0.0, 0.0, 0.0, 0.0, 0.0, 0.0, 0.0, 0.0, 1.658165590997929E9, 0.0, 2022-07-18 13:33:10.997
