%OpenBCI Raw EEG Data
%Number of channels = 16
%Sample Rate = 125 Hz
%Board = OpenBCI_GUI$BoardCytonSerialDaisy
Sample Index, EXG Channel 0, EXG Channel 1, EXG Channel 2, EXG Channel 3, EXG Channel 4, EXG Channel 5, EXG Channel 6, EXG Channel 7, EXG Channel 8, EXG Channel 9, EXG Channel 10, EXG Channel 11, EXG Channel 12, EXG Channel 13, EXG Channel 14, EXG Channel 15, Accel Channel 0, Accel Channel 1, Accel Channel 2, Other, Other, Other, Other, Other, Other, Other, Analog Channel 0, Analog Channel 1, Analog Channel 2, Timestamp, Other, Timestamp (Formatted)
198.0, -28032.842640023548, -29779.139730827777, -59215.58251566679, -58513.91655372579, -25907.16939057939, -42935.28711024369, -56898.444223218474, -37611.59331936757, -18149.325925031415, -62854.55827171305, -61214.32020834926, -72720.97590219688, -56267.94621562317, -54254.29990938901, -52689.67779751752, -52374.60760767551, 0.0, 0.0, 0.0, 192.0, 0.0, 0.0, 0.0, 0.0, 0.0, 0.0, 0.0, 0.0, 0.0, 1.658165359790336E9, 0.0, 2022-07-18 13:29:19.790
200.0, -27995.179950616355, -29802.743172972583, -59167.57096857679, -58460.76410541107, -25862.376494690954, -42887.05204570914, -56841.93901323545, -37563.9170484444, -18120.022788050508, -62789.58175058148, -61169.6390711831, -72667.73404690434, -56216.91718303171, -54204.16494657576, -52655.41257326753, -52322.28217390564, 0.0, 0.0, 0.0, 192.0, 0.0, 0.0, 0.0, 0.0, 0.0, 0.0, 0.0, 0.0, 0.0, 1.6581653597903416E9, 0.0, 2022-07-18 13:29:19.790
202.0, -28029.936913244357, -29774.51291972553, -59229.15002455116, -58522.097292196435, -25924.000254154238, -42939.936273090396, -56914.29161003728, -37610.22986295579, -18145.30261102946, -62835.64869590387, -61208.10642339068, -72708.70479449091, -56255.764514895025, -54242.20761563869, -52695.75747200936, -52364.30345348161, 0.045, 0.47800000000000004, 0.064, 192.0, 1.0, 104.0, 14.5, 112.0, 2.0, 0.0, 0.0, 0.0, 0.0, 1.6581653597903466E9, 0.0, 2022-07-18 13:29:19.790
204.0, -28014.715375270294, -29834.10267044338, -59178.7691925489, -58482.08766962143, -25869.529052916652, -42911.616612865524, -56850.00799298382, -37593.08607495858, -18125.96835207562, -62805.60795135593, -61183.13952483411, -72685.74955293532, -56229.92589830469, -54217.1960135932, -52676.132640377604, -52339.113037480485, 0.045, 0.47800000000000004, 0.064, 192.0, 0.0, 0.0, 0.0, 0.0, 0.0, 0.0, 0.0, 0.0, 0.0, 1.6581653597903516E9, 0.0, 2022-07-18 13:29:19.790
206.0, -28036.307160414122, -29774.781140658994, -59230.401722240655, -58528.668705066295, -25910.566855736597, -42932.89547358698, -56890.129374281096, -37584.9723917213, -18144.11796857333, -62844.99172508618, -61213.56024903778, -72721.28882661925, -56260.54778820846, -54250.18718840923, -52698.73025402192, -52372.21597101879, 0.045, 0.47800000000000004, 0.064, 192.0, 0.0, 0.0, 0.0, 0.0, 0.0, 0.0, 0.0, 0.0, 0.0, 1.6581653597903583E9, 0.0, 2022-07-18 13:29:19.790
208.0, -28003.584206531552, -29827.397147106785, -59163.927634230575, -58463.647480445805, -25842.43873863682, -42876.747891515246, -56812.92644893246, -37523.28157702465, -18126.05775905344, -62795.169686695306, -61178.04332709829, -72680.40748601049, -56223.15331973474, -54205.751920432085, -52659.90527390305, -52326.41724662987, 0.045, 0.47800000000000004, 0.064, 192.0, 0.0, 0.0, 0.0, 0.0, 0.0, 0.0, 0.0, 0.0, 0.0, 1.6581653597903652E9, 0.0, 2022-07-18 13:29:19.790
210.0, -28036.329512158576, -29765.84044287687, -59234.42503624261, -58527.30524865452, -25912.89143715995, -42923.01600253773, -56891.49283069287, -37594.13660694798, -18143.514471473038, -62817.6778933618, -61200.30566457578, -72698.24417808584, -56246.1756165237, -54223.789778207516, -52680.35712007966, -52347.65140386241, 0.045, 0.47800000000000004, 0.064, 192.0, 0.0, 0.0, 0.0, 0.0, 0.0, 0.0, 0.0, 0.0, 0.0, 1.6581653597903712E9, 0.0, 2022-07-18 13:29:19.790
212.0, -27995.381116316454, -29821.76450750405, -59164.061744697305, -58458.126599565345, -25851.357084674488, -42872.23283913527, -56815.58630652265, -37542.97346388978, -18144.274430784517, -62801.33876816497, -61199.09867037519, -72688.78939018123, -56245.59447116786, -54223.20863285168, -52685.76624223784, -52345.08095325005, 0.0665, 0.7150000000000001, 0.096, 192.0, 1.0, 96.0, 14.5, 96.0, 2.0, 0.0, 0.0, 0.0, 0.0, 1.6581653597903762E9, 0.0, 2022-07-18 13:29:19.790
214.0, -28017.576398560574, -29743.064015276912, -59220.65636165814, -58509.20033564572, -25897.491085230242, -42906.49806338526, -56874.01376652882, -37576.232859639276, -18120.514526428524, -62783.81500051201, -61176.29989103078, -72666.08001781465, -56219.64409585525, -54200.923943629736, -52661.80517218175, -52319.935240737825, 0.0665, 0.7150000000000001, 0.096, 192.0, 0.0, 0.0, 0.0, 0.0, 0.0, 0.0, 0.0, 0.0, 0.0, 1.6581653597903812E9, 0.0, 2022-07-18 13:29:19.790
216.0, -27992.564796515086, -29820.602216792373, -59167.36980287669, -58462.105210078385, -25855.715674843275, -42886.470900353306, -56824.03526592675, -37555.803365207124, -18141.25694528305, -62802.47870713219, -61196.99760639639, -72684.98959362383, -56246.399133968254, -54222.06869388446, -52687.0849951607, -52343.784552071644, 0.0665, 0.7150000000000001, 0.096, 192.0, 0.0, 0.0, 0.0, 0.0, 0.0, 0.0, 0.0, 0.0, 0.0, 1.658165359790386E9, 0.0, 2022-07-18 13:29:19.790
218.0, -28035.50249761373, -29768.99203884507, -59245.1315218367, -58536.67062958129, -25919.216980840803, -42936.7846771222, -56934.586994002704, -37620.958700294344, -18127.980009076597, -62794.96852099521, -61187.453411513976, -72679.31225053218, -56237.19021525267, -54215.40787403678, -52676.31145433324, -52335.51440662318, 0.0665, 0.7150000000000001, 0.096, 192.0, 0.0, 0.0, 0.0, 0.0, 0.0, 0.0, 0.0, 0.0, 0.0, 1.6581653597903912E9, 0.0, 2022-07-18 13:29:19.790
220.0, -28002.86895070898, -29828.358272118363, -59178.880951271174, -58484.255788833594, -25859.604878378497, -42904.48640638428, -56835.30054513223, -37577.66337128441, -18162.02171588203, -62829.278448734105, -61218.85761247369, -72712.8622189596, -56265.08519233289, -54250.20954015369, -52724.72533282344, -52381.536648456655, 0.0665, 0.7150000000000001, 0.096, 192.0, 0.0, 0.0, 0.0, 0.0, 0.0, 0.0, 0.0, 0.0, 0.0, 1.658165359790396E9, 0.0, 2022-07-18 13:29:19.790
222.0, -28043.45971863982, -29780.65964945074, -59246.76319918194, -58546.72891458618, -25916.42301278389, -42938.751630634266, -56884.85436258964, -37606.0277349982, -18128.091767798873, -62795.34850065094, -61183.29598704529, -72681.21214881088, -56231.021133783004, -54212.70331295769, -52672.981044409404, -52335.58146185654, 0.08125, 0.8315000000000001, 0.11, 192.0, 1.5, 0.0, 14.5, 80.0, 1.5, 112.0, 0.0, 0.0, 0.0, 1.6581653597904007E9, 0.0, 2022-07-18 13:29:19.790
224.0, -28016.235293893256, -29838.505964101074, -59205.725396361995, -58510.09440542393, -25885.532901946655, -42924.33475546059, -56865.14012398006, -37627.91009281994, -18168.235500840605, -62841.236632017695, -61242.751627296406, -72738.43261461647, -56280.46319251814, -54266.39220313933, -52740.77388534235, -52403.66487546741, 0.08125, 0.8315000000000001, 0.11, 192.0, 0.0, 0.0, 0.0, 0.0, 0.0, 0.0, 0.0, 0.0, 0.0, 1.6581653597904058E9, 0.0, 2022-07-18 13:29:19.790
226.0, -28039.056424982122, -29788.773332688015, -59242.717533435534, -58535.73185631417, -25911.170352836893, -42936.67291839993, -56914.671589693025, -37638.97420632532, -18134.596125435368, -62798.34363440796, -61195.96942615145, -72690.39871578202, -56230.55174714944, -54221.912231673276, -52692.18119289651, -52350.13244749695, 0.08125, 0.8315000000000001, 0.11, 192.0, 0.0, 0.0, 0.0, 0.0, 0.0, 0.0, 0.0, 0.0, 0.0, 1.6581653597904108E9, 0.0, 2022-07-18 13:29:19.790
228.0, -28001.48314255275, -29804.50896078455, -59194.63893111217, -58484.0546231335, -25875.966355319782, -42910.499025642755, -56855.05948723072, -37565.794594978644, -18169.107218874364, -62839.9849343282, -61238.750665038904, -72726.87676273308, -56284.10652686436, -54267.7109560622, -52737.46582716297, -52389.449165993836, 0.08125, 0.8315000000000001, 0.11, 192.0, 0.0, 0.0, 0.0, 0.0, 0.0, 0.0, 0.0, 0.0, 0.0, 1.6581653597904155E9, 0.0, 2022-07-18 13:29:19.790
230.0, -28007.607520533507, -29753.658742148727, -59223.226812270506, -58506.227553633165, -25895.233559040258, -42915.12583674501, -56878.64057763107, -37615.32606069161, -18115.753604859543, -62757.194072865736, -61172.276577028824, -72654.05477929769, -56220.73933133356, -54195.760690660565, -52668.71186121844, -52316.69423779181, 0.08125, 0.8315000000000001, 0.11, 192.0, 0.0, 0.0, 0.0, 0.0, 0.0, 0.0, 0.0, 0.0, 0.0, 1.6581653597904232E9, 0.0, 2022-07-18 13:29:19.790
232.0, -27977.231499818743, -29766.488643466073, -59190.01212000992, -58477.32674805245, -25881.107256544503, -42905.51458662922, -56874.9748915404, -37598.18227269439, -18160.34533504788, -62812.60404737044, -61227.66419978908, -72705.82141945617, -56287.68280597721, -54251.99767971012, -52735.2977079508, -52383.66006417991, 0.085625, 0.8907500000000002, 0.11599999999999999, 192.0, 1.0, 104.0, 14.5, 88.0, 1.5, 104.0, 0.0, 0.0, 0.0, 1.6581653597904284E9, 0.0, 2022-07-18 13:29:19.790
234.0, -27967.44143574732, -29733.341006438855, -59193.5213438894, -58482.020614388064, -25878.715619887786, -42891.09771145555, -56880.31695846522, -37600.50685411774, -18092.999529004042, -62719.48667996963, -61148.69548662847, -72626.20450570638, -56200.533354345964, -54170.927902570715, -52664.37562279411, -52302.25501087368, 0.085625, 0.8907500000000002, 0.11599999999999999, 192.0, 0.0, 0.0, 0.0, 0.0, 0.0, 0.0, 0.0, 0.0, 0.0, 1.6581653597904332E9, 0.0, 2022-07-18 13:29:19.790
236.0, -27965.385075257433, -29750.484794436074, -59191.71085258852, -58484.23343708914, -25880.01202106619, -42900.30663017114, -56827.05275142822, -37589.73331329028, -18139.40175049326, -62801.71874782071, -61214.38726358263, -72698.13241936355, -56269.823762157415, -54242.18526389424, -52724.05478048978, -52370.96427332929, 0.085625, 0.8907500000000002, 0.11599999999999999, 192.0, 0.0, 0.0, 0.0, 0.0, 0.0, 0.0, 0.0, 0.0, 0.0, 1.658165359790438E9, 0.0, 2022-07-18 13:29:19.790
238.0, -27948.174232026846, -29730.88231454877, -59183.44070714006, -58472.43171601674, -25878.112122787494, -42884.995685219255, -56858.456952387925, -37572.7683392487, -18087.791572545957, -62717.072691568465, -61142.54875690326, -72622.9411510159, -56197.672331055684, -54172.02313804903, -52661.98398613739, -52298.96930443875, 0.085625, 0.8907500000000002, 0.11599999999999999, 192.0, 0.0, 0.0, 0.0, 0.0, 0.0, 0.0, 0.0, 0.0, 0.0, 1.6581653597904427E9, 0.0, 2022-07-18 13:29:19.790
240.0, -27955.10327280799, -29729.049471503437, -59195.48829740147, -58483.02644288856, -25898.13928581945, -42915.23759546728, -56891.71634813742, -37624.7808485962, -18134.618477179825, -62788.95590173673, -61201.93734192102, -72679.40165751001, -56265.912206877736, -54237.37963883635, -52728.03339100283, -52371.56777042959, 0.085625, 0.8907500000000002, 0.11599999999999999, 192.0, 0.0, 0.0, 0.0, 0.0, 0.0, 0.0, 0.0, 0.0, 0.0, 1.6581653597904477E9, 0.0, 2022-07-18 13:29:19.790
242.0, -27941.401653456887, -29726.344910424345, -59167.10158194323, -58453.56684369646, -25857.88379405544, -42881.39705436195, -56855.01478374181, -37557.8150222081, -18088.909159768722, -62712.71410139967, -61139.46421616843, -72606.0432322077, -56195.39245312124, -54168.04452753598, -52666.56609375073, -52301.58445854002, 0.085625, 0.8907500000000002, 0.11599999999999999, 192.0, 0.0, 0.0, 0.0, 0.0, 0.0, 0.0, 0.0, 0.0, 0.0, 1.6581653597904527E9, 0.0, 2022-07-18 13:29:19.790
244.0, -27960.91472636637, -29714.990224241046, -59204.56310565032, -58498.67266400727, -25885.80112288012, -42916.35518269005, -56862.90494953453, -37571.38253109247, -18127.510622443035, -62776.12600041938, -61195.23181858443, -72665.38711373653, -56255.339831750374, -54226.024952653046, -52707.20156517048, -52351.49590390872, 0.094, 0.966, 0.128, 192.0, 1.0, 120.0, 15.0, 24.0, 2.0, 0.0, 0.0, 0.0, 0.0, 1.6581653597904575E9, 0.0, 2022-07-18 13:29:19.790
246.0, -27930.494002162697, -29728.781250569973, -59160.41841035109, -58461.81463740047, -25848.429006150844, -42884.79451951916, -56833.82532999818, -37563.78293797767, -18094.653558093734, -62716.6033049349, -61150.550681418266, -72622.11413647105, -56211.59746785134, -54182.97549283213, -52659.927625647506, -52307.55237430959, 0.094, 0.966, 0.128, 192.0, 0.0, 0.0, 0.0, 0.0, 0.0, 0.0, 0.0, 0.0, 0.0, 1.6581653597904625E9, 0.0, 2022-07-18 13:29:19.790
248.0, -27966.457958991286, -29705.244863658532, -59221.28221050289, -58516.57641131597, -25910.164524336404, -42932.9848805648, -56914.9845141154, -37611.39215366747, -18114.948942059153, -62777.06477368651, -61192.16962959405, -72668.33754400464, -56261.643023686775, -54231.9481649337, -52698.305570877266, -52363.45408719231, 0.094, 0.966, 0.128, 192.0, 0.0, 0.0, 0.0, 0.0, 0.0, 0.0, 0.0, 0.0, 0.0, 1.6581653597904675E9, 0.0, 2022-07-18 13:29:19.790
250.0, -27922.67089160334, -29722.54511386694, -59155.188102148546, -58450.52700645054, -25844.49509912671, -42875.138565914465, -56847.750466793834, -37549.05313838162, -18098.140430228763, -62732.160119075794, -61155.62452740962, -72624.34931091659, -56223.041561012455, -54194.2407720376, -52658.2288930689, -52326.81957803006, 0.094, 0.966, 0.128, 192.0, 0.0, 0.0, 0.0, 0.0, 0.0, 0.0, 0.0, 0.0, 0.0, 1.6581653597904725E9, 0.0, 2022-07-18 13:29:19.790
252.0, -27949.582391927528, -29659.37908403624, -59207.80410859634, -58496.32573083946, -25887.008117080703, -42902.25123193875, -56879.35583345364, -37568.186231635365, -18108.511639656026, -62762.04440141254, -61174.936434619005, -72641.91778205846, -56250.75772413704, -54210.49049025661, -52670.52235251932, -52346.69027885083, 0.094, 0.966, 0.128, 192.0, 0.0, 0.0, 0.0, 0.0, 0.0, 0.0, 0.0, 0.0, 0.0, 1.6581653597904773E9, 0.0, 2022-07-18 13:29:19.790
254.0, -27913.0372897431, -29691.185616396146, -59143.18521537605, -58440.4910731901, -25837.05196822309, -42860.87815295198, -56823.90115546002, -37534.32333878557, -18084.036479477465, -62707.84142110842, -61135.82088182222, -72598.62245304852, -56205.562496848404, -54164.24473097858, -52633.641974168066, -52309.22875514373, 0.09, 0.966, 0.134, 192.0, 1.0, 104.0, 15.0, 24.0, 2.0, 24.0, 0.0, 0.0, 0.0, 1.658165359790482E9, 0.0, 2022-07-18 13:29:19.790
0.0, -27937.892429577405, -29619.637682394707, -59202.08206201578, -58501.93601869774, -25891.07613457157, -42904.73227557329, -56875.086650262674, -37582.31253413112, -18094.54179937146, -62740.4079127798, -61158.35144023317, -72633.33471218761, -56232.004610539036, -54196.56535346095, -52657.44658201296, -52344.18688347183, 0.09, 0.966, 0.134, 192.0, 0.0, 0.0, 0.0, 0.0, 0.0, 0.0, 0.0, 0.0, 0.0, 1.658165359790487E9, 0.0, 2022-07-18 13:29:19.790
2.0, -27893.680679044806, -29661.770720692963, -59132.72459897096, -58436.6912766327, -25830.12292744195, -42854.776126715675, -56805.95270466241, -37498.35938195698, -18072.838255505354, -62714.09990955591, -61127.59543986266, -72603.80805776216, -56206.277752670976, -54173.945388072185, -52636.078314313694, -52317.074217447545, 0.09, 0.966, 0.134, 192.0, 0.0, 0.0, 0.0, 0.0, 0.0, 0.0, 0.0, 0.0, 0.0, 1.658165359790492E9, 0.0, 2022-07-18 13:29:19.790
4.0, -27942.139261023913, -29606.047821765882, -59217.57182092331, -58510.832012990955, -25905.76123067871, -42909.247327953264, -56882.73094686639, -37545.92389415787, -18072.43592410516, -62734.395293521324, -61136.31262020024, -72615.31920615664, -56218.90648828822, -54185.00950157756, -52646.87420688561, -52325.322011151555, 0.09, 0.966, 0.134, 192.0, 0.0, 0.0, 0.0, 0.0, 0.0, 0.0, 0.0, 0.0, 0.0, 1.6581653597904968E9, 0.0, 2022-07-18 13:29:19.790
6.0, -27905.370641394933, -29654.595810722807, -59135.27269783887, -58428.689352117704, -25837.25313392319, -42845.544856255634, -56821.17424263647, -37491.02800977564, -18077.375659629783, -62721.8559648819, -61137.20668997845, -72611.58646483261, -56221.81221506742, -54179.51097244155, -52657.49128550188, -52328.2500896752, 0.09, 0.966, 0.134, 192.0, 0.0, 0.0, 0.0, 0.0, 0.0, 0.0, 0.0, 0.0, 0.0, 1.6581653597905033E9, 0.0, 2022-07-18 13:29:19.790
8.0, -27931.969217296748, -29586.87002502323, -59192.940198533564, -58477.840838174925, -25882.358954234, -42876.21144964832, -56866.68239434748, -37526.723745670766, -18055.403894830215, -62707.30497924149, -61118.945314758465, -72598.26482513724, -56203.14850844724, -54159.57321638742, -52638.78287539278, -52305.2948481196, 0.088, 0.96, 0.136, 192.0, 1.0, 96.0, 15.0, 0.0, 2.0, 32.0, 0.0, 0.0, 0.0, 1.658165359790508E9, 0.0, 2022-07-18 13:29:19.790
10.0, -27912.61260659845, -29655.53458398993, -59131.29408732583, -58423.48139565962, -25817.11421216896, -42843.68966146585, -56793.011044622785, -37523.72861191376, -18079.186150930662, -62715.5527729455, -61142.213480736435, -72616.01211023476, -56216.134871975766, -54172.269007238036, -52653.065640099725, -52321.74573203871, 0.088, 0.96, 0.136, 192.0, 0.0, 0.0, 0.0, 0.0, 0.0, 0.0, 0.0, 0.0, 0.0, 1.6581653597905128E9, 0.0, 2022-07-18 13:29:19.790
12.0, -27954.611534429972, -29607.61244387775, -59200.070405014805, -58491.36364357038, -25872.323020973567, -42881.687627039864, -56855.73003956438, -37515.592576932024, -18060.745961755034, -62711.66356941028, -61119.54881185875, -72601.93051122791, -56188.17283966218, -54150.4313529052, -52621.28145948428, -52296.667074759855, 0.088, 0.96, 0.136, 192.0, 0.0, 0.0, 0.0, 0.0, 0.0, 0.0, 0.0, 0.0, 0.0, 1.6581653597905173E9, 0.0, 2022-07-18 13:29:19.790
14.0, -27933.399728941888, -29673.259517342987, -59150.27071836838, -58443.866186602856, -25841.20939269178, -42848.00354814572, -56834.697048031936, -37490.62567837544, -18095.21235170512, -62751.33791581845, -61161.81596062374, -72646.70105537189, -56227.19898548115, -54193.90549587077, -52666.32022456172, -52334.64268858942, 0.088, 0.96, 0.136, 192.0, 0.0, 0.0, 0.0, 0.0, 0.0, 0.0, 0.0, 0.0, 0.0, 1.6581653597905223E9, 0.0, 2022-07-18 13:29:19.790
16.0, -27951.258772761677, -29614.116801514247, -59205.70304461754, -58490.02253890307, -25881.26371875569, -42870.33294085657, -56876.0254235298, -37510.921062340865, -18057.32614485337, -62710.434223465236, -61124.600306105654, -72607.40668861946, -56190.27390364098, -54150.4313529052, -52627.71876188741, -52288.553391522575, 0.088, 0.96, 0.136, 192.0, 0.0, 0.0, 0.0, 0.0, 0.0, 0.0, 0.0, 0.0, 0.0, 1.658165359790527E9, 0.0, 2022-07-18 13:29:19.790
18.0, -27914.266635688145, -29653.76879617796, -59152.729410258464, -58445.56491918146, -25838.393072890412, -42856.63132150547, -56822.940030448444, -37508.30590823959, -18089.110325468817, -62751.539081518546, -61162.39710597958, -72644.51058441527, -56229.59062213786, -54195.738338916104, -52671.036442641795, -52337.88369153544, 0.098, 0.9500000000000001, 0.128, 192.0, 1.5, 8.0, 14.5, 88.0, 2.0, 0.0, 0.0, 0.0, 0.0, 1.6581653597905319E9, 0.0, 2022-07-18 13:29:19.790
20.0, -27924.61549337095, -29606.00311827697, -59187.30755893083, -58477.1032306079, -25866.802140093107, -42874.15508915843, -56847.95163249393, -37524.64503343643, -18047.89370869323, -62700.04066229352, -61110.31754139871, -72597.19194140339, -56180.72970875856, -54148.46439939313, -52621.97436356239, -52292.50965029117, 0.098, 0.9500000000000001, 0.128, 192.0, 0.0, 0.0, 0.0, 0.0, 0.0, 0.0, 0.0, 0.0, 0.0, 1.6581653597905369E9, 0.0, 2022-07-18 13:29:19.790
22.0, -27931.1422027519, -29665.749331206007, -59164.08409644176, -58461.546416467005, -25855.849785310005, -42876.39026360396, -56823.990562437844, -37516.374887987964, -18095.01118600502, -62759.04926765553, -61163.894672858085, -72650.47850018484, -56230.819968082906, -54206.243658810105, -52674.00922465435, -52349.43954341883, 0.098, 0.9500000000000001, 0.128, 192.0, 0.0, 0.0, 0.0, 0.0, 0.0, 0.0, 0.0, 0.0, 0.0, 1.6581653597905416E9, 0.0, 2022-07-18 13:29:19.790
24.0, -27937.557153410573, -29631.99819707849, -59181.697271072546, -58477.349099796906, -25867.629154637954, -42876.323208370595, -56856.221777942395, -37519.593539189525, -18056.58853728635, -62705.74035712962, -61110.563410587725, -72599.02478444872, -56188.48576408455, -54152.86769305083, -52619.04628503875, -52288.19576361129, 0.098, 0.9500000000000001, 0.128, 192.0, 0.0, 0.0, 0.0, 0.0, 0.0, 0.0, 0.0, 0.0, 0.0, 1.6581653597905464E9, 0.0, 2022-07-18 13:29:19.790
26.0, -27937.601856899484, -29665.21288933908, -59170.23082616697, -58469.34717528191, -25863.561137147088, -42886.381493375484, -56852.19846394044, -37550.2601325822, -18101.023805263496, -62766.3135846035, -61170.64489968359, -72655.1947182649, -56250.22128227011, -54213.642086224805, -52681.25118985787, -52357.82144758957, 0.098, 0.9500000000000001, 0.128, 192.0, 0.0, 0.0, 0.0, 0.0, 0.0, 0.0, 0.0, 0.0, 0.0, 1.6581653597905512E9, 0.0, 2022-07-18 13:29:19.790
28.0, -27932.14803125239, -29646.951514119093, -59178.813896037806, -58473.97398638415, -25856.922669043863, -42871.9199147129, -56845.805865026225, -37514.22912052025, -18059.650726276723, -62702.18642976123, -61117.04541647976, -72598.77891525971, -56192.97846472007, -54153.78411457349, -52613.48070066937, -52293.98486542522, 0.1, 0.9500000000000001, 0.124, 192.0, 1.5, 16.0, 14.5, 88.0, 1.5, 112.0, 0.0, 0.0, 0.0, 1.658165359790556E9, 0.0, 2022-07-18 13:29:19.790
30.0, -27933.66794987535, -29655.087549100823, -59184.133611218174, -58480.09836436491, -25868.009134293694, -42887.29791489815, -56863.575501868196, -37563.93940018885, -18110.21037223463, -62769.68869801625, -61178.6915276875, -72663.151939291, -56253.28347126049, -54224.79560670801, -52685.40861432655, -52364.4599156928, 0.1, 0.9500000000000001, 0.124, 192.0, 0.0, 0.0, 0.0, 0.0, 0.0, 0.0, 0.0, 0.0, 0.0, 1.6581653597905607E9, 0.0, 2022-07-18 13:29:19.790
32.0, -27913.685490332307, -29640.87183962725, -59153.7128870145, -58449.0964948054, -25832.447508865298, -42848.47293477928, -56807.29380932973, -37490.67038186436, -18052.207595373107, -62692.530476156535, -61102.96381747292, -72586.15017964247, -56176.10289765631, -54149.42552440471, -52614.330066958675, -52288.86631594495, 0.1, 0.9500000000000001, 0.124, 192.0, 0.0, 0.0, 0.0, 0.0, 0.0, 0.0, 0.0, 0.0, 0.0, 1.6581653597905655E9, 0.0, 2022-07-18 13:29:19.790
34.0, -27920.23455145771, -29632.4452319676, -59162.78769526335, -58462.306375778484, -25852.787596319627, -42871.830507735074, -56839.100341689635, -37516.71016415479, -18089.847933035842, -62751.09204662944, -61148.49432092838, -72633.20060172089, -56226.26021221402, -54199.35932151787, -52662.2298553264, -52333.368639155466, 0.1, 0.9500000000000001, 0.124, 192.0, 0.0, 0.0, 0.0, 0.0, 0.0, 0.0, 0.0, 0.0, 0.0, 1.6581653597905705E9, 0.0, 2022-07-18 13:29:19.790
36.0, -27920.391013668897, -29668.20802309609, -59150.449532324026, -58452.13633205132, -25842.081110725536, -42865.23674312076, -56845.85056851513, -37525.89673112592, -18051.827615717368, -62682.40513591828, -61095.18541040247, -72575.68956323738, -56174.71708950008, -54142.2282626901, -52616.38642744857, -52282.78664145311, 0.1, 0.9500000000000001, 0.124, 192.0, 0.0, 0.0, 0.0, 0.0, 0.0, 0.0, 0.0, 0.0, 0.0, 1.6581653597905755E9, 0.0, 2022-07-18 13:29:19.790
38.0, -27944.57560116954, -29656.138081090223, -59186.927579275085, -58493.39765231582, -25877.195701264824, -42908.50972038624, -56856.89233027605, -37586.64877255545, -18102.81194481992, -62763.87724445787, -61164.49816995838, -72649.07034028416, -56234.64211638476, -54216.07842637043, -52679.57480902372, -52359.56488365709, 0.092, 0.9560000000000001, 0.126, 192.0, 1.0, 112.0, 14.5, 112.0, 1.5, 120.0, 0.0, 0.0, 0.0, 1.6581653597905815E9, 0.0, 2022-07-18 13:29:19.790
40.0, -27928.77291783964, -29699.232244400057, -59150.06955266828, -58456.80784664248, -25842.17051770336, -42871.361121101516, -56818.38027457956, -37531.28350153965, -18069.507845581513, -62699.7500896156, -61121.739282815375, -72601.59523506109, -56189.22337165158, -54166.90458856876, -52632.166759034015, -52308.93818246582, 0.092, 0.9560000000000001, 0.126, 192.0, 0.0, 0.0, 0.0, 0.0, 0.0, 0.0, 0.0, 0.0, 0.0, 1.6581653597905865E9, 0.0, 2022-07-18 13:29:19.790
42.0, -27949.224764016246, -29660.183746836636, -59190.45915489902, -58494.3587773274, -25879.2073582658, -42899.792540048664, -56863.910778035024, -37572.656580526425, -18100.06268025192, -62754.93654667575, -61162.553568190764, -72648.28802922822, -56233.14454950626, -54212.77036819105, -52670.388242052584, -52348.16549398488, 0.092, 0.9560000000000001, 0.126, 192.0, 0.0, 0.0, 0.0, 0.0, 0.0, 0.0, 0.0, 0.0, 0.0, 1.6581653597905912E9, 0.0, 2022-07-18 13:29:19.790
44.0, -27930.918685307348, -29712.64329107324, -59141.03944790834, -58442.86035810237, -25840.40472989139, -42862.2192576193, -56832.97596370888, -37563.96175193331, -18079.253206164027, -62713.83168862244, -61127.126053229105, -72609.79832527618, -56198.32053164489, -54171.82197234893, -52638.20173003695, -52308.334685365524, 0.092, 0.9560000000000001, 0.126, 192.0, 0.0, 0.0, 0.0, 0.0, 0.0, 0.0, 0.0, 0.0, 0.0, 1.658165359790596E9, 0.0, 2022-07-18 13:29:19.790
46.0, -27950.2976477501, -29655.802804923394, -59183.507762373425, -58478.17611434175, -25886.65048916942, -42886.739121286766, -56877.65710087503, -37568.29799035764, -18098.63216860678, -62749.639183239844, -61155.3339547317, -72638.58737213461, -56238.66543038672, -54196.96768486115, -52665.94024490598, -52335.603813600996, 0.092, 0.9560000000000001, 0.126, 192.0, 0.0, 0.0, 0.0, 0.0, 0.0, 0.0, 0.0, 0.0, 0.0, 1.6581653597906008E9, 0.0, 2022-07-18 13:29:19.790
48.0, -27917.932321778815, -29708.48586660455, -59120.83347092074, -58417.37936942332, -25828.69241579681, -42843.24262657674, -56836.82046375519, -37547.130888358464, -18074.62639506178, -62700.73356637163, -61117.44774787995, -72596.67785128091, -56195.303046143425, -54152.21949246163, -52630.4233229665, -52289.6933304898, 0.08600000000000001, 0.96, 0.124, 192.0, 1.0, 88.0, 15.0, 0.0, 1.5, 112.0, 0.0, 0.0, 0.0, 1.6581653597906055E9, 0.0, 2022-07-18 13:29:19.790
50.0, -27959.998304843702, -29661.614258481775, -59196.76234683542, -58496.68335875075, -25886.22580602477, -42901.848900538556, -56862.70378383443, -37580.99378120825, -18092.57484585939, -62735.3564185329, -61146.080332527206, -72629.75843307476, -56218.28063944348, -54179.53332418601, -52651.05398309875, -52322.72920879474, 0.08600000000000001, 0.96, 0.124, 192.0, 0.0, 0.0, 0.0, 0.0, 0.0, 0.0, 0.0, 0.0, 0.0, 1.6581653597906103E9, 0.0, 2022-07-18 13:29:19.790
52.0, -27936.461917932265, -29729.854134303827, -59139.72069498547, -58450.9963930841, -25836.2473054227, -42866.44373732135, -56805.99740815132, -37536.782030675655, -18101.604950619334, -62729.097930085416, -61145.67800112701, -72629.93724703041, -56209.7199213171, -54186.730585900616, -52634.826616624196, -52315.956630224784, 0.08600000000000001, 0.96, 0.124, 192.0, 0.0, 0.0, 0.0, 0.0, 0.0, 0.0, 0.0, 0.0, 0.0, 1.6581653597906156E9, 0.0, 2022-07-18 13:29:19.790
54.0, -27949.67179890535, -29652.33828453282, -59195.041262512364, -58500.32669309696, -25888.84096012604, -42898.71965631481, -56887.00013005736, -37575.450548583336, -18094.83237204938, -62739.53619474605, -61143.554585403755, -72633.08884299861, -56219.71115108862, -54192.29617026999, -52639.38637249308, -52325.43376987383, 0.08600000000000001, 0.96, 0.124, 192.0, 0.0, 0.0, 0.0, 0.0, 0.0, 0.0, 0.0, 0.0, 0.0, 1.6581653597906203E9, 0.0, 2022-07-18 13:29:19.790
56.0, -27919.519295635142, -29722.790983055947, -59132.41167454859, -58437.60769815537, -25835.241476922212, -42856.5642662721, -56819.85548971361, -37566.30868510112, -18097.96161627312, -62731.534270231045, -61144.56041390424, -72629.6466743525, -56218.48180514357, -54186.14944054478, -52653.490323244376, -52328.4512553753, 0.08600000000000001, 0.96, 0.124, 192.0, 0.0, 0.0, 0.0, 0.0, 0.0, 0.0, 0.0, 0.0, 0.0, 1.658165359790625E9, 0.0, 2022-07-18 13:29:19.790
58.0, -27975.10808409549, -29677.416941811676, -59218.667056401624, -58518.453957850215, -25903.391945766445, -42910.856653554045, -56888.29653123576, -37600.10452271754, -18098.028671506487, -62724.31465677198, -61143.24166098138, -72626.38331966203, -56218.05712199892, -54174.213609005645, -52639.74400040436, -52321.96924948326, 0.088, 0.958, 0.12, 192.0, 1.0, 104.0, 14.5, 112.0, 1.5, 80.0, 0.0, 0.0, 0.0, 1.65816535979063E9, 0.0, 2022-07-18 13:29:19.790
60.0, -27939.9934935562, -29739.063053019414, -59158.74202951694, -58468.117829336865, -25855.335695187536, -42876.23380139277, -56813.217021610384, -37531.14939107292, -18124.739006130578, -62757.10466588791, -61174.310585774256, -72661.38615147903, -56247.18144502419, -54207.80828092197, -52673.62924499861, -52349.90893005239, 0.088, 0.958, 0.12, 192.0, 0.0, 0.0, 0.0, 0.0, 0.0, 0.0, 0.0, 0.0, 0.0, 1.658165359790635E9, 0.0, 2022-07-18 13:29:19.790
0.0, -13978.803334093493, -14842.295925890914, -29563.199527645058, -29216.300453698692, -12922.258725435582, -21413.597037028914, -28395.633804277637, -18755.974621292906, -9068.169780751441, -31391.818093278183, -30596.587729047267, -36341.79071686157, -28131.1903156269, -27118.27631214575, -26351.92440175109, -26189.3825160721, 0.09, 0.959, 0.119, 192.0, 1.0, 112.0, 15.0, 0.0, 1.5, 88.0, 0.0, 0.0, 0.0, 1.658165359908642E9, 0.0, 2022-07-18 13:29:19.908
2.0, -27952.130490795433, -29721.472230133088, -59106.93068586954, -58415.56887812244, -25814.320244112045, -42807.54689068162, -56778.482410726836, -37529.920045127874, -18078.225025919084, -62661.618013574844, -61101.04156744976, -72551.41556875892, -56166.558702773895, -54107.04661691745, -52632.9714218344, -52291.68263574632, 0.09, 0.959, 0.119, 192.0, 0.0, 0.0, 0.0, 0.0, 0.0, 0.0, 0.0, 0.0, 0.0, 1.658165360389897E9, 0.0, 2022-07-18 13:29:20.389
4.0, -27980.11487485348, -29664.028246882946, -59170.47669535598, -58474.91275965128, -25869.21612849428, -42848.9646731573, -56837.267498644294, -37562.53124028817, -18102.119040741807, -62705.8521158519, -61141.028838280305, -72596.20846464735, -56198.20877292261, -54148.59850985987, -52669.494172274375, -52331.11111296548, 0.09, 0.959, 0.119, 192.0, 0.0, 0.0, 0.0, 0.0, 0.0, 0.0, 0.0, 0.0, 0.0, 1.6581653603900135E9, 0.0, 2022-07-18 13:29:20.390
6.0, -27953.00220882919, -29724.445012145643, -59108.919991126066, -58423.883727059816, -25811.302758610578, -42816.46523671928, -56781.343434017115, -37539.08426035455, -18080.795476531446, -62668.278833422526, -61116.19605019046, -72571.0851038796, -56169.24091210854, -54116.94843971115, -52641.867416127614, -52295.08010090353, 0.09, 0.959, 0.119, 192.0, 0.0, 0.0, 0.0, 0.0, 0.0, 0.0, 0.0, 0.0, 0.0, 1.6581653603900185E9, 0.0, 2022-07-18 13:29:20.390
8.0, -27981.567738243073, -29664.34117130532, -59168.48739009946, -58490.67073949227, -25863.695247613818, -42865.549667543135, -56840.553205079224, -37590.85090051305, -18093.35715691533, -62697.60432214789, -61133.764521332334, -72596.32022336964, -56191.50324958602, -54139.63546033329, -52657.64774771306, -52324.80792102908, 0.094, 0.9540000000000001, 0.116, 192.0, 1.0, 120.0, 14.5, 104.0, 1.5, 80.0, 0.0, 0.0, 0.0, 1.6581653603900323E9, 0.0, 2022-07-18 13:29:20.390
10.0, -27939.904086578383, -29717.82889578687, -59083.88603733612, -58418.31814269044, -25801.602101516975, -42819.10274256501, -56769.63111992254, -37537.407879520404, -18089.06562197991, -62677.845380049395, -61119.25823918084, -72581.32220284012, -56180.260322125, -54131.61118407383, -52649.42230575351, -52318.52708083714, 0.094, 0.9540000000000001, 0.116, 192.0, 0.0, 0.0, 0.0, 0.0, 0.0, 0.0, 0.0, 0.0, 0.0, 1.6581653603900375E9, 0.0, 2022-07-18 13:29:20.390
12.0, -27986.753342956705, -29673.21481385408, -59169.13559068866, -58500.66196926379, -25882.828340867563, -42877.48549908227, -56867.42000191451, -37595.231842426285, -18071.743020027046, -62675.23022594813, -61106.0260064633, -72570.70512422385, -56171.07375515387, -54126.112654937824, -52636.54770094725, -52310.81572900006, 0.094, 0.9540000000000001, 0.116, 192.0, 0.0, 0.0, 0.0, 0.0, 0.0, 0.0, 0.0, 0.0, 0.0, 1.6581653603900428E9, 0.0, 2022-07-18 13:29:20.390
14.0, -27970.63773520443, -29758.41966371771, -59102.192116045015, -58441.2957359905, -25831.620494320454, -42839.3087195526, -56801.549411004715, -37576.05404568363, -18110.858572823832, -62714.94927584521, -61138.61484987913, -72605.41738336295, -56207.4176916382, -54165.1835042457, -52670.544704263775, -52345.08095325005, 0.094, 0.9540000000000001, 0.116, 192.0, 0.0, 0.0, 0.0, 0.0, 0.0, 0.0, 0.0, 0.0, 0.0, 1.658165360390048E9, 0.0, 2022-07-18 13:29:20.390
16.0, -27992.2071686038, -29682.289622102933, -59152.260023624905, -58478.98077714215, -25861.281259212647, -42853.50207728172, -56811.138309376045, -37577.90924047342, -18084.52821785548, -62692.86575232336, -61114.65377982304, -72581.36690632903, -56179.05332792441, -54135.835663775884, -52633.73138114588, -52309.36286561047, 0.094, 0.9540000000000001, 0.116, 192.0, 0.0, 0.0, 0.0, 0.0, 0.0, 0.0, 0.0, 0.0, 0.0, 1.6581653603900533E9, 0.0, 2022-07-18 13:29:20.390
18.0, -27965.72035142426, -29741.45468967613, -59094.97250258595, -58421.201517725174, -25805.15602888537, -42823.93071936735, -56764.17729427544, -37547.35440580302, -18111.39501469076, -62710.501278698604, -61139.553623146254, -72594.35326985756, -56200.890982257246, -54152.979451773106, -52652.439791254976, -52326.3501913965, 0.092, 0.9540000000000001, 0.116, 192.0, 1.0, 112.0, 14.5, 104.0, 1.5, 80.0, 0.0, 0.0, 0.0, 1.6581653603900583E9, 0.0, 2022-07-18 13:29:20.390
20.0, -27993.324755826565, -29682.893119203225, -59166.34162263175, -58481.84180043243, -25866.89154707093, -42863.24743786424, -56844.464760358904, -37612.26387170123, -18086.20459868963, -62675.29728118149, -61109.31171289823, -72565.34070555457, -56174.22535112207, -54121.84347174686, -52626.645878153555, -52300.55627829508, 0.092, 0.9540000000000001, 0.116, 192.0, 0.0, 0.0, 0.0, 0.0, 0.0, 0.0, 0.0, 0.0, 0.0, 1.6581653603900633E9, 0.0, 2022-07-18 13:29:20.390
22.0, -27984.071133622067, -29754.955143327137, -59134.71390422749, -58454.57267219695, -25847.467881139266, -42851.490420280745, -56806.98088490735, -37580.546746319145, -18130.818680622422, -62727.622714951365, -61161.83831236819, -72617.77789804673, -56234.41859894021, -54175.21943750614, -52688.47080331693, -52357.910854567395, 0.092, 0.9540000000000001, 0.116, 192.0, 0.0, 0.0, 0.0, 0.0, 0.0, 0.0, 0.0, 0.0, 0.0, 1.6581653603900683E9, 0.0, 2022-07-18 13:29:20.390
24.0, -27977.276203307654, -29677.126369133755, -59156.931538216064, -58475.248035818106, -25858.64375336692, -42848.27176907918, -56821.196594380934, -37551.62358899398, -18090.943168514154, -62672.30214742448, -61109.60228557614, -72564.8266154321, -56183.74719426003, -54125.643268304266, -52631.250337511345, -52294.02956891413, 0.092, 0.9540000000000001, 0.116, 192.0, 0.0, 0.0, 0.0, 0.0, 0.0, 0.0, 0.0, 0.0, 0.0, 1.6581653603900733E9, 0.0, 2022-07-18 13:29:20.390
26.0, -27950.208240772277, -29711.123372450278, -59101.432156733536, -58429.82929108493, -25820.176401159337, -42832.46908574928, -56775.77784964775, -37557.479746041274, -18115.686549626178, -62706.76853737456, -61141.49822491387, -72595.24733963578, -56217.520680131995, -54161.29430071048, -52663.70507046045, -52334.79915080061, 0.092, 0.9540000000000001, 0.116, 192.0, 0.0, 0.0, 0.0, 0.0, 0.0, 0.0, 0.0, 0.0, 0.0, 1.6581653603900783E9, 0.0, 2022-07-18 13:29:20.390
28.0, -27966.994400858213, -29676.4558168001, -59140.167729874585, -58465.97206186916, -25854.083997498037, -42850.037556891155, -56817.910887946004, -37582.89367948695, -18066.95974671361, -62643.311934865946, -61082.48961955186, -72533.75769063922, -56155.0028508905, -54099.75994822502, -52604.80822382071, -52276.97518789473, 0.094, 0.9520000000000001, 0.116, 192.0, 1.0, 120.0, 14.5, 96.0, 1.5, 80.0, 0.0, 0.0, 0.0, 1.6581653603900836E9, 0.0, 2022-07-18 13:29:20.390
30.0, -27956.42202573085, -29706.608320070307, -59112.6527324501, -58435.752503365584, -25843.153994459393, -42842.125039353974, -56802.28701857174, -37571.181365392375, -18128.628209665803, -62719.59843869191, -61152.696448885974, -72603.40572636196, -56232.2728314725, -54171.06201303745, -52690.393053340085, -52354.53574115464, 0.094, 0.9520000000000001, 0.116, 192.0, 0.0, 0.0, 0.0, 0.0, 0.0, 0.0, 0.0, 0.0, 0.0, 1.6581653603900886E9, 0.0, 2022-07-18 13:29:20.390
32.0, -27949.135357038424, -29664.430578283143, -59107.93651437003, -58429.0916835179, -25832.760433287673, -42831.41855375988, -56809.14900411952, -37549.56722850409, -18062.690563522647, -62634.17007138373, -61071.403154302025, -72521.79950735564, -56155.96397590208, -54087.80176494143, -52617.23579373787, -52271.00727212516, 0.094, 0.9520000000000001, 0.116, 192.0, 0.0, 0.0, 0.0, 0.0, 0.0, 0.0, 0.0, 0.0, 0.0, 1.6581653603900936E9, 0.0, 2022-07-18 13:29:20.390
34.0, -27947.458976204274, -29682.64725001422, -59109.72465392645, -58433.159701008764, -25840.851764780495, -42847.020071389685, -56824.23643162685, -37581.39611260845, -18100.442659907658, -62691.5469994005, -61125.941410772975, -72574.72843822581, -56214.14556671925, -54144.999879002564, -52675.797364210775, -52335.29088917862, 0.094, 0.9520000000000001, 0.116, 192.0, 0.0, 0.0, 0.0, 0.0, 0.0, 0.0, 0.0, 0.0, 0.0, 1.6581653603900988E9, 0.0, 2022-07-18 13:29:20.390
36.0, -27940.284066234122, -29672.16428186468, -59105.41076724658, -58429.76223585156, -25823.68562503882, -42837.85585616301, -56799.314236559185, -37583.832452754075, -18063.94226121214, -62631.62197251582, -61077.46047704941, -72518.3126352206, -56155.78516194644, -54100.408148814226, -52620.58855540616, -52288.46398454475, 0.094, 0.9520000000000001, 0.116, 192.0, 0.0, 0.0, 0.0, 0.0, 0.0, 0.0, 0.0, 0.0, 0.0, 1.658165360390104E9, 0.0, 2022-07-18 13:29:20.390
38.0, -27927.85649631697, -29653.902906644693, -59095.777165386346, -58419.50278514657, -25815.281369123622, -42840.85098992002, -56778.81768689367, -37602.80908379663, -18091.144334214252, -62681.71223184017, -61115.301980412245, -72557.53994673968, -56204.243743925545, -54141.33419291189, -52657.22306456841, -52334.82150254506, 0.096, 0.9500000000000001, 0.11, 192.0, 1.5, 0.0, 14.5, 88.0, 1.5, 56.0, 0.0, 0.0, 0.0, 1.6581653603901093E9, 0.0, 2022-07-18 13:29:20.390
40.0, -27925.598970126986, -29669.839700441327, -59085.562418170266, -58405.42118613973, -25805.4913050522, -42817.62752743096, -56772.2015705349, -37548.06966162559, -18049.99477267203, -62612.33241705089, -61055.9133953945, -72496.5643878656, -56134.86392913627, -54073.206075812115, -52595.01815974929, -52267.49804824568, 0.096, 0.9500000000000001, 0.11, 192.0, 0.0, 0.0, 0.0, 0.0, 0.0, 0.0, 0.0, 0.0, 0.0, 1.6581653603901155E9, 0.0, 2022-07-18 13:29:20.390
42.0, -27935.187868498313, -29654.349941533797, -59116.251363307405, -58435.819558598945, -25841.030578736136, -42839.33107129706, -56820.54839379172, -37577.90924047342, -18098.453354651137, -62682.62865336283, -61118.49827986935, -72562.30086830865, -56199.482822356564, -54131.94646024066, -52660.93345414799, -52322.93037449484, 0.096, 0.9500000000000001, 0.11, 192.0, 0.0, 0.0, 0.0, 0.0, 0.0, 0.0, 0.0, 0.0, 0.0, 1.6581653603901205E9, 0.0, 2022-07-18 13:29:20.390
44.0, -27923.76612708165, -29689.97862219556, -59089.00458681639, -58417.22290721213, -25809.71578475425, -42807.0551523036, -56785.43380325244, -37573.75181600473, -18060.455389077117, -62617.093338619874, -61070.30791882372, -72515.47396367478, -56143.96108912958, -54075.10597409082, -52617.816939093704, -52269.6885192023, 0.096, 0.9500000000000001, 0.11, 192.0, 0.0, 0.0, 0.0, 0.0, 0.0, 0.0, 0.0, 0.0, 0.0, 1.6581653603901255E9, 0.0, 2022-07-18 13:29:20.390
46.0, -27945.603781414484, -29661.144871848213, -59121.74989244341, -58450.32584075044, -25836.671988567352, -42836.38064102896, -56803.516364516785, -37568.7673769912, -18098.43100290668, -62700.04066229352, -61128.176585218505, -72582.90917669644, -56201.3156654019, -54141.62476558981, -52672.75752696485, -52331.6028513435, 0.096, 0.9500000000000001, 0.11, 192.0, 0.0, 0.0, 0.0, 0.0, 0.0, 0.0, 0.0, 0.0, 0.0, 1.6581653603901308E9, 0.0, 2022-07-18 13:29:20.390
48.0, -27930.426946929332, -29710.050488716424, -59087.14939202659, -58412.2384681986, -25815.124906912435, -42820.399143743416, -56790.440594010426, -37554.417557050896, -18059.740133254545, -62633.454815561156, -61074.37593631458, -72525.35343472403, -56149.12434209876, -54085.11955560679, -52620.67796238398, -52273.331853548516, 0.095, 0.9520000000000001, 0.11499999999999999, 192.0, 1.0, 120.0, 14.5, 104.0, 1.5, 96.0, 0.0, 0.0, 0.0, 1.6581653603901358E9, 0.0, 2022-07-18 13:29:20.390
50.0, -27941.87104009045, -29643.1964210506, -59122.331037799246, -58440.33461097892, -25841.678779325342, -42842.08033586507, -56822.22477462587, -37599.09869421705, -18084.505866111027, -62677.17482771574, -61115.301980412245, -72567.62058348901, -56187.0105489505, -54122.08934093587, -52669.44946878547, -52322.72920879474, 0.095, 0.9520000000000001, 0.11499999999999999, 192.0, 0.0, 0.0, 0.0, 0.0, 0.0, 0.0, 0.0, 0.0, 0.0, 1.6581653603901408E9, 0.0, 2022-07-18 13:29:20.390
52.0, -27921.218028213745, -29710.83279977236, -59085.294197236806, -58409.15392746377, -25795.477723536223, -42828.155199069406, -56785.679672441445, -37602.294993674164, -18053.794569229434, -62630.951420182166, -61076.83462820466, -72527.23098125828, -56138.954298371595, -54087.42178528569, -52633.8207881237, -52291.34735957949, 0.095, 0.9520000000000001, 0.11499999999999999, 192.0, 0.0, 0.0, 0.0, 0.0, 0.0, 0.0, 0.0, 0.0, 0.0, 1.658165360390146E9, 0.0, 2022-07-18 13:29:20.390
54.0, -27959.707732165785, -29660.02728462545, -59155.65748878211, -58473.929282895246, -25846.93143927234, -42873.70805426932, -56830.29375437424, -37626.63604338599, -18089.043270235452, -62691.25642672258, -61122.38748340458, -72572.20269110236, -56187.45758383961, -54137.98143124359, -52671.37171880862, -52343.06929624907, 0.095, 0.9520000000000001, 0.11499999999999999, 192.0, 0.0, 0.0, 0.0, 0.0, 0.0, 0.0, 0.0, 0.0, 0.0, 1.6581653603901513E9, 0.0, 2022-07-18 13:29:20.390
56.0, -27912.254978687168, -29705.26721540299, -59072.419592430546, -58395.42995636821, -25775.025877359614, -42806.2504895032, -56749.84982607959, -37513.357402486494, -18065.506883324015, -62648.05050469047, -61094.894837724554, -72536.75282439623, -56158.84735093682, -54109.88528846327, -52626.31060198672, -52289.11218513396, 0.095, 0.9520000000000001, 0.11499999999999999, 192.0, 0.0, 0.0, 0.0, 0.0, 0.0, 0.0, 0.0, 0.0, 0.0, 1.6581653603901563E9, 0.0, 2022-07-18 13:29:20.390
58.0, -27940.708749378773, -29636.557952947376, -59136.05500889481, -58455.824369886446, -25837.2978374121, -42837.90055965192, -56833.24418464234, -37555.15516461792, -18057.482607064558, -62663.00382173107, -61101.24273314986, -72546.60994370103, -56169.93381618665, -54114.154471654234, -52622.77902636278, -52287.659321744366, 0.0955, 0.9590000000000001, 0.1185, 192.0, 1.5, 0.0, 15.0, 24.0, 1.5, 104.0, 0.0, 0.0, 0.0, 1.6581653603901613E9, 0.0, 2022-07-18 13:29:20.390
60.0, -27906.264711173146, -29691.43148558515, -59059.03089750182, -58395.02762496801, -25775.607022715452, -42784.79281482611, -56756.08596278262, -37520.7558299012, -18051.782912228457, -62645.10007442237, -61092.860828979115, -72539.07740581958, -56159.49555152602, -54095.11078537832, -52609.859718067615, -52278.3386443065, 0.0955, 0.9590000000000001, 0.1185, 192.0, 0.0, 0.0, 0.0, 0.0, 0.0, 0.0, 0.0, 0.0, 0.0, 1.6581653603901663E9, 0.0, 2022-07-18 13:29:20.390
62.0, -27945.71554013676, -29629.226580766033, -59130.869404181176, -58467.29081479202, -25832.53691584312, -42834.97248112828, -56801.258838326794, -37562.21831586579, -18037.835423688346, -62656.186539672206, -61090.916227211506, -72544.1736035554, -56154.756981701496, -54093.836735944366, -52593.38648240406, -52280.372653051934, 0.0955, 0.9590000000000001, 0.1185, 192.0, 0.0, 0.0, 0.0, 0.0, 0.0, 0.0, 0.0, 0.0, 0.0, 1.6581653603901713E9, 0.0, 2022-07-18 13:29:20.390
64.0, -27917.686452589805, -29691.11856116278, -59076.80053434379, -58417.49112814559, -25787.72166821023, -42800.30492547809, -56752.822608092145, -37510.74224838522, -18061.394162344237, -62674.134990469815, -61111.63629432158, -72564.46898752081, -56166.96103417409, -54116.63551528878, -52609.12211050059, -52304.19961264129, 0.0955, 0.9590000000000001, 0.1185, 192.0, 0.0, 0.0, 0.0, 0.0, 0.0, 0.0, 0.0, 0.0, 0.0, 1.6581653603901763E9, 0.0, 2022-07-18 13:29:20.390
66.0, -27939.166479011357, -29607.724202600028, -59142.3582008312, -58466.508503736084, -25846.327942172047, -42831.12798108196, -56831.880728230564, -37546.05800462461, -18048.653668004714, -62656.49946409458, -61093.88900922406, -72543.61480994402, -56148.520844998464, -54097.122442379296, -52595.97928476087, -52285.200629854284, 0.0955, 0.9590000000000001, 0.1185, 192.0, 0.0, 0.0, 0.0, 0.0, 0.0, 0.0, 0.0, 0.0, 0.0, 1.6581653603901815E9, 0.0, 2022-07-18 13:29:20.390
68.0, -27915.630092099917, -29660.317857303366, -59094.7489851414, -58416.731168834114, -25801.95972942826, -42799.72378012226, -56775.48727696983, -37522.76748690218, -18071.00541246002, -62674.31380442546, -61117.76067230233, -72561.38444678599, -56184.954188460615, -54121.374085113304, -52633.08318055668, -52314.7496360242, 0.09475, 0.9535, 0.11925, 192.0, 1.0, 120.0, 14.5, 80.0, 1.5, 96.0, 0.0, 0.0, 0.0, 1.6581653603901865E9, 0.0, 2022-07-18 13:29:20.390
70.0, -27945.849650603494, -29597.33064142831, -59143.49813979842, -58463.513369979075, -25835.375587388946, -42817.22519603076, -56809.305466330705, -37535.19505681933, -18034.95204865361, -62645.45770233366, -61078.958043927916, -72528.68384464787, -56139.78131291644, -54091.84743068784, -52599.913191785, -52281.31142631906, 0.09475, 0.9535, 0.11925, 192.0, 0.0, 0.0, 0.0, 0.0, 0.0, 0.0, 0.0, 0.0, 0.0, 1.6581653603901927E9, 0.0, 2022-07-18 13:29:20.390
72.0, -27947.727197137738, -29665.749331206007, -59102.974427100955, -58436.8924423328, -25800.66332824985, -42808.61977441547, -56783.42214625146, -37535.08329809705, -18074.648746806233, -62697.89489482581, -61122.96862876042, -72577.20948186034, -56187.79286000644, -54142.47413187911, -52643.78966615077, -52332.76514205518, 0.09475, 0.9535, 0.11925, 192.0, 0.0, 0.0, 0.0, 0.0, 0.0, 0.0, 0.0, 0.0, 0.0, 1.6581653603901992E9, 0.0, 2022-07-18 13:29:20.390
74.0, -27950.275296005642, -29595.207225705057, -59126.51081401239, -58456.13729430882, -25810.363985343458, -42807.14455928142, -56797.79431793623, -37506.584823916535, -18036.650781232212, -62645.72592326712, -61074.28652933676, -72529.868487104, -56141.43534200613, -54090.37221555379, -52593.140613215044, -52280.797336196585, 0.09475, 0.9535, 0.11925, 192.0, 0.0, 0.0, 0.0, 0.0, 0.0, 0.0, 0.0, 0.0, 0.0, 1.6581653603902042E9, 0.0, 2022-07-18 13:29:20.390
76.0, -27941.28989473461, -29635.73093840253, -59099.28638926583, -58432.13152076382, -25791.521464767633, -42805.71404763628, -56759.3493174731, -37519.034745578145, -18072.927662483176, -62692.15049650079, -61118.83355603619, -72572.44856029136, -56193.73842403155, -54137.28852716548, -52631.049171811246, -52325.14319719592, 0.09475, 0.9535, 0.11925, 192.0, 0.0, 0.0, 0.0, 0.0, 0.0, 0.0, 0.0, 0.0, 0.0, 1.6581653603902092E9, 0.0, 2022-07-18 13:29:20.390
78.0, -27932.3939004414, -29582.734952298993, -59119.31355229778, -58443.21798601365, -25806.519485297144, -42797.64506788791, -56777.83421013763, -37508.44001870633, -18025.94429563812, -62627.26338234704, -61056.49454075033, -72509.48369616077, -56135.48977798102, -54075.03891885745, -52576.443860106934, -52269.24148431319, 0.093375, 0.94875, 0.121625, 192.0, 1.0, 112.0, 14.5, 64.0, 1.5, 112.0, 0.0, 0.0, 0.0, 1.6581653603902144E9, 0.0, 2022-07-18 13:29:20.390
80.0, -27913.506676376663, -29600.124609485225, -59095.30777875278, -58422.56497413695, -25806.58654053051, -42787.34091369402, -56762.00917506328, -37472.811338044565, -18063.15995015621, -62681.08638299542, -61097.73350927037, -72553.76250192673, -56189.82686875187, -54124.74919852605, -52638.55935794823, -52314.03438020163, 0.093375, 0.94875, 0.121625, 192.0, 0.0, 0.0, 0.0, 0.0, 0.0, 0.0, 0.0, 0.0, 0.0, 1.6581653603902194E9, 0.0, 2022-07-18 13:29:20.390
82.0, -27912.322033920533, -29584.836016277794, -59097.45354622049, -58432.73501786411, -25817.248322635693, -42791.38657944043, -56771.57572169015, -37489.41868417486, -18016.556562966893, -62617.85329793135, -61029.31481949268, -72497.77138206619, -56134.1486733137, -54068.378099009766, -52581.00361597582, -52254.645795183875, 0.093375, 0.94875, 0.121625, 192.0, 0.0, 0.0, 0.0, 0.0, 0.0, 0.0, 0.0, 0.0, 0.0, 1.6581653603902247E9, 0.0, 2022-07-18 13:29:20.390
84.0, -27919.09461249049, -29611.993385790993, -59093.02790081834, -58439.12761677833, -25823.149183171892, -42815.504111707705, -56795.04505336822, -37529.98710036124, -18055.940336697142, -62684.86382780837, -61083.786020730266, -72565.00542938775, -56193.93958973165, -54128.9736782281, -52648.63999469757, -52326.59606058551, 0.093375, 0.94875, 0.121625, 192.0, 0.0, 0.0, 0.0, 0.0, 0.0, 0.0, 0.0, 0.0, 0.0, 1.6581653603902297E9, 0.0, 2022-07-18 13:29:20.390
86.0, -27929.398766684386, -29631.774679633938, -59081.36029021267, -58437.920622577745, -25805.044270163093, -42807.16691102587, -56786.663149197484, -37511.256338507694, -18022.61388571428, -62632.69485624968, -61038.680200419454, -72519.85490558803, -56123.978629586534, -54074.4130700127, -52591.73245331436, -52270.69434770279, 0.093375, 0.94875, 0.121625, 192.0, 0.0, 0.0, 0.0, 0.0, 0.0, 0.0, 0.0, 0.0, 0.0, 1.6581653603902347E9, 0.0, 2022-07-18 13:29:20.390
88.0, -27941.133432523424, -29629.24893251049, -59095.57599968625, -58452.248090773595, -25818.522372069645, -42832.04440260463, -56799.38129179255, -37553.6128942505, -18066.512711824504, -62715.37395898986, -61111.21161117693, -72588.16183664344, -56179.433307580155, -54147.033887747995, -52652.10451508815, -52338.53189212464, 0.09468750000000001, 0.946375, 0.12081249999999999, 192.0, 1.5, 0.0, 14.5, 64.0, 1.5, 96.0, 0.0, 0.0, 0.0, 1.6581653603902397E9, 0.0, 2022-07-18 13:29:20.390
90.0, -27909.86334203045, -29623.929217330126, -59065.6917173495, -58414.85362229987, -25771.829577902507, -42791.54304165162, -56769.78758213372, -37499.253451735196, -18010.856868130788, -62630.72790273761, -61048.671430190974, -72516.72566136428, -56094.67549260563, -54079.75513693752, -52586.70331081192, -52269.17442907982, 0.09468750000000001, 0.946375, 0.12081249999999999, 192.0, 0.0, 0.0, 0.0, 0.0, 0.0, 0.0, 0.0, 0.0, 0.0, 1.6581653603902447E9, 0.0, 2022-07-18 13:29:20.390
92.0, -27951.90697335088, -29622.498705684986, -59121.012284876386, -58460.33942226642, -25812.420345833343, -42827.48464673575, -56812.92644893246, -37522.18634154634, -18058.33197335386, -62693.513952912566, -61105.98130297438, -72572.91794692492, -56153.86291192328, -54140.037791733484, -52639.54283470426, -52318.325915137044, 0.09468750000000001, 0.946375, 0.12081249999999999, 192.0, 0.0, 0.0, 0.0, 0.0, 0.0, 0.0, 0.0, 0.0, 0.0, 1.6581653603902497E9, 0.0, 2022-07-18 13:29:20.390
94.0, -27929.33171145102, -29653.58998222232, -59083.14842976909, -58415.30065718898, -25763.67119117632, -42783.65287585889, -56759.550483173196, -37485.88710855092, -18035.488490520536, -62641.30027786497, -61068.51977926729, -72536.19403078486, -56119.374170228744, -54097.43536680167, -52600.22611620738, -52268.4368215128, 0.09468750000000001, 0.946375, 0.12081249999999999, 192.0, 0.0, 0.0, 0.0, 0.0, 0.0, 0.0, 0.0, 0.0, 0.0, 1.6581653603902547E9, 0.0, 2022-07-18 13:29:20.390
96.0, -27966.994400858213, -29634.3451302463, -59147.32028810028, -58478.84666667541, -25811.325110355036, -42835.66538520639, -56788.965378876375, -37541.31943480008, -18064.94808971263, -62694.54213315751, -61109.17760243149, -72579.57876677261, -56159.11557187028, -54138.495521366065, -52639.31931725971, -52314.52611857964, 0.09468750000000001, 0.946375, 0.12081249999999999, 192.0, 0.0, 0.0, 0.0, 0.0, 0.0, 0.0, 0.0, 0.0, 0.0, 1.65816536039026E9, 0.0, 2022-07-18 13:29:20.390
98.0, -27926.604798627475, -29669.5044242745, -59083.48370593593, -58419.6368956133, -25759.67022891882, -42782.915268291865, -56740.663259108456, -37491.832672576034, -18044.22802260256, -62648.29637387948, -61073.146590369535, -72539.39033024196, -56135.4003710032, -54101.74925348154, -52608.45155816693, -52276.39404253889, 0.09434375, 0.9501875, 0.11940624999999999, 192.0, 1.0, 120.0, 14.5, 104.0, 1.5, 88.0, 0.0, 0.0, 0.0, 1.6581653603902647E9, 0.0, 2022-07-18 13:29:20.390
100.0, -27972.04589510511, -29646.61623795226, -59154.15992190361, -58488.54732376902, -25845.523279371653, -42842.03563237615, -56835.814635254705, -37554.05992913961, -18073.307642138916, -62696.710252369674, -61106.09306169666, -72577.74592372727, -56181.64613028123, -54143.23409119059, -52657.78185817979, -52328.09362746401, 0.09434375, 0.9501875, 0.11940624999999999, 192.0, 0.0, 0.0, 0.0, 0.0, 0.0, 0.0, 0.0, 0.0, 0.0, 1.65816536039027E9, 0.0, 2022-07-18 13:29:20.390
102.0, -27919.452240401777, -29688.749276250517, -59066.36226968316, -58404.16948845023, -25778.49039775019, -42777.3496839225, -56769.02762282224, -37500.25928023568, -18059.449560576628, -62659.114618195854, -61073.12423862508, -72544.93356286688, -56152.34299330032, -54112.25457337553, -52634.58074743518, -52297.87406896044, 0.09434375, 0.9501875, 0.11940624999999999, 192.0, 0.0, 0.0, 0.0, 0.0, 0.0, 0.0, 0.0, 0.0, 0.0, 1.6581653603902762E9, 0.0, 2022-07-18 13:29:20.390
104.0, -27956.10910130848, -29634.3451302463, -59129.952982658506, -58462.70870717868, -25840.561192102577, -42823.43898098934, -56821.30835310321, -37551.0647953826, -18059.158987898707, -62669.664641578755, -61080.52266603979, -72556.33295253909, -56168.458601052596, -54112.343980353355, -52640.3251457602, -52304.31137136357, 0.09434375, 0.9501875, 0.11940624999999999, 192.0, 0.0, 0.0, 0.0, 0.0, 0.0, 0.0, 0.0, 0.0, 0.0, 1.6581653603902824E9, 0.0, 2022-07-18 13:29:20.390
106.0, -27944.32973198053, -29726.83664880236, -59084.46718269196, -58426.588288138904, -25803.34553758449, -42801.66838188987, -56759.30461398418, -37538.27959755416, -18067.585595558357, -62664.434333376215, -61087.49641030985, -72558.74694094025, -56165.70933648459, -54107.672465762196, -52640.191035293465, -52301.80797598457, 0.09434375, 0.9501875, 0.11940624999999999, 192.0, 0.0, 0.0, 0.0, 0.0, 0.0, 0.0, 0.0, 0.0, 0.0, 1.6581653603902876E9, 0.0, 2022-07-18 13:29:20.390
108.0, -27980.427799275854, -29664.855261427794, -59146.89560495563, -58489.88842843634, -25853.704017842298, -42845.544856255634, -56820.838966469644, -37600.50685411774, -18072.748848527535, -62694.11745001286, -61105.33310238518, -72583.35621158555, -56175.387641833746, -54128.504291594545, -52650.65165169855, -52321.768083783165, 0.094171875, 0.95509375, 0.119703125, 192.0, 1.0, 120.0, 15.0, 0.0, 1.5, 96.0, 0.0, 0.0, 0.0, 1.6581653603902926E9, 0.0, 2022-07-18 13:29:20.390
110.0, -27968.4025607589, -29747.60141940134, -59093.944322341005, -58446.90602384878, -25813.06854642255, -42817.873396619965, -56782.259855539785, -37531.685832939846, -18087.791572545957, -62701.67233963875, -61123.77329156081, -72593.6827175239, -56175.67821451166, -54140.14955045576, -52666.275521072814, -52327.62424083045, 0.094171875, 0.95509375, 0.119703125, 192.0, 0.0, 0.0, 0.0, 0.0, 0.0, 0.0, 0.0, 0.0, 0.0, 1.6581653603902977E9, 0.0, 2022-07-18 13:29:20.390
112.0, -27992.83301744855, -29675.15941562169, -59151.25419512441, -58506.87575422237, -25850.82064280756, -42862.196905874844, -56832.595984053136, -37594.181310436885, -18080.706069553624, -62698.63250239284, -61116.911306013026, -72587.3795255875, -56159.987289904035, -54136.79678878746, -52647.969442363916, -52322.1480634389, 0.094171875, 0.95509375, 0.119703125, 192.0, 0.0, 0.0, 0.0, 0.0, 0.0, 0.0, 0.0, 0.0, 0.0, 1.658165360390303E9, 0.0, 2022-07-18 13:29:20.390
114.0, -27957.092578064512, -29733.78804132796, -59086.12121178165, -58442.48037844663, -25794.628357246922, -42814.49828320721, -56783.89153288502, -37537.94432138733, -18088.260959179515, -62702.54405767251, -61133.45159690996, -72600.1870751604, -56165.12819112876, -54154.25350120706, -52663.928587905, -52345.99737477271, 0.094171875, 0.95509375, 0.119703125, 192.0, 0.0, 0.0, 0.0, 0.0, 0.0, 0.0, 0.0, 0.0, 0.0, 1.6581653603903077E9, 0.0, 2022-07-18 13:29:20.390
116.0, -28001.39373557493, -29684.256575615, -59155.746895759934, -58496.9068761953, -25855.02277076516, -42850.28342608016, -56839.05563820072, -37573.215374137806, -18069.6643077927, -62682.606301618376, -61108.23882916437, -72573.32027832512, -56127.979591844036, -54122.558727569434, -52635.18424453548, -52306.032455686625, 0.094171875, 0.95509375, 0.119703125, 192.0, 0.0, 0.0, 0.0, 0.0, 0.0, 0.0, 0.0, 0.0, 0.0, 1.658165360390313E9, 0.0, 2022-07-18 13:29:20.390
118.0, -27969.698961937305, -29736.87258206279, -59100.42632823305, -58446.794265126504, -25812.465049322254, -42825.42828624586, -56777.297768270706, -37555.69160648485, -18102.16374423072, -62725.253430039105, -61147.890823828086, -72612.79345903319, -56176.99696743453, -54164.55765540095, -52689.00724518386, -52355.22864523276, 0.09108593749999999, 0.953546875, 0.1198515625, 192.0, 1.0, 96.0, 14.5, 96.0, 1.5, 96.0, 0.0, 0.0, 0.0, 1.658165360390318E9, 0.0, 2022-07-18 13:29:20.390
120.0, -27992.788313959638, -29687.318764605378, -59158.89849172813, -58504.99820768812, -25861.705942357297, -42859.58175177357, -56835.23348989886, -37579.697380029844, -18051.984077928555, -62691.614054633865, -61096.638273792065, -72568.1346736115, -56130.706504667585, -54127.721980538605, -52642.76148590583, -52311.37452261145, 0.09108593749999999, 0.953546875, 0.1198515625, 192.0, 0.0, 0.0, 0.0, 0.0, 0.0, 0.0, 0.0, 0.0, 0.0, 1.6581653603903232E9, 0.0, 2022-07-18 13:29:20.390
122.0, -27976.091560851524, -29740.15828849772, -59113.94913362851, -58467.80490491449, -25830.5476105866, -42839.264016063695, -56800.54358250423, -37562.24066761025, -18094.228874949084, -62758.08814264395, -61151.310640729746, -72623.92462777194, -56192.88905774225, -54191.62561793633, -52706.59806807018, -52374.31703499759, 0.09108593749999999, 0.953546875, 0.1198515625, 192.0, 0.0, 0.0, 0.0, 0.0, 0.0, 0.0, 0.0, 0.0, 0.0, 1.658165360869288E9, 0.0, 2022-07-18 13:29:20.869
124.0, -27982.886491165937, -29690.358601851298, -59141.53118628636, -58494.24701860512, -25845.16565146037, -42840.806286431114, -56819.944896691435, -37560.05019665363, -18046.798473214923, -62701.56058091648, -61090.73741325586, -72568.20172884486, -56135.75799891449, -54128.1243119388, -52638.13467480358, -52306.77006325365, 0.09108593749999999, 0.953546875, 0.1198515625, 192.0, 0.0, 0.0, 0.0, 0.0, 0.0, 0.0, 0.0, 0.0, 0.0, 1.658165360869338E9, 0.0, 2022-07-18 13:29:20.869
126.0, -27974.90691839539, -29732.335177938367, -59124.96854364497, -58477.37145154136, -25834.928552499838, -42841.09685910903, -56785.72437593036, -37560.832507709565, -18089.847933035842, -62756.45646529871, -61141.587631891685, -72621.46593588185, -56196.84531651084, -54186.596475433886, -52681.653521258064, -52358.29083422314, 0.09108593749999999, 0.953546875, 0.1198515625, 192.0, 0.0, 0.0, 0.0, 0.0, 0.0, 0.0, 0.0, 0.0, 0.0, 1.6581653608694055E9, 0.0, 2022-07-18 13:29:20.869
128.0, -27974.884566650937, -29695.566558309387, -59145.21922412148, -58491.29658833702, -25842.77401480365, -42847.46710627879, -56817.26268735679, -37591.43204586888, -18058.175511142672, -62696.509086669575, -61097.46528833691, -72571.68860097988, -56154.265243323476, -54142.205910945646, -52630.490378199866, -52313.855566245984, 0.09108593749999999, 0.953546875, 0.1198515625, 192.0, 0.0, 0.0, 0.0, 0.0, 0.0, 0.0, 0.0, 0.0, 0.0, 1.6581653608694108E9, 0.0, 2022-07-18 13:29:20.869
130.0, -27959.998304843702, -29706.965947981593, -59120.431139520544, -58468.542512481516, -25834.503869355187, -42841.56624574259, -56790.39589052152, -37551.66829248289, -18084.930549255678, -62748.678058228266, -61137.676076612006, -72612.83816252211, -56201.382720635265, -54186.954103345175, -52680.737099735394, -52362.78353485865, 0.094, 0.9480000000000001, 0.124, 192.0, 1.0, 120.0, 14.5, 80.0, 1.5, 112.0, 0.0, 0.0, 0.0, 1.658165360869416E9, 0.0, 2022-07-18 13:29:20.869
132.0, -27958.165461798366, -29699.12048567778, -59128.81304369128, -58469.19071307072, -25838.013093234673, -42839.53223699716, -56824.974039193876, -37556.60802800751, -18034.14738585322, -62682.20397021818, -61073.414811303, -72551.52732748119, -56131.93585061263, -54123.22927990309, -52617.816939093704, -52294.83423171452, 0.094, 0.9480000000000001, 0.124, 192.0, 0.0, 0.0, 0.0, 0.0, 0.0, 0.0, 0.0, 0.0, 0.0, 1.6581653608694212E9, 0.0, 2022-07-18 13:29:20.869
134.0, -27953.53865069612, -29702.54030257944, -59131.89758442612, -58474.04104161752, -25841.16468920287, -42851.780992958666, -56808.94783841942, -37579.00447595173, -18071.29598513794, -62749.12509311737, -61131.037608508785, -72611.60881657706, -56193.917237987196, -54183.13195504331, -52690.16953589553, -52362.515313925185, 0.094, 0.9480000000000001, 0.124, 192.0, 0.0, 0.0, 0.0, 0.0, 0.0, 0.0, 0.0, 0.0, 0.0, 1.6581653608694263E9, 0.0, 2022-07-18 13:29:20.869
136.0, -27961.026485088645, -29715.571369596884, -59128.61187799119, -58475.29273930702, -25826.63605530692, -42840.53806549765, -56793.033396367246, -37589.1745196789, -18029.09589160632, -62682.293377196, -61073.75008746983, -72556.08708335008, -56130.81826338986, -54123.72101828111, -52630.64684041105, -52303.75257775219, 0.094, 0.9480000000000001, 0.124, 192.0, 0.0, 0.0, 0.0, 0.0, 0.0, 0.0, 0.0, 0.0, 0.0, 1.658165360869438E9, 0.0, 2022-07-18 13:29:20.869
138.0, -27971.330639282543, -29703.188503168643, -59151.410657335604, -58495.945751183724, -25847.289067183625, -42857.86066745051, -56817.59796352363, -37553.1658593614, -18085.35523240033, -62760.971517678685, -61148.96370756194, -72634.18407847692, -56205.49544161504, -54203.04735935299, -52699.53491682231, -52377.334520499055, 0.094, 0.9480000000000001, 0.124, 192.0, 0.0, 0.0, 0.0, 0.0, 0.0, 0.0, 0.0, 0.0, 0.0, 1.6581653608694448E9, 0.0, 2022-07-18 13:29:20.869
140.0, -27958.187813542823, -29713.64911957373, -59116.47488075196, -58454.215044285665, -25806.184209130315, -42821.62848968846, -56765.11606754256, -37512.12805654145, -18041.09877837882, -62677.17482771574, -61081.97552942939, -72555.39417927196, -56138.194339060115, -54123.45279734764, -52618.84511933865, -52290.29682759009, 0.094, 0.9500000000000001, 0.12, 192.0, 1.0, 120.0, 14.5, 88.0, 1.5, 96.0, 0.0, 0.0, 0.0, 1.6581653608694515E9, 0.0, 2022-07-18 13:29:20.869
142.0, -27975.264546306676, -29682.535491291943, -59149.734276501455, -58478.08670736393, -25840.561192102577, -42854.17262961539, -56790.48529749934, -37582.848975998044, -18087.970386501598, -62747.09108437194, -61144.69452437098, -72614.08986021159, -56212.51388937401, -54179.15334453027, -52676.78084096681, -52352.99347078723, 0.094, 0.9500000000000001, 0.12, 192.0, 0.0, 0.0, 0.0, 0.0, 0.0, 0.0, 0.0, 0.0, 0.0, 1.6581653608694568E9, 0.0, 2022-07-18 13:29:20.869
144.0, -27950.878793105938, -29714.520837607484, -59109.14350857062, -58433.785549853514, -25807.145334141893, -42808.70918139329, -56757.36001221657, -37543.82283017908, -18045.367961569784, -62670.11167646786, -61085.35064284214, -72546.94521986786, -56162.244816094026, -54112.74631175355, -52622.26493624031, -52287.81578395555, 0.094, 0.9500000000000001, 0.12, 192.0, 0.0, 0.0, 0.0, 0.0, 0.0, 0.0, 0.0, 0.0, 0.0, 1.658165360869462E9, 0.0, 2022-07-18 13:29:20.869
146.0, -27978.237328319232, -29676.20994761109, -59157.95971846101, -58488.56967551347, -25867.31623021558, -42855.87136219399, -56818.112053646095, -37558.26205709721, -18079.34261314185, -62730.39433126382, -61127.43897765148, -72597.32605187011, -56210.01049399501, -54168.37980370281, -52679.30658809026, -52345.48328465025, 0.094, 0.9500000000000001, 0.12, 192.0, 0.0, 0.0, 0.0, 0.0, 0.0, 0.0, 0.0, 0.0, 0.0, 1.6581653608694673E9, 0.0, 2022-07-18 13:29:20.869
148.0, -27942.094557535, -29720.913436521703, -59087.05998504877, -58434.076122531435, -25816.53306681312, -42816.37582974146, -56782.99746310681, -37530.12121082797, -18051.939374439644, -62690.228246477636, -61087.407003332024, -72565.6312782325, -56169.97851967556, -54137.40028588776, -52658.89944540256, -52317.20832791428, 0.094, 0.9500000000000001, 0.12, 192.0, 0.0, 0.0, 0.0, 0.0, 0.0, 0.0, 0.0, 0.0, 0.0, 1.6581653608694725E9, 0.0, 2022-07-18 13:29:20.869
150.0, -27962.00996184468, -29658.82029042486, -59138.67016299608, -58481.21595158768, -25871.920689573373, -42857.033652905666, -56844.8670917591, -37597.69053431637, -18041.590516756834, -62705.33802572943, -61090.0221574333, -72578.26001384974, -56176.415822078685, -54146.78801855898, -52680.960617179946, -52337.011973501685, 0.098, 0.9520000000000001, 0.11800000000000001, 192.0, 1.5, 8.0, 14.5, 96.0, 1.5, 88.0, 0.0, 0.0, 0.0, 1.6581653608694775E9, 0.0, 2022-07-18 13:29:20.869
152.0, -27934.763185353662, -29719.88525627676, -59076.97934829943, -58417.35701767886, -25816.331901113022, -42810.49732094972, -56763.61850066406, -37533.362213773995, -18043.646877246723, -62688.26129296557, -61086.84820972064, -72562.09970260855, -56156.34395555782, -54136.19329168717, -52666.45433502845, -52319.68937154882, 0.098, 0.9520000000000001, 0.11800000000000001, 192.0, 0.0, 0.0, 0.0, 0.0, 0.0, 0.0, 0.0, 0.0, 0.0, 1.6581653608694828E9, 0.0, 2022-07-18 13:29:20.869
154.0, -27953.2480780182, -29642.1458890612, -59127.87427042417, -58459.89238737731, -25859.537823145132, -42841.38743178695, -56827.58919329515, -37586.24644115525, -18028.67120846167, -62688.88714181032, -61085.50710505332, -72555.84121416108, -56146.59859497531, -54130.00185847305, -52655.54668373426, -52310.234583644225, 0.098, 0.9520000000000001, 0.11800000000000001, 192.0, 0.0, 0.0, 0.0, 0.0, 0.0, 0.0, 0.0, 0.0, 0.0, 1.6581653608694878E9, 0.0, 2022-07-18 13:29:20.869
156.0, -27942.541592424106, -29728.423622658687, -59079.683909378524, -58412.84196529889, -25807.547665542086, -42815.0570768186, -56763.37263147505, -37563.93940018885, -18032.42630153016, -62688.46245866567, -61093.911360968516, -72558.41166477343, -56147.06798160887, -54134.36044864183, -52658.81003842474, -52313.14031042341, 0.098, 0.9520000000000001, 0.11800000000000001, 192.0, 0.0, 0.0, 0.0, 0.0, 0.0, 0.0, 0.0, 0.0, 0.0, 1.6581653608694935E9, 0.0, 2022-07-18 13:29:20.869
158.0, -27984.0040783887, -29671.650191742207, -59153.444666081035, -58481.43946903223, -25857.63792486643, -42853.70324298182, -56840.128521934574, -37559.58081002007, -18031.46517651858, -62697.40315644779, -61099.74516627135, -72567.21825208882, -56148.07381010936, -54131.38766662928, -52647.34359351917, -52309.742845266206, 0.098, 0.9520000000000001, 0.11800000000000001, 192.0, 0.0, 0.0, 0.0, 0.0, 0.0, 0.0, 0.0, 0.0, 0.0, 1.6581653608695E9, 0.0, 2022-07-18 13:29:20.869
160.0, -27965.943868868813, -29747.60141940134, -59100.89571486661, -58439.395837711796, -25813.761450500664, -42827.439943246834, -56779.37648050505, -37564.00645542222, -18053.816920973888, -62708.08729029743, -61119.7276258144, -72588.98885118829, -56173.286577854946, -54145.73748656958, -52667.0801838732, -52326.238432674225, 0.094, 0.9520000000000001, 0.122, 192.0, 1.0, 120.0, 14.5, 96.0, 1.5, 104.0, 0.0, 0.0, 0.0, 1.6581653608695052E9, 0.0, 2022-07-18 13:29:20.869
162.0, -27994.73291572725, -29683.720133748073, -59166.40867786511, -58501.57839078646, -25859.64958186741, -42860.05113840713, -56832.0148386973, -37603.7255053193, -18055.33683959685, -62707.483793197134, -61116.978361246394, -72588.94414769938, -56173.93477844415, -54141.647117334265, -52656.03842211228, -52324.494996606714, 0.094, 0.9520000000000001, 0.122, 192.0, 0.0, 0.0, 0.0, 0.0, 0.0, 0.0, 0.0, 0.0, 0.0, 1.6581653608695104E9, 0.0, 2022-07-18 13:29:20.869
164.0, -27954.63388617443, -29737.92311405219, -59093.4972874519, -58436.95949756617, -25800.35040382748, -42811.10081805001, -56759.08109653963, -37556.00453090722, -18074.9169677397, -62713.004674077594, -61128.511861385334, -72598.91302572645, -56191.32443563038, -54154.029983762506, -52674.14333512108, -52334.59798510051, 0.094, 0.9520000000000001, 0.122, 192.0, 0.0, 0.0, 0.0, 0.0, 0.0, 0.0, 0.0, 0.0, 0.0, 1.6581653608695157E9, 0.0, 2022-07-18 13:29:20.869
166.0, -27984.96520340028, -29677.461645300587, -59147.85672996721, -58488.256751091096, -25846.77497706115, -42838.90638815241, -56804.701006972915, -37576.076397428085, -18054.889804707742, -62682.606301618376, -61096.928846469986, -72566.81592068862, -56162.513037027486, -54124.659791548234, -52632.926718345494, -52295.16950788135, 0.094, 0.9520000000000001, 0.122, 192.0, 0.0, 0.0, 0.0, 0.0, 0.0, 0.0, 0.0, 0.0, 0.0, 1.658165360869521E9, 0.0, 2022-07-18 13:29:20.869
168.0, -27978.594956230518, -29750.70831188063, -59115.625514462656, -58456.20434954219, -25828.424194863346, -42835.553626484114, -56786.08200384164, -37571.807214237124, -18091.881941781277, -62727.01921785107, -61139.62067837962, -72605.52914208522, -56206.88124977127, -54165.16115250125, -52684.20162012597, -52344.43275266085, 0.094, 0.9520000000000001, 0.122, 192.0, 0.0, 0.0, 0.0, 0.0, 0.0, 0.0, 0.0, 0.0, 0.0, 1.6581653608695273E9, 0.0, 2022-07-18 13:29:20.869
170.0, -28000.38790707444, -29695.29833737592, -59162.541826074346, -58493.44235580473, -25858.01790452217, -42852.98798715926, -56817.10622514561, -37572.947153204346, -18073.79938051693, -62696.17381050275, -61117.78302404679, -72581.05398190666, -56186.98819720605, -54133.22050967461, -52655.61373896763, -52309.83225224403, 0.094, 0.9560000000000001, 0.126, 192.0, 1.0, 120.0, 14.5, 112.0, 1.5, 120.0, 0.0, 0.0, 0.0, 1.6581653608695326E9, 0.0, 2022-07-18 13:29:20.869
172.0, -27984.093485366524, -29748.18256475718, -59132.054046637306, -58469.01189911508, -25834.995607733206, -42848.13765861245, -56790.23942831033, -37607.77117106571, -18102.700186097645, -62744.6100407374, -61160.92189084553, -72624.17049696094, -56225.65671511373, -54177.096984040385, -52698.55144006627, -52356.63680513344, 0.094, 0.9560000000000001, 0.126, 192.0, 0.0, 0.0, 0.0, 0.0, 0.0, 0.0, 0.0, 0.0, 0.0, 1.6581653608695378E9, 0.0, 2022-07-18 13:29:20.869
174.0, -27981.657145220895, -29696.907662976704, -59151.58947129124, -58484.45695453369, -25849.79246256262, -42841.56624574259, -56807.53967851874, -37583.765397520714, -18047.938412182142, -62680.61699636185, -61101.600361061144, -72567.84410093357, -56166.290481840435, -54124.90566073724, -52643.54379696176, -52303.01497018516, 0.094, 0.9560000000000001, 0.126, 192.0, 0.0, 0.0, 0.0, 0.0, 0.0, 0.0, 0.0, 0.0, 0.0, 1.658165360869543E9, 0.0, 2022-07-18 13:29:20.869
176.0, -27964.2004328013, -29722.276892933478, -59115.334941784735, -58457.85837863188, -25826.278427395635, -42837.43117301836, -56781.61165495058, -37580.904374230435, -18087.702165568135, -62736.31754354448, -61144.3815999486, -72617.01793873524, -56209.295238172446, -54177.81223986295, -52699.266695888844, -52355.116886510485, 0.094, 0.9560000000000001, 0.126, 192.0, 0.0, 0.0, 0.0, 0.0, 0.0, 0.0, 0.0, 0.0, 0.0, 1.658165360869548E9, 0.0, 2022-07-18 13:29:20.869
178.0, -27977.097389352013, -29699.656927544707, -59127.98602914644, -58472.61052997238, -25827.77599427414, -42838.90638815241, -56790.61940796607, -37572.857746226524, -18031.48752826304, -62663.540263598, -61072.85601769162, -72549.62742920249, -56135.668591936665, -54107.605410528835, -52629.05986655472, -52286.5417345216, 0.094, 0.9560000000000001, 0.126, 192.0, 0.0, 0.0, 0.0, 0.0, 0.0, 0.0, 0.0, 0.0, 0.0, 1.658165360869553E9, 0.0, 2022-07-18 13:29:20.869
180.0, -27980.986592887235, -29722.03102374447, -59120.49819475391, -58470.73298343814, -25831.44168036481, -42846.37187080048, -56804.67865522846, -37600.03746748417, -18094.564151115912, -62746.55464250501, -61149.85777734015, -72624.37166266104, -56212.357427162824, -54184.29424575499, -52703.06649244625, -52366.94095932734, 0.094, 0.9480000000000001, 0.126, 192.0, 1.0, 120.0, 14.5, 80.0, 1.5, 120.0, 0.0, 0.0, 0.0, 1.6581653608695583E9, 0.0, 2022-07-18 13:29:20.869
182.0, -27984.54052025563, -29719.79584929894, -59131.38349430365, -58472.4987712501, -25829.228857663737, -42832.267920049184, -56785.545561974715, -37575.785824750164, -18051.358229083806, -62667.094190966396, -61091.65383477853, -72557.56229848413, -56142.12824608425, -54111.76283499752, -52629.283383999275, -52287.3911008109, 0.094, 0.9480000000000001, 0.126, 192.0, 0.0, 0.0, 0.0, 0.0, 0.0, 0.0, 0.0, 0.0, 0.0, 1.6581653608695636E9, 0.0, 2022-07-18 13:29:20.869
184.0, -27972.358819527486, -29698.964023466593, -59133.39515130463, -58466.70966943618, -25827.485421596222, -42826.14354206843, -56785.85848639709, -37593.91308950342, -18100.8226395634, -62743.60421223691, -61165.25812926986, -72624.99751150579, -56222.92980229018, -54178.30397824097, -52696.67389353203, -52354.84866557702, 0.094, 0.9480000000000001, 0.126, 192.0, 0.0, 0.0, 0.0, 0.0, 0.0, 0.0, 0.0, 0.0, 0.0, 1.6581653608695688E9, 0.0, 2022-07-18 13:29:20.869
186.0, -27943.05568254658, -29694.49367457553, -59102.549743956304, -58428.823462584434, -25799.903368938372, -42791.43128292934, -56772.13451530153, -37542.88405691196, -18036.829595187857, -62645.01066744455, -61079.5168375393, -72533.28830400566, -56137.72495242655, -54088.22644808608, -52618.48749142737, -52264.12293483293, 0.094, 0.9480000000000001, 0.126, 192.0, 0.0, 0.0, 0.0, 0.0, 0.0, 0.0, 0.0, 0.0, 0.0, 1.6581653608695738E9, 0.0, 2022-07-18 13:29:20.869
188.0, -27974.214014317276, -29694.471322831076, -59144.012229920896, -58468.81073341498, -25847.49023288372, -42838.369946285486, -56815.92158268948, -37593.86838601451, -18086.092839967354, -62724.471118983165, -61138.8830708126, -72595.1802844024, -56215.46431964211, -54151.12425698331, -52688.69432076148, -52331.28992692113, 0.094, 0.9480000000000001, 0.126, 192.0, 0.0, 0.0, 0.0, 0.0, 0.0, 0.0, 0.0, 0.0, 0.0, 1.658165360869579E9, 0.0, 2022-07-18 13:29:20.869
190.0, -27951.258772761677, -29712.68799456215, -59094.3466537412, -58426.23066022762, -25789.33099381101, -42801.08723653403, -56741.490273653304, -37560.072548398086, -18048.608964515803, -62661.4391996192, -61083.22722711888, -72539.34562675306, -56158.48972302553, -54101.74925348154, -52634.6254509241, -52278.986844895706, 0.094, 0.9540000000000001, 0.124, 192.0, 1.0, 120.0, 14.5, 104.0, 1.5, 112.0, 0.0, 0.0, 0.0, 1.658165360869584E9, 0.0, 2022-07-18 13:29:20.869
192.0, -27971.710618938283, -29682.513139547485, -59135.29504958333, -58469.77185842656, -25835.599104833498, -42839.28636780815, -56801.974094149366, -37587.475787100295, -18080.57195908689, -62717.60913343539, -61128.310695685235, -72588.4300575769, -56205.74131080405, -54154.96875702963, -52669.87415193012, -52330.79818854311, 0.094, 0.9540000000000001, 0.124, 192.0, 0.0, 0.0, 0.0, 0.0, 0.0, 0.0, 0.0, 0.0, 0.0, 1.6581653608695893E9, 0.0, 2022-07-18 13:29:20.869
194.0, -27962.59110720052, -29735.665587862208, -59096.51477295337, -58437.38418071082, -25803.837275962505, -42816.62169893047, -56768.60293967759, -37569.77320549169, -18053.23577561805, -62676.77249631554, -61089.84334347765, -72548.88982163547, -56156.29925206891, -54122.46932059161, -52637.5758811922, -52292.755519480175, 0.094, 0.9540000000000001, 0.124, 192.0, 0.0, 0.0, 0.0, 0.0, 0.0, 0.0, 0.0, 0.0, 0.0, 1.6581653608695943E9, 0.0, 2022-07-18 13:29:20.869
196.0, -27989.659069735895, -29695.76772400948, -59154.45049458152, -58491.16247787029, -25862.957640046792, -42866.08610941006, -56831.72426601938, -37623.39504043997, -18076.86156950731, -62730.03670335254, -61127.19310846247, -72593.99564194628, -56191.033862952456, -54172.269007238036, -52677.78666946729, -52338.26367119118, 0.094, 0.9540000000000001, 0.124, 192.0, 0.0, 0.0, 0.0, 0.0, 0.0, 0.0, 0.0, 0.0, 0.0, 1.6581653608695996E9, 0.0, 2022-07-18 13:29:20.869
198.0, -27950.834089617027, -29733.698634350138, -59082.58963615771, -58417.98286652361, -25794.695412480287, -42813.93948959583, -56744.66422136596, -37551.82475469408, -18057.281441364463, -62695.16798200226, -61103.90259074004, -72566.0336096327, -56162.06600213838, -54141.04362023397, -52655.591387223176, -52309.944010966305, 0.094, 0.9540000000000001, 0.124, 192.0, 0.0, 0.0, 0.0, 0.0, 0.0, 0.0, 0.0, 0.0, 0.0, 1.6581653608696048E9, 0.0, 2022-07-18 13:29:20.869
200.0, -27971.91178463838, -29668.230374840543, -59145.75566598841, -58476.56678874097, -25849.725407329253, -42852.85387669252, -56811.87591694307, -37603.546691363656, -18054.57688028537, -62706.723833885655, -61110.272837909804, -72572.49326378027, -56174.806496477904, -54143.30114642395, -52659.86057041414, -52316.40366511389, 0.099, 0.9570000000000001, 0.123, 192.0, 1.5, 32.0, 15.0, 0.0, 1.5, 104.0, 0.0, 0.0, 0.0, 1.6581653608696113E9, 0.0, 2022-07-18 13:29:20.869
202.0, -27958.612496687474, -29747.534364167976, -59102.21446778947, -58440.915756334754, -25826.054909951083, -42826.0094316017, -56793.83805916763, -37581.68668528637, -18062.645860033736, -62698.58779890392, -61110.988093732376, -72567.91115616694, -56176.37111858978, -54144.28462317999, -52672.71282347594, -52315.50959533568, 0.099, 0.9570000000000001, 0.123, 192.0, 0.0, 0.0, 0.0, 0.0, 0.0, 0.0, 0.0, 0.0, 0.0, 1.6581653608696165E9, 0.0, 2022-07-18 13:29:20.869
204.0, -28002.26545360869, -29698.293471132933, -59179.730317560476, -58518.521013083584, -25895.948814862826, -42891.209470177826, -56868.11290599262, -37649.39011924149, -18061.684735022158, -62727.08627308444, -61127.818957307216, -72593.2803861237, -56197.06883395539, -54171.01730954854, -52696.85270748767, -52343.67279334937, 0.099, 0.9570000000000001, 0.123, 192.0, 0.0, 0.0, 0.0, 0.0, 0.0, 0.0, 0.0, 0.0, 0.0, 1.6581653608696215E9, 0.0, 2022-07-18 13:29:20.869
206.0, -27973.945793383813, -29763.471157964606, -59114.1055958397, -58456.740791409116, -25831.06170070907, -42855.58078951607, -56790.70881494389, -37583.96656322081, -18074.738153784056, -62734.66351445479, -61137.98900103438, -72602.42224960592, -56196.6665025552, -54178.75101313007, -52707.22391691493, -52359.8107528461, 0.099, 0.9570000000000001, 0.123, 192.0, 0.0, 0.0, 0.0, 0.0, 0.0, 0.0, 0.0, 0.0, 0.0, 1.6581653608696265E9, 0.0, 2022-07-18 13:29:20.869
208.0, -28002.757191986704, -29686.98348843855, -59175.952872747526, -58512.173117658276, -25875.005230308205, -42882.91697298491, -56843.01189696931, -37592.25906041373, -18061.14829315523, -62730.059055096994, -61128.62362010761, -72594.44267683539, -56186.22823789457, -54166.748126357576, -52681.07237590222, -52344.477456149754, 0.099, 0.9570000000000001, 0.123, 192.0, 0.0, 0.0, 0.0, 0.0, 0.0, 0.0, 0.0, 0.0, 0.0, 1.6581653608696318E9, 0.0, 2022-07-18 13:29:20.869
210.0, -27959.3501042545, -29730.904666293227, -59101.02982533334, -58444.492035447605, -25808.508790553667, -42830.09980083702, -56773.788544391224, -37563.067682155095, -18068.189092658653, -62728.69559868522, -61129.495338141365, -72594.4873803243, -56188.35165361782, -54168.31274846945, -52677.29493108928, -52344.611566616484, 0.0955, 0.9585, 0.1235, 192.0, 1.0, 112.0, 15.0, 0.0, 1.5, 112.0, 0.0, 0.0, 0.0, 1.6581653608696384E9, 0.0, 2022-07-18 13:29:20.869
212.0, -27985.38988654493, -29658.328552046845, -59169.42616336658, -58508.19450714523, -25868.523224416167, -42863.29214135315, -56844.48711210336, -37594.315420903615, -18036.04728413192, -62701.94056057222, -61097.01825344781, -72565.38540904349, -56164.256473095, -54141.222434189614, -52636.45829396943, -52319.73407503773, 0.0955, 0.9585, 0.1235, 192.0, 0.0, 0.0, 0.0, 0.0, 0.0, 0.0, 0.0, 0.0, 0.0, 1.6581653608696458E9, 0.0, 2022-07-18 13:29:20.869
214.0, -27958.92542110985, -29712.77740153997, -59116.0054941184, -58461.836989144926, -25828.178325674337, -42834.34663228353, -56770.592244934116, -37551.28831282715, -18075.453409606627, -62744.85590992641, -61139.3301057017, -72605.6856042964, -56207.17182244919, -54191.96089410316, -52671.304663575254, -52360.41424994639, 0.0955, 0.9585, 0.1235, 192.0, 0.0, 0.0, 0.0, 0.0, 0.0, 0.0, 0.0, 0.0, 0.0, 1.6581653608696523E9, 0.0, 2022-07-18 13:29:20.869
216.0, -27984.518168511175, -29641.520040216452, -59172.08602095676, -58510.764957757594, -25870.17725350586, -42863.2697896087, -56824.07996941567, -37570.17553689188, -18036.38256029875, -62703.147554772804, -61093.93371271298, -72561.16092934144, -56167.050441151914, -54141.98239350109, -52629.708067143925, -52314.86139474648, 0.0955, 0.9585, 0.1235, 192.0, 0.0, 0.0, 0.0, 0.0, 0.0, 0.0, 0.0, 0.0, 0.0, 1.6581653608696573E9, 0.0, 2022-07-18 13:29:20.869
218.0, -27955.885583863925, -29680.009744168492, -59120.98993313193, -58461.300547278, -25819.930531970327, -42828.17755081386, -56766.41246872097, -37542.660539467404, -18066.512711824504, -62739.312677301496, -61138.01135277884, -72602.46695309484, -56214.70436033063, -54178.214571263146, -52673.271617087325, -52363.163514514396, 0.0955, 0.9585, 0.1235, 192.0, 0.0, 0.0, 0.0, 0.0, 0.0, 0.0, 0.0, 0.0, 0.0, 1.658165360869664E9, 0.0, 2022-07-18 13:29:20.869
220.0, -27966.54736596911, -29623.973920819037, -59157.66914578309, -58489.1061173804, -25848.138433472926, -42830.457428748305, -56810.5571640202, -37535.105649841506, -18023.70912119259, -62685.668490608754, -61083.74131724135, -72548.1745658129, -56154.42170553467, -54117.864861233815, -52616.18526174847, -52300.82449922854, 0.09075, 0.95525, 0.12475, 192.0, 1.0, 88.0, 14.5, 96.0, 1.5, 120.0, 0.0, 0.0, 0.0, 1.658165360869671E9, 0.0, 2022-07-18 13:29:20.869
222.0, -27974.437531761832, -29678.623936012264, -59136.099712383715, -58477.88554166383, -25837.856631023486, -42841.09685910903, -56806.69031222944, -37561.92774318788, -18065.43982809065, -62753.39427630833, -61136.51378590033, -72607.00435721927, -56212.44683414064, -54175.24178925059, -52676.78084096681, -52364.549322670624, 0.09075, 0.95525, 0.12475, 192.0, 0.0, 0.0, 0.0, 0.0, 0.0, 0.0, 0.0, 0.0, 0.0, 1.6581653608696778E9, 0.0, 2022-07-18 13:29:20.869
224.0, -27997.79510471763, -29658.1497380912, -59167.57096857679, -58515.28001013756, -25862.17532899086, -42863.38154833097, -56846.27525165978, -37585.240612654765, -18036.919002165676, -62722.01242709308, -61100.63923604957, -72576.60598476006, -56167.56453127439, -54151.347774427864, -52637.03943932527, -52330.10528446499, 0.09075, 0.95525, 0.12475, 192.0, 0.0, 0.0, 0.0, 0.0, 0.0, 0.0, 0.0, 0.0, 0.0, 1.658165360869684E9, 0.0, 2022-07-18 13:29:20.869
226.0, -27996.230482605755, -29689.77745649546, -59146.47092181098, -58502.517164053585, -25841.522317114155, -42862.554533786126, -56792.0052161223, -37575.42819683888, -18077.442714863148, -62786.58661682447, -61156.205672765456, -72637.2015639784, -56220.046427255445, -54213.77619669154, -52688.26963761683, -52386.297570025636, 0.09075, 0.95525, 0.12475, 192.0, 0.0, 0.0, 0.0, 0.0, 0.0, 0.0, 0.0, 0.0, 0.0, 1.658165360869691E9, 0.0, 2022-07-18 13:29:20.869
228.0, -27994.844674449527, -29668.81152019638, -59160.12783767317, -58512.039007191546, -25849.121910228958, -42858.10653663952, -56808.63491399705, -37572.9695049488, -18032.38159804125, -62721.967723604175, -61100.12514592709, -72582.01510691823, -56154.51111251249, -54152.64417560628, -52619.49331992785, -52318.57178432606, 0.09075, 0.95525, 0.12475, 192.0, 0.0, 0.0, 0.0, 0.0, 0.0, 0.0, 0.0, 0.0, 0.0, 1.658165360869697E9, 0.0, 2022-07-18 13:29:20.869
230.0, -27996.72222098377, -29678.042790656425, -59167.012174965406, -58511.6590275358, -25861.057741768094, -42867.18134488838, -56837.423960855485, -37595.90239475994, -18090.317319669404, -62790.5205238486, -61166.39806823708, -72649.47267168434, -56236.72082861911, -54217.62069673785, -52704.318190135746, -52394.47830849628, 0.090375, 0.952625, 0.122375, 192.0, 1.0, 104.0, 14.5, 88.0, 1.5, 96.0, 0.0, 0.0, 0.0, 1.6581653608697047E9, 0.0, 2022-07-18 13:29:20.869
232.0, -27980.67366846486, -29660.25080207, -59144.481616554454, -58482.64646323281, -25834.30270365509, -42829.94333862583, -56808.053768641206, -37526.656690437405, -18044.898574936222, -62709.69661589821, -61095.27481738029, -72571.48743527978, -56169.73265048655, -54134.18163468619, -52636.74886664735, -52311.01689470016, 0.090375, 0.952625, 0.122375, 192.0, 0.0, 0.0, 0.0, 0.0, 0.0, 0.0, 0.0, 0.0, 0.0, 1.6581653608697133E9, 0.0, 2022-07-18 13:29:20.869
234.0, -27967.508490980686, -29637.742595403506, -59140.726523485966, -58480.344233553915, -25836.82845077854, -42841.52154225368, -56799.76127144829, -37559.513754786705, -18071.854778749323, -62761.12797988987, -61137.65372486755, -72610.9382642434, -56220.471110400096, -54175.398251461775, -52673.3833758096, -52358.3578894565, 0.090375, 0.952625, 0.122375, 192.0, 0.0, 0.0, 0.0, 0.0, 0.0, 0.0, 0.0, 0.0, 0.0, 1.6581653608697205E9, 0.0, 2022-07-18 13:29:20.869
236.0, -27964.66981943486, -29666.3528283063, -59129.61770649168, -58467.491980492116, -25818.20944764727, -42827.2611292912, -56780.98580610583, -37554.14933611743, -18025.72077819357, -62688.328348198935, -61076.365241571104, -72546.14055706747, -56158.84735093682, -54117.35077111135, -52608.85388956713, -52297.27057186015, 0.090375, 0.952625, 0.122375, 192.0, 0.0, 0.0, 0.0, 0.0, 0.0, 0.0, 0.0, 0.0, 0.0, 1.6581653608697274E9, 0.0, 2022-07-18 13:29:20.869
238.0, -27986.082790623044, -29655.73574969003, -59165.62636680918, -58497.64448376233, -25845.903259027393, -42857.01130116121, -56815.85452745611, -37566.62160952349, -18073.329993883373, -62768.168779393294, -61147.756713361356, -72620.41540389245, -56225.03086626898, -54190.61978943584, -52675.84206769968, -52369.243189006236, 0.090375, 0.952625, 0.122375, 192.0, 0.0, 0.0, 0.0, 0.0, 0.0, 0.0, 0.0, 0.0, 0.0, 1.6581653608697343E9, 0.0, 2022-07-18 13:29:20.869
240.0, -27981.500683009708, -29700.215721156088, -59133.64102049363, -58462.84281764541, -25805.15602888537, -42817.806341386604, -56771.19574203441, -37526.656690437405, -18034.95204865361, -62704.84628735141, -61101.6227128056, -72568.46994977831, -56172.19134237663, -54131.275907907, -52621.30381122873, -52305.20544114178, 0.09418750000000001, 0.9533125, 0.1181875, 192.0, 1.5, 8.0, 14.5, 104.0, 1.5, 72.0, 0.0, 0.0, 0.0, 1.6581653608697407E9, 0.0, 2022-07-18 13:29:20.869
242.0, -28013.530732814164, -29675.695857488616, -59182.61369259521, -58514.34123687044, -25856.050951010104, -42860.07349015158, -56821.397760081025, -37576.635191039466, -18070.11134268181, -62774.94135796325, -61151.9811930634, -72626.60683710658, -56217.07364524289, -54187.11056555636, -52668.734212962896, -52361.12950576896, 0.09418750000000001, 0.9533125, 0.1181875, 192.0, 0.0, 0.0, 0.0, 0.0, 0.0, 0.0, 0.0, 0.0, 0.0, 1.658165361349678E9, 0.0, 2022-07-18 13:29:21.349
244.0, -27979.287860308632, -29713.291491662443, -59126.26494482338, -58462.32872752294, -25811.77214524414, -42816.979326841756, -56772.536846701725, -37527.416649748884, -18041.56816501238, -62727.332142273444, -61110.339893143166, -72585.90431045345, -56173.08541215485, -54152.554768628455, -52640.79453239376, -52321.410455871875, 0.09418750000000001, 0.9533125, 0.1181875, 192.0, 0.0, 0.0, 0.0, 0.0, 0.0, 0.0, 0.0, 0.0, 0.0, 1.65816536134978E9, 0.0, 2022-07-18 13:29:21.349
246.0, -28010.49089556824, -29672.857185942794, -59188.51455313141, -58527.95344924372, -25876.838073353538, -42870.55645830112, -56851.28204241778, -37601.44562738486, -18058.935470454155, -62770.60511953892, -61141.4311696805, -72620.2365899368, -56216.045464997944, -54189.05516732397, -52682.636998014095, -52362.448258691824, 0.09418750000000001, 0.9533125, 0.1181875, 192.0, 0.0, 0.0, 0.0, 0.0, 0.0, 0.0, 0.0, 0.0, 0.0, 1.6581653613497872E9, 0.0, 2022-07-18 13:29:21.349
248.0, -27978.505549252695, -29728.200105214135, -59120.81111917629, -58471.04590786051, -25817.270674380146, -42821.315565266086, -56761.986823318824, -37538.391356276436, -18045.90440343671, -62727.44390099572, -61113.15621294454, -72590.50876981125, -56191.12326993028, -54166.882236824305, -52657.49128550188, -52338.464836891275, 0.09418750000000001, 0.9533125, 0.1181875, 192.0, 0.0, 0.0, 0.0, 0.0, 0.0, 0.0, 0.0, 0.0, 0.0, 1.6581653613497941E9, 0.0, 2022-07-18 13:29:21.349
250.0, -27997.34806982852, -29658.1497380912, -59174.29884365784, -58518.25279215012, -25869.55140466111, -42856.63132150547, -56841.62608881308, -37574.84705148304, -18060.365982099294, -62744.85590992641, -61120.24171593687, -72600.29883388267, -56206.09893871534, -54174.079498538915, -52662.05104137076, -52351.898235308916, 0.09409375, 0.9536562500000001, 0.11709375, 192.0, 1.0, 120.0, 14.5, 104.0, 1.5, 80.0, 0.0, 0.0, 0.0, 1.6581653613498013E9, 0.0, 2022-07-18 13:29:21.349
252.0, -27968.2013950588, -29723.640349345253, -59106.90833412509, -58455.22087278615, -25812.889732466905, -42816.264071019184, -56759.77400061775, -37551.64594073843, -18063.696392023136, -62731.1542905753, -61110.205782676436, -72586.2842901092, -56198.588752578355, -54157.47215240862, -52648.61764295312, -52337.34724966851, 0.09409375, 0.9536562500000001, 0.11709375, 192.0, 0.0, 0.0, 0.0, 0.0, 0.0, 0.0, 0.0, 0.0, 0.0, 1.658165361349808E9, 0.0, 2022-07-18 13:29:21.349
254.0, -28020.102145684024, -29677.416941811676, -59182.300768172834, -58531.70854231221, -25883.476541456766, -42867.80719373312, -56844.57651908118, -37604.88779603098, -18073.307642138916, -62752.2096338522, -61122.11926247112, -72598.6895082819, -56204.4672613701, -54166.72577461312, -52653.758544177836, -52343.69514509382, 0.09409375, 0.9536562500000001, 0.11709375, 192.0, 0.0, 0.0, 0.0, 0.0, 0.0, 0.0, 0.0, 0.0, 0.0, 1.658165361349815E9, 0.0, 2022-07-18 13:29:21.349
0.0, -27986.596880745517, -29747.042625789956, -59106.61776144717, -58467.04494560301, -25821.897485482394, -42822.58961470004, -56778.39300374902, -37534.122173085474, -18093.58067435988, -62760.16685487829, -61139.553623146254, -72613.82163927813, -56214.07851148588, -54182.08142305392, -52666.499038517366, -52349.57365388556, 0.09409375, 0.9536562500000001, 0.11709375, 192.0, 0.0, 0.0, 0.0, 0.0, 0.0, 0.0, 0.0, 0.0, 0.0, 1.6581653613498218E9, 0.0, 2022-07-18 13:29:21.349
2.0, -28011.78729674665, -29678.3557150788, -59176.04227972535, -58525.24888816463, -25875.94400357533, -42864.81205997611, -56852.869016274104, -37601.46797912932, -18071.027764204475, -62742.95601164771, -61121.58282060419, -72598.890673982, -56199.61693282329, -54170.83849559289, -52645.175474307, -52334.03919148913, 0.09409375, 0.9536562500000001, 0.11709375, 192.0, 0.0, 0.0, 0.0, 0.0, 0.0, 0.0, 0.0, 0.0, 0.0, 1.6581653613498287E9, 0.0, 2022-07-18 13:29:21.349
4.0, -27971.800025916105, -29729.183581970166, -59102.50504046739, -58442.815654613456, -25800.372755571934, -42812.486626206235, -56747.81581733416, -37549.00843489271, -18073.19588341664, -62740.51967150208, -61127.19310846247, -72598.13071467051, -56209.58581085036, -54167.77630660252, -52654.78672442278, -52337.92839502435, 0.095046875, 0.9528281250000001, 0.116546875, 192.0, 1.5, 0.0, 14.5, 96.0, 1.5, 80.0, 0.0, 0.0, 0.0, 1.6581653613498356E9, 0.0, 2022-07-18 13:29:21.349
6.0, -27997.370421572978, -29664.49763351651, -59162.69828828553, -58492.57063777097, -25850.194793962815, -42842.415612031895, -56799.47069877037, -37596.30472616014, -18051.84996746182, -62709.584857175934, -61096.81708774771, -72563.88784216499, -56185.35651986081, -54130.583003828884, -52614.50888091432, -52301.33858935101, 0.095046875, 0.9528281250000001, 0.116546875, 192.0, 0.0, 0.0, 0.0, 0.0, 0.0, 0.0, 0.0, 0.0, 0.0, 1.6581653613498423E9, 0.0, 2022-07-18 13:29:21.349
8.0, -27990.97782265876, -29739.845364075347, -59124.58856398924, -58465.34621302441, -25837.588410090022, -42836.51475149569, -56788.38423352054, -37553.970522161784, -18083.410630632716, -62749.52742451757, -61133.85392831015, -72602.9363397284, -56223.2203749681, -54172.00078630457, -52666.633148984096, -52350.914758552884, 0.095046875, 0.9528281250000001, 0.116546875, 192.0, 0.0, 0.0, 0.0, 0.0, 0.0, 0.0, 0.0, 0.0, 0.0, 1.6581653613498552E9, 0.0, 2022-07-18 13:29:21.349
10.0, -28001.974880930768, -29679.383895323743, -59163.39119236365, -58510.407329846304, -25859.224898722758, -42857.99477791724, -56817.46385305689, -37567.85095546853, -18056.275612863974, -62715.9998078346, -61097.04060519226, -72571.39802830196, -56193.40314786472, -54143.85994003534, -52627.048209553745, -52315.621354057956, 0.095046875, 0.9528281250000001, 0.116546875, 192.0, 0.0, 0.0, 0.0, 0.0, 0.0, 0.0, 0.0, 0.0, 0.0, 1.658165361349862E9, 0.0, 2022-07-18 13:29:21.349
12.0, -27983.40058128841, -29732.044605260446, -59128.29895356882, -58480.67950972075, -25834.39211063291, -42843.734364954755, -56799.157774348, -37581.798444008644, -18092.440735392658, -62765.03953516955, -61143.19695749247, -72618.26963642474, -56236.00557279654, -54198.688769184206, -52671.55053276426, -52365.957482571306, 0.095046875, 0.9528281250000001, 0.116546875, 192.0, 0.0, 0.0, 0.0, 0.0, 0.0, 0.0, 0.0, 0.0, 0.0, 1.6581653613498693E9, 0.0, 2022-07-18 13:29:21.349
14.0, -28006.087601910545, -29692.839645485838, -59177.85277102623, -58524.734798042155, -25874.40173320791, -42873.64099903596, -56847.07991446018, -37638.46011620285, -18051.157063383707, -62702.812278605976, -61092.458497578926, -72563.21728983131, -56177.17578139017, -54142.09415222337, -52624.07542754119, -52315.956630224784, 0.095046875, 0.9528281250000001, 0.116546875, 192.0, 0.0, 0.0, 0.0, 0.0, 0.0, 0.0, 0.0, 0.0, 0.0, 1.658165361349876E9, 0.0, 2022-07-18 13:29:21.349
16.0, -27996.901034939416, -29734.88327680627, -59146.7614944889, -58497.3092075955, -25853.011113764183, -42867.87424896649, -56805.34920756212, -37588.302801645135, -18115.775956604, -62793.80623028353, -61171.5389694618, -72643.01301753677, -56261.710078920136, -54221.95693516218, -52705.48048084742, -52406.32473305759, 0.094, 0.9480000000000001, 0.124, 192.0, 1.0, 120.0, 14.5, 80.0, 1.5, 112.0, 0.0, 0.0, 0.0, 1.6581653613498828E9, 0.0, 2022-07-18 13:29:21.349
18.0, -27996.36459307249, -29688.235186128044, -59151.65652652461, -58498.51620179608, -25858.44258766682, -42855.17845811587, -56817.03916991224, -37560.206658864816, -18046.552604025914, -62705.539191429525, -61088.3681283436, -72558.81399617363, -56171.07375515387, -54133.734599797084, -52621.43792169546, -52310.25693538868, 0.094, 0.9480000000000001, 0.124, 192.0, 0.0, 0.0, 0.0, 0.0, 0.0, 0.0, 0.0, 0.0, 0.0, 1.6581653613498895E9, 0.0, 2022-07-18 13:29:21.349
20.0, -28009.2615496232, -29729.27298894799, -59154.60695679271, -58504.685283265746, -25862.756474346697, -42866.6672547659, -56818.760254235305, -37603.23376694128, -18110.81386933492, -62786.40780286882, -61166.39806823708, -72633.75939533226, -56250.51185494803, -54211.339856545914, -52703.78174826882, -52392.10902358402, 0.094, 0.9480000000000001, 0.124, 192.0, 0.0, 0.0, 0.0, 0.0, 0.0, 0.0, 0.0, 0.0, 0.0, 1.6581653613498964E9, 0.0, 2022-07-18 13:29:21.349
22.0, -28000.186741374346, -29708.35175613782, -59151.09773291323, -58496.571600028474, -25847.06554973907, -42839.7110509528, -56805.34920756212, -37561.50306004322, -18051.00060117252, -62701.40411870529, -61093.88900922406, -72558.9704583848, -56169.442077808635, -54131.76764628502, -52620.7226658729, -52306.63595278692, 0.094, 0.9480000000000001, 0.124, 192.0, 0.0, 0.0, 0.0, 0.0, 0.0, 0.0, 0.0, 0.0, 0.0, 1.6581653613499033E9, 0.0, 2022-07-18 13:29:21.349
24.0, -28027.813497521103, -29740.78413734247, -59185.16179146311, -58526.05355096502, -25881.420180966878, -42884.34748463005, -56840.352039379126, -37613.53792113518, -18110.366834445816, -62789.71586104821, -61173.90825437406, -72645.27054372676, -56255.60805268384, -54222.78394970703, -52703.91585873555, -52396.40055851943, 0.094, 0.9480000000000001, 0.124, 192.0, 0.0, 0.0, 0.0, 0.0, 0.0, 0.0, 0.0, 0.0, 0.0, 1.6581653613499105E9, 0.0, 2022-07-18 13:29:21.349
26.0, -28014.603616548018, -29743.399291443744, -59171.30370990083, -58507.09927166692, -25858.621401622466, -42866.08610941006, -56838.54154807825, -37602.31734541862, -18067.496188580535, -62736.94339238923, -61122.163965960026, -72592.5874820456, -56203.2155636806, -54171.01730954854, -52657.62539596861, -52347.11496199548, 0.094, 0.9500000000000001, 0.124, 192.0, 1.0, 120.0, 14.5, 88.0, 1.5, 112.0, 0.0, 0.0, 0.0, 1.6581653613499172E9, 0.0, 2022-07-18 13:29:21.349
28.0, -28040.576343605084, -29748.629599646283, -59201.76913759341, -58541.20803370572, -25893.80304739512, -42905.894566284966, -56854.25482443033, -37653.27932277672, -18110.277427467994, -62800.06471873102, -61175.1376003191, -72652.75837811928, -56254.870445116816, -54222.87335668485, -52712.275411161834, -52412.00207614924, 0.094, 0.9500000000000001, 0.124, 192.0, 0.0, 0.0, 0.0, 0.0, 0.0, 0.0, 0.0, 0.0, 0.0, 1.658165361349924E9, 0.0, 2022-07-18 13:29:21.349
30.0, -28012.100221169025, -29752.630561903785, -59154.830474237264, -58499.365568085384, -25849.25602069569, -42861.43694656336, -56812.948800676924, -37563.693530999844, -18076.973328229586, -62743.85008142592, -61127.05899799574, -72603.69629903988, -56196.17476417718, -54172.04548979348, -52655.09964884516, -52352.16645624238, 0.094, 0.9500000000000001, 0.124, 192.0, 0.0, 0.0, 0.0, 0.0, 0.0, 0.0, 0.0, 0.0, 0.0, 1.658165361349931E9, 0.0, 2022-07-18 13:29:21.349
32.0, -28026.651206809427, -29720.2652359325, -59189.788602565364, -58540.15750171632, -25890.74085840474, -42897.289144669674, -56858.47930413238, -37618.522360148716, -18109.58452338988, -62798.76831755261, -61173.260053784856, -72648.84682283961, -56252.00942182654, -54222.26985958456, -52698.8867162331, -52400.64738996594, 0.094, 0.9500000000000001, 0.124, 192.0, 0.0, 0.0, 0.0, 0.0, 0.0, 0.0, 0.0, 0.0, 0.0, 1.658165361349938E9, 0.0, 2022-07-18 13:29:21.349
34.0, -27995.805799461104, -29742.304055965433, -59138.42429380707, -58491.02836740355, -25838.5495351016, -42842.37090854298, -56801.77292844927, -37578.177461406885, -18071.653613049224, -62732.92007838727, -61119.705274069944, -72591.1793221449, -56198.521697344986, -54166.6363676353, -52641.956823105436, -52340.96823227027, 0.094, 0.9500000000000001, 0.124, 192.0, 0.0, 0.0, 0.0, 0.0, 0.0, 0.0, 0.0, 0.0, 0.0, 1.6581653613499448E9, 0.0, 2022-07-18 13:29:21.349
36.0, -28039.190535448855, -29716.890122519748, -59207.91586731862, -58552.00392627763, -25898.98865210875, -42902.16182496093, -56859.708650077424, -37638.61657841403, -18109.115136756318, -62799.550628608544, -61171.85189388417, -72645.56111640467, -56253.50698870504, -54223.566260762964, -52694.2375533864, -52400.78150043268, 0.1, 0.9540000000000001, 0.124, 192.0, 1.5, 16.0, 14.5, 104.0, 1.5, 112.0, 0.0, 0.0, 0.0, 1.6581653613499517E9, 0.0, 2022-07-18 13:29:21.349
38.0, -28011.72024151328, -29761.16892828571, -59147.85672996721, -58490.58133251445, -25847.758453817187, -42862.77805123068, -56808.14317561903, -37598.76341805022, -18094.273578437995, -62746.75580820511, -61138.234870223394, -72604.81388626265, -56214.01145625251, -54179.71213814165, -52663.056869871245, -52363.09645928103, 0.1, 0.9540000000000001, 0.124, 192.0, 0.0, 0.0, 0.0, 0.0, 0.0, 0.0, 0.0, 0.0, 0.0, 1.6581653613499587E9, 0.0, 2022-07-18 13:29:21.349
40.0, -28048.26534369771, -29713.179732940167, -59207.04414928486, -58545.20899596322, -25900.754439920718, -42897.713827814325, -56851.617318584606, -37618.12002874852, -18103.124869242296, -62782.87622724489, -61166.30866125926, -72634.63111336602, -56235.93851756317, -54205.97543787664, -52685.654483515566, -52385.42585199188, 0.1, 0.9540000000000001, 0.124, 192.0, 0.0, 0.0, 0.0, 0.0, 0.0, 0.0, 0.0, 0.0, 0.0, 1.658165361349967E9, 0.0, 2022-07-18 13:29:21.349
42.0, -28024.103107941522, -29776.971611615612, -59146.5603287888, -58485.9545214122, -25845.12094797146, -42852.04921389213, -56790.150021332505, -37579.786787007666, -18098.47570639559, -62751.89670942983, -61152.45057969697, -72613.0393282222, -56218.50415688803, -54180.96383583115, -52671.75169846436, -52355.78743884414, 0.1, 0.9540000000000001, 0.124, 192.0, 0.0, 0.0, 0.0, 0.0, 0.0, 0.0, 0.0, 0.0, 0.0, 1.658165361349974E9, 0.0, 2022-07-18 13:29:21.349
44.0, -28052.154547232934, -29719.058241731913, -59211.93918132057, -58549.23230996518, -25903.45900099981, -42893.98108649029, -56843.68244930297, -37615.32606069161, -18108.95867454513, -62775.567206808, -61172.54479796229, -72633.93820928791, -56245.66152640123, -54205.260182054066, -52678.52427703432, -52372.28302625216, 0.1, 0.9540000000000001, 0.124, 192.0, 0.0, 0.0, 0.0, 0.0, 0.0, 0.0, 0.0, 0.0, 0.0, 1.6581653613499808E9, 0.0, 2022-07-18 13:29:21.349
46.0, -28019.54335207264, -29783.386562274285, -59147.83437822275, -58488.97200691367, -25847.892564283917, -42857.4136325614, -56796.27439931326, -37579.496214329745, -18115.753604859543, -62764.99483168064, -61169.907292116564, -72627.52325862924, -56245.147436278756, -54202.06388259696, -52686.81677422724, -52367.09742153853, 0.094, 0.9540000000000001, 0.122, 192.0, 1.0, 120.0, 14.5, 104.0, 1.5, 104.0, 0.0, 0.0, 0.0, 1.658165361349988E9, 0.0, 2022-07-18 13:29:21.349
48.0, -28040.64339883845, -29708.59762532683, -59206.775928351395, -58546.147769230345, -25894.78652415115, -42895.612763835525, -56847.839873771656, -37639.68946214789, -18106.410575677226, -62764.816017724996, -61153.881091342104, -72617.95671200237, -56234.55270940694, -54188.60813243486, -52670.00826239685, -52361.665947635884, 0.094, 0.9540000000000001, 0.122, 192.0, 0.0, 0.0, 0.0, 0.0, 0.0, 0.0, 0.0, 0.0, 0.0, 1.658165361349995E9, 0.0, 2022-07-18 13:29:21.349
50.0, -28033.401433634932, -29796.171760102723, -59153.578776547765, -58506.562829799994, -25850.418311407368, -42861.43694656336, -56797.32493130266, -37575.0705689276, -18132.226840523104, -62787.413631369316, -61175.294062530294, -72641.00136053578, -56248.924881091705, -54209.28349605602, -52697.165631910044, -52383.704767668816, 0.094, 0.9540000000000001, 0.122, 192.0, 0.0, 0.0, 0.0, 0.0, 0.0, 0.0, 0.0, 0.0, 0.0, 1.6581653613500016E9, 0.0, 2022-07-18 13:29:21.350
52.0, -28054.590887378563, -29726.344910424345, -59206.97709405149, -58561.83869383797, -25890.69615491583, -42889.533089343684, -56847.01285922681, -37605.73716232028, -18119.173421761207, -62770.98509919466, -61160.452504211964, -72630.85366855309, -56228.584793637376, -54188.09404231239, -52669.60593099665, -52362.40355520291, 0.094, 0.9540000000000001, 0.122, 192.0, 0.0, 0.0, 0.0, 0.0, 0.0, 0.0, 0.0, 0.0, 0.0, 1.6581653613500087E9, 0.0, 2022-07-18 13:29:21.350
54.0, -28020.146849172932, -29778.268012794022, -59138.334886829245, -58498.42679481826, -25837.096671712003, -42850.41753654689, -56798.33075980315, -37590.8732522575, -18132.696227156666, -62783.45737260072, -61181.12786783313, -72649.78559610673, -56245.61682291232, -54209.596420478396, -52691.95767545196, -52387.52691597067, 0.094, 0.9540000000000001, 0.122, 192.0, 0.0, 0.0, 0.0, 0.0, 0.0, 0.0, 0.0, 0.0, 0.0, 1.6581653613500164E9, 0.0, 2022-07-18 13:29:21.350
56.0, -28046.87953554148, -29724.847343545836, -59204.16077425013, -58557.14482750235, -25891.433762482855, -42893.623458579, -56865.87773154709, -37651.80410764267, -18089.49030512456, -62750.1085698734, -61146.10268427166, -72613.75458404477, -56209.25053468353, -54168.983300803106, -52663.74977394936, -52358.87197957897, 0.094, 0.9520000000000001, 0.128, 192.0, 1.0, 120.0, 14.5, 96.0, 2.0, 0.0, 0.0, 0.0, 0.0, 1.6581653613500233E9, 0.0, 2022-07-18 13:29:21.350
58.0, -28009.529770556663, -29770.98134410159, -59141.93351768655, -58488.5026202801, -25838.05779672358, -42853.390318559446, -56792.09462310012, -37573.03656018216, -18122.34736947386, -62790.02878547058, -61184.01124286786, -72649.15974726198, -56253.28347126049, -54209.43995826721, -52711.18017568353, -52395.998227119235, 0.094, 0.9520000000000001, 0.128, 192.0, 0.0, 0.0, 0.0, 0.0, 0.0, 0.0, 0.0, 0.0, 0.0, 1.6581653613500302E9, 0.0, 2022-07-18 13:29:21.350
60.0, -28040.956323260823, -29725.227323201576, -59191.66614909961, -58531.88735626786, -25883.588300179043, -42882.00055146224, -56827.11980666158, -37616.66716535892, -18079.297909652938, -62732.67420919827, -61125.8296520507, -72588.36300234354, -56195.437156610154, -54153.51589364003, -52645.42134349601, -52329.032400731136, 0.094, 0.9520000000000001, 0.128, 192.0, 0.0, 0.0, 0.0, 0.0, 0.0, 0.0, 0.0, 0.0, 0.0, 1.658165361350037E9, 0.0, 2022-07-18 13:29:21.350
62.0, -28024.170163174887, -29770.154329556746, -59145.15216888812, -58492.77180347107, -25857.03442776614, -42862.4651268083, -56806.176222106966, -37603.412580896926, -18130.215183522127, -62793.60506458343, -61182.89365564509, -72648.31038097267, -56258.066744573924, -54215.13965310332, -52711.76132103936, -52391.77374741719, 0.094, 0.9520000000000001, 0.128, 192.0, 0.0, 0.0, 0.0, 0.0, 0.0, 0.0, 0.0, 0.0, 0.0, 1.658165361350044E9, 0.0, 2022-07-18 13:29:21.350
64.0, -28028.707567299316, -29723.93092202317, -59171.14724768964, -58514.900030481826, -25872.144207017926, -42859.134716884466, -56837.53571957776, -37586.91699348891, -18087.7692208015, -62727.756825418095, -61125.53907937278, -72589.77116224423, -56200.041615967944, -54154.72288784062, -52647.45535224144, -52320.02464771565, 0.094, 0.9520000000000001, 0.128, 192.0, 0.0, 0.0, 0.0, 0.0, 0.0, 0.0, 0.0, 0.0, 0.0, 1.6581653613500507E9, 0.0, 2022-07-18 13:29:21.350
66.0, -27999.762058229695, -29734.63740761726, -59132.03169489285, -58480.59010274293, -25839.331846157533, -42847.377699300974, -56766.14424778751, -37590.62738306849, -18118.234648494083, -62779.90344523233, -61169.10262931617, -72633.0441395097, -56251.24946251506, -54207.40594952178, -52695.75747200936, -52373.914703597395, 0.094, 0.9500000000000001, 0.13, 192.0, 1.0, 120.0, 14.5, 88.0, 2.0, 8.0, 0.0, 0.0, 0.0, 1.6581653613500576E9, 0.0, 2022-07-18 13:29:21.350
68.0, -27986.39571504542, -29691.185616396146, -59142.33584908675, -58476.52208525206, -25840.561192102577, -42838.571111985584, -56782.61748345107, -37574.757644505225, -18049.8606622053, -62697.60432214789, -61090.42448883349, -72552.4213972594, -56173.487743555044, -54128.25842240554, -52618.71100887192, -52298.03053117163, 0.094, 0.9500000000000001, 0.13, 192.0, 0.0, 0.0, 0.0, 0.0, 0.0, 0.0, 0.0, 0.0, 0.0, 1.6581653613500645E9, 0.0, 2022-07-18 13:29:21.350
70.0, -27998.376250073463, -29723.12625922278, -59150.628346279664, -58486.37920455685, -25863.069398769072, -42866.51079255471, -56806.444443040426, -37599.836301784075, -18105.091822754363, -62773.73436376266, -61155.17749252052, -72616.07916546812, -56245.25919500103, -54195.91715287175, -52688.87313471713, -52368.08089829456, 0.094, 0.9500000000000001, 0.13, 192.0, 0.0, 0.0, 0.0, 0.0, 0.0, 0.0, 0.0, 0.0, 0.0, 1.6581653613500721E9, 0.0, 2022-07-18 13:29:21.350
72.0, -27978.43849401933, -29702.137971179247, -59131.24938383691, -58470.68827994922, -25843.69043632632, -42836.112420095495, -56802.26466682729, -37575.76347300571, -18059.650726276723, -62701.471173938655, -61093.151401657036, -72553.09194959307, -56177.68987151264, -54133.06404746343, -52632.36792473411, -52307.507670820676, 0.094, 0.9500000000000001, 0.13, 192.0, 0.0, 0.0, 0.0, 0.0, 0.0, 0.0, 0.0, 0.0, 0.0, 1.658165361350081E9, 0.0, 2022-07-18 13:29:21.350
74.0, -27983.53469175514, -29702.3614886238, -59135.49621528343, -58488.23439934664, -25854.083997498037, -42859.7158622403, -56803.941047661436, -37612.554444379144, -18083.90236901073, -62752.63431699685, -61136.53613764479, -72603.56218857315, -56222.013380767516, -54180.941484086696, -52683.15108813657, -52360.6601191354, 0.094, 0.9500000000000001, 0.13, 192.0, 0.0, 0.0, 0.0, 0.0, 0.0, 0.0, 0.0, 0.0, 0.0, 1.6581653613500876E9, 0.0, 2022-07-18 13:29:21.350
76.0, -27986.82039819007, -29724.065032489903, -59127.4048837906, -58480.634806231836, -25837.11902345646, -42850.37283305798, -56788.58539922064, -37598.33873490557, -18048.921888938177, -62699.41481344877, -61092.302035367735, -72557.4728915063, -56166.916330685184, -54138.16024519924, -52630.84800611115, -52312.536813323124, 0.096, 0.9500000000000001, 0.126, 192.0, 1.5, 0.0, 14.5, 88.0, 1.5, 120.0, 0.0, 0.0, 0.0, 1.6581653613500948E9, 0.0, 2022-07-18 13:29:21.350
78.0, -28012.36844210249, -29716.823067286383, -59164.821704008784, -58511.0108269466, -25870.17725350586, -42886.62736256449, -56819.96724843589, -37637.16371502444, -18097.04519475045, -62773.57790155148, -61163.00060307987, -72625.26573243925, -56245.281546745486, -54205.77427217654, -52696.80800399876, -52383.32478801308, 0.096, 0.9500000000000001, 0.126, 192.0, 0.0, 0.0, 0.0, 0.0, 0.0, 0.0, 0.0, 0.0, 0.0, 1.658165361350102E9, 0.0, 2022-07-18 13:29:21.350
80.0, -27995.44817154982, -29740.98530304257, -59138.31253508479, -58472.454067761195, -25837.11902345646, -42851.02103364719, -56795.29092255723, -37591.320287146606, -18066.311546124405, -62711.79767987701, -61118.319465913715, -72573.16381611393, -56198.67815955618, -54146.273928436516, -52652.171570321516, -52327.24426117471, 0.096, 0.9500000000000001, 0.126, 192.0, 0.0, 0.0, 0.0, 0.0, 0.0, 0.0, 0.0, 0.0, 0.0, 1.6581653613501089E9, 0.0, 2022-07-18 13:29:21.350
82.0, -28013.709546769805, -29707.435334615155, -59182.05489898383, -58510.45203333522, -25874.245270996726, -42882.98402821828, -56824.95168744942, -37615.61663336952, -18100.77793607449, -62760.50213104513, -61161.01129782335, -72617.39791839098, -56250.243634014565, -54188.02698707903, -52696.87505923212, -52371.612473918496, 0.096, 0.9500000000000001, 0.126, 192.0, 0.0, 0.0, 0.0, 0.0, 0.0, 0.0, 0.0, 0.0, 0.0, 1.6581653613501155E9, 0.0, 2022-07-18 13:29:21.350
84.0, -27988.74264821323, -29743.779271099484, -59130.645886736624, -58463.2004455567, -25822.098651182492, -42834.033707861156, -56773.09564031311, -37561.27954259867, -18081.689546309655, -62707.23792400813, -61121.40400664855, -72574.0802376366, -56204.28844741445, -54143.63642259079, -52650.80811390974, -52321.343400638514, 0.096, 0.9500000000000001, 0.126, 192.0, 0.0, 0.0, 0.0, 0.0, 0.0, 0.0, 0.0, 0.0, 0.0, 1.6581653613501227E9, 0.0, 2022-07-18 13:29:21.350
86.0, -28017.330529371564, -29699.142837422234, -59179.4173931381, -58516.62111480488, -25869.238480238735, -42873.797461247144, -56801.057672626695, -37614.36493568002, -18109.696282112156, -62759.58570952246, -61160.877187356615, -72613.48636311131, -56240.118293776315, -54180.60620791987, -52682.61464626964, -52356.68150862235, 0.091, 0.9510000000000001, 0.124, 192.0, 1.0, 88.0, 14.5, 96.0, 1.5, 104.0, 0.0, 0.0, 0.0, 1.6581653613501296E9, 0.0, 2022-07-18 13:29:21.350
88.0, -28000.07498265207, -29761.057169563435, -59116.743101685424, -58468.743678181614, -25815.72840401273, -42835.50892299521, -56758.67876513943, -37600.01511573972, -18095.324110427395, -62722.92884861575, -61136.62554462261, -72588.60887153255, -56208.62468583878, -54158.32151869792, -52656.82073316821, -52330.21704318727, 0.091, 0.9510000000000001, 0.124, 192.0, 0.0, 0.0, 0.0, 0.0, 0.0, 0.0, 0.0, 0.0, 0.0, 1.6581653613501365E9, 0.0, 2022-07-18 13:29:21.350
90.0, -28006.936968199847, -29688.235186128044, -59153.7128870145, -58506.29460886653, -25857.302648699602, -42862.37571983048, -56820.74955949182, -37598.450493627846, -18089.19973244664, -62743.82772968146, -61144.023972037314, -72604.389203118, -56209.474052128084, -54171.15142001527, -52666.16376235054, -52348.70193585181, 0.091, 0.9510000000000001, 0.124, 192.0, 0.0, 0.0, 0.0, 0.0, 0.0, 0.0, 0.0, 0.0, 0.0, 1.6581653613501437E9, 0.0, 2022-07-18 13:29:21.350
92.0, -28000.544369285628, -29772.858890635838, -59114.776148173354, -58469.36952702636, -25823.68562503882, -42850.81986794709, -56769.742878644814, -37569.75085374723, -18075.92279624019, -62721.6547991818, -61126.09787298416, -72584.31733659713, -56190.11744142979, -54155.30403319646, -52657.44658201296, -52330.17233969836, 0.091, 0.9510000000000001, 0.124, 192.0, 0.0, 0.0, 0.0, 0.0, 0.0, 0.0, 0.0, 0.0, 0.0, 1.6581653613501503E9, 0.0, 2022-07-18 13:29:21.350
94.0, -28023.92429398588, -29703.099096190825, -59172.309538401314, -58521.672609051784, -25875.675782641865, -42895.97039174681, -56837.31220213321, -37640.672938903925, -18092.39603190375, -62747.493415772136, -61148.24845173937, -72609.55245608717, -56217.677142343186, -54178.52749568552, -52676.71378573344, -52360.03427029065, 0.091, 0.9510000000000001, 0.124, 192.0, 0.0, 0.0, 0.0, 0.0, 0.0, 0.0, 0.0, 0.0, 0.0, 1.6581653613501575E9, 0.0, 2022-07-18 13:29:21.350
96.0, -28003.092468153536, -29782.537195984984, -59119.69353195352, -58476.9020649078, -25826.814869262562, -42863.7168244978, -56767.84298036611, -37604.08313323058, -18085.668156822703, -62733.61298246539, -61138.14546324557, -72599.04713619317, -56199.10284270083, -54163.730640856105, -52664.867361172124, -52348.21019747379, 0.0925, 0.9535, 0.121, 192.0, 1.0, 120.0, 14.5, 112.0, 1.5, 88.0, 0.0, 0.0, 0.0, 1.6581653613501647E9, 0.0, 2022-07-18 13:29:21.350
98.0, -28038.810555793116, -29719.79584929894, -59195.041262512364, -58549.411123920814, -25883.36478273449, -42908.48736864178, -56840.352039379126, -37643.77983138321, -18102.7225378421, -62762.11145664591, -61164.98990833639, -72629.62432260804, -56230.03765702697, -54191.04447258049, -52682.972274180924, -52372.95357858582, 0.0925, 0.9535, 0.121, 192.0, 0.0, 0.0, 0.0, 0.0, 0.0, 0.0, 0.0, 0.0, 0.0, 1.6581653613501716E9, 0.0, 2022-07-18 13:29:21.350
100.0, -28001.572549530574, -29770.98134410159, -59128.053084379804, -58484.94869291171, -25831.285218153625, -42861.28048435217, -56781.47754448385, -37579.54091781866, -18106.656444866236, -62749.95210766222, -61163.91702460254, -72620.10247947008, -56239.201872253645, -54187.40113823428, -52681.20648636896, -52373.53472394165, 0.0925, 0.9535, 0.121, 192.0, 0.0, 0.0, 0.0, 0.0, 0.0, 0.0, 0.0, 0.0, 0.0, 1.6581653613501785E9, 0.0, 2022-07-18 13:29:21.350
102.0, -28013.843657236535, -29687.92226170567, -59172.242483167945, -58521.00205671812, -25860.811872579085, -42874.982103703274, -56811.8088617097, -37592.14730169145, -18080.86253176481, -62721.4536334817, -61132.87045155412, -72589.25707212175, -56217.677142343186, -54155.30403319646, -52654.16087557803, -52342.1528747264, 0.0925, 0.9535, 0.121, 192.0, 0.0, 0.0, 0.0, 0.0, 0.0, 0.0, 0.0, 0.0, 0.0, 1.6581653613501863E9, 0.0, 2022-07-18 13:29:21.350
104.0, -27995.515226783184, -29755.245716005054, -59128.634229735646, -58475.27038756257, -25829.92176174185, -42849.03172839066, -56784.38327126304, -37570.93549620337, -18096.776973816988, -62747.404008794314, -61153.94814657547, -72608.43486886441, -56240.90060483225, -54174.48182993911, -52678.54662877877, -52363.632901147954, 0.0925, 0.9535, 0.121, 192.0, 0.0, 0.0, 0.0, 0.0, 0.0, 0.0, 0.0, 0.0, 0.0, 1.6581653613501947E9, 0.0, 2022-07-18 13:29:21.350
106.0, -28018.44811659433, -29686.31293610489, -59183.150134462136, -58521.24792590713, -25872.21126225129, -42869.193001889354, -56836.239318399355, -37581.530223075184, -18073.8664357503, -62721.8559648819, -61129.18241371899, -72581.99275517378, -56213.13973821876, -54148.66556509323, -52652.55154997725, -52336.74375256822, 0.09325, 0.95475, 0.1205, 192.0, 1.0, 120.0, 14.5, 112.0, 1.5, 96.0, 0.0, 0.0, 0.0, 1.6581653618298624E9, 0.0, 2022-07-18 13:29:21.829
108.0, -28003.181875131355, -29742.326407709887, -59136.41263680609, -58485.01574814508, -25826.83722100702, -42853.18915285935, -56771.508666456786, -37568.78972873565, -18107.34934894435, -62764.05605841352, -61170.98017585042, -72622.11413647105, -56248.634308413784, -54193.32435051494, -52674.2327420989, -52378.250942021725, 0.09325, 0.95475, 0.1205, 192.0, 0.0, 0.0, 0.0, 0.0, 0.0, 0.0, 0.0, 0.0, 0.0, 1.65816536182992E9, 0.0, 2022-07-18 13:29:21.829
110.0, -28015.296520626132, -29680.814406968882, -59171.37076513419, -58511.39080660234, -25849.01015150668, -42857.05600465012, -56810.490108786835, -37569.14735664694, -18061.975307700075, -62718.5032032136, -61121.806338048744, -72573.05205739166, -56196.51004034401, -54149.51493138253, -52606.730473843876, -52319.06352270407, 0.09325, 0.95475, 0.1205, 192.0, 0.0, 0.0, 0.0, 0.0, 0.0, 0.0, 0.0, 0.0, 0.0, 1.6581653618299859E9, 0.0, 2022-07-18 13:29:21.829
112.0, -27981.2548138207, -29694.91835772018, -59125.616744234176, -58467.44727700321, -25816.756584257673, -42832.37967877146, -56760.578663418135, -37549.07549012607, -18092.57484585939, -62766.60415728142, -61161.525387945825, -72613.75458404477, -56233.14454950626, -54193.43610923721, -52655.0772971007, -52369.04202330614, 0.09325, 0.95475, 0.1205, 192.0, 0.0, 0.0, 0.0, 0.0, 0.0, 0.0, 0.0, 0.0, 0.0, 1.6581653618300428E9, 0.0, 2022-07-18 13:29:21.830
114.0, -27997.482180295254, -29659.15556659169, -59170.70021280053, -58513.5142223256, -25851.468843396768, -42853.949112170834, -56803.8069371947, -37555.445737295835, -18045.367961569784, -62699.3477582154, -61097.77821275929, -72551.63908620348, -56177.24283662353, -54127.85609100534, -52601.7683865748, -52310.48045283323, 0.09325, 0.95475, 0.1205, 192.0, 0.0, 0.0, 0.0, 0.0, 0.0, 0.0, 0.0, 0.0, 0.0, 1.65816536183005E9, 0.0, 2022-07-18 13:29:21.830
116.0, -28006.311119355098, -29693.93488096415, -59163.68176504157, -58523.974838730675, -25849.63600035143, -42869.97531294529, -56806.39973955152, -37587.744008033755, -18099.593293618356, -62782.04921270004, -61164.54287344729, -72626.02569175074, -56245.7285816346, -54199.448728495685, -52675.41738455503, -52395.79706141914, 0.090625, 0.9493750000000001, 0.11925, 192.0, 1.0, 96.0, 14.5, 64.0, 1.5, 88.0, 0.0, 0.0, 0.0, 1.6581653618300567E9, 0.0, 2022-07-18 13:29:21.830
118.0, -28013.486029325253, -29667.939802162626, -59167.839189510254, -58530.45684462272, -25841.365854902968, -42853.70324298182, -56803.73988196134, -37565.68283625637, -18053.995734929533, -62719.53138345855, -61111.36807338811, -72578.97526967232, -56184.21658089359, -54144.06110573544, -52623.337819974164, -52343.49397939372, 0.090625, 0.9493750000000001, 0.11925, 192.0, 0.0, 0.0, 0.0, 0.0, 0.0, 0.0, 0.0, 0.0, 0.0, 1.658165361830064E9, 0.0, 2022-07-18 13:29:21.830
120.0, -28003.807723976104, -29666.39753179521, -59160.39605860664, -58519.213917161695, -25836.87315426745, -42854.88788543796, -56790.440594010426, -37545.65567322441, -18094.027709248985, -62777.958843464716, -61168.83440838271, -72636.396901178, -56248.142570035765, -54203.47204249764, -52683.41930907003, -52401.04972136614, 0.090625, 0.9493750000000001, 0.11925, 192.0, 0.0, 0.0, 0.0, 0.0, 0.0, 0.0, 0.0, 0.0, 0.0, 1.6581653618300714E9, 0.0, 2022-07-18 13:29:21.830
122.0, -27991.849540692514, -29656.54041249042, -59149.533110801356, -58499.74554774113, -25828.6477123079, -42841.09685910903, -56789.68063469895, -37553.769356461686, -18027.888897405734, -62692.93280755673, -61095.40892784702, -72558.63518221799, -56166.64810975172, -54124.436274103675, -52612.251354724336, -52324.763217540174, 0.090625, 0.9493750000000001, 0.11925, 192.0, 0.0, 0.0, 0.0, 0.0, 0.0, 0.0, 0.0, 0.0, 0.0, 1.6581653618300784E9, 0.0, 2022-07-18 13:29:21.830
124.0, -28008.903921711913, -29660.38491253673, -59179.37268964919, -58517.80575726101, -25862.041218524126, -42864.94617044284, -56815.49689954483, -37558.12794663048, -18074.335822383862, -62770.202788138726, -61157.814998366244, -72624.12579347203, -56240.811197854426, -54187.647007423286, -52683.978102681416, -52399.06041610961, 0.090625, 0.9493750000000001, 0.11925, 192.0, 0.0, 0.0, 0.0, 0.0, 0.0, 0.0, 0.0, 0.0, 0.0, 1.6581653618300855E9, 0.0, 2022-07-18 13:29:21.830
126.0, -27999.58324427405, -29677.64045925623, -59150.5612910463, -58487.0050534016, -25837.07431996755, -42841.34272829804, -56799.314236559185, -37544.7616034462, -18038.66243823319, -62700.26417973807, -61104.394329118055, -72566.01125788824, -56184.663615782694, -54128.54899508345, -52638.60406143714, -52333.368639155466, 0.0873125, 0.9496875, 0.120625, 192.0, 1.0, 80.0, 14.5, 88.0, 1.5, 104.0, 0.0, 0.0, 0.0, 1.6581653618300924E9, 0.0, 2022-07-18 13:29:21.830
128.0, -28014.424802592373, -29654.01466536697, -59165.46990459799, -58501.69014950874, -25859.470767911767, -42865.1696878874, -56817.083873401156, -37571.00255143673, -18081.354270142827, -62768.79462823804, -61156.071562298726, -72623.85757253857, -56245.05802930093, -54191.40210049178, -52690.19188763999, -52391.03613985016, 0.0873125, 0.9496875, 0.120625, 192.0, 0.0, 0.0, 0.0, 0.0, 0.0, 0.0, 0.0, 0.0, 0.0, 1.6581653618300993E9, 0.0, 2022-07-18 13:29:21.830
130.0, -27990.039049391635, -29682.244918614022, -59115.98314237394, -58454.550320452494, -25809.224046376235, -42819.92975710986, -56754.364878459564, -37519.12415255596, -18031.442824774127, -62695.41385119127, -61090.84917197814, -72552.86843214852, -56171.92312144317, -54126.44793110465, -52613.03366578027, -52312.22388890075, 0.0873125, 0.9496875, 0.120625, 192.0, 0.0, 0.0, 0.0, 0.0, 0.0, 0.0, 0.0, 0.0, 0.0, 1.6581653618301067E9, 0.0, 2022-07-18 13:29:21.830
