%OpenBCI Raw EEG Data
%Number of channels = 16
%Sample Rate = 125 Hz
%Board = OpenBCI_GUI$BoardCytonSerialDaisy
Sample Index, EXG Channel 0, EXG Channel 1, EXG Channel 2, EXG Channel 3, EXG Channel 4, EXG Channel 5, EXG Channel 6, EXG Channel 7, EXG Channel 8, EXG Channel 9, EXG Channel 10, EXG Channel 11, EXG Channel 12, EXG Channel 13, EXG Channel 14, EXG Channel 15, Accel Channel 0, Accel Channel 1, Accel Channel 2, Other, Other, Other, Other, Other, Other, Other, Analog Channel 0, Analog Channel 1, Analog Channel 2, Timestamp, Other, Timestamp (Formatted)
0.0, -33598.158788461544, -6607.712102855695, -52913.17289032613, -52844.41892438161, -40811.40200035596, -43548.44016414168, -40962.23157194037, -23335.735301463046, 0.0, 0.0, 0.0, 0.0, 0.0, 0.0, 0.0, 0.0, 0.0, 0.0, 0.0, 192.0, 0.0, 0.0, 0.0, 0.0, 0.0, 0.0, 0.0, 0.0, 0.0, 1.668976259320944E9, 0.0, 2022-11-20 15:30:59.320
150.0, -33678.625068500645, -6721.28131643311, -52989.50409764101, -52909.41779725764, -40881.40766398999, -43612.85789166187, -41030.851427418165, -23403.21521797362, -42435.21153154511, -15104.012501718105, -45836.565892287006, -49458.353156847144, -42761.457593614774, -28562.13194872522, -41233.671156605626, -50929.589680384364, 0.0, 0.0, 0.0, 192.0, 0.0, 0.0, 0.0, 0.0, 0.0, 0.0, 0.0, 0.0, 0.0, 1.668976259320953E9, 0.0, 2022-11-20 15:30:59.320
152.0, -33608.66410835554, -6639.272766026588, -52914.178718826624, -52838.89804350115, -40805.188215397386, -43542.00286173855, -40956.420118382, -23331.264952571983, -42384.853051287304, -15057.587928484432, -45778.808984614494, -49406.273592266276, -42697.419845750315, -28502.430439285094, -41177.30005708934, -50870.69283374463, 0.0, 0.0, 0.0, 192.0, 0.0, 0.0, 0.0, 0.0, 0.0, 0.0, 0.0, 0.0, 0.0, 1.6689762593209596E9, 0.0, 2022-11-20 15:30:59.320
154.0, -33705.51421708038, -6726.1316449799115, -53003.71980711458, -52928.12620736673, -40895.95864963039, -43631.9462814267, -41045.89415143659, -23419.39788095926, -42445.7168514391, -15108.70636805372, -45850.31221512702, -49469.10434593014, -42765.145631449894, -28568.993934273, -41230.519560637425, -50928.29327920596, 0.008, 0.47800000000000004, -0.047, 192.0, 0.0, 64.0, 14.5, 112.0, 126.5, 8.0, 0.0, 0.0, 0.0, 1.6689762593209677E9, 0.0, 2022-11-20 15:30:59.320
156.0, -33605.95954727645, -6645.575957962985, -52909.37309376873, -52833.17599692059, -40797.78978798268, -43536.99607098056, -40950.742775290346, -23324.559429235393, -42397.48178690455, -15065.634556488343, -45792.62236268787, -49416.24247029334, -42712.75314244666, -28512.555779523347, -41186.620734527205, -50880.12526990477, 0.008, 0.47800000000000004, -0.047, 192.0, 0.0, 0.0, 0.0, 0.0, 0.0, 0.0, 0.0, 0.0, 0.0, 1.6689762593209774E9, 0.0, 2022-11-20 15:30:59.320
158.0, -33721.24984517692, -6719.895508276882, -53020.17069103369, -52941.53725403992, -40907.3580393026, -43650.297063624515, -41060.0428056768, -23436.206392789652, -42445.85096190584, -15103.386652873356, -45846.288901125066, -49462.264712126824, -42767.91724776236, -28564.545937126393, -41226.49624663547, -50923.19708147014, 0.008, 0.47800000000000004, -0.047, 192.0, 0.0, 0.0, 0.0, 0.0, 0.0, 0.0, 0.0, 0.0, 0.0, 1.6689762593209872E9, 0.0, 2022-11-20 15:30:59.320
160.0, -33604.70784958695, -6653.264958055611, -52898.174869796625, -52813.61822052219, -40791.64305825747, -43530.268195899516, -40942.271464141784, -23318.032719854444, -42424.75091514002, -15082.93480669675, -45813.1636158423, -49433.92270015749, -42739.50818055966, -28529.408994842648, -41201.75286552344, -50894.855069500816, 0.008, 0.47800000000000004, -0.047, 192.0, 0.0, 0.0, 0.0, 0.0, 0.0, 0.0, 0.0, 0.0, 0.0, 1.668976259320997E9, 0.0, 2022-11-20 15:30:59.320
162.0, -33694.80773148629, -6675.303778088543, -52991.96278953109, -52915.05043686038, -40895.66807695247, -43634.87435995035, -41042.317872323736, -23420.224895504107, -42411.51868242248, -15058.88432966284, -45806.48044425016, -49420.466949995396, -42738.97173869273, -28526.83854423029, -41189.9734961955, -50889.02126419798, 0.008, 0.47800000000000004, -0.047, 192.0, 0.0, 0.0, 0.0, 0.0, 0.0, 0.0, 0.0, 0.0, 0.0, 1.6689762593210044E9, 0.0, 2022-11-20 15:30:59.321
164.0, -33579.53978533027, -6639.8986148713375, -52870.43635492759, -52785.36561553069, -40776.957962150336, -43508.788169477964, -40922.46781855438, -23297.55852193338, -42410.78107485546, -15074.396440314824, -45796.62332494537, -49422.03157210727, -42731.50625604466, -28525.273922118417, -41190.86756597371, -50891.18938341014, 0.012, 0.7150000000000001, -0.07250000000000001, 192.0, 0.0, 64.0, 14.5, 96.0, 126.0, 120.0, 0.0, 0.0, 0.0, 1.66897625932104E9, 0.0, 2022-11-20 15:30:59.321
166.0, -33674.489995776414, -6645.106571329424, -52976.24951317901, -52897.37020699623, -40882.011161090275, -43614.51192075157, -41027.36455528314, -23406.34446219736, -42378.46045237308, -15036.040846829517, -45764.9509030522, -49387.29696122372, -42700.37027601842, -28495.38963978167, -41157.27289405738, -50857.03591788244, 0.012, 0.7150000000000001, -0.07250000000000001, 192.0, 0.0, 0.0, 0.0, 0.0, 0.0, 0.0, 0.0, 0.0, 0.0, 1.6689762593210473E9, 0.0, 2022-11-20 15:30:59.321
168.0, -33589.441608123976, -6661.065716870513, -52890.03883481489, -52797.144984858634, -40781.24949708575, -43507.82704446639, -40927.76518199029, -23304.107583058787, -42422.51574069449, -15088.74626025513, -45808.872080906884, -49433.45331352393, -42738.50235205917, -28536.628608301715, -41208.905423749144, -50907.75202605153, 0.012, 0.7150000000000001, -0.07250000000000001, 192.0, 0.0, 0.0, 0.0, 0.0, 0.0, 0.0, 0.0, 0.0, 0.0, 1.6689762593210533E9, 0.0, 2022-11-20 15:30:59.321
170.0, -33669.684370718525, -6630.354419988921, -52978.43998413563, -52902.153480309666, -40870.43295746243, -43604.431284002225, -41018.93794762349, -23397.470819648603, -42371.68787380313, -15032.397512483301, -45764.05683327399, -49382.20076348791, -42689.46262472423, -28484.526691976393, -41163.330216804774, -50861.05923188439, 0.012, 0.7150000000000001, -0.07250000000000001, 192.0, 0.0, 0.0, 0.0, 0.0, 0.0, 0.0, 0.0, 0.0, 0.0, 1.668976259321059E9, 0.0, 2022-11-20 15:30:59.321
172.0, -33611.0333932678, -6684.289179359577, -52906.71323617855, -52820.25668862542, -40793.69941874736, -43529.351774376846, -40949.558132834216, -23324.537077490935, -42425.84615061834, -15092.993091701639, -45816.9634123997, -49438.415400793005, -42736.98243343621, -28533.968750711534, -41221.48945587748, -50913.429369143174, 0.012, 0.7150000000000001, -0.07250000000000001, 192.0, 0.0, 0.0, 0.0, 0.0, 0.0, 0.0, 0.0, 0.0, 0.0, 1.6689762593210652E9, 0.0, 2022-11-20 15:30:59.321
174.0, -33663.314123548764, -6625.615850164396, -52969.14165844222, -52902.73462566551, -40865.26970449325, -43605.548871224986, -41017.06040108924, -23397.694337093155, -42370.41382436918, -15030.4976142046, -45759.60883612739, -49380.65849312049, -42676.655075151335, -28474.758979649425, -41160.402138281126, -50853.459638769586, 0.017, 0.8345, -0.08325, 192.0, 0.0, 88.0, 14.5, 104.0, 126.5, 8.0, 0.0, 0.0, 0.0, 1.6689762593210714E9, 0.0, 2022-11-20 15:30:59.321
176.0, -33636.87200985813, -6727.942136280792, -52920.72777995202, -52839.92622374609, -40813.32425037912, -43550.00478625355, -40964.98083650837, -23341.658513743703, -42454.03170037648, -15126.453653151233, -45848.50172382614, -49473.28412214329, -42762.32931164853, -28560.1426434687, -41246.97044455653, -50937.25632873253, 0.017, 0.8345, -0.08325, 192.0, 0.0, 0.0, 0.0, 0.0, 0.0, 0.0, 0.0, 0.0, 0.0, 1.6689762593210785E9, 0.0, 2022-11-20 15:30:59.321
178.0, -33664.655228216085, -6630.443826966743, -52957.451696092096, -52898.174869796625, -40855.54669565519, -43595.468234475644, -41003.60465092715, -23382.67396481919, -42366.3011033894, -15039.415960242268, -45766.82844958645, -49390.00152230281, -42675.26926699511, -28470.758017391923, -41156.33412079026, -50842.08260084184, 0.017, 0.8345, -0.08325, 192.0, 0.0, 0.0, 0.0, 0.0, 0.0, 0.0, 0.0, 0.0, 0.0, 1.668976259321086E9, 0.0, 2022-11-20 15:30:59.321
180.0, -33629.85356209917, -6721.884813533404, -52915.028085115926, -52837.84751151175, -40802.68482001839, -43538.203065181144, -40951.03334796827, -23325.72171994707, -42452.377671286784, -15125.984266517671, -45846.8700464809, -49476.12279368911, -42754.30503538907, -28548.60914332976, -41237.20273222956, -50924.22526171509, 0.017, 0.8345, -0.08325, 192.0, 0.0, 0.0, 0.0, 0.0, 0.0, 0.0, 0.0, 0.0, 0.0, 1.6689762593210988E9, 0.0, 2022-11-20 15:30:59.321
182.0, -33636.87200985813, -6615.378751203865, -52947.661632020674, -52878.41592769813, -40842.96266352686, -43572.46828943113, -40984.13628150657, -23360.791606997445, -42351.77246949345, -15016.237201242115, -45744.92374002025, -49371.29311219372, -42655.53267664107, -28443.9135723011, -41139.72677465997, -50825.0952750558, 0.017, 0.8345, -0.08325, 192.0, 0.0, 0.0, 0.0, 0.0, 0.0, 0.0, 0.0, 0.0, 0.0, 1.668976259321107E9, 0.0, 2022-11-20 15:30:59.321
184.0, -33637.60961742516, -6736.704020107272, -52939.03385866092, -52853.71725007502, -40823.60605282856, -43552.88816128828, -40968.17713596549, -23342.95491492211, -42461.608941746825, -15117.959990258216, -45851.89918898335, -49477.59800882316, -42761.457593614774, -28548.899716007676, -41242.07541252082, -50933.165959497215, 0.0175, 0.8952500000000001, -0.08962500000000001, 192.0, 0.0, 72.0, 14.5, 112.0, 126.5, 0.0, 0.0, 0.0, 0.0, 1.6689762593211153E9, 0.0, 2022-11-20 15:30:59.321
186.0, -33617.180122993006, -6618.418588449787, -52930.00375390098, -52858.947558277556, -40817.772247525725, -43552.7316990771, -40963.885601030066, -23340.27270558747, -42351.68306251563, -15005.843640070396, -45740.90042601829, -49369.25910344829, -42646.83784804796, -28430.748394816925, -41131.166056533584, -50820.58022267583, 0.0175, 0.8952500000000001, -0.08962500000000001, 192.0, 0.0, 0.0, 0.0, 0.0, 0.0, 0.0, 0.0, 0.0, 0.0, 1.6689762593211231E9, 0.0, 2022-11-20 15:30:59.321
188.0, -33664.69993170499, -6766.968282099758, -52957.83167574784, -52874.16909625162, -40836.10067797908, -43576.29043773299, -40987.936078063976, -23360.143406408242, -42464.53702027047, -15126.051321751038, -45867.50070661315, -49493.42304389752, -42767.045529728595, -28553.235954432006, -41243.528275910416, -50938.3739159553, 0.0175, 0.8952500000000001, -0.08962500000000001, 192.0, 0.0, 0.0, 0.0, 0.0, 0.0, 0.0, 0.0, 0.0, 0.0, 1.6689762593211312E9, 0.0, 2022-11-20 15:30:59.321
190.0, -33608.21707346643, -6630.734399644662, -52911.98824787, -52854.0748779863, -40801.74604675127, -43548.23899844158, -40957.73887130486, -23328.694501959624, -42345.29046360141, -15018.87470708784, -45745.616644098365, -49376.970455285365, -42641.16050495631, -28434.659950096604, -41124.97462331947, -50826.63754542322, 0.0175, 0.8952500000000001, -0.08962500000000001, 192.0, 0.0, 0.0, 0.0, 0.0, 0.0, 0.0, 0.0, 0.0, 0.0, 1.6689762593211384E9, 0.0, 2022-11-20 15:30:59.321
192.0, -33667.2480305729, -6772.802087402593, -52957.585806558825, -52893.25748601645, -40845.801335072676, -43589.27680126153, -41003.13526429359, -23370.693429791147, -42453.986996887565, -15123.011484505116, -45855.587226818476, -49486.516354860825, -42751.26519814315, -28548.7879572854, -41232.48651414949, -50938.01628804401, 0.0175, 0.8952500000000001, -0.08962500000000001, 192.0, 0.0, 0.0, 0.0, 0.0, 0.0, 0.0, 0.0, 0.0, 0.0, 1.6689762593211467E9, 0.0, 2022-11-20 15:30:59.321
194.0, -33601.19862570747, -6646.1794550632785, -52908.859003646256, -52857.8746745437, -40802.01426768473, -43548.46251588613, -40958.05179572723, -23328.672150215167, -42348.26324561396, -15025.826099613441, -45742.91208301927, -49382.62544663256, -42640.86993227839, -28441.14195598864, -41140.46438222699, -50843.35665027579, 0.0175, 0.8952500000000001, -0.08962500000000001, 192.0, 0.0, 0.0, 0.0, 0.0, 0.0, 0.0, 0.0, 0.0, 0.0, 1.668976259321154E9, 0.0, 2022-11-20 15:30:59.321
196.0, -33674.311181820776, -6767.683537922328, -52979.22229519157, -52913.91049789316, -40870.052977806685, -43611.71795269465, -41021.150770324566, -23390.586482356368, -42443.436973504664, -15119.524612370089, -45847.42884009229, -49483.029482725804, -42746.1913521518, -28546.21750667304, -41243.43886893259, -50941.63727064578, 0.03, 0.9540000000000001, -0.092, 192.0, 0.0, 120.0, 14.5, 104.0, 126.5, 16.0, 0.0, 0.0, 0.0, 1.6689762593211608E9, 0.0, 2022-11-20 15:30:59.321
198.0, -33578.15397717404, -6641.485588727664, -52893.50335520546, -52835.34411613276, -40789.676104745406, -43532.86099825633, -40938.94105421795, -23308.309711016384, -42365.94347547811, -15037.449006730201, -45757.910103548784, -49395.67886539446, -42667.848487835945, -28459.515089930905, -41168.068786629294, -50860.47808652855, 0.03, 0.9540000000000001, -0.092, 192.0, 0.0, 0.0, 0.0, 0.0, 0.0, 0.0, 0.0, 0.0, 0.0, 1.6689762593211672E9, 0.0, 2022-11-20 15:30:59.321
200.0, -33650.28305653132, -6736.346392195987, -52956.49057108052, -52896.36437849574, -40853.55739039867, -43595.15531005327, -41002.3753049821, -23372.52627283648, -42416.72663888057, -15087.896893965828, -45816.9634123997, -49452.31818584421, -42733.38380257891, -28520.69181450508, -41218.24845293146, -50910.70245631963, 0.03, 0.9540000000000001, -0.092, 192.0, 0.0, 0.0, 0.0, 0.0, 0.0, 0.0, 0.0, 0.0, 0.0, 1.668976259321174E9, 0.0, 2022-11-20 15:30:59.321
202.0, -33547.420328547996, -6632.07550431198, -52858.23230245499, -52798.79901394833, -40754.04742408364, -43493.85720418182, -40902.015972377776, -23271.876367554232, -42344.731669990026, -15020.238163499615, -45732.9432049922, -49374.37765292855, -42649.29653993804, -28436.604551864213, -41139.95029210452, -50835.46648448306, 0.03, 0.9540000000000001, -0.092, 192.0, 0.0, 0.0, 0.0, 0.0, 0.0, 0.0, 0.0, 0.0, 0.0, 1.6689762593211808E9, 0.0, 2022-11-20 15:30:59.321
204.0, -33646.43855648501, -6716.118063463934, -52956.535274569425, -52893.4362999721, -40845.42135541694, -43590.48379546211, -40994.95452582294, -23366.893633233743, -42389.0551792449, -15057.40911452879, -45784.73219689515, -49420.243432550844, -42699.856185895944, -28484.772561165402, -41178.10471988973, -50875.16318263569, 0.03, 0.9540000000000001, -0.092, 192.0, 0.0, 0.0, 0.0, 0.0, 0.0, 0.0, 0.0, 0.0, 0.0, 1.6689762593211873E9, 0.0, 2022-11-20 15:30:59.321
206.0, -33577.43872135147, -6673.672100743306, -52884.33913997879, -52821.08370317027, -40772.666427214914, -43518.17590214919, -40922.9595569324, -23296.172713777152, -42370.86085925828, -15050.591832469921, -45763.63215012934, -49403.36786548709, -42670.73186287068, -28461.750264376435, -41157.04937661283, -50857.505304515995, 0.028, 0.96, -0.098, 192.0, 0.0, 112.0, 15.0, 0.0, 126.0, 120.0, 0.0, 0.0, 0.0, 1.6689762593211937E9, 0.0, 2022-11-20 15:30:59.321
208.0, -33667.42684452854, -6714.888717518892, -52970.86274276528, -52906.91440187865, -40865.6943876379, -43603.87249039084, -41010.82426438621, -23383.38922064176, -42408.47884517656, -15071.446010046722, -45804.468787249185, -49435.80024669174, -42713.02136338012, -28500.329375306297, -41186.263106615916, -50884.50621181801, 0.028, 0.96, -0.098, 192.0, 0.0, 0.0, 0.0, 0.0, 0.0, 0.0, 0.0, 0.0, 0.0, 1.6689762593212E9, 0.0, 2022-11-20 15:30:59.321
210.0, -33596.86238728314, -6703.466976102231, -52894.79975638387, -52823.229470637976, -40794.50408154775, -43525.99901270855, -40938.94105421795, -23306.767440648968, -42405.23784223054, -15066.618033244376, -45787.19088878523, -49422.009220362816, -42702.29252604157, -28484.593747209758, -41178.015312911906, -50867.384775565246, 0.028, 0.96, -0.098, 192.0, 0.0, 0.0, 0.0, 0.0, 0.0, 0.0, 0.0, 0.0, 0.0, 1.6689762593212068E9, 0.0, 2022-11-20 15:30:59.321
212.0, -33665.23637357192, -6709.814871527537, -52959.86568449327, -52898.77836689691, -40868.82363186165, -43602.86666189035, -41011.22659578641, -23381.19874968514, -42402.98031604056, -15066.305108822002, -45796.355104011905, -49428.982964632865, -42711.322630801515, -28496.39546828216, -41177.322408833796, -50869.01645291048, 0.028, 0.96, -0.098, 192.0, 0.0, 0.0, 0.0, 0.0, 0.0, 0.0, 0.0, 0.0, 0.0, 1.668976259321216E9, 0.0, 2022-11-20 15:30:59.321
214.0, -33575.650581795046, -6702.259981901644, -52865.49661940296, -52796.98852264744, -40768.84427891306, -43502.6190880083, -40915.11409462859, -23282.38168744823, -42391.87149904627, -15065.276928577057, -45777.065548546976, -49418.567051716695, -42692.12248231441, -28481.799779152847, -41168.068786629294, -50862.08741212934, 0.028, 0.96, -0.098, 192.0, 0.0, 0.0, 0.0, 0.0, 0.0, 0.0, 0.0, 0.0, 0.0, 1.6689762593212223E9, 0.0, 2022-11-20 15:30:59.321
216.0, -33670.8466614302, -6700.807118512049, -52973.0532137219, -52914.22342231553, -40872.936352841425, -43610.510958494066, -41019.49674123487, -23388.127790466286, -42384.13779546473, -15049.11661733587, -45779.21131601469, -49414.29786852573, -42692.63657243688, -28479.29638377385, -41158.211667324504, -50859.80753419489, 0.024, 0.9580000000000001, -0.094, 192.0, 0.0, 96.0, 14.5, 120.0, 126.5, 8.0, 0.0, 0.0, 0.0, 1.6689762593212285E9, 0.0, 2022-11-20 15:30:59.321
218.0, -33581.529090586795, -6711.066569217035, -52878.75120386496, -52803.224659350475, -40761.73642417627, -43504.27311709799, -40916.075219640166, -23285.60033864979, -42415.25142374652, -15083.94063519724, -45807.79919717302, -49441.67875548348, -42719.860997183445, -28499.435305528084, -41187.35834209422, -50888.194249653134, 0.024, 0.9580000000000001, -0.094, 192.0, 0.0, 0.0, 0.0, 0.0, 0.0, 0.0, 0.0, 0.0, 0.0, 1.6689762593212335E9, 0.0, 2022-11-20 15:30:59.321
220.0, -33641.3423587492, -6664.418478538809, -52951.59553904481, -52889.10006154777, -40834.7372215673, -43584.560583181454, -40987.10906351913, -23361.551566308925, -42357.583923051825, -15015.477241930634, -45752.97036802416, -49378.78094658625, -42659.13130749838, -28441.47723215547, -41122.717097129476, -50831.845501881304, 0.024, 0.9580000000000001, -0.094, 192.0, 0.0, 0.0, 0.0, 0.0, 0.0, 0.0, 0.0, 0.0, 0.0, 1.668976259321238E9, 0.0, 2022-11-20 15:30:59.321
222.0, -33602.718544330426, -6737.911014307859, -52903.1369570657, -52823.02830493788, -40782.43413954188, -43526.58015806439, -40937.2646733838, -23305.359280748282, -42422.56044418341, -15086.376975342868, -45816.18110134377, -49446.59613926365, -42721.85030243997, -28505.962014909033, -41195.53908056487, -50901.98527598206, 0.024, 0.9580000000000001, -0.094, 192.0, 0.0, 0.0, 0.0, 0.0, 0.0, 0.0, 0.0, 0.0, 0.0, 1.6689762593212428E9, 0.0, 2022-11-20 15:30:59.321
224.0, -33634.12274529013, -6650.31452778751, -52946.409934331175, -52883.22155275602, -40841.35333792607, -43586.594591926885, -40988.696037375455, -23360.836310486357, -42349.0455566699, -15017.73476812062, -45749.5505511225, -49379.496202408816, -42657.65609236433, -28441.14195598864, -41133.46828621248, -50835.913519372174, 0.024, 0.9580000000000001, -0.094, 192.0, 0.0, 0.0, 0.0, 0.0, 0.0, 0.0, 0.0, 0.0, 0.0, 1.6689762593212476E9, 0.0, 2022-11-20 15:30:59.321
226.0, -33592.48144536989, -6729.842034559493, -52893.10102380527, -52812.85826121071, -40787.9773721668, -43522.04275393996, -40933.733097759854, -23298.497295200505, -42423.34275523934, -15082.621882274376, -45815.97993564367, -49446.41732530801, -42727.54999727607, -28509.270073088417, -41207.60902257074, -50904.53337484996, 0.018000000000000002, 0.962, -0.096, 192.0, 0.0, 72.0, 15.0, 8.0, 126.5, 0.0, 0.0, 0.0, 0.0, 1.6689762593212523E9, 0.0, 2022-11-20 15:30:59.321
228.0, -33598.53876811728, -6612.853004080415, -52917.08444560581, -52847.65992732763, -40815.5817765691, -43549.133068219795, -40958.3200166607, -23323.66535945718, -42319.965937133544, -14985.280035171514, -45716.4923210731, -49347.44380085991, -42629.67170830628, -28413.82812426426, -41115.36337320368, -50801.022446277435, 0.018000000000000002, 0.962, -0.096, 192.0, 0.0, 0.0, 0.0, 0.0, 0.0, 0.0, 0.0, 0.0, 0.0, 1.668976259321257E9, 0.0, 2022-11-20 15:30:59.321
230.0, -33607.121837988125, -6742.403714943375, -52917.889108406205, -52829.085627685265, -40804.070628174624, -43535.90083550225, -40950.7651270348, -23309.360243005784, -42426.13672329625, -15089.819143988985, -45817.23163333317, -49449.56892127621, -42729.874578699426, -28515.059174902344, -41219.813075043334, -50898.83368001386, 0.018000000000000002, 0.962, -0.096, 192.0, 0.0, 0.0, 0.0, 0.0, 0.0, 0.0, 0.0, 0.0, 0.0, 1.668976259321262E9, 0.0, 2022-11-20 15:30:59.321
232.0, -33604.19375946448, -6620.83257685096, -52925.39929454319, -52855.95242452055, -40813.39130561249, -43556.71030959014, -40962.544496362745, -23326.593437980824, -42328.638413982204, -14997.461735899657, -45728.76342877906, -49359.60314984359, -42639.50647586662, -28427.306226170807, -41127.36625997618, -50814.85817609527, 0.018000000000000002, 0.962, -0.096, 192.0, 0.0, 0.0, 0.0, 0.0, 0.0, 0.0, 0.0, 0.0, 0.0, 1.668976259321267E9, 0.0, 2022-11-20 15:30:59.321
234.0, -33633.809820867755, -6759.279282007133, -52934.07177139184, -52853.94076751957, -40819.023945215224, -43566.72389110612, -40972.73689183437, -23338.752786964513, -42434.272758277984, -15096.479963836666, -45834.196607374746, -49461.16947664851, -42744.71613701775, -28531.688872777093, -41220.26010993244, -50920.716037835606, 0.018000000000000002, 0.962, -0.096, 192.0, 0.0, 0.0, 0.0, 0.0, 0.0, 0.0, 0.0, 0.0, 0.0, 1.6689762593212717E9, 0.0, 2022-11-20 15:30:59.321
236.0, -33588.79340753477, -6620.296134984033, -52901.63939018719, -52844.59773833725, -40787.10565413304, -43549.401289153255, -40946.56299907721, -23319.396176266215, -42336.975614664036, -15009.665788372255, -45729.63514681282, -49362.39711790051, -42639.48412412216, -28431.329540172763, -41114.49165516993, -50821.47429245404, 0.024, 0.968, -0.098, 192.0, 0.0, 96.0, 15.0, 32.0, 126.0, 120.0, 0.0, 0.0, 0.0, 1.6689762593212764E9, 0.0, 2022-11-20 15:30:59.321
238.0, -33628.914788832044, -6747.991651057202, -52933.91530918066, -52861.29449144536, -40808.63038404351, -43567.46149867315, -40970.21114471092, -23340.742092221033, -42432.08228732137, -15095.787059758552, -45824.09361888094, -49455.916816701516, -42728.175846120816, -28524.446907573572, -41196.70137127655, -50910.367180152796, 0.024, 0.968, -0.098, 192.0, 0.0, 0.0, 0.0, 0.0, 0.0, 0.0, 0.0, 0.0, 0.0, 1.6689762593212812E9, 0.0, 2022-11-20 15:30:59.321
240.0, -33584.45716911044, -6618.150367516323, -52911.5412129809, -52845.46945637101, -40781.96475290832, -43534.917358746214, -40940.08099318516, -23309.494353472513, -42343.63643451172, -15012.951494807185, -45736.87711201634, -49367.06863249167, -42640.55700785601, -28433.251790195918, -41115.38572494814, -50822.61423142126, 0.024, 0.968, -0.098, 192.0, 0.0, 0.0, 0.0, 0.0, 0.0, 0.0, 0.0, 0.0, 0.0, 1.6689762593212857E9, 0.0, 2022-11-20 15:30:59.321
242.0, -33628.37834696512, -6738.693325363794, -52951.304966366886, -52869.83285782729, -40815.246500402274, -43558.87842880231, -40970.70288308893, -23332.181374094653, -42425.66733666269, -15092.836629490452, -45831.22382536219, -49457.1238109021, -42732.26621535614, -28522.032919172398, -41210.045362716366, -50908.690799318654, 0.024, 0.968, -0.098, 192.0, 0.0, 0.0, 0.0, 0.0, 0.0, 0.0, 0.0, 0.0, 0.0, 1.6689762593212905E9, 0.0, 2022-11-20 15:30:59.321
244.0, -33567.40278809104, -6620.251431495122, -52907.31673327884, -52837.8698632562, -40778.63434298448, -43519.74052426106, -40927.27344361227, -23291.79177186391, -42324.79391393589, -14996.142982976793, -45726.01416421106, -49355.512780608275, -42627.90592049431, -28416.957368488, -41122.89591108512, -50813.85234759478, 0.024, 0.968, -0.098, 192.0, 0.0, 0.0, 0.0, 0.0, 0.0, 0.0, 0.0, 0.0, 0.0, 1.6689762593212967E9, 0.0, 2022-11-20 15:30:59.321
246.0, -33657.033283356825, -6753.601938915484, -52988.900600540714, -52911.56356472535, -40860.75465211328, -43604.87831889133, -41008.52203470731, -23371.833368758365, -42436.55263621243, -15099.050414449028, -45837.14703764285, -49462.22000863791, -42742.995052694685, -28528.716090764534, -41232.97825252751, -50924.98522102657, 0.02, 0.96, -0.098, 192.0, 0.0, 80.0, 15.0, 0.0, 126.0, 120.0, 0.0, 0.0, 0.0, 1.6689762593213017E9, 0.0, 2022-11-20 15:30:59.321
248.0, -33560.697264754446, -6626.822844364982, -52892.631637171704, -52820.88253747017, -40770.587714980575, -43517.14772190425, -40914.13061787255, -23279.45360892458, -42367.48574584553, -15030.676428160243, -45756.72546109265, -49387.028740290254, -42667.13323201337, -28452.38488344966, -41164.939542405555, -50858.60053999431, 0.02, 0.96, -0.098, 192.0, 0.0, 0.0, 0.0, 0.0, 0.0, 0.0, 0.0, 0.0, 0.0, 1.6689762593213065E9, 0.0, 2022-11-20 15:30:59.321
250.0, -33638.95072209248, -6718.308534420555, -52957.786972258924, -52884.29443648988, -40835.63129134551, -43581.87837384682, -40979.73298784888, -23343.58076376686, -42400.14164449473, -15057.431466273245, -45802.63594420385, -49428.2677088103, -42703.54422373107, -28490.69577344606, -41195.0249904424, -50889.669464787185, 0.02, 0.96, -0.098, 192.0, 0.0, 0.0, 0.0, 0.0, 0.0, 0.0, 0.0, 0.0, 0.0, 1.6689762593213112E9, 0.0, 2022-11-20 15:30:59.321
252.0, -33566.285200868275, -6644.033687595569, -52884.048567300866, -52817.30625835732, -40758.94245611936, -43512.81148347992, -40908.54268175873, -23273.88802455521, -42352.62183578275, -15024.26147750157, -45752.21040871268, -49387.67694087946, -42642.99334800164, -28436.38103441966, -41141.26904502738, -50840.98736536352, 0.02, 0.96, -0.098, 192.0, 0.0, 0.0, 0.0, 0.0, 0.0, 0.0, 0.0, 0.0, 0.0, 1.6689762593213158E9, 0.0, 2022-11-20 15:30:59.321
254.0, -33672.81361494227, -6735.497025906686, -52990.15229823021, -52927.746227710995, -40863.86154459257, -43623.653784233786, -41017.82036040072, -23384.8197322869, -42411.11635102229, -15074.195274614725, -45823.78069445857, -49449.92654918749, -42707.79105517758, -28505.179703853097, -41193.79564449735, -50902.119386448794, 0.02, 0.96, -0.098, 192.0, 0.0, 0.0, 0.0, 0.0, 0.0, 0.0, 0.0, 0.0, 0.0, 1.6689762593213205E9, 0.0, 2022-11-20 15:30:59.321
0.0, -33559.0208839203, -6657.087106357469, -52874.70553811855, -52807.22562160798, -40749.44296472585, -43509.88340495627, -40905.68165846845, -23272.971603032543, -42378.773376795456, -15053.564614482477, -45780.68653114874, -49416.30952552671, -42670.66480763732, -28474.356648249228, -41161.5644289928, -50872.36921457878, 0.022, 0.9560000000000001, -0.10200000000000001, 192.0, 0.0, 88.0, 14.5, 112.0, 126.0, 104.0, 0.0, 0.0, 0.0, 1.6689762593213253E9, 0.0, 2022-11-20 15:30:59.321
2.0, -33657.167393823554, -6709.121967449423, -52963.66548105067, -52894.21861102803, -40844.482582149816, -43602.10670257887, -40997.48027294639, -23365.15019716623, -42385.32243792086, -15056.425637772756, -45795.14810981132, -49421.24926105133, -42690.11082531343, -28484.906671632132, -41162.57025749329, -50873.799726223915, 0.022, 0.9560000000000001, -0.10200000000000001, 192.0, 0.0, 0.0, 0.0, 0.0, 0.0, 0.0, 0.0, 0.0, 0.0, 1.6689762593213308E9, 0.0, 2022-11-20 15:30:59.321
4.0, -33562.21718337741, -6680.712900246728, -52865.13899149168, -52795.02156913538, -40752.125174060486, -43509.905756700726, -40903.759408445294, -23270.915242542655, -42382.21554544158, -15062.371201797869, -45782.809946871996, -49416.48833948235, -42683.293543254564, -28477.217671539507, -41160.08921385875, -50866.803630209404, 0.022, 0.9560000000000001, -0.10200000000000001, 192.0, 0.0, 0.0, 0.0, 0.0, 0.0, 0.0, 0.0, 0.0, 0.0, 1.6689762593213356E9, 0.0, 2022-11-20 15:30:59.321
6.0, -33637.7884313808, -6686.367891593921, -52950.321489610855, -52892.25165751597, -40844.951968783374, -43600.653839189275, -40992.54053742177, -23359.919888963686, -42364.378853366245, -15038.767759653063, -45770.091804276926, -49401.579725930664, -42676.655075151335, -28468.85811911322, -41142.207818294504, -50846.10591484379, 0.022, 0.9560000000000001, -0.10200000000000001, 192.0, 0.0, 0.0, 0.0, 0.0, 0.0, 0.0, 0.0, 0.0, 0.0, 1.6689762593213403E9, 0.0, 2022-11-20 15:30:59.321
8.0, -33550.52722102728, -6682.366929336421, -52860.26631120042, -52791.84762142273, -40745.553761190626, -43496.65117223873, -40898.05971360919, -23262.84626279429, -42390.88802229024, -15072.921225180773, -45783.279333505554, -49425.54079598675, -42693.68710442628, -28486.292479788364, -41167.599399995735, -50869.86581919978, 0.022, 0.9560000000000001, -0.10200000000000001, 192.0, 0.0, 0.0, 0.0, 0.0, 0.0, 0.0, 0.0, 0.0, 0.0, 1.668976259321345E9, 0.0, 2022-11-20 15:30:59.321
10.0, -33620.37642245012, -6646.760600419117, -52947.728687254035, -52877.72302362002, -40834.11137272255, -43577.60919065585, -40983.15280475054, -23345.972400423576, -42339.36725132075, -15007.743538349097, -45744.700222575695, -49373.3047691947, -42654.280978951574, -28439.599685621226, -41126.67335589807, -50824.46942621106, 0.022, 0.9570000000000001, -0.10600000000000001, 192.0, 0.0, 88.0, 14.5, 120.0, 126.0, 72.0, 0.0, 0.0, 0.0, 1.66897625932135E9, 0.0, 2022-11-20 15:30:59.321
12.0, -33556.83041296368, -6686.74787124966, -52878.170058509124, -52789.43363302155, -40758.29425553015, -43494.527756515476, -40907.96153640289, -23266.489597140506, -42393.34671418032, -15053.40815227129, -45788.934324852744, -49412.77794990277, -42699.655020195845, -28478.514072717917, -41183.49149030346, -50873.39739482372, 0.022, 0.9570000000000001, -0.10600000000000001, 192.0, 0.0, 0.0, 0.0, 0.0, 0.0, 0.0, 0.0, 0.0, 0.0, 1.6689762593213549E9, 0.0, 2022-11-20 15:30:59.321
14.0, -33637.76607963635, -6657.824713924493, -52966.682966552136, -52898.2866285189, -40854.384404943514, -43596.027028087025, -41002.598822426655, -23364.792569254943, -42344.91048394567, -15006.849468570885, -45748.879998788834, -49370.28728369323, -42659.533638898574, -28439.554982132315, -41142.25252178342, -50834.46065598258, 0.022, 0.9570000000000001, -0.10600000000000001, 192.0, 0.0, 0.0, 0.0, 0.0, 0.0, 0.0, 0.0, 0.0, 0.0, 1.6689762593213596E9, 0.0, 2022-11-20 15:30:59.321
0.0, -16786.249492913426, -3335.3720111098305, -26465.203042650588, -26417.12444032722, -20400.884199247863, -21769.369753524035, -20472.47683673821, -11656.345326464812, -21192.471229132563, -7532.023791316008, -22891.136752502534, -24708.735908119193, -21346.452396685174, -14240.363447709495, -20591.4104689849, -25438.609771562788, 0.028, 0.9560000000000001, -0.10400000000000001, 192.0, 0.0, 112.0, 14.5, 112.0, 126.0, 96.0, 0.0, 0.0, 0.0, 1.6689762599041507E9, 0.0, 2022-11-20 15:30:59.904
2.0, -33475.98415326884, -6664.172609349801, -52831.36550561971, -52728.703943336484, -40696.67049606687, -43430.02062201746, -40838.2911489357, -23203.524733009905, -42310.4887974845, -15024.283829246026, -45724.851873499385, -49356.60801608658, -42624.4637518482, -28416.756202787903, -41113.955213303, -50816.86983309625, 0.028, 0.9560000000000001, -0.10400000000000001, 192.0, 0.0, 0.0, 0.0, 0.0, 0.0, 0.0, 0.0, 0.0, 0.0, 1.66897625990417E9, 0.0, 2022-11-20 15:30:59.904
4.0, -33541.45241277843, -6611.3107337129995, -52913.195242070586, -52833.53362483187, -40772.84524117056, -43516.23130038158, -40911.023725393265, -23283.18635024862, -42256.75520381394, -14960.849578481864, -45675.74509093107, -49306.40599803996, -42573.70294019019, -28363.290830050806, -41057.65116902008, -50764.231474904, 0.028, 0.9560000000000001, -0.10400000000000001, 192.0, 0.0, 0.0, 0.0, 0.0, 0.0, 0.0, 0.0, 0.0, 0.0, 1.6689762599042015E9, 0.0, 2022-11-20 15:30:59.904
6.0, -33505.890787350036, -6698.214316155233, -52863.619072868714, -52777.698967182514, -40716.67530735437, -43462.8106311334, -40857.71481486736, -23227.06111992134, -42329.823056438334, -15040.868823631863, -45750.55637962298, -49388.928638568956, -42642.92629276828, -28440.650217610626, -41130.38374547765, -50843.37900202024, 0.028, 0.9560000000000001, -0.10400000000000001, 192.0, 0.0, 0.0, 0.0, 0.0, 0.0, 0.0, 0.0, 0.0, 0.0, 1.6689762599042065E9, 0.0, 2022-11-20 15:30:59.904
8.0, -33534.97040688639, -6611.0201610350805, -52901.885259376206, -52838.2721946564, -40768.911334146425, -43521.34984986184, -40904.98875439033, -23281.867597325756, -42260.331482926784, -14978.283939157003, -45684.86460266884, -49324.91324244896, -42577.27921930304, -28382.222757604453, -41060.2439713769, -50779.60947508925, 0.022, 0.9500000000000001, -0.098, 192.0, 0.0, 88.0, 14.5, 88.0, 126.0, 120.0, 0.0, 0.0, 0.0, 1.6689762599042115E9, 0.0, 2022-11-20 15:30:59.904
10.0, -33481.683848104934, -6678.567132779019, -52815.49576705644, -52734.940080039516, -40686.902783739904, -43438.91661631067, -40824.23190167331, -23198.428535274095, -42309.52767247292, -15030.20704152668, -45732.58557708092, -49373.885914550534, -42626.1624844268, -28434.883467541156, -41102.42171316406, -50829.00683033548, 0.022, 0.9500000000000001, -0.098, 192.0, 0.0, 0.0, 0.0, 0.0, 0.0, 0.0, 0.0, 0.0, 0.0, 1.6689762599042168E9, 0.0, 2022-11-20 15:30:59.904
12.0, -33542.14531685654, -6620.854928595416, -52875.443145685575, -52811.40539782112, -40759.30008403064, -43513.7726084915, -40895.66807695247, -23274.8938530557, -42231.49773257944, -14947.594994019866, -45650.55467492994, -49287.831698397604, -42546.344404976895, -28355.445367746994, -41012.99238359838, -50739.68925949207, 0.022, 0.9500000000000001, -0.098, 192.0, 0.0, 0.0, 0.0, 0.0, 0.0, 0.0, 0.0, 0.0, 0.0, 1.668976259904222E9, 0.0, 2022-11-20 15:30:59.904
14.0, -33542.70411046792, -6734.155921239367, -52865.18369498059, -52780.80585966181, -40738.11063028701, -43482.636628465254, -40876.15500404299, -23251.7374458, -42348.46441131406, -15069.233187345648, -45768.43777518723, -49408.55347020072, -42659.466583665206, -28469.416912724606, -41121.33128897325, -50848.34108928932, 0.022, 0.9500000000000001, -0.098, 192.0, 0.0, 0.0, 0.0, 0.0, 0.0, 0.0, 0.0, 0.0, 0.0, 1.6689762599042282E9, 0.0, 2022-11-20 15:30:59.904
16.0, -33517.73721191135, -6604.44874816522, -52868.737622348985, -52802.28588608335, -40744.48087745677, -43491.42086403619, -40884.04516983571, -23262.242765693994, -42253.51420086792, -14982.10608745886, -45672.39232926277, -49316.39722781149, -42567.265637787066, -28374.623164489647, -41034.561816997746, -50756.65423353365, 0.022, 0.9500000000000001, -0.098, 192.0, 0.0, 0.0, 0.0, 0.0, 0.0, 0.0, 0.0, 0.0, 0.0, 1.6689762599042335E9, 0.0, 2022-11-20 15:30:59.904
18.0, -33524.286273036756, -6713.189984940289, -52870.16813399412, -52789.321874299276, -40739.09410704304, -43484.69298895514, -40883.844004135615, -23261.683972082614, -42332.080582628325, -15054.16811158277, -45754.60204536939, -49397.109377039604, -42654.34803418494, -28461.146767276143, -41129.69084139953, -50851.13505734623, 0.02, 0.9520000000000001, -0.106, 192.0, 0.0, 80.0, 14.5, 96.0, 126.0, 88.0, 0.0, 0.0, 0.0, 1.6689762599042387E9, 0.0, 2022-11-20 15:30:59.904
20.0, -33483.74020859483, -6579.504201353097, -52843.10017145875, -52767.28305426634, -40721.81620857909, -43462.788279388944, -40862.67690213644, -23238.639323549192, -42220.92535745208, -14946.05272365245, -45636.674241623194, -49279.78507039369, -42542.54460841949, -28347.957533354467, -41030.20322682896, -50746.484189806484, 0.02, 0.9520000000000001, -0.106, 192.0, 0.0, 0.0, 0.0, 0.0, 0.0, 0.0, 0.0, 0.0, 0.0, 1.6689762599042437E9, 0.0, 2022-11-20 15:30:59.904
22.0, -33559.087939153666, -6731.898395049381, -52901.37116925373, -52807.426787308075, -40778.63434298448, -43512.25268986853, -40913.057734138696, -23284.5945101493, -42335.70156523008, -15056.090361605928, -45756.0996122479, -49392.30375198171, -42664.003987789634, -28462.68903764356, -41142.364280505695, -50854.46546727008, 0.02, 0.9520000000000001, -0.106, 192.0, 0.0, 0.0, 0.0, 0.0, 0.0, 0.0, 0.0, 0.0, 0.0, 1.6689762599042492E9, 0.0, 2022-11-20 15:30:59.904
24.0, -33480.901537049, -6585.4274136337535, -52833.846549254245, -52757.89532159511, -40722.9114440574, -43462.162430544195, -40854.384404943514, -23227.84343097728, -42248.3732996432, -14980.228540924614, -45663.742204158574, -49307.45653002936, -42566.95271336469, -28371.873899921644, -41045.49182003639, -50760.699899280065, 0.02, 0.9520000000000001, -0.106, 192.0, 0.0, 0.0, 0.0, 0.0, 0.0, 0.0, 0.0, 0.0, 0.0, 1.6689762599042544E9, 0.0, 2022-11-20 15:30:59.904
26.0, -33524.39803175903, -6687.351368349954, -52871.35277645025, -52791.37823478917, -40759.63536019747, -43498.95340191763, -40893.23173680684, -23265.88610004021, -42309.8853003842, -15036.487881718622, -45735.31248990446, -49376.4563651629, -42638.1653711993, -28444.87469731268, -41109.17193998956, -50828.0457053239, 0.02, 0.9520000000000001, -0.106, 192.0, 0.0, 0.0, 0.0, 0.0, 0.0, 0.0, 0.0, 0.0, 0.0, 1.6689762599042594E9, 0.0, 2022-11-20 15:30:59.904
28.0, -33442.255370885774, -6569.311805881478, -52802.73292097246, -52736.5494056403, -40686.38869361743, -43434.22274997506, -40824.611881329045, -23199.791991685866, -42214.19748237103, -14948.153787631249, -45630.326346197886, -49278.62277968202, -42533.55920714846, -28348.22575428793, -41013.662935932036, -50734.70482047854, 0.018000000000000002, 0.9560000000000001, -0.096, 192.0, 0.0, 72.0, 14.5, 112.0, 126.5, 0.0, 0.0, 0.0, 0.0, 1.6689762599042645E9, 0.0, 2022-11-20 15:30:59.904
30.0, -33544.916933169, -6696.56028706554, -52897.124337807225, -52823.87767122718, -40779.61781974052, -43524.74731501905, -40919.04800165272, -23292.66348989767, -42297.122454300224, -15027.97186708115, -45719.57686180793, -49364.16290571248, -42626.1624844268, -28441.276066455375, -41095.51502412737, -50822.077789554336, 0.018000000000000002, 0.9560000000000001, -0.096, 192.0, 0.0, 0.0, 0.0, 0.0, 0.0, 0.0, 0.0, 0.0, 0.0, 1.6689762599042697E9, 0.0, 2022-11-20 15:30:59.904
32.0, -33472.16200496698, -6606.192184232734, -52822.20129039303, -52751.88270233664, -40708.31575492809, -43454.74165138503, -40850.003463030276, -23226.390567587685, -42251.99428224496, -14991.49382013009, -45660.79177389047, -49309.445835285886, -42573.47942274564, -28390.179978630542, -41045.111840380654, -50770.109983695744, 0.018000000000000002, 0.9560000000000001, -0.096, 192.0, 0.0, 0.0, 0.0, 0.0, 0.0, 0.0, 0.0, 0.0, 0.0, 1.6689762599042747E9, 0.0, 2022-11-20 15:30:59.904
34.0, -33569.146224158554, -6695.397996353865, -52911.451806003075, -52833.153645176135, -40796.49338680427, -43539.87944601529, -40934.62716753807, -23308.197952294107, -42316.09908534278, -15042.20992829918, -45731.22212066915, -49370.756670326795, -42641.58518810096, -28459.179813764076, -41100.87944279664, -50827.241042523514, 0.018000000000000002, 0.9560000000000001, -0.096, 192.0, 0.0, 0.0, 0.0, 0.0, 0.0, 0.0, 0.0, 0.0, 0.0, 1.66897625990428E9, 0.0, 2022-11-20 15:30:59.904
36.0, -33471.11147297758, -6621.145501273335, -52818.9155839581, -52734.716562594964, -40703.599536848014, -43445.42097394717, -40845.55546588367, -23214.834715704288, -42275.06128252283, -15005.284846459013, -45682.964704390135, -49324.86853896005, -42594.06537938898, -28404.216874148475, -41056.66769226405, -50776.4355273766, 0.018000000000000002, 0.9560000000000001, -0.096, 192.0, 0.0, 0.0, 0.0, 0.0, 0.0, 0.0, 0.0, 0.0, 0.0, 1.6689762599042864E9, 0.0, 2022-11-20 15:30:59.904
38.0, -33544.69341572445, -6655.567187734508, -52899.22540178602, -52813.998200177935, -40786.233936099285, -43521.84158823986, -40923.71951624388, -23292.305861986384, -42295.35666648825, -15025.870803102353, -45716.62643153983, -49351.98120498434, -42625.9613187267, -28434.078804740766, -41081.72399779844, -50799.86015556576, 0.016, 0.9580000000000001, -0.096, 192.0, 0.0, 64.0, 14.5, 120.0, 126.5, 0.0, 0.0, 0.0, 0.0, 1.6689762599042916E9, 0.0, 2022-11-20 15:30:59.904
40.0, -33456.58283908163, -6609.612001134396, -52807.35973207471, -52717.036332730815, -40696.134054199945, -43428.07602024985, -40835.92186402343, -23203.949416154555, -42262.11962248321, -14989.772735807031, -45672.70525368515, -49311.07751263112, -42584.83410892893, -28387.117789640164, -41057.69587250899, -50768.2324371615, 0.016, 0.9580000000000001, -0.096, 192.0, 0.0, 0.0, 0.0, 0.0, 0.0, 0.0, 0.0, 0.0, 0.0, 1.6689762599042969E9, 0.0, 2022-11-20 15:30:59.904
42.0, -33562.999494433345, -6655.522484245597, -52911.1388815807, -52830.80671200833, -40798.817968227624, -43533.9785854791, -40938.20344665092, -23309.024966838955, -42288.33821872929, -15000.501573145579, -45700.376713320824, -49327.93072795043, -42608.66106851829, -28410.96710097398, -41076.51604134036, -50786.87379203723, 0.016, 0.9580000000000001, -0.096, 192.0, 0.0, 0.0, 0.0, 0.0, 0.0, 0.0, 0.0, 0.0, 0.0, 1.668976259904302E9, 0.0, 2022-11-20 15:30:59.904
44.0, -33466.08233047513, -6636.478797969676, -52811.338342587755, -52724.12183572315, -40692.02133322017, -43427.204302216094, -40834.98309075631, -23204.59761674376, -42300.85519562426, -15027.189556025214, -45710.14442564779, -49344.873350247544, -42612.52792030906, -28421.986510990446, -41089.68121882453, -50799.23430672101, 0.016, 0.9580000000000001, -0.096, 192.0, 0.0, 0.0, 0.0, 0.0, 0.0, 0.0, 0.0, 0.0, 0.0, 1.6689762599043071E9, 0.0, 2022-11-20 15:30:59.904
46.0, -33555.243439107355, -6638.535158459564, -52910.60243971377, -52834.29358414336, -40788.469110544815, -43531.4751901001, -40931.74379250334, -23306.275702270952, -42268.668683608616, -14992.142020719293, -45693.67118998423, -49323.57213778164, -42590.75732120959, -28400.797057246815, -41059.305198109774, -50776.56963784333, 0.016, 0.9580000000000001, -0.096, 192.0, 0.0, 0.0, 0.0, 0.0, 0.0, 0.0, 0.0, 0.0, 0.0, 1.6689762599043121E9, 0.0, 2022-11-20 15:30:59.904
48.0, -33467.17756595345, -6650.98508012117, -52814.64640076714, -52724.792388056805, -40682.92417322686, -43429.12655223925, -40830.7362593098, -23204.731727210492, -42307.672477683125, -15034.40916948428, -45722.08025718692, -49362.933559767436, -42618.45113258972, -28435.174040219074, -41092.07285548125, -50814.3440859728, 0.018000000000000002, 0.9520000000000001, -0.10400000000000001, 192.0, 0.0, 72.0, 14.5, 96.0, 126.0, 96.0, 0.0, 0.0, 0.0, 1.6689762599043171E9, 0.0, 2022-11-20 15:30:59.904
50.0, -33538.881962166066, -6610.237849979145, -52897.01257908495, -52817.12744440168, -40771.52648824769, -43520.72400101709, -40914.600004506116, -23291.098867785797, -42244.908779252626, -14971.041973953483, -45661.775250646504, -49300.39337878149, -42562.52706796254, -28380.211100603476, -41024.32471803722, -50748.65230901865, 0.018000000000000002, 0.9520000000000001, -0.10400000000000001, 192.0, 0.0, 0.0, 0.0, 0.0, 0.0, 0.0, 0.0, 0.0, 0.0, 1.6689762599043224E9, 0.0, 2022-11-20 15:30:59.904
52.0, -33464.227135685345, -6649.152237075835, -52809.93018268707, -52718.39978914259, -40683.05828369359, -43431.71935459606, -40826.780000541214, -23202.54125625387, -42317.820169665836, -15052.022344115061, -45725.70123978869, -49368.454440647896, -42634.834961275454, -28450.35087470423, -41094.48684388243, -50820.78138837593, 0.018000000000000002, 0.9520000000000001, -0.10400000000000001, 192.0, 0.0, 0.0, 0.0, 0.0, 0.0, 0.0, 0.0, 0.0, 0.0, 1.6689762599043276E9, 0.0, 2022-11-20 15:30:59.904
54.0, -33514.65267117652, -6576.576122829452, -52868.64821537116, -52798.35197905922, -40750.31468275961, -43505.435407809666, -40890.86245189458, -23270.46820765355, -42220.23245337397, -14958.837921480887, -45640.89872132525, -49277.974579092814, -42550.56888467895, -28368.275269064343, -41001.61534567062, -50740.695087992564, 0.018000000000000002, 0.9520000000000001, -0.10400000000000001, 192.0, 0.0, 0.0, 0.0, 0.0, 0.0, 0.0, 0.0, 0.0, 0.0, 1.6689762599043329E9, 0.0, 2022-11-20 15:30:59.904
56.0, -33473.234888700834, -6654.31549004501, -52816.21102287901, -52727.00521075788, -40695.12822569945, -43441.21884598957, -40838.51466638025, -23212.420727303117, -42303.47034972553, -15037.449006730201, -45715.93352746171, -49353.88110326303, -42627.61534781639, -28445.43349092406, -41087.624858334646, -50821.96603083206, 0.018000000000000002, 0.9520000000000001, -0.10400000000000001, 192.0, 0.0, 0.0, 0.0, 0.0, 0.0, 0.0, 0.0, 0.0, 0.0, 1.668976259904338E9, 0.0, 2022-11-20 15:30:59.904
58.0, -33509.02003157378, -6563.925035467749, -52868.312939204334, -52791.24412432243, -40750.58290369307, -43492.18082334767, -40890.99656236131, -23265.349658173283, -42218.39961032863, -14949.6290027653, -45636.09309626736, -49269.2797504997, -42547.37258522184, -28361.905021894578, -41015.27226153282, -50734.548358267355, 0.02, 0.9510000000000001, -0.11000000000000001, 192.0, 0.0, 88.0, 14.5, 88.0, 126.0, 48.0, 0.0, 0.0, 0.0, 1.6689762599043431E9, 0.0, 2022-11-20 15:30:59.904
60.0, -33486.869452818566, -6660.484571514675, -52832.05840969782, -52734.49304515041, -40706.66172583839, -43441.97880530105, -40849.33291069662, -23219.97561692901, -42309.505320728465, -15043.59573645541, -45725.745943277594, -49359.424335887954, -42633.62796707487, -28448.67449387008, -41106.914413799575, -50816.422798207146, 0.02, 0.9510000000000001, -0.11000000000000001, 192.0, 0.0, 0.0, 0.0, 0.0, 0.0, 0.0, 0.0, 0.0, 0.0, 1.6689762599043484E9, 0.0, 2022-11-20 15:30:59.904
62.0, -33510.13761879654, -6565.53436106853, -52870.056375271844, -52786.84083066474, -40751.432269982375, -43492.89607917024, -40892.292963539716, -23269.55178613088, -42222.40057258613, -14956.781560990998, -45639.356450957835, -49270.75496563375, -42548.80309686698, -28363.357885284175, -41023.05066860327, -50731.64263148816, 0.02, 0.9510000000000001, -0.11000000000000001, 192.0, 0.0, 0.0, 0.0, 0.0, 0.0, 0.0, 0.0, 0.0, 0.0, 1.6689762599043543E9, 0.0, 2022-11-20 15:30:59.904
64.0, -33538.92666565498, -6701.634133056896, -52881.63457889969, -52781.47641199546, -40761.69172068736, -43499.8698234403, -40900.540757243725, -23274.536225144413, -42339.702527487585, -15066.439219288734, -45756.77016458156, -49385.35235945611, -42671.33535997097, -28480.704543674536, -41140.93376886055, -50854.10783935879, 0.02, 0.9510000000000001, -0.11000000000000001, 192.0, 0.0, 0.0, 0.0, 0.0, 0.0, 0.0, 0.0, 0.0, 0.0, 1.6689762599043596E9, 0.0, 2022-11-20 15:30:59.904
66.0, -33512.39514498653, -6568.797715759006, -52856.80179080985, -52774.502667725406, -40743.944435589845, -43488.20221283462, -40875.97619008734, -23255.246669679484, -42247.36747114271, -14972.092505942883, -45655.44970696565, -49284.56834370713, -42572.74181517861, -28380.9487081705, -41040.82030544523, -50756.81069574484, 0.02, 0.9510000000000001, -0.11000000000000001, 192.0, 0.0, 0.0, 0.0, 0.0, 0.0, 0.0, 0.0, 0.0, 0.0, 1.6689762599043646E9, 0.0, 2022-11-20 15:30:59.904
68.0, -33544.35813955762, -6702.438795857286, -52868.737622348985, -52770.233484534445, -40750.42644148188, -43488.53748900146, -40880.51359421177, -23257.951230758576, -42349.17966713663, -15072.094210635927, -45763.63215012934, -49388.43690019094, -42675.962171073224, -28479.40814249613, -41127.880350098654, -50854.219598081065, 0.020999999999999998, 0.9515, -0.11000000000000001, 192.0, 0.0, 88.0, 14.5, 96.0, 126.0, 72.0, 0.0, 0.0, 0.0, 1.6689762599043713E9, 0.0, 2022-11-20 15:30:59.904
70.0, -33488.21055748589, -6558.650023776296, -52834.53945333236, -52749.759286613385, -40718.88813005545, -43454.808706618394, -40849.37761418553, -23227.06111992134, -42232.61531980221, -14952.221805122115, -45643.13389577078, -49269.34680573307, -42549.58540792292, -28351.354998511673, -41008.49968296286, -50734.3248408228, 0.020999999999999998, 0.9515, -0.11000000000000001, 192.0, 0.0, 0.0, 0.0, 0.0, 0.0, 0.0, 0.0, 0.0, 0.0, 1.6689762599043765E9, 0.0, 2022-11-20 15:30:59.904
72.0, -33537.67496796548, -6687.619589283418, -52882.46159344454, -52784.67271145257, -40758.51777297471, -43490.258573324514, -40893.477605995846, -23267.98716401901, -42334.36046056276, -15048.133140579837, -45752.165705223764, -49375.4058331735, -42658.416051675806, -28461.414988209606, -41116.972698804464, -50840.62973745224, 0.020999999999999998, 0.9515, -0.11000000000000001, 192.0, 0.0, 0.0, 0.0, 0.0, 0.0, 0.0, 0.0, 0.0, 0.0, 1.6689762599043815E9, 0.0, 2022-11-20 15:30:59.904
74.0, -33460.516746105764, -6543.249671846589, -52820.18963339205, -52737.085847507224, -40699.21859493478, -43435.228578475544, -40833.574930855626, -23211.25843659144, -42217.81846497279, -14945.67274399671, -45632.60622413233, -49262.86479984102, -42541.47172468564, -28353.61252470166, -41013.59588069867, -50732.53670126638, 0.020999999999999998, 0.9515, -0.11000000000000001, 192.0, 0.0, 0.0, 0.0, 0.0, 0.0, 0.0, 0.0, 0.0, 0.0, 1.6689762599043863E9, 0.0, 2022-11-20 15:30:59.904
76.0, -33546.570962258695, -6682.65750201434, -52886.68607314659, -52801.481223282964, -40767.16789807891, -43507.51412004401, -40900.63016422155, -23277.509007156972, -42312.791027163395, -15040.846471887407, -45731.490341602606, -49360.85484753309, -42640.48995262265, -28462.845499854746, -41104.388666676125, -50829.833844880326, 0.020999999999999998, 0.9515, -0.11000000000000001, 192.0, 0.0, 0.0, 0.0, 0.0, 0.0, 0.0, 0.0, 0.0, 0.0, 1.6689762599043915E9, 0.0, 2022-11-20 15:30:59.904
78.0, -33469.70331307689, -6572.463401849676, -52795.82623193577, -52726.20054795749, -40687.39452211792, -43442.42584019015, -40822.801390028166, -23205.916369666622, -42240.281968150375, -14973.232444910103, -45642.86567483732, -49281.41674773893, -42551.239437012606, -28381.373391315152, -41013.48412197639, -50746.41713457312, 0.0225, 0.95275, -0.10900000000000001, 192.0, 0.0, 96.0, 14.5, 104.0, 126.0, 80.0, 0.0, 0.0, 0.0, 1.6689762599043968E9, 0.0, 2022-11-20 15:30:59.904
80.0, -33543.93345641297, -6670.542856519563, -52865.80954382534, -52787.26551380939, -40758.7189386748, -43510.889233456764, -40890.03543734973, -23274.17859723313, -42298.06122756735, -15036.5996404409, -45716.581728050915, -49350.416582872465, -42621.781542513556, -28457.481081185473, -41062.74736675589, -50808.30911496987, 0.0225, 0.95275, -0.10900000000000001, 192.0, 0.0, 0.0, 0.0, 0.0, 0.0, 0.0, 0.0, 0.0, 0.0, 1.6689762599044018E9, 0.0, 2022-11-20 15:30:59.904
82.0, -33440.98132145182, -6559.588797043419, -52778.21305730499, -52702.351236623676, -40673.268219622165, -43422.309270180376, -40807.24457588728, -23189.711354936524, -42209.99535441343, -14964.917595972729, -45622.65969784972, -49265.055270797646, -42525.69139310019, -28366.487129507917, -40985.49973791835, -50727.619317486206, 0.0225, 0.95275, -0.10900000000000001, 192.0, 0.0, 0.0, 0.0, 0.0, 0.0, 0.0, 0.0, 0.0, 0.0, 1.668976259904407E9, 0.0, 2022-11-20 15:30:59.904
84.0, -33561.47957581039, -6661.199827337245, -52902.55581170986, -52819.27321186939, -40796.60514552655, -43540.57235009341, -40933.01784193729, -23315.104641330796, -42287.62296290672, -15024.529698435033, -45708.71391400265, -49340.827684501135, -42614.67368777677, -28450.842613082244, -41071.263381393364, -50809.15848125917, 0.0225, 0.95275, -0.10900000000000001, 192.0, 0.0, 0.0, 0.0, 0.0, 0.0, 0.0, 0.0, 0.0, 0.0, 1.6689762599044123E9, 0.0, 2022-11-20 15:30:59.904
86.0, -33436.22039988284, -6563.545055812008, -52779.57651371676, -52694.19284989749, -40670.76482424317, -43413.97206949855, -40810.66439278894, -23193.935834638578, -42250.072032221804, -14985.794125293985, -45658.221323278114, -49293.10671008906, -42567.8467831429, -28400.81940899127, -41040.95441591197, -50770.42290811812, 0.0225, 0.95275, -0.10900000000000001, 192.0, 0.0, 0.0, 0.0, 0.0, 0.0, 0.0, 0.0, 0.0, 0.0, 1.6689762599044173E9, 0.0, 2022-11-20 15:30:59.904
88.0, -33530.03067136177, -6623.090103040946, -52872.20214273955, -52789.27717081037, -40765.8714969005, -43499.26632634, -40900.116074099074, -23281.46526592556, -42256.285817180375, -14986.285863672003, -45672.39232926277, -49304.17082359443, -42589.30445782, -28410.72123178497, -41052.242046861895, -50779.02832973342, 0.021249999999999998, 0.9533750000000001, -0.10750000000000001, 192.0, 0.0, 80.0, 14.5, 104.0, 126.0, 88.0, 0.0, 0.0, 0.0, 1.6689762599044223E9, 0.0, 2022-11-20 15:30:59.904
90.0, -33446.72571977684, -6586.388538645332, -52770.926388612555, -52688.18023063901, -40667.389710830415, -43401.142168181206, -40801.477825817805, -23182.000003099445, -42236.90685473762, -14979.736802546598, -45641.94925331465, -49282.1320035615, -42560.51541096156, -28383.541510527317, -41026.06815410473, -50750.060468919335, 0.021249999999999998, 0.9533750000000001, -0.10750000000000001, 192.0, 0.0, 0.0, 0.0, 0.0, 0.0, 0.0, 0.0, 0.0, 0.0, 1.6689762599044275E9, 0.0, 2022-11-20 15:30:59.904
92.0, -33552.31536058371, -6619.245602994633, -52869.855209571746, -52789.657150466104, -40767.88315390148, -43506.195367121145, -40900.42899852145, -23283.119295015254, -42266.18763997408, -15000.188648723204, -45678.13672758779, -49306.7412742068, -42593.461882288684, -28417.180885932554, -41035.27707282032, -50769.506486595455, 0.021249999999999998, 0.9533750000000001, -0.10750000000000001, 192.0, 0.0, 0.0, 0.0, 0.0, 0.0, 0.0, 0.0, 0.0, 0.0, 1.6689762599044325E9, 0.0, 2022-11-20 15:30:59.904
94.0, -33460.941429250415, -6606.482756910653, -52774.48031598095, -52678.792497967785, -40661.98058867223, -43402.01388621496, -40797.61097402704, -23178.40137224214, -42276.156518001146, -15012.01272154006, -45676.30388454245, -49310.45166378638, -42584.40942578428, -28410.47536259596, -41034.338299553194, -50765.8855039937, 0.021249999999999998, 0.9533750000000001, -0.10750000000000001, 192.0, 0.0, 0.0, 0.0, 0.0, 0.0, 0.0, 0.0, 0.0, 0.0, 1.6689762599044375E9, 0.0, 2022-11-20 15:30:59.904
96.0, -33543.68758722396, -6603.085291753447, -52874.63848288518, -52791.64645572263, -40756.93079911838, -43503.98254442007, -40892.58353621764, -23279.163036246664, -42248.1721339431, -14981.636700825298, -45662.5799134469, -49293.509041489255, -42564.22580054114, -28392.392801331618, -41012.76886615382, -50742.90791069364, 0.021249999999999998, 0.9533750000000001, -0.10750000000000001, 192.0, 0.0, 0.0, 0.0, 0.0, 0.0, 0.0, 0.0, 0.0, 0.0, 1.6689762599044428E9, 0.0, 2022-11-20 15:30:59.904
98.0, -33469.189222954425, -6630.354419988921, -52803.40347330612, -52717.170443197545, -40683.617077304974, -43431.674651107154, -40823.67310806193, -23208.799744701355, -42278.525802913406, -15032.397512483301, -45694.96759116263, -49334.77036175375, -42595.71940847867, -28433.184734962553, -41058.88051496512, -50792.90876304016, 0.019625, 0.9556875, -0.10275000000000001, 192.0, 0.0, 72.0, 14.5, 120.0, 126.0, 120.0, 0.0, 0.0, 0.0, 1.6689762599044478E9, 0.0, 2022-11-20 15:30:59.904
100.0, -33528.57780797217, -6576.866695507371, -52880.271122487924, -52810.89130769865, -40766.653807956434, -43517.70651551563, -40903.692353211925, -23292.84230385331, -42227.92145346659, -14977.009889723051, -45653.818029620415, -49288.122271075525, -42559.777803394536, -28401.48996132493, -41022.22365405842, -50763.560922570345, 0.019625, 0.9556875, -0.10275000000000001, 192.0, 0.0, 0.0, 0.0, 0.0, 0.0, 0.0, 0.0, 0.0, 0.0, 1.6689762599044545E9, 0.0, 2022-11-20 15:30:59.904
102.0, -33466.41760664196, -6625.817015864493, -52805.63864775165, -52722.60191710018, -40684.06411219408, -43427.98661327203, -40820.432105115906, -23205.11170686623, -42283.57729716031, -15038.052503830493, -45702.27661159952, -49344.20279791389, -42612.03618193104, -28451.915496816102, -41078.57240183025, -50818.09917904129, 0.019625, 0.9556875, -0.10275000000000001, 192.0, 0.0, 0.0, 0.0, 0.0, 0.0, 0.0, 0.0, 0.0, 0.0, 1.6689762599044597E9, 0.0, 2022-11-20 15:30:59.904
104.0, -33517.267825277784, -6558.672375520751, -52864.13316299119, -52798.57549650377, -40756.10378457353, -43494.57246000439, -40884.536908213726, -23268.881233797223, -42211.3141073363, -14952.333563844391, -45628.64996536374, -49268.29627374367, -42544.399803209286, -28378.42296104705, -40998.128473535595, -50739.26457634742, 0.019625, 0.9556875, -0.10275000000000001, 192.0, 0.0, 0.0, 0.0, 0.0, 0.0, 0.0, 0.0, 0.0, 0.0, 1.6689762599044645E9, 0.0, 2022-11-20 15:30:59.904
106.0, -33490.13280750904, -6652.2814812995775, -52812.61239202171, -52732.81666431626, -40705.432379893355, -43443.923407068665, -40839.25227394728, -23221.74140474098, -42299.53644270139, -15051.97764062615, -45718.213405396156, -49358.798487043205, -42636.734859554155, -28466.913517345612, -41089.25653567988, -50830.794969891904, 0.019625, 0.9556875, -0.10275000000000001, 192.0, 0.0, 0.0, 0.0, 0.0, 0.0, 0.0, 0.0, 0.0, 0.0, 1.6689762599044695E9, 0.0, 2022-11-20 15:30:59.904
108.0, -33516.641976433035, -6551.899796950794, -52844.46362787052, -52777.47544973796, -40744.19030477885, -43488.20221283462, -40882.48054772384, -23267.9424605301, -42207.40255205662, -14951.10421789935, -45626.95123278513, -49262.46246844083, -42543.10340203088, -28369.214042331463, -40997.01088631283, -50738.05758214684, 0.0218125, 0.95684375, -0.101375, 192.0, 0.0, 96.0, 14.5, 120.0, 126.0, 112.0, 0.0, 0.0, 0.0, 1.6689762599044747E9, 0.0, 2022-11-20 15:30:59.904
110.0, -33515.16676129899, -6670.676966986295, -52825.93403171707, -52732.77196082735, -40721.10095275652, -43457.91559909769, -40862.654550391984, -23244.56253582985, -42318.80364642187, -15057.587928484432, -45735.401896882286, -49367.0015772583, -42649.028319004574, -28469.215747024507, -41104.20985272049, -50839.892129885215, 0.0218125, 0.95684375, -0.101375, 192.0, 0.0, 0.0, 0.0, 0.0, 0.0, 0.0, 0.0, 0.0, 0.0, 1.66897625990448E9, 0.0, 2022-11-20 15:30:59.904
112.0, -33515.25616827681, -6549.306994593978, -52838.33924988977, -52747.76998135686, -40739.339976232055, -43477.20515456262, -40881.47471922335, -23266.75781807397, -42220.075991162776, -14951.730066744098, -45629.3205176974, -49256.89688407146, -42545.36092822086, -28360.250992804886, -40997.90495609104, -50730.5250442654, 0.0218125, 0.95684375, -0.101375, 192.0, 0.0, 0.0, 0.0, 0.0, 0.0, 0.0, 0.0, 0.0, 0.0, 1.6689762599044852E9, 0.0, 2022-11-20 15:30:59.904
114.0, -33519.25713053431, -6666.452487284242, -52832.81836900931, -52718.2433269314, -40722.33029870156, -43455.36750022978, -40864.62150390405, -23245.903640497167, -42326.00090813648, -15052.804655170996, -45736.69829806069, -49357.63619633153, -42648.04484224854, -28464.72304638899, -41099.51598638487, -50829.967955347056, 0.0218125, 0.95684375, -0.101375, 192.0, 0.0, 0.0, 0.0, 0.0, 0.0, 0.0, 0.0, 0.0, 0.0, 1.6689762599044902E9, 0.0, 2022-11-20 15:30:59.904
116.0, -33495.050191289214, -6537.259404332567, -52825.44229333905, -52732.66020210507, -40722.57616789057, -43455.41220371869, -40857.826573589635, -23244.56253582985, -42202.0604851318, -14935.14507235826, -45610.20977618811, -49237.6743838399, -42528.6865268572, -28347.46579497645, -40979.68828435997, -50710.140253322155, 0.0218125, 0.95684375, -0.101375, 192.0, 0.0, 0.0, 0.0, 0.0, 0.0, 0.0, 0.0, 0.0, 0.0, 1.6689762599044962E9, 0.0, 2022-11-20 15:30:59.904
118.0, -33526.67790969347, -6664.016147138614, -52840.1720929351, -52741.31032720928, -40737.2165605088, -43464.59877068982, -40872.35520748558, -23251.98331498901, -42314.95914637556, -15053.944594138216, -45724.40483861027, -49359.15611495449, -42647.66486259281, -28470.8697761142, -41093.905698526585, -50826.123455300745, 0.01990625, 0.960421875, -0.09968750000000001, 192.0, 0.0, 72.0, 15.0, 16.0, 126.0, 120.0, 0.0, 0.0, 0.0, 1.6689762599045012E9, 0.0, 2022-11-20 15:30:59.904
120.0, -33482.98024928335, -6534.040753131003, -52801.83885119425, -52729.128626481135, -40701.45376938031, -43440.52594191145, -40836.435954145905, -23221.674349507615, -42198.43950253004, -14953.026467922506, -45608.17576744268, -49251.5771688911, -42527.30071870097, -28364.207251573476, -40982.92928730599, -50714.94587838005, 0.01990625, 0.960421875, -0.09968750000000001, 192.0, 0.0, 0.0, 0.0, 0.0, 0.0, 0.0, 0.0, 0.0, 0.0, 1.6689762603848634E9, 0.0, 2022-11-20 15:31:00.384
122.0, -33525.336805026156, -6652.236777810666, -52825.93403171707, -52749.22284474646, -40719.15635098891, -43468.55502945841, -40861.58166665812, -23249.6363818212, -42282.79498610437, -15038.857166630885, -45702.03074241051, -49343.66635604696, -42607.454074317706, -28459.49273818645, -41057.15943064207, -50800.82128057734, 0.01990625, 0.960421875, -0.09968750000000001, 192.0, 0.0, 0.0, 0.0, 0.0, 0.0, 0.0, 0.0, 0.0, 0.0, 1.668976260384954E9, 0.0, 2022-11-20 15:31:00.384
124.0, -33468.92100202096, -6536.186520598712, -52780.76115617289, -52719.405617643075, -40678.43147259134, -43439.49776166651, -40823.136666195, -23217.896904694666, -42198.93124090806, -14958.323831358413, -45608.376933142776, -49255.28755847068, -42510.73807605959, -28369.348152798197, -40970.05468249973, -50725.9205849076, 0.01990625, 0.960421875, -0.09968750000000001, 192.0, 0.0, 0.0, 0.0, 0.0, 0.0, 0.0, 0.0, 0.0, 0.0, 1.6689762603849885E9, 0.0, 2022-11-20 15:31:00.384
126.0, -33545.90040992504, -6655.634242967873, -52854.25369194194, -52776.84960089321, -40744.860857112515, -43506.552995032434, -40888.06848383766, -23282.8957775707, -42285.36543671673, -15037.940745108217, -45704.86941395634, -49345.14157118101, -42607.96816444018, -28461.01265680941, -41060.10986091016, -50821.20607152058, 0.01990625, 0.960421875, -0.09968750000000001, 192.0, 0.0, 0.0, 0.0, 0.0, 0.0, 0.0, 0.0, 0.0, 0.0, 1.6689762603850195E9, 0.0, 2022-11-20 15:31:00.385
128.0, -33463.69069381842, -6542.8696921908495, -52783.13044108516, -52705.502832591876, -40676.486870823726, -43439.095430266316, -40812.40782885645, -23210.63258774669, -42209.660078246605, -14958.256776125048, -45617.809369302915, -49258.77443060571, -42526.51840764504, -28370.130463854133, -40988.137243764075, -50741.90208219315, 0.01990625, 0.960421875, -0.09968750000000001, 192.0, 0.0, 0.0, 0.0, 0.0, 0.0, 0.0, 0.0, 0.0, 0.0, 1.6689762603851378E9, 0.0, 2022-11-20 15:31:00.385
130.0, -33538.25611332132, -6638.557510204018, -52855.50538963144, -52759.99638557391, -40746.112554802006, -43495.80180594943, -40875.12682379804, -23268.54595763039, -42274.90482031165, -15022.78626236752, -45691.212498094144, -49319.88409994652, -42602.91667019328, -28432.15655471761, -41051.01270091685, -50800.08367301031, 0.018000000000000002, 0.9560000000000001, -0.10200000000000001, 192.0, 0.0, 72.0, 14.5, 112.0, 126.0, 104.0, 0.0, 0.0, 0.0, 1.6689762603851457E9, 0.0, 2022-11-20 15:31:00.385
132.0, -33444.66935928695, -6544.2778520915335, -52762.544484441816, -52670.45529728595, -40655.029196146636, -43400.53867108091, -40784.44579654286, -23176.769694896902, -42224.8145609873, -14968.784447763497, -45629.007593275026, -49255.48872417078, -42540.86822758534, -28359.692199193505, -40992.83111009969, -50734.74952396745, 0.018000000000000002, 0.9560000000000001, -0.10200000000000001, 192.0, 0.0, 0.0, 0.0, 0.0, 0.0, 0.0, 0.0, 0.0, 0.0, 1.6689762603851676E9, 0.0, 2022-11-20 15:31:00.385
134.0, -33529.42717426147, -6619.513823928097, -52847.212892438525, -52757.090658794725, -40739.67525239888, -43482.05548310941, -40872.46696620786, -23261.259288937963, -42261.20320096055, -14998.266398700047, -45677.04149210948, -49299.70047470337, -42582.44247227222, -28397.77957174535, -41026.04580236028, -50767.94186448358, 0.018000000000000002, 0.9560000000000001, -0.10200000000000001, 192.0, 0.0, 0.0, 0.0, 0.0, 0.0, 0.0, 0.0, 0.0, 0.0, 1.668976260385176E9, 0.0, 2022-11-20 15:31:00.385
136.0, -33420.48477178631, -6550.402230072288, -52742.02558303185, -52655.591387223176, -40628.40826850036, -43370.073243388324, -40769.380720779984, -23156.474310931484, -42207.17903461207, -14954.904014456752, -45614.814235545906, -49250.45958166833, -42517.46595114064, -28332.37836746912, -40975.35204593564, -50708.4191689991, 0.018000000000000002, 0.9560000000000001, -0.10200000000000001, 192.0, 0.0, 0.0, 0.0, 0.0, 0.0, 0.0, 0.0, 0.0, 0.0, 1.6689762603851855E9, 0.0, 2022-11-20 15:31:00.385
138.0, -33536.33386329816, -6631.337896744954, -52860.690994345074, -52792.1605458451, -40741.19517102184, -43491.13029135827, -40888.47081523786, -23277.285489712416, -42242.472439107, -14988.185761950705, -45660.9258843572, -49298.62759096952, -42559.80015513899, -28376.456007534984, -41014.22172954342, -50747.400611329154, 0.018000000000000002, 0.9560000000000001, -0.10200000000000001, 192.0, 0.0, 0.0, 0.0, 0.0, 0.0, 0.0, 0.0, 0.0, 0.0, 1.668976260385198E9, 0.0, 2022-11-20 15:31:00.385
140.0, -33436.84624872759, -6594.7033875827065, -52756.86714135017, -52695.10927142016, -40634.689108692306, -43385.94298195159, -40783.68583723138, -23170.131226793674, -42234.15759016962, -14989.616273595844, -45643.44682019315, -49293.71020718935, -42540.10826827386, -28366.46477776346, -41007.426799229004, -50742.68439324909, 0.012, 0.9560000000000001, -0.098, 192.0, 0.0, 48.0, 14.5, 112.0, 126.0, 120.0, 0.0, 0.0, 0.0, 1.66897626038521E9, 0.0, 2022-11-20 15:31:00.385
142.0, -33531.50588649582, -6623.335972229955, -52845.71532556001, -52797.12263311418, -40725.8618743255, -43484.96120988861, -40870.835288862625, -23261.79573080489, -42231.87771223518, -14979.669747313232, -45646.531360927984, -49293.911372889444, -42534.16270424875, -28370.085760365222, -40995.51331943433, -50738.03523040238, 0.012, 0.9560000000000001, -0.098, 192.0, 0.0, 0.0, 0.0, 0.0, 0.0, 0.0, 0.0, 0.0, 0.0, 1.6689762603852222E9, 0.0, 2022-11-20 15:31:00.385
144.0, -33472.49728113381, -6650.091010342957, -52775.44144099253, -52712.05189371728, -40649.709480966274, -43408.78646478492, -40792.35831408004, -23179.96599435401, -42262.81252656133, -15010.761023850564, -45668.25725653854, -49322.298088347685, -42539.348308962384, -28385.642574506113, -41009.90784286354, -50754.530817810395, 0.012, 0.9560000000000001, -0.098, 192.0, 0.0, 0.0, 0.0, 0.0, 0.0, 0.0, 0.0, 0.0, 0.0, 1.6689762603852344E9, 0.0, 2022-11-20 15:31:00.385
146.0, -33554.058796651225, -6642.379658505876, -52878.34887246476, -52813.238240866456, -40747.3195490026, -43510.4198468232, -40886.61562044807, -23275.81027457837, -42244.97583448599, -15000.568628378944, -45670.581837961894, -49319.68293424642, -42534.810904837956, -28379.205272102987, -41000.81068287024, -50748.36173634073, 0.012, 0.9560000000000001, -0.098, 192.0, 0.0, 0.0, 0.0, 0.0, 0.0, 0.0, 0.0, 0.0, 0.0, 1.6689762603852441E9, 0.0, 2022-11-20 15:31:00.385
148.0, -33446.30103663219, -6644.815998651505, -52775.21792354798, -52689.1860591395, -40636.365489526455, -43392.26852563245, -40778.187308095374, -23161.615212156205, -42266.768785329914, -15026.027265313538, -45687.05507362546, -49340.984146712326, -42556.31328300396, -28393.510388554383, -41036.685232721, -50780.19062044509, 0.012, 0.9560000000000001, -0.098, 192.0, 0.0, 0.0, 0.0, 0.0, 0.0, 0.0, 0.0, 0.0, 0.0, 1.6689762603852544E9, 0.0, 2022-11-20 15:31:00.385
150.0, -33533.87517140808, -6624.11828328589, -52875.51020091894, -52803.716397728494, -40745.553761190626, -43499.6686577402, -40881.944105856914, -23267.584832618813, -42201.88167117616, -14956.446284824167, -45629.65579386423, -49277.72870990381, -42505.77598879051, -28334.524134936826, -40991.15472926554, -50724.959459896025, 0.012, 0.9560000000000001, -0.096, 192.0, 0.0, 48.0, 14.5, 112.0, 126.5, 0.0, 0.0, 0.0, 0.0, 1.6689762603852627E9, 0.0, 2022-11-20 15:31:00.385
152.0, -33476.83351955814, -6684.490345059675, -52796.47443252498, -52715.11408270766, -40665.31099859608, -43415.939023010615, -40804.16003515244, -23187.856160146734, -42291.42275946412, -15050.770646425564, -45709.80914948096, -49363.49235337882, -42589.66208573128, -28414.38691787564, -41075.1972884175, -50807.83972833631, 0.012, 0.9560000000000001, -0.096, 192.0, 0.0, 0.0, 0.0, 0.0, 0.0, 0.0, 0.0, 0.0, 0.0, 1.6689762603852732E9, 0.0, 2022-11-20 15:31:00.385
154.0, -33505.62256641657, -6595.239829449633, -52827.275136384385, -52766.09841181021, -40702.66076358089, -43457.468564208575, -40838.71583208035, -23224.803593731358, -42199.40062754162, -14950.925403943707, -45619.03871524796, -49270.24087551128, -42497.63995380878, -28318.877913818113, -40970.41231041102, -50710.5202329779, 0.012, 0.9560000000000001, -0.096, 192.0, 0.0, 0.0, 0.0, 0.0, 0.0, 0.0, 0.0, 0.0, 0.0, 1.6689762603852851E9, 0.0, 2022-11-20 15:31:00.385
156.0, -33491.51861566527, -6694.839202742482, -52794.283961568355, -52716.56694609725, -40660.10304213799, -43414.128531709735, -40797.52156704922, -23183.475218233492, -42279.732797114, -15031.25757351608, -45697.09100688589, -49350.684803805925, -42575.33461753543, -28393.264519365373, -41039.993290900384, -50785.2868181809, 0.012, 0.9560000000000001, -0.096, 192.0, 0.0, 0.0, 0.0, 0.0, 0.0, 0.0, 0.0, 0.0, 0.0, 1.6689762603852968E9, 0.0, 2022-11-20 15:31:00.385
158.0, -33524.30862478121, -6613.635315136352, -52847.1234854607, -52788.42780452107, -40716.96588003229, -43478.05452085192, -40852.171582242445, -23242.729692784513, -42209.593023013236, -14959.977860448107, -45633.70145961064, -49286.69175943038, -42509.12875045881, -28329.07030928973, -40973.09451974565, -50725.85352967424, 0.012, 0.9560000000000001, -0.096, 192.0, 0.0, 0.0, 0.0, 0.0, 0.0, 0.0, 0.0, 0.0, 0.0, 1.6689762603853064E9, 0.0, 2022-11-20 15:31:00.385
160.0, -33506.53898793924, -6715.849842530471, -52816.47924381247, -52740.952699297995, -40680.1525569144, -43440.3024244669, -40817.638137058995, -23203.703546965546, -42297.2342130225, -15053.855187160396, -45722.683754287216, -49374.28824595073, -42598.42396955776, -28420.39953713412, -41063.19440164499, -50817.76390287446, 0.02, 0.9560000000000001, -0.098, 192.0, 0.0, 80.0, 14.5, 112.0, 126.0, 120.0, 0.0, 0.0, 0.0, 1.6689762603853145E9, 0.0, 2022-11-20 15:31:00.385
162.0, -33486.243603973824, -6581.940541498726, -52811.74067398795, -52746.83120808974, -40683.90764998289, -43440.92827331165, -40818.10752369255, -23205.06700337732, -42198.77477869687, -14943.906956184741, -45613.629593089776, -49262.73068937429, -42493.41547410673, -28314.049937015767, -40966.29958943124, -50713.76123592392, 0.02, 0.9560000000000001, -0.098, 192.0, 0.0, 0.0, 0.0, 0.0, 0.0, 0.0, 0.0, 0.0, 0.0, 1.6689762603853226E9, 0.0, 2022-11-20 15:31:00.385
164.0, -33501.5098454368, -6703.109348190946, -52809.2149268645, -52724.61357410116, -40678.61028654698, -43428.72422083905, -40817.10169519207, -23199.032032374387, -42278.57050640232, -15022.473337945145, -45694.87818418482, -49339.03954494471, -42571.62422795585, -28392.459856564983, -41049.31396833825, -50784.01276874695, 0.02, 0.9560000000000001, -0.098, 192.0, 0.0, 0.0, 0.0, 0.0, 0.0, 0.0, 0.0, 0.0, 0.0, 1.6689762603853354E9, 0.0, 2022-11-20 15:31:00.385
166.0, -33488.38937144153, -6590.389500902832, -52813.72997924447, -52745.24423423341, -40688.26624015167, -43441.37530820075, -40824.85775051806, -23213.001872658955, -42200.49586301993, -14953.093523155872, -45617.049409991436, -49261.68015738489, -42490.26387813853, -28310.294843947275, -40972.06633950071, -50703.27826777438, 0.02, 0.9560000000000001, -0.098, 192.0, 0.0, 0.0, 0.0, 0.0, 0.0, 0.0, 0.0, 0.0, 0.0, 1.6689762603853436E9, 0.0, 2022-11-20 15:31:00.385
168.0, -33502.806246615204, -6695.04036844258, -52825.44229333905, -52736.616460873665, -40686.411045361885, -43432.61342437428, -40821.72850629431, -23207.480991778495, -42286.013637305936, -15032.799843883497, -45711.641992526296, -49355.82570503065, -42584.722350206655, -28400.707650268992, -41057.24883761988, -50791.36649267274, 0.02, 0.9560000000000001, -0.098, 192.0, 0.0, 0.0, 0.0, 0.0, 0.0, 0.0, 0.0, 0.0, 0.0, 1.6689762603853517E9, 0.0, 2022-11-20 15:31:00.385
170.0, -33449.34087387811, -6555.833703974928, -52795.02156913538, -52716.36578039715, -40657.823164203546, -43407.33360139532, -40787.37387506651, -23175.58505244077, -42169.24812427141, -14928.506604255033, -45591.88134573476, -49244.93870078787, -42474.908229697736, -28288.390134381072, -40943.813734509204, -50679.74188086294, 0.018000000000000002, 0.96, -0.094, 192.0, 0.0, 72.0, 15.0, 0.0, 126.5, 8.0, 0.0, 0.0, 0.0, 1.6689762603853595E9, 0.0, 2022-11-20 15:31:00.385
172.0, -33495.58663315614, -6676.9354554337815, -52834.964136477014, -52748.06055403478, -40702.61606009198, -43452.84175310633, -40834.24548318928, -23221.227314618507, -42269.45099466455, -15012.54916340699, -45688.50793701505, -49337.43021934393, -42584.2529635731, -28393.219815876462, -41039.21097984445, -50787.186716459604, 0.018000000000000002, 0.96, -0.094, 192.0, 0.0, 0.0, 0.0, 0.0, 0.0, 0.0, 0.0, 0.0, 0.0, 1.6689762603853693E9, 0.0, 2022-11-20 15:31:00.385
174.0, -33443.8423447421, -6566.361375613377, -52790.17124058858, -52714.35412339617, -40670.00486493169, -43420.83405504633, -40801.880157218, -23191.0748113483, -42181.429824999555, -14930.272392067003, -45591.389607356745, -49240.49070364126, -42490.21917464962, -28296.302651918253, -40953.42498462498, -50704.99935209744, 0.018000000000000002, 0.96, -0.094, 192.0, 0.0, 0.0, 0.0, 0.0, 0.0, 0.0, 0.0, 0.0, 0.0, 1.6689762603853784E9, 0.0, 2022-11-20 15:31:00.385
176.0, -33506.67309840597, -6674.834391454982, -52842.250805169446, -52752.01681280337, -40721.704449856814, -43467.86212538029, -40852.573913642635, -23238.482861338005, -42277.89995406866, -15018.651189643288, -45693.179451606215, -49330.74704775179, -42590.71261772068, -28394.47151356596, -41045.35770956966, -50797.24500146449, 0.018000000000000002, 0.96, -0.094, 192.0, 0.0, 0.0, 0.0, 0.0, 0.0, 0.0, 0.0, 0.0, 0.0, 1.6689762603853886E9, 0.0, 2022-11-20 15:31:00.385
178.0, -33422.65289099847, -6561.041660433014, -52759.57170242926, -52670.835276941696, -40644.50152450818, -43385.16067089566, -40775.79567143866, -23160.743494122446, -42180.848679643714, -14931.077054867394, -45591.05433118992, -49232.868758782, -42486.93346821469, -28285.30559364624, -40949.9157607455, -50690.98480832396, 0.018000000000000002, 0.96, -0.094, 192.0, 0.0, 0.0, 0.0, 0.0, 0.0, 0.0, 0.0, 0.0, 0.0, 1.6689762603853984E9, 0.0, 2022-11-20 15:31:00.385
180.0, -33512.529255453264, -6666.832466939983, -52849.872750028706, -52753.447324448505, -40732.969729062286, -43470.812555648394, -40864.4426899484, -23248.541146342894, -42259.68328233758, -15003.988445280605, -45677.3320647874, -49316.10665513357, -42573.747643679104, -28370.8457196767, -41026.91752039403, -50762.39863185867, 0.014, 0.964, -0.092, 192.0, 0.0, 56.0, 15.0, 16.0, 126.5, 16.0, 0.0, 0.0, 0.0, 1.6689762603854082E9, 0.0, 2022-11-20 15:31:00.385
182.0, -33429.112545146054, -6580.644140320318, -52772.24514153542, -52680.67004450203, -40658.80664095958, -43397.16355766816, -40790.369008823516, -23175.69681116305, -42209.14598812413, -14955.731029001598, -45616.73648556906, -49260.13788701748, -42515.454294139665, -28311.8818178036, -40980.180022737986, -50710.631991700175, 0.014, 0.964, -0.092, 192.0, 0.0, 0.0, 0.0, 0.0, 0.0, 0.0, 0.0, 0.0, 0.0, 1.6689762603854184E9, 0.0, 2022-11-20 15:31:00.385
184.0, -33502.24745300382, -6640.166835804801, -52841.6249563247, -52756.26364424988, -40731.27099648368, -43473.51711672749, -40864.24152424831, -23247.736483542503, -42261.51612538292, -14989.72803231812, -45671.65472169575, -49307.43417828491, -42567.667969187256, -28367.850585919692, -41024.905863393054, -50759.53760856839, 0.014, 0.964, -0.092, 192.0, 0.0, 0.0, 0.0, 0.0, 0.0, 0.0, 0.0, 0.0, 0.0, 1.6689762603854296E9, 0.0, 2022-11-20 15:31:00.385
186.0, -33381.34686724506, -6544.479017791631, -52716.38813214161, -52631.45150321144, -40605.40832345585, -43349.44258325608, -40734.75786861871, -23118.275179657365, -42187.86712740268, -14926.874926909797, -45594.3623893693, -49236.0203547502, -42486.30761936994, -28298.493122874872, -40956.10719395962, -50694.5163839479, 0.014, 0.964, -0.092, 192.0, 0.0, 0.0, 0.0, 0.0, 0.0, 0.0, 0.0, 0.0, 0.0, 1.6689762603854387E9, 0.0, 2022-11-20 15:31:00.385
188.0, -33507.16483678399, -6618.776216361072, -52841.58025283578, -52762.36567048618, -40732.276824984176, -43477.58513421835, -40860.03939629071, -23245.99304747499, -42205.055618888815, -14940.28597358298, -45623.77728507248, -49257.2768637272, -42512.28034642701, -28324.55525690976, -40968.93709527697, -50716.06346560281, 0.014, 0.964, -0.092, 192.0, 0.0, 0.0, 0.0, 0.0, 0.0, 0.0, 0.0, 0.0, 0.0, 1.668976260385447E9, 0.0, 2022-11-20 15:31:00.385
190.0, -33406.38082103501, -6579.973587986659, -52750.0498592913, -52661.42519252601, -40634.06325984756, -43372.755452722966, -40764.619799211, -23148.695903861037, -42226.580348799274, -14965.856369239853, -45636.629538134286, -49276.029977325205, -42530.25114896907, -28333.831230858712, -40991.11002577663, -50734.99539315646, 0.018000000000000002, 0.966, -0.096, 192.0, 0.0, 72.0, 15.0, 24.0, 126.5, 0.0, 0.0, 0.0, 0.0, 1.6689762603854558E9, 0.0, 2022-11-20 15:31:00.385
192.0, -33472.877260789544, -6581.672320565262, -52826.35871486172, -52747.032373789836, -40713.90369104191, -43448.88549433774, -40842.89560829349, -23226.79289898788, -42194.61735422818, -14928.104272854838, -45610.72386631058, -49245.98923277727, -42513.353230160865, -28309.154904980052, -40964.19852545244, -50704.73113116397, 0.018000000000000002, 0.966, -0.096, 192.0, 0.0, 0.0, 0.0, 0.0, 0.0, 0.0, 0.0, 0.0, 0.0, 1.6689762603854644E9, 0.0, 2022-11-20 15:31:00.385
194.0, -33395.54022497418, -6591.73060557015, -52735.0965422507, -52657.111305846134, -40624.7872858986, -43358.11506010474, -40753.667444427905, -23136.067168243786, -42200.652325231116, -14949.897223698763, -45610.20977618811, -49260.40610795094, -42516.59423310688, -28315.12282074962, -40977.56486863671, -50714.968230124505, 0.018000000000000002, 0.966, -0.096, 192.0, 0.0, 0.0, 0.0, 0.0, 0.0, 0.0, 0.0, 0.0, 0.0, 1.6689762603854733E9, 0.0, 2022-11-20 15:31:00.385
196.0, -33468.18339445393, -6571.256407649089, -52818.177976391074, -52753.55908317079, -40708.360458416995, -43453.22173276207, -40838.15703846896, -23225.40709083165, -42179.887554632136, -14931.121758356305, -45596.6646190482, -49245.16221823242, -42500.38921837678, -28306.36093692314, -40959.77288005029, -50706.98865735396, 0.018000000000000002, 0.966, -0.096, 192.0, 0.0, 0.0, 0.0, 0.0, 0.0, 0.0, 0.0, 0.0, 0.0, 1.6689762603854847E9, 0.0, 2022-11-20 15:31:00.385
198.0, -33412.70636471586, -6615.378751203865, -52752.1509232701, -52668.24247458488, -40635.38201277042, -43380.46680456005, -40765.98325562278, -23151.780444595868, -42216.90204345012, -14970.72904953111, -45631.06395376491, -49279.09216631558, -42530.72053560264, -28338.681559405515, -40996.317982234716, -50745.098381650256, 0.018000000000000002, 0.966, -0.096, 192.0, 0.0, 0.0, 0.0, 0.0, 0.0, 0.0, 0.0, 0.0, 0.0, 1.6689762603854935E9, 0.0, 2022-11-20 15:31:00.385
200.0, -33473.52546137875, -6564.953215712692, -52821.93306945957, -52743.97018479946, -40708.852196795015, -43457.334453741845, -40836.41360240145, -23224.110689653244, -42175.99835109691, -14919.990589617562, -45598.3633516268, -49236.109761728025, -42495.06950319642, -28297.241425185377, -40952.061528213206, -50702.63006718518, 0.018000000000000002, 0.965, -0.098, 192.0, 0.0, 72.0, 15.0, 16.0, 126.0, 112.0, 0.0, 0.0, 0.0, 1.668976260385502E9, 0.0, 2022-11-20 15:31:00.385
202.0, -33408.61599548054, -6613.411797691799, -52742.606728387684, -52640.839235882675, -40616.69595440578, -43360.73021420601, -40747.00662458022, -23132.826165297767, -42233.39763085814, -14968.136247174294, -45644.452648693645, -49279.89682911597, -42538.00720429506, -28331.439594201995, -40999.40252296955, -50746.37243108421, 0.018000000000000002, 0.965, -0.098, 192.0, 0.0, 0.0, 0.0, 0.0, 0.0, 0.0, 0.0, 0.0, 0.0, 1.668976260385511E9, 0.0, 2022-11-20 15:31:00.385
204.0, -33487.0035632853, -6573.402175116798, -52830.67260154159, -52752.91088258158, -40712.137903229945, -43455.63572116324, -40837.4417826464, -23226.63643677669, -42163.39196722412, -14900.142240541249, -45581.957171196605, -49218.22836616378, -42471.35430232934, -28264.674933513994, -40932.16847564799, -50683.65343614262, 0.018000000000000002, 0.965, -0.098, 192.0, 0.0, 0.0, 0.0, 0.0, 0.0, 0.0, 0.0, 0.0, 0.0, 1.6689762603855195E9, 0.0, 2022-11-20 15:31:00.385
206.0, -33448.558562822174, -6656.170684834801, -52783.71158644099, -52694.77399525333, -40661.3994433164, -43394.66016228917, -40789.45258730085, -23170.555909938324, -42258.9233230261, -14998.378157422323, -45674.94042813068, -49319.21354761285, -42564.53872496352, -28362.66498120606, -41036.729936209915, -50783.52103036893, 0.018000000000000002, 0.965, -0.098, 192.0, 0.0, 0.0, 0.0, 0.0, 0.0, 0.0, 0.0, 0.0, 0.0, 1.6689762603855283E9, 0.0, 2022-11-20 15:31:00.385
208.0, -33471.40204565549, -6560.3040528659885, -52828.325668373785, -52761.44924896351, -40709.8580252955, -43448.55021817091, -40839.74401232529, -23225.720015254024, -42181.47452848846, -14922.896316396753, -45597.1116539373, -49243.374078675995, -42489.928601971704, -28294.69332631747, -40967.21601095391, -50706.40751199812, 0.018000000000000002, 0.965, -0.098, 192.0, 0.0, 0.0, 0.0, 0.0, 0.0, 0.0, 0.0, 0.0, 0.0, 1.6689762603855371E9, 0.0, 2022-11-20 15:31:00.385
210.0, -33450.39140586751, -6667.055984384535, -52795.759176702406, -52708.94500123799, -40668.32848409754, -43403.35499088228, -40801.94721245137, -23184.525750222892, -42264.64536960666, -15008.414090682756, -45683.724663701614, -49328.19894888389, -42574.84287915741, -28380.009934903377, -41048.21873285994, -50786.44910889258, 0.016, 0.9615, -0.10300000000000001, 192.0, 0.0, 56.0, 14.5, 120.0, 126.0, 80.0, 0.0, 0.0, 0.0, 1.668976260385546E9, 0.0, 2022-11-20 15:31:00.385
212.0, -33451.03960645671, -6547.407096315276, -52811.65126701013, -52732.257870704874, -40686.835728506536, -43424.87972079274, -40820.633270816004, -23205.201113844054, -42161.38031022314, -14909.66408367921, -45582.62772353026, -49223.97276448879, -42471.488412796076, -28272.78861675127, -40940.68449028546, -50676.210305239, 0.016, 0.9615, -0.10300000000000001, 192.0, 0.0, 0.0, 0.0, 0.0, 0.0, 0.0, 0.0, 0.0, 0.0, 1.6689762603855548E9, 0.0, 2022-11-20 15:31:00.385
214.0, -33475.80533931319, -6681.0481764135575, -52820.65902002562, -52717.41631238655, -40692.26720240917, -43420.431723646136, -40824.36601214004, -23203.435326032082, -42271.79792783236, -15015.20902099717, -45695.66049524075, -49332.95987045287, -42586.17521359625, -28380.211100603476, -41048.531657282314, -50779.207143689055, 0.016, 0.9615, -0.10300000000000001, 192.0, 0.0, 0.0, 0.0, 0.0, 0.0, 0.0, 0.0, 0.0, 0.0, 1.6689762603855636E9, 0.0, 2022-11-20 15:31:00.385
216.0, -33442.255370885774, -6545.708363736673, -52796.40737729161, -52705.972219225434, -40681.024274948155, -43410.3957903857, -40805.14351190848, -23186.53740722387, -42168.845792871216, -14912.815679647409, -45586.78514799895, -49227.48198836827, -42478.48450881059, -28268.45237832694, -40947.01003396631, -50676.56793315029, 0.016, 0.9615, -0.10300000000000001, 192.0, 0.0, 0.0, 0.0, 0.0, 0.0, 0.0, 0.0, 0.0, 0.0, 1.6689762603855722E9, 0.0, 2022-11-20 15:31:00.385
218.0, -33470.10564447709, -6663.770277949605, -52812.07595015478, -52707.64860005958, -40696.04464722212, -43419.090618978815, -40815.64883180247, -23194.15935208313, -42260.756166071435, -14996.098279487882, -45682.00357937856, -49317.827739456625, -42575.93811463572, -28368.677600464536, -41039.948587411476, -50773.127469197214, 0.016, 0.9615, -0.10300000000000001, 192.0, 0.0, 0.0, 0.0, 0.0, 0.0, 0.0, 0.0, 0.0, 0.0, 1.6689762603855803E9, 0.0, 2022-11-20 15:31:00.385
220.0, -33438.47792607283, -6548.368221326855, -52793.74751970143, -52705.011094213856, -40685.494623839215, -43411.22280493055, -40804.003572941256, -23186.269186290407, -42168.19759228201, -14915.85551689333, -45582.67242701917, -49221.625831320984, -42477.38927333227, -28273.45916908493, -40946.51829558829, -50686.53681117736, 0.015, 0.96175, -0.1005, 192.0, 0.0, 56.0, 15.0, 8.0, 126.0, 120.0, 0.0, 0.0, 0.0, 1.6689762603855884E9, 0.0, 2022-11-20 15:31:00.385
222.0, -33487.76352259678, -6662.451525026742, -52827.67746778458, -52732.280222449335, -40720.653917867414, -43446.851485592306, -40842.873256549035, -23221.74140474098, -42266.25469520744, -15004.703701103175, -45687.27859107001, -49321.00168716928, -42582.420120527764, -28383.899138438603, -41042.29552057928, -50789.980684516515, 0.015, 0.96175, -0.1005, 192.0, 0.0, 0.0, 0.0, 0.0, 0.0, 0.0, 0.0, 0.0, 0.0, 1.668976260385596E9, 0.0, 2022-11-20 15:31:00.385
224.0, -33402.22339656632, -6517.791034911995, -52756.330699483246, -52665.26969257232, -40657.91257118137, -43379.595086526286, -40779.193136595866, -23158.57537491028, -42171.88563011714, -14913.419176747702, -45579.565534539885, -49218.273069652685, -42486.48643332558, -28284.657393057038, -40948.32878688917, -50691.27538100188, 0.015, 0.96175, -0.1005, 192.0, 0.0, 0.0, 0.0, 0.0, 0.0, 0.0, 0.0, 0.0, 0.0, 1.668976260385604E9, 0.0, 2022-11-20 15:31:00.385
226.0, -33459.06388271617, -6611.0201610350805, -52799.13429011516, -52703.535879079805, -40698.43628387884, -43418.01773524496, -40824.74599179578, -23202.40714578714, -42230.40249710113, -14961.274261626515, -45645.41377370522, -49273.21365752383, -42554.68160565873, -28345.923524609036, -41007.292688762274, -50739.04105890287, 0.015, 0.96175, -0.1005, 192.0, 0.0, 0.0, 0.0, 0.0, 0.0, 0.0, 0.0, 0.0, 0.0, 1.668976260385612E9, 0.0, 2022-11-20 15:31:00.385
228.0, -33374.730750886294, -6503.910601605249, -52720.76907405485, -52634.6254509241, -40621.72509690822, -43344.704013431554, -40747.47601121378, -23126.634732083647, -42156.90996133208, -14888.586388657855, -45557.280845317946, -49194.55786878561, -42467.84507844986, -28260.293991600753, -40923.406591821506, -50646.88481651364, 0.015, 0.96175, -0.1005, 192.0, 0.0, 0.0, 0.0, 0.0, 0.0, 0.0, 0.0, 0.0, 0.0, 1.6689762603856227E9, 0.0, 2022-11-20 15:31:00.385
230.0, -33466.21644094186, -6606.058073766002, -52817.64153452415, -52720.36674265465, -40708.20399620581, -43431.20526447359, -40830.155113953966, -23207.25747433394, -42228.7708197559, -14954.971069690118, -45635.2213782336, -49271.44786971186, -42550.837105612416, -28338.07806230522, -40995.24509850086, -50717.38221852568, 0.0155, 0.965875, -0.09825, 192.0, 0.0, 64.0, 15.0, 40.0, 126.5, 0.0, 0.0, 0.0, 0.0, 1.668976260385632E9, 0.0, 2022-11-20 15:31:00.385
232.0, -33368.11463452752, -6512.00193309807, -52726.82639680224, -52628.27755549879, -40613.45495145976, -43340.4795337295, -40735.428420952376, -23112.642540054625, -42157.73697587693, -14887.625263646278, -45558.08550811833, -49192.99324667374, -42471.55546802944, -28260.361046834118, -40931.74379250334, -50656.943101518526, 0.0155, 0.965875, -0.09825, 192.0, 0.0, 0.0, 0.0, 0.0, 0.0, 0.0, 0.0, 0.0, 0.0, 1.6689762603856409E9, 0.0, 2022-11-20 15:31:00.385
234.0, -33478.33108643664, -6599.888992296338, -52838.49571210095, -52734.40363817259, -40722.53146440166, -43449.39958446021, -40839.96752976984, -23215.862895949234, -42221.21593013, -14948.980802176095, -45635.914282311714, -49258.90854107244, -42542.27638748603, -28335.619370415137, -40994.55219442275, -50725.56295699632, 0.0155, 0.965875, -0.09825, 192.0, 0.0, 0.0, 0.0, 0.0, 0.0, 0.0, 0.0, 0.0, 0.0, 1.6689762603856497E9, 0.0, 2022-11-20 15:31:00.385
236.0, -33380.51985270022, -6540.925090423238, -52742.6514318766, -52639.56518644872, -40627.13421906641, -43354.60583622525, -40744.59263617905, -23122.23143842595, -42175.99835109691, -14911.675740680188, -45587.746273010525, -49219.72593304228, -42491.403817105755, -28285.73027679089, -40954.87784801458, -50687.632046655664, 0.0155, 0.965875, -0.09825, 192.0, 0.0, 0.0, 0.0, 0.0, 0.0, 0.0, 0.0, 0.0, 0.0, 1.6689762603856585E9, 0.0, 2022-11-20 15:31:00.385
238.0, -33482.08617950513, -6596.625637605863, -52834.85237775474, -52744.26075747738, -40723.045554524135, -43453.557008928896, -40837.66530009095, -23218.433346561593, -42206.530834022866, -14941.694133483665, -45629.141703741756, -49260.67432888441, -42529.9382245467, -28328.533867422804, -40981.96816229441, -50720.44440751606, 0.0155, 0.965875, -0.09825, 192.0, 0.0, 0.0, 0.0, 0.0, 0.0, 0.0, 0.0, 0.0, 0.0, 1.6689762603856673E9, 0.0, 2022-11-20 15:31:00.385
240.0, -33391.94159411688, -6569.982358215137, -52736.92938529604, -52637.754695147836, -40625.457838232265, -43347.90031288866, -40744.05619431212, -23120.286836658343, -42201.68050547606, -14950.299555098958, -45614.00957274551, -49255.01933753721, -42512.12388421582, -28313.1335154931, -40966.321941175695, -50702.00421834043, 0.01475, 0.9669375, -0.099125, 192.0, 0.0, 56.0, 15.0, 32.0, 126.0, 112.0, 0.0, 0.0, 0.0, 1.6689762608647847E9, 0.0, 2022-11-20 15:31:00.864
242.0, -33479.13574923703, -6579.325387397455, -52825.107017172224, -52733.95660328348, -40716.42943816536, -43439.430706433144, -40836.167733212445, -23212.331320325295, -42181.94391512203, -14924.997380375551, -45605.292392407944, -49237.584976862076, -42503.22788992261, -28301.063573487234, -40949.5134293453, -50679.85363958522, 0.01475, 0.9669375, -0.099125, 192.0, 0.0, 0.0, 0.0, 0.0, 0.0, 0.0, 0.0, 0.0, 0.0, 1.6689762608648493E9, 0.0, 2022-11-20 15:31:00.864
244.0, -33392.902719128455, -6579.928884497748, -52735.02948701734, -52635.00543057983, -40618.886425362405, -43345.30751053185, -40744.92791234588, -23119.839801769234, -42211.55997652531, -14955.90984295724, -45622.637346105264, -49258.059174783135, -42518.00239300757, -28320.26372197434, -40981.31996170521, -50704.44055848606, 0.01475, 0.9669375, -0.099125, 192.0, 0.0, 0.0, 0.0, 0.0, 0.0, 0.0, 0.0, 0.0, 0.0, 1.668976260864916E9, 0.0, 2022-11-20 15:31:00.864
246.0, -33499.67700239146, -6586.165021200779, -52851.75029656295, -52757.18006577255, -40740.77048787719, -43470.25376203701, -40862.721605625346, -23243.735521285, -42184.1567378231, -14923.09748209685, -45603.906584251716, -49233.96399426032, -42498.5787270759, -28302.292919432275, -40962.87977252958, -50690.716587390496, 0.01475, 0.9669375, -0.099125, 192.0, 0.0, 0.0, 0.0, 0.0, 0.0, 0.0, 0.0, 0.0, 0.0, 1.668976260864975E9, 0.0, 2022-11-20 15:31:00.864
248.0, -33427.637330012, -6622.754826874117, -52763.12562979766, -52654.89848314506, -40647.00491988718, -43378.5892580258, -40771.280619058685, -23152.965087051998, -42248.395651387655, -14997.34997717738, -45662.40109949125, -49296.75004443527, -42559.53193420553, -28361.770911427848, -41023.94473838148, -50756.81069574484, 0.01475, 0.9669375, -0.099125, 192.0, 0.0, 0.0, 0.0, 0.0, 0.0, 0.0, 0.0, 0.0, 0.0, 1.668976260864983E9, 0.0, 2022-11-20 15:31:00.864
250.0, -33486.91415630748, -6569.714137281673, -52822.089531670754, -52738.78458008583, -40719.692792855836, -43455.63572116324, -40838.49231463579, -23226.479974565504, -42171.975037094955, -14924.52799374199, -45595.4129213587, -49231.03591573667, -42488.811014748935, -28294.55921585074, -40939.94688271843, -50689.12961353417, 0.015375, 0.96446875, -0.0985625, 192.0, 0.0, 64.0, 15.0, 8.0, 126.0, 120.0, 0.0, 0.0, 0.0, 1.6689762608649912E9, 0.0, 2022-11-20 15:31:00.864
252.0, -33450.39140586751, -6653.756696433627, -52766.00900483239, -52675.12681187711, -40666.16036488538, -43397.05179894588, -40787.48563378878, -23171.002944827433, -42258.9233230261, -15014.002026796583, -45675.92390488672, -49316.777207467225, -42570.886620388825, -28379.27232733635, -41020.0331831018, -50771.585198829795, 0.015375, 0.96446875, -0.0985625, 192.0, 0.0, 0.0, 0.0, 0.0, 0.0, 0.0, 0.0, 0.0, 0.0, 1.6689762608650167E9, 0.0, 2022-11-20 15:31:00.865
254.0, -33462.416644384466, -6545.708363736673, -52794.2616098239, -52719.60678334317, -40705.25356593771, -43429.84180806182, -40819.515683593236, -23202.854180676244, -42167.661150415086, -14924.058607108427, -45585.01936018698, -49227.39258139046, -42485.100625169354, -28290.51355010433, -40930.55915004721, -50674.7127383605, 0.015375, 0.96446875, -0.0985625, 192.0, 0.0, 0.0, 0.0, 0.0, 0.0, 0.0, 0.0, 0.0, 0.0, 1.6689762608650393E9, 0.0, 2022-11-20 15:31:00.865
0.0, -33430.587760280105, -6633.93069910177, -52755.906016338595, -52664.15210534956, -40659.968931671254, -43378.991589426, -40778.477880773295, -23154.06032253031, -42237.152723926636, -15000.903904545774, -45654.13095404279, -49297.644114213486, -42555.016881825555, -28362.75438818388, -41004.05168581625, -50738.05758214684, 0.015375, 0.96446875, -0.0985625, 192.0, 0.0, 0.0, 0.0, 0.0, 0.0, 0.0, 0.0, 0.0, 0.0, 1.6689762608650787E9, 0.0, 2022-11-20 15:31:00.865
2.0, -33438.32146386164, -6521.993162869592, -52783.48806899644, -52707.00039947038, -40688.512109340685, -43418.174197456145, -40807.132817164995, -23190.8736456482, -42140.97316753545, -14903.249133020538, -45562.511153520485, -49203.386807845454, -42465.29697958195, -28274.487349329873, -40914.734114972845, -50648.15886594759, 0.015375, 0.96446875, -0.0985625, 192.0, 0.0, 0.0, 0.0, 0.0, 0.0, 0.0, 0.0, 0.0, 0.0, 1.6689762608650868E9, 0.0, 2022-11-20 15:31:00.865
4.0, -33435.25927487126, -6635.450617724731, -52770.32289151227, -52671.170553108524, -40658.56077177057, -43394.548403566885, -40781.96475290832, -23165.951450580535, -42226.379183099176, -14996.008872510061, -45648.163038273226, -49290.55861122115, -42546.88084684382, -28363.559050984273, -40999.6260404141, -50739.935128681085, 0.0196875, 0.9612343750000001, -0.09928125, 192.0, 0.0, 96.0, 14.5, 120.0, 126.0, 112.0, 0.0, 0.0, 0.0, 1.6689762608651056E9, 0.0, 2022-11-20 15:31:00.865
6.0, -33427.033832911715, -6516.494633733587, -52786.371444031174, -52700.540745322796, -40669.80369923159, -43415.35787765478, -40792.22420361331, -23185.218654301007, -42141.82253382475, -14912.994493603052, -45561.885304675736, -49203.72208401228, -42458.54675275645, -28279.18121566549, -40914.06356263919, -50666.62140686768, 0.0196875, 0.9612343750000001, -0.09928125, 192.0, 0.0, 0.0, 0.0, 0.0, 0.0, 0.0, 0.0, 0.0, 0.0, 1.6689762608651135E9, 0.0, 2022-11-20 15:31:00.865
8.0, -33450.5478680787, -6643.877225384382, -52800.31893257129, -52699.490213333396, -40673.58114404454, -43417.66010733368, -40796.582793782094, -23187.073849090797, -42232.50356107993, -15007.765890093553, -45665.060957081434, -49303.164995093946, -42557.386166737815, -28383.317993082765, -41009.37140099661, -50771.20521917406, 0.0196875, 0.9612343750000001, -0.09928125, 192.0, 0.0, 0.0, 0.0, 0.0, 0.0, 0.0, 0.0, 0.0, 0.0, 1.6689762608651216E9, 0.0, 2022-11-20 15:31:00.865
10.0, -33427.41381256745, -6524.787130926506, -52792.1605458451, -52712.00719022837, -40670.34014109852, -43416.76603755546, -40793.05121815816, -23184.950433367543, -42146.22582748244, -14922.71750244111, -45576.0563106604, -49217.155482429924, -42464.4252615482, -28294.246291428364, -40923.8089232217, -50683.60873265371, 0.0196875, 0.9612343750000001, -0.09928125, 192.0, 0.0, 0.0, 0.0, 0.0, 0.0, 0.0, 0.0, 0.0, 0.0, 1.6689762608651297E9, 0.0, 2022-11-20 15:31:00.865
12.0, -33486.668287118475, -6669.55937976353, -52834.22652890999, -52738.80693183028, -40707.511092127694, -43441.956453556595, -40831.339756410096, -23216.846372705266, -42256.84461079176, -15031.950477594195, -45690.13961436029, -49330.09884716259, -42577.83801291442, -28407.457877094494, -41033.868912919635, -50788.59487636029, 0.0196875, 0.9612343750000001, -0.09928125, 192.0, 0.0, 0.0, 0.0, 0.0, 0.0, 0.0, 0.0, 0.0, 0.0, 1.6689762608651373E9, 0.0, 2022-11-20 15:31:00.865
14.0, -33405.79967567917, -6506.570459195431, -52757.4035832171, -52671.237608341886, -40639.60649247247, -43370.1850021106, -40759.456546241825, -23146.81835732679, -42163.36961547966, -14932.440511279168, -45581.15250839621, -49220.91057549841, -42470.48258429558, -28294.201587939453, -40929.262748868794, -50669.90711330261, 0.01984375, 0.9586171875, -0.09864062500000001, 192.0, 0.0, 80.0, 14.5, 112.0, 126.0, 120.0, 0.0, 0.0, 0.0, 1.6689762608651454E9, 0.0, 2022-11-20 15:31:00.865
16.0, -33482.24264171632, -6646.715896930206, -52819.47437756949, -52722.17723395553, -40706.885243282944, -43433.99923253051, -40823.94132899539, -23208.10684062324, -42245.84755251975, -15005.284846459013, -45664.435108236685, -49300.46043401485, -42565.25398078609, -28381.060466892777, -41007.06917131772, -50744.114904894224, 0.01984375, 0.9586171875, -0.09864062500000001, 192.0, 0.0, 0.0, 0.0, 0.0, 0.0, 0.0, 0.0, 0.0, 0.0, 1.6689762608651533E9, 0.0, 2022-11-20 15:31:00.865
18.0, -33411.67818447092, -6525.301221048978, -52757.224769261455, -52666.74490770637, -40648.882466421426, -43385.71946450704, -40764.32922653308, -23156.362552209208, -42173.6067144402, -14930.831185678386, -45583.03005493046, -49220.999982476234, -42489.48156708259, -28306.048012500767, -40934.09072567114, -50671.94112204804, 0.01984375, 0.9586171875, -0.09864062500000001, 192.0, 0.0, 0.0, 0.0, 0.0, 0.0, 0.0, 0.0, 0.0, 0.0, 1.6689762608651612E9, 0.0, 2022-11-20 15:31:00.865
20.0, -33493.70908662189, -6640.591518949452, -52826.582232306275, -52731.81083581577, -40711.60146136302, -43453.37819497326, -40828.74695405328, -23220.042672162377, -42233.643500047154, -14986.196456694182, -45659.92005585672, -49288.72576817581, -42562.482364473624, -28379.249975591898, -40996.69796189046, -50743.66787000512, 0.01984375, 0.9586171875, -0.09864062500000001, 192.0, 0.0, 0.0, 0.0, 0.0, 0.0, 0.0, 0.0, 0.0, 0.0, 1.6689762608651693E9, 0.0, 2022-11-20 15:31:00.865
22.0, -33424.55278927717, -6547.675317248741, -52752.91088258158, -52665.314396061236, -40632.25276854668, -43379.39392082619, -40752.95218860533, -23147.66772361609, -42186.30250529081, -14950.120741143315, -45603.772473784986, -49240.53540713018, -42495.31537238543, -28319.8837423186, -40934.89538847153, -50689.397834467636, 0.01984375, 0.9586171875, -0.09864062500000001, 192.0, 0.0, 0.0, 0.0, 0.0, 0.0, 0.0, 0.0, 0.0, 0.0, 1.6689762608651772E9, 0.0, 2022-11-20 15:31:00.865
24.0, -33492.14446451002, -6623.581841418963, -52816.81451997931, -52722.981896755926, -40690.27789715265, -43431.965223785075, -40810.12795092201, -23205.40227954415, -42236.12454368169, -14995.606541109866, -45660.098869812355, -49292.14558507748, -42541.35996596336, -28368.632896975625, -40974.68149360198, -50732.17907335509, 0.01984375, 0.9586171875, -0.09864062500000001, 192.0, 0.0, 0.0, 0.0, 0.0, 0.0, 0.0, 0.0, 0.0, 0.0, 1.6689762608651853E9, 0.0, 2022-11-20 15:31:00.865
26.0, -33398.021268608725, -6539.159302611269, -52731.11793173766, -52636.88297711408, -40608.15758802385, -43341.57476920781, -40731.00277555022, -23121.851458770212, -42178.971133109466, -14950.478369054601, -45593.64713354673, -49233.40520064893, -42478.50686055504, -28307.634986357094, -40927.29579535673, -50678.3113692178, 0.018000000000000002, 0.9560000000000001, -0.10400000000000001, 192.0, 0.0, 72.0, 14.5, 112.0, 126.0, 96.0, 0.0, 0.0, 0.0, 1.6689762608651953E9, 0.0, 2022-11-20 15:31:00.865
28.0, -33484.38840918403, -6597.54205912853, -52816.45689206802, -52721.5960885997, -40697.184586189345, -43428.61246211678, -40818.4875033483, -23208.21859934552, -42199.22181358598, -14975.646433311276, -45627.375915929784, -49260.27199748421, -42516.8848057848, -28347.488146720905, -40964.802022552736, -50717.56103248132, 0.018000000000000002, 0.9560000000000001, -0.10400000000000001, 192.0, 0.0, 0.0, 0.0, 0.0, 0.0, 0.0, 0.0, 0.0, 0.0, 1.6689762608652031E9, 0.0, 2022-11-20 15:31:00.865
30.0, -33395.09319008508, -6545.082514891925, -52717.3939606421, -52622.17552926249, -40596.06529427353, -43331.04709756936, -40723.55964464661, -23113.022519710365, -42162.78847012383, -14948.019677164517, -45582.44890957462, -49222.810473777114, -42466.45927029363, -28303.723431077415, -40923.56305403269, -50678.57959015126, 0.018000000000000002, 0.9560000000000001, -0.10400000000000001, 192.0, 0.0, 0.0, 0.0, 0.0, 0.0, 0.0, 0.0, 0.0, 0.0, 1.6689762608652112E9, 0.0, 2022-11-20 15:31:00.865
32.0, -33506.360173983594, -6605.6780941102625, -52826.69399102855, -52740.930347553534, -40711.69086834084, -43449.24312224903, -40837.687651835404, -23229.340997855783, -42201.16641535359, -14973.523017588022, -45630.08047700888, -49265.390546964474, -42515.49899762857, -28350.393873500096, -40956.0177869818, -50717.42692201459, 0.018000000000000002, 0.9560000000000001, -0.10400000000000001, 192.0, 0.0, 0.0, 0.0, 0.0, 0.0, 0.0, 0.0, 0.0, 0.0, 1.6689762608652196E9, 0.0, 2022-11-20 15:31:00.865
34.0, -33408.70540245836, -6575.927922240248, -52721.48432987742, -52632.099703800646, -40609.20812001325, -43344.34638552027, -40734.847275596534, -23126.0088832389, -42198.484206018955, -14980.139133946794, -45615.32832566838, -49258.99794805026, -42503.98784923409, -28334.255914003363, -40948.68641480046, -50706.38516025367, 0.018000000000000002, 0.9560000000000001, -0.10400000000000001, 192.0, 0.0, 0.0, 0.0, 0.0, 0.0, 0.0, 0.0, 0.0, 0.0, 1.6689762608652277E9, 0.0, 2022-11-20 15:31:00.865
36.0, -33501.286327992246, -6577.201971674201, -52809.43844430905, -52737.15290274059, -40709.612156106494, -43445.17510475816, -40829.66337557595, -23222.389605330183, -42184.82729015676, -14957.876796469307, -45608.75691279852, -49245.13986648797, -42500.210404421145, -28327.50568717786, -40930.78266749176, -50682.75936636441, 0.022, 0.9560000000000001, -0.10400000000000001, 192.0, 0.0, 88.0, 14.5, 112.0, 126.0, 96.0, 0.0, 0.0, 0.0, 1.6689762608652375E9, 0.0, 2022-11-20 15:31:00.865
38.0, -33410.02415538122, -6571.703442538195, -52708.94500123799, -52624.94714557495, -40610.16924502483, -43338.31141451734, -40727.60531039302, -23118.185772679542, -42213.303412592824, -14991.337357918903, -45624.82781706188, -49264.58588416409, -42522.584500620906, -28347.354036254175, -40956.06249047071, -50706.80984339832, 0.022, 0.9560000000000001, -0.10400000000000001, 192.0, 0.0, 0.0, 0.0, 0.0, 0.0, 0.0, 0.0, 0.0, 0.0, 1.6689762608652453E9, 0.0, 2022-11-20 15:31:00.865
40.0, -33480.7003713489, -6544.76959046955, -52799.33545581526, -52722.46780663345, -40703.28661242564, -43428.99244177252, -40815.06768644663, -23209.470297035015, -42170.81274638328, -14940.375380560803, -45586.718092765586, -49221.0670377096, -42491.202651405656, -28309.22196021342, -40914.041210894735, -50670.287092958344, 0.022, 0.9560000000000001, -0.10400000000000001, 192.0, 0.0, 0.0, 0.0, 0.0, 0.0, 0.0, 0.0, 0.0, 0.0, 1.6689762608652534E9, 0.0, 2022-11-20 15:31:00.865
42.0, -33404.05623961166, -6578.878352508349, -52728.65923984757, -52629.05986655472, -40621.14395155239, -43339.49605697347, -40735.11549653, -23124.57837159376, -42207.89429043463, -14988.364575906346, -45622.1679594717, -49262.99891030776, -42531.68166061422, -28348.85160313268, -40966.38899640906, -50720.24324181596, 0.022, 0.9560000000000001, -0.10400000000000001, 192.0, 0.0, 0.0, 0.0, 0.0, 0.0, 0.0, 0.0, 0.0, 0.0, 1.6689762608652613E9, 0.0, 2022-11-20 15:31:00.865
44.0, -33464.070673474154, -6527.692857705696, -52808.767891975396, -52720.47850137693, -40708.11458922799, -43429.104200494796, -40819.80625627116, -23211.861933691733, -42138.76034483437, -14920.415272762213, -45566.37800531126, -49198.983514187756, -42470.75080522905, -28286.892567502568, -40909.48145502585, -50658.418316652576, 0.022, 0.9560000000000001, -0.10400000000000001, 192.0, 0.0, 0.0, 0.0, 0.0, 0.0, 0.0, 0.0, 0.0, 0.0, 1.6689762608652694E9, 0.0, 2022-11-20 15:31:00.865
46.0, -33405.06206811214, -6584.823916533461, -52739.4998359084, -52628.74694213235, -40637.41602151585, -43359.29970256087, -40752.52750546068, -23141.72215959098, -42214.80097947133, -14999.87572430083, -45637.54595965695, -49272.96778833483, -42545.0927072874, -28364.922507396044, -40984.04687452875, -50728.0216488864, 0.016, 0.96, -0.1, 192.0, 0.0, 64.0, 15.0, 0.0, 126.0, 112.0, 0.0, 0.0, 0.0, 1.6689762608652773E9, 0.0, 2022-11-20 15:31:00.865
48.0, -33424.32927183262, -6481.916485061227, -52765.65137692111, -52674.56801826573, -40674.385806844926, -43402.21505191506, -40786.658619243935, -23180.81536064331, -42128.232673195926, -14903.338539998358, -45547.87076090226, -49176.274141821166, -42457.96560740061, -28278.063628442724, -40892.60588796209, -50635.23955765242, 0.016, 0.96, -0.1, 192.0, 0.0, 0.0, 0.0, 0.0, 0.0, 0.0, 0.0, 0.0, 0.0, 1.6689762608652854E9, 0.0, 2022-11-20 15:31:00.865
50.0, -33411.27585307072, -6588.199029946212, -52728.569832869754, -52630.333915988675, -40632.27512029113, -43361.02078688393, -40751.05229032663, -23141.54334563534, -42191.912793149095, -14983.91657875974, -45618.12229372529, -49251.912445057926, -42521.82454130943, -28347.152870554077, -40956.196600937445, -50701.42307298459, 0.016, 0.96, -0.1, 192.0, 0.0, 0.0, 0.0, 0.0, 0.0, 0.0, 0.0, 0.0, 0.0, 1.6689762608652935E9, 0.0, 2022-11-20 15:31:00.865
52.0, -33451.15136517899, -6510.750235408573, -52788.53956324334, -52706.70982679246, -40692.46836810927, -43421.23638644652, -40810.150302666465, -23203.100049865254, -42133.261815698366, -14913.75445291453, -45555.023319127955, -49193.194412373836, -42456.06570912191, -28285.842035513168, -40894.86341415208, -50642.07919145575, 0.016, 0.96, -0.1, 192.0, 0.0, 0.0, 0.0, 0.0, 0.0, 0.0, 0.0, 0.0, 0.0, 1.6689762608653016E9, 0.0, 2022-11-20 15:31:00.865
54.0, -33447.88801048851, -6624.632373408363, -52769.4064699896, -52665.649672228064, -40664.394577073406, -43387.39584534119, -40783.12704362, -23173.43928497306, -42240.52783733938, -15021.69102688921, -45663.76455590303, -49302.06975961563, -42565.365739508365, -28386.24607160641, -41001.81651137072, -50747.04298341787, 0.016, 0.96, -0.1, 192.0, 0.0, 0.0, 0.0, 0.0, 0.0, 0.0, 0.0, 0.0, 0.0, 1.6689762608653097E9, 0.0, 2022-11-20 15:31:00.865
56.0, -33431.32536784713, -6492.891191588783, -52759.99638557391, -52677.00435841136, -40665.489812551714, -43395.55423206738, -40784.8257761986, -23180.547139709848, -42136.56987387775, -14927.701941454643, -45560.54420000842, -49200.592839788544, -42462.68182548068, -28282.109294189133, -40903.62529797856, -50649.92465375956, 0.018000000000000002, 0.96, -0.106, 192.0, 0.0, 72.0, 15.0, 0.0, 126.0, 88.0, 0.0, 0.0, 0.0, 1.6689762608653176E9, 0.0, 2022-11-20 15:31:00.865
58.0, -33450.61492331206, -6612.316562213488, -52767.081888566245, -52669.80709669675, -40664.61809451796, -43391.6426767877, -40785.675142487904, -23180.368325754207, -42231.542436068354, -15016.97480880914, -45653.058070308936, -49291.050349599165, -42555.06158531446, -28371.940955155012, -40986.25969722983, -50738.99635541396, 0.018000000000000002, 0.96, -0.106, 192.0, 0.0, 0.0, 0.0, 0.0, 0.0, 0.0, 0.0, 0.0, 0.0, 1.6689762608653257E9, 0.0, 2022-11-20 15:31:00.865
60.0, -33404.63738496749, -6471.56762737842, -52735.02948701734, -52653.959709877934, -40633.70563193627, -43364.10532761876, -40754.092127572556, -23152.696866118535, -42125.01402199436, -14914.872040137298, -45546.574359723854, -49185.281894836655, -42445.761554928016, -28263.713808502416, -40877.250239521294, -50630.791560505815, 0.018000000000000002, 0.96, -0.106, 192.0, 0.0, 0.0, 0.0, 0.0, 0.0, 0.0, 0.0, 0.0, 0.0, 1.6689762608653336E9, 0.0, 2022-11-20 15:31:00.865
62.0, -33456.47108035935, -6608.807338334005, -52775.35203401471, -52680.64769275757, -40664.84161196251, -43394.36958961125, -40786.368046566015, -23180.860064132223, -42224.32282260929, -15002.803802824475, -45650.398212718756, -49283.40605299545, -42545.36092822086, -28365.056617862778, -40969.22766795489, -50726.18880584107, 0.018000000000000002, 0.96, -0.106, 192.0, 0.0, 0.0, 0.0, 0.0, 0.0, 0.0, 0.0, 0.0, 0.0, 1.6689762608653429E9, 0.0, 2022-11-20 15:31:00.865
64.0, -33396.613108708036, -6472.104069245347, -52723.875966534135, -52636.74886664735, -40615.82423637203, -43347.11800183273, -40735.562531419106, -23131.9097437751, -42125.43870513901, -14911.765147658009, -45549.368327780765, -49187.20414485981, -42443.526380482486, -28262.238593368365, -40877.42905347694, -50629.69632502751, 0.018000000000000002, 0.96, -0.106, 192.0, 0.0, 0.0, 0.0, 0.0, 0.0, 0.0, 0.0, 0.0, 0.0, 1.6689762608653505E9, 0.0, 2022-11-20 15:31:00.865
66.0, -33467.37873165354, -6603.554678387008, -52794.127499357164, -52680.87121020212, -40681.47130983726, -43403.75732228247, -40800.427293828405, -23193.77937242739, -42214.24218585994, -14994.041918997995, -45641.569273658904, -49273.05719531265, -42535.168532749245, -28353.098434579188, -40969.5182406328, -50714.45414000203, 0.022, 0.964, -0.10400000000000001, 192.0, 0.0, 88.0, 15.0, 16.0, 126.0, 96.0, 0.0, 0.0, 0.0, 1.6689762608653588E9, 0.0, 2022-11-20 15:31:00.865
68.0, -33393.86384414004, -6486.3421304633775, -52728.502777636386, -52621.92966007348, -40623.9379196093, -43344.05581284235, -40740.099935543534, -23134.52489787637, -42139.4979524014, -14929.177156588694, -45560.834772686336, -49194.73668274125, -42455.819839932905, -28272.699209773447, -40905.927527657455, -50641.766267033374, 0.022, 0.964, -0.10400000000000001, 192.0, 0.0, 0.0, 0.0, 0.0, 0.0, 0.0, 0.0, 0.0, 0.0, 1.668976260865369E9, 0.0, 2022-11-20 15:31:00.865
70.0, -33484.92485105096, -6603.264105709089, -52813.77468273338, -52703.02178895733, -40704.33714441504, -43423.67272659215, -40820.432105115906, -23215.438212804584, -42214.59981377123, -14994.44425039819, -45643.670337637705, -49265.949340575855, -42537.87309382833, -28356.294734036295, -40980.224726226894, -50719.90796564913, 0.022, 0.964, -0.10400000000000001, 192.0, 0.0, 0.0, 0.0, 0.0, 0.0, 0.0, 0.0, 0.0, 0.0, 1.6689762608653772E9, 0.0, 2022-11-20 15:31:00.865
72.0, -33390.667544682925, -6486.90092407476, -52722.22193744445, -52621.057942039726, -40609.1857682688, -43335.09276331577, -40728.208807493305, -23127.77467105087, -42160.41918521156, -14942.923479428708, -45582.515964807986, -49207.20895614731, -42473.41066281923, -28292.9275385055, -40921.19376912043, -50667.76134583489, 0.022, 0.964, -0.10400000000000001, 192.0, 0.0, 0.0, 0.0, 0.0, 0.0, 0.0, 0.0, 0.0, 0.0, 1.6689762608653853E9, 0.0, 2022-11-20 15:31:00.865
74.0, -33481.81795857167, -6580.0853467089355, -52808.3655605752, -52708.72148379344, -40695.99994373321, -43425.63968010422, -40812.631346301, -23213.605369759247, -42200.87584267567, -14981.524942103022, -45628.80642757493, -49253.61117763653, -42521.17634072022, -28340.112071050655, -40948.73111828937, -50707.346285265245, 0.022, 0.964, -0.10400000000000001, 192.0, 0.0, 0.0, 0.0, 0.0, 0.0, 0.0, 0.0, 0.0, 0.0, 1.6689762608653932E9, 0.0, 2022-11-20 15:31:00.865
76.0, -33385.504291713754, -6500.066101558937, -52711.090768705704, -52615.246488481345, -40605.27421298912, -43338.80315289535, -40719.73749634475, -23123.371377393174, -42165.06834805827, -14948.422008564712, -45583.29827586392, -49214.9650114733, -42482.798395490456, -28300.057744986745, -40908.788550947735, -50672.36580519269, 0.022, 0.962, -0.1, 192.0, 0.0, 88.0, 15.0, 8.0, 126.0, 112.0, 0.0, 0.0, 0.0, 1.6689762608654015E9, 0.0, 2022-11-20 15:31:00.865
78.0, -33465.5011851193, -6553.799695229494, -52789.34422604373, -52698.75260576637, -40689.87556575246, -43424.16446497017, -40804.87529097501, -23209.336186568285, -42190.88461290415, -14965.923424473218, -45609.44981687663, -49237.584976862076, -42507.631183580306, -28328.71268137845, -40924.54653078873, -50690.89540134614, 0.022, 0.962, -0.1, 192.0, 0.0, 0.0, 0.0, 0.0, 0.0, 0.0, 0.0, 0.0, 0.0, 1.6689762608654094E9, 0.0, 2022-11-20 15:31:00.865
80.0, -33371.93678282938, -6507.8892121182935, -52693.94698070848, -52606.6187151216, -40592.578422138504, -43332.92464410361, -40711.24383345173, -23115.0565284558, -42166.72237714796, -14955.976898190607, -45574.82696471536, -49212.10398818302, -42478.328046599396, -28304.88572178909, -40909.682620725944, -50675.204476738516, 0.022, 0.962, -0.1, 192.0, 0.0, 0.0, 0.0, 0.0, 0.0, 0.0, 0.0, 0.0, 0.0, 1.6689762608654177E9, 0.0, 2022-11-20 15:31:00.865
82.0, -33467.401083398, -6550.53634053902, -52798.30727557031, -52717.95275425348, -40694.18945243233, -43433.95452904159, -40808.25040438776, -23213.985349414987, -42160.307426489286, -14954.121703400817, -45586.628685787764, -49216.77550277418, -42485.41354959173, -28312.351204437164, -40910.107303870594, -50684.81572685429, 0.022, 0.962, -0.1, 192.0, 0.0, 0.0, 0.0, 0.0, 0.0, 0.0, 0.0, 0.0, 0.0, 1.6689762608654256E9, 0.0, 2022-11-20 15:31:00.865
84.0, -33373.0767217966, -6535.471264776143, -52702.82062325724, -52612.13959600206, -40592.89134656088, -43330.175379535605, -40710.953260773815, -23110.832048753746, -42167.52703994835, -14974.081811199405, -45584.818194486885, -49224.777427289184, -42483.424244335205, -28310.473657902916, -40922.13254238755, -50692.683540902566, 0.022, 0.962, -0.1, 192.0, 0.0, 0.0, 0.0, 0.0, 0.0, 0.0, 0.0, 0.0, 0.0, 1.6689762608654337E9, 0.0, 2022-11-20 15:31:00.865
86.0, -33465.07650197465, -6551.877445206338, -52806.59977276323, -52718.28803042031, -40690.41200761939, -43428.0983719943, -40808.339811365586, -23208.755041212447, -42161.82734511225, -14949.00315392055, -45586.1592991542, -49220.865872009505, -42481.59140128987, -28301.9799950099, -40916.254033595804, -50679.540715162846, 0.02, 0.964, -0.094, 192.0, 0.0, 80.0, 15.0, 16.0, 126.5, 8.0, 0.0, 0.0, 0.0, 1.6689762608654416E9, 0.0, 2022-11-20 15:31:00.865
88.0, -33380.20692827785, -6559.789962743516, -52718.66801007605, -52613.88303206957, -40595.0818175175, -43326.55439693385, -40713.14373173043, -23109.200371408508, -42202.663982232094, -14981.927273503217, -45613.67429657868, -49249.945491545855, -42503.09377945588, -28317.872085317624, -40955.50369685933, -50709.447349244045, 0.02, 0.964, -0.094, 192.0, 0.0, 0.0, 0.0, 0.0, 0.0, 0.0, 0.0, 0.0, 0.0, 1.6689762608654497E9, 0.0, 2022-11-20 15:31:00.865
90.0, -33476.20767071339, -6557.621843531352, -52823.721209015996, -52731.52026313785, -40709.05336249511, -43440.16831400017, -40823.09196270609, -23222.389605330183, -42161.849696856705, -14930.071226366905, -45584.661732275694, -49211.8134155051, -42469.29794183945, -28278.51066333183, -40916.16462661799, -50672.969302292986, 0.02, 0.964, -0.094, 192.0, 0.0, 0.0, 0.0, 0.0, 0.0, 0.0, 0.0, 0.0, 0.0, 1.6689762608654575E9, 0.0, 2022-11-20 15:31:00.865
92.0, -33385.03490508019, -6582.789907788027, -52725.44058864601, -52620.208575750425, -40615.108980549456, -43339.98779535148, -40731.40510695042, -23127.081766972755, -42215.13625563816, -14994.287788187003, -45634.55082589994, -49269.54797143316, -42524.08206749941, -28329.65145464557, -40973.876830801586, -50729.787436698374, 0.02, 0.964, -0.094, 192.0, 0.0, 0.0, 0.0, 0.0, 0.0, 0.0, 0.0, 0.0, 0.0, 1.6689762608654654E9, 0.0, 2022-11-20 15:31:00.865
94.0, -33438.61203653956, -6529.212776328657, -52792.942856901034, -52708.855594260174, -40695.48585361074, -43421.124627724246, -40808.07159043212, -23203.748250454457, -42139.0956210012, -14918.984761117074, -45565.48393553304, -49197.95533394282, -42460.424299290695, -28268.9217649605, -40906.91100441349, -50662.24046495443, 0.02, 0.964, -0.094, 192.0, 0.0, 0.0, 0.0, 0.0, 0.0, 0.0, 0.0, 0.0, 0.0, 1.6689762608654735E9, 0.0, 2022-11-20 15:31:00.865
96.0, -33394.19912030687, -6603.755844087106, -52733.8448445612, -52631.94324158946, -40630.33051852352, -43348.10147858876, -40740.92695008838, -23128.86990652918, -42207.49195903444, -14991.292654429992, -45625.63247986227, -49260.31670097312, -42519.5893668639, -28331.484297690906, -40968.713577832415, -50719.75150343794, 0.022, 0.9610000000000001, -0.09, 192.0, 0.0, 96.0, 14.5, 120.0, 126.5, 40.0, 0.0, 0.0, 0.0, 1.6689762608654816E9, 0.0, 2022-11-20 15:31:00.865
98.0, -33423.43520205441, -6519.62387795733, -52776.46962123748, -52695.064567931244, -40670.85423122099, -43397.5435373239, -40781.38360755248, -23173.796912884347, -42132.255987197874, -14912.52510696949, -45553.45869701609, -49185.39365355893, -42446.096831094845, -28255.10838688712, -40893.65641995149, -50644.82845602375, 0.022, 0.9610000000000001, -0.09, 192.0, 0.0, 0.0, 0.0, 0.0, 0.0, 0.0, 0.0, 0.0, 0.0, 1.6689762608654895E9, 0.0, 2022-11-20 15:31:00.865
100.0, -33405.24088206779, -6633.55071944603, -52747.12178076766, -52661.04521287027, -40626.150742310376, -43357.735080449, -40741.575150677585, -23131.976799008466, -42213.12459863718, -15004.72605284763, -45635.40019218924, -49276.879343614506, -42524.05971575496, -28342.23548677391, -40971.507545889326, -50725.65236397414, 0.022, 0.9610000000000001, -0.09, 192.0, 0.0, 0.0, 0.0, 0.0, 0.0, 0.0, 0.0, 0.0, 0.0, 1.6689762608654995E9, 0.0, 2022-11-20 15:31:00.865
102.0, -33412.974585649325, -6524.071875103936, -52774.79324040333, -52708.16269018206, -40654.47040253525, -43395.464825089555, -40771.86176441453, -23167.24785175894, -42127.24919643989, -14923.85744140833, -45553.36929003827, -49202.24686887823, -42442.16292407071, -28258.952886933435, -40891.868280395065, -50645.051973468304, 0.022, 0.9610000000000001, -0.09, 192.0, 0.0, 0.0, 0.0, 0.0, 0.0, 0.0, 0.0, 0.0, 0.0, 1.6689762608655076E9, 0.0, 2022-11-20 15:31:00.865
104.0, -33409.30889955865, -6634.288327013055, -52755.906016338595, -52668.5330472628, -40634.57734997003, -43370.11794687724, -40754.293293272654, -23144.225554969973, -42214.2645376044, -15014.471413430145, -45645.346718471854, -49293.576096722616, -42535.570864149435, -28353.411359001562, -40985.65620012954, -50737.74465772446, 0.022, 0.9610000000000001, -0.09, 192.0, 0.0, 0.0, 0.0, 0.0, 0.0, 0.0, 0.0, 0.0, 0.0, 1.668976261345222E9, 0.0, 2022-11-20 15:31:01.345
106.0, -33381.4809777118, -6494.589924167386, -52738.002269029894, -52662.40866928204, -40624.85434113197, -43365.69230147509, -40743.34093848955, -23136.469499643983, -42102.706981027965, -14893.257903249016, -45524.96022283557, -49169.16628708438, -42417.10661853631, -28230.07443309718, -40865.82849810464, -50622.342601101715, 0.022, 0.9575, -0.087, 192.0, 0.0, 88.0, 14.5, 104.0, 126.5, 48.0, 0.0, 0.0, 0.0, 1.6689762613452606E9, 0.0, 2022-11-20 15:31:01.345
108.0, -33414.3380420611, -6629.370943232888, -52759.459943706985, -52665.8284861837, -40646.40142278688, -43385.741816251495, -40765.51386898922, -23158.709485377014, -42205.033267144354, -14996.098279487882, -45633.120314254804, -49273.571285435115, -42525.087895999895, -28337.720434393937, -40967.663045843015, -50726.65819247463, 0.022, 0.9575, -0.087, 192.0, 0.0, 0.0, 0.0, 0.0, 0.0, 0.0, 0.0, 0.0, 0.0, 1.6689762613452792E9, 0.0, 2022-11-20 15:31:01.345
110.0, -33353.18366923138, -6484.509287418043, -52712.18600418401, -52635.94420384696, -40610.54922468057, -43352.70593794656, -40725.6607086254, -23121.136202947644, -42103.06460893925, -14895.940112583652, -45523.23913851251, -49169.00982487319, -42418.67124064818, -28233.15897383201, -40865.26970449325, -50629.94219421651, 0.022, 0.9575, -0.087, 192.0, 0.0, 0.0, 0.0, 0.0, 0.0, 0.0, 0.0, 0.0, 0.0, 1.668976261345388E9, 0.0, 2022-11-20 15:31:01.345
112.0, -33408.12425710252, -6617.3010012270215, -52746.451228433994, -52657.55834073524, -40639.226512816735, -43377.851650458775, -40756.50611597373, -23148.002999782922, -42183.32972327826, -14978.529808346011, -45604.398322629735, -49252.76181134723, -42500.59038407688, -28322.94593130898, -40940.19275190744, -50710.766102166905, 0.022, 0.9575, -0.087, 192.0, 0.0, 0.0, 0.0, 0.0, 0.0, 0.0, 0.0, 0.0, 0.0, 1.6689762613453944E9, 0.0, 2022-11-20 15:31:01.345
114.0, -33377.01062882073, -6512.739540665096, -52723.07130373375, -52642.157988805535, -40615.55601543856, -43350.940150134586, -40731.40510695042, -23122.946694248523, -42096.29203036929, -14894.531952682968, -45514.81253085286, -49164.56182772658, -42408.36708645429, -28224.44179349444, -40853.40092818748, -50617.17934813254, 0.022, 0.9575, -0.087, 192.0, 0.0, 0.0, 0.0, 0.0, 0.0, 0.0, 0.0, 0.0, 0.0, 1.6689762613454E9, 0.0, 2022-11-20 15:31:01.345
116.0, -33444.53524882022, -6641.820864894494, -52790.014778377394, -52689.25311437287, -40677.8503272355, -43398.03527570191, -40794.839357714576, -23179.697773420547, -42219.89717720714, -15009.464622672156, -45648.18539001768, -49286.95998036385, -42536.777858350026, -28345.90117286458, -40981.29760996075, -50730.41328554312, 0.02, 0.9577500000000001, -0.0875, 192.0, 0.0, 72.0, 14.5, 120.0, 126.5, 32.0, 0.0, 0.0, 0.0, 1.6689762613454068E9, 0.0, 2022-11-20 15:31:01.345
118.0, -33355.62000937701, -6508.3362470074, -52711.80602452827, -52617.906346071526, -40604.402494955364, -43323.6263184102, -40722.10678125701, -23106.24994114041, -42123.270585926846, -14916.23549654907, -45543.1992463111, -49183.13612736895, -42433.11046756631, -28234.500078499328, -40894.595193218614, -50625.38243834763, 0.02, 0.9577500000000001, -0.0875, 192.0, 0.0, 0.0, 0.0, 0.0, 0.0, 0.0, 0.0, 0.0, 0.0, 1.6689762613454125E9, 0.0, 2022-11-20 15:31:01.345
120.0, -33417.735507218305, -6600.06780625198, -52763.21503677548, -52666.09670711717, -40656.81733570306, -43375.2364963575, -40772.44290977036, -23158.240098743452, -42172.98086559545, -14958.793217991975, -45598.67627604918, -49234.23221519378, -42493.68369504019, -28298.113143219132, -40945.40070836553, -50679.07132852928, 0.02, 0.9577500000000001, -0.0875, 192.0, 0.0, 0.0, 0.0, 0.0, 0.0, 0.0, 0.0, 0.0, 0.0, 1.6689762613454182E9, 0.0, 2022-11-20 15:31:01.345
122.0, -33342.81245980412, -6511.040808086492, -52696.24921038738, -52602.2154214639, -40587.146948235866, -43305.27553621239, -40702.2584321807, -23087.586234520226, -42113.70403929997, -14908.5688482009, -45533.833865384324, -49174.664816220386, -42431.23292103207, -28235.036520366255, -40885.83330939213, -50623.7507610024, 0.02, 0.9577500000000001, -0.0875, 192.0, 0.0, 0.0, 0.0, 0.0, 0.0, 0.0, 0.0, 0.0, 0.0, 1.668976261345424E9, 0.0, 2022-11-20 15:31:01.345
