%OpenBCI Raw EEG Data
%Number of channels = 16
%Sample Rate = 125 Hz
%Board = OpenBCI_GUI$BoardCytonSerialDaisy
Sample Index, EXG Channel 0, EXG Channel 1, EXG Channel 2, EXG Channel 3, EXG Channel 4, EXG Channel 5, EXG Channel 6, EXG Channel 7, EXG Channel 8, EXG Channel 9, EXG Channel 10, EXG Channel 11, EXG Channel 12, EXG Channel 13, EXG Channel 14, EXG Channel 15, Accel Channel 0, Accel Channel 1, Accel Channel 2, Other, Other, Other, Other, Other, Other, Other, Analog Channel 0, Analog Channel 1, Analog Channel 2, Timestamp, Other, Timestamp (Formatted)
0.0, -34121.81545756048, -24181.480608162954, -63165.98512720885, -57628.80982504009, -42771.27000943065, -43389.83218548682, -41071.46454709346, -29205.750430315788, 0.0, 0.0, 0.0, 0.0, 0.0, 0.0, 0.0, 0.0, 0.0, 0.0, 0.0, 192.0, 0.0, 0.0, 0.0, 0.0, 0.0, 0.0, 0.0, 0.0, 0.0, 1.6689760439869275E9, 0.0, 2022-11-20 15:27:23.986
46.0, -34103.71054455168, -24285.19270243558, -63153.5575572917, -57594.321083345545, -42743.39738409488, -43364.150031107674, -41045.91650318104, -29177.877804980017, -46557.43200271511, -13984.011290551578, -49843.45136206763, -54238.22900512565, -45458.03909993638, -24867.902680385436, -51799.743092029465, -54869.554027265796, 0.088, 0.9560000000000001, -0.084, 192.0, 1.0, 96.0, 14.5, 112.0, 126.5, 48.0, 0.0, 0.0, 0.0, 1.668976043986936E9, 0.0, 2022-11-20 15:27:23.986
48.0, -34130.599693131415, -24190.82363734527, -63161.44772308442, -57627.44636862831, -42764.0950994605, -43393.40846459967, -41068.58117205872, -29207.896197783495, -46429.02123081937, -13862.59661467035, -49724.89770947668, -54118.04367518946, -45331.662336786074, -24746.599763226484, -51670.70647128898, -54746.284156594775, 0.088, 0.9560000000000001, -0.084, 192.0, 0.0, 0.0, 0.0, 0.0, 0.0, 0.0, 0.0, 0.0, 0.0, 1.668976043986943E9, 0.0, 2022-11-20 15:27:23.986
50.0, -34120.34024242643, -24293.529903117407, -63159.816045739186, -57602.993560194205, -42756.786079023615, -43375.616476013245, -41061.13804115511, -29196.139180200003, -46571.088918577305, -14000.640988426327, -49866.36190013432, -54259.64197631383, -45473.864135010735, -24888.332174817584, -51806.470967110516, -54885.46846931797, 0.088, 0.9560000000000001, -0.084, 192.0, 0.0, 0.0, 0.0, 0.0, 0.0, 0.0, 0.0, 0.0, 0.0, 1.66897604398695E9, 0.0, 2022-11-20 15:27:23.986
52.0, -34142.624931648366, -24204.212332274, -63176.95983373641, -57639.628069356455, -42785.19514622631, -43402.393865870705, -41087.42369263455, -29221.620168879053, -46445.09213508274, -13875.56062645443, -49737.61585207175, -54131.20885267363, -45346.59330208222, -24759.161443610366, -51685.32451216275, -54756.94593869996, 0.088, 0.9560000000000001, -0.084, 192.0, 0.0, 0.0, 0.0, 0.0, 0.0, 0.0, 0.0, 0.0, 0.0, 1.6689760439869568E9, 0.0, 2022-11-20 15:27:23.986
54.0, -34121.2566639491, -24279.962394233036, -63164.286394630246, -57607.329798618535, -42757.85896275747, -43370.74379572199, -41063.61908478964, -29192.741715042797, -46569.837220887806, -14000.842154126425, -49867.09950770134, -54262.41359262629, -45479.36266414674, -24891.997860908254, -51820.083179483794, -54892.19634439902, 0.088, 0.9560000000000001, -0.084, 192.0, 0.0, 0.0, 0.0, 0.0, 0.0, 0.0, 0.0, 0.0, 0.0, 1.6689760439869635E9, 0.0, 2022-11-20 15:27:23.986
56.0, -34113.813533045475, -24179.468951161976, -63151.32238284617, -57613.901211488395, -42751.734584776714, -43366.16168810865, -41056.22065737494, -29187.176130673426, -46412.65975387809, -13842.345934193843, -49708.31271509084, -54106.2196023726, -45321.536996547824, -24737.65906544436, -51670.214732910965, -54734.3706768001, 0.088, 0.9560000000000001, -0.082, 192.0, 1.0, 96.0, 14.5, 112.0, 126.5, 56.0, 0.0, 0.0, 0.0, 1.668976043986971E9, 0.0, 2022-11-20 15:27:23.986
58.0, -34144.435422949246, -24308.170295735636, -63196.5176101348, -57645.908909548394, -42784.50224214819, -43404.338467638314, -41093.212794448475, -29221.798982834698, -46577.816793658356, -13999.322235503465, -49880.532906118984, -54276.40578465531, -45490.225611952024, -24903.73252674729, -51835.192958735584, -54902.09816719272, 0.088, 0.9560000000000001, -0.082, 192.0, 0.0, 0.0, 0.0, 0.0, 0.0, 0.0, 0.0, 0.0, 0.0, 1.6689760439869776E9, 0.0, 2022-11-20 15:27:23.986
60.0, -34075.90497444927, -24153.786796782828, -63122.332170287635, -57591.61652226646, -42722.34204081798, -43350.96250187904, -41032.93013965251, -29165.42788331841, -46398.13111998214, -13836.31096319091, -49698.902630675155, -54097.50242203503, -45310.67404874254, -24727.55607695056, -51659.21767463895, -54734.46008377792, 0.088, 0.9560000000000001, -0.082, 192.0, 0.0, 0.0, 0.0, 0.0, 0.0, 0.0, 0.0, 0.0, 0.0, 1.6689760439869845E9, 0.0, 2022-11-20 15:27:23.986
62.0, -34172.464510496204, -24327.236333756013, -63222.870316847606, -57675.86024711851, -42816.24171927473, -43449.95837807159, -41130.29433849983, -29265.474291500366, -46566.81973538634, -14001.110375059889, -49873.469754871105, -54270.88490377485, -45484.45886188255, -24910.281587872698, -51828.0851039988, -54908.71428355149, 0.088, 0.9560000000000001, -0.082, 192.0, 0.0, 0.0, 0.0, 0.0, 0.0, 0.0, 0.0, 0.0, 0.0, 1.6689760439869914E9, 0.0, 2022-11-20 15:27:23.986
64.0, -34090.16538741176, -24181.949994796516, -63128.836527924126, -57593.561124034066, -42729.06991589903, -43371.36964456674, -41042.83196244621, -29182.079932937617, -46436.710230912, -13888.926969638702, -49737.302927649376, -54144.86576853583, -45351.62244458467, -24777.445170574807, -51696.23216345694, -54779.677662811, 0.088, 0.9560000000000001, -0.082, 192.0, 0.0, 0.0, 0.0, 0.0, 0.0, 0.0, 0.0, 0.0, 0.0, 1.6689760439869983E9, 0.0, 2022-11-20 15:27:23.986
66.0, -34173.313876785505, -24309.556103891864, -63209.05693877422, -57660.57165391108, -42801.64603014541, -43438.62604363276, -41111.02713477935, -29249.895125615018, -46528.97823202351, -13971.941348545713, -49836.835245708855, -54237.15612139179, -45445.36566083022, -24880.039677624667, -51776.22905686248, -54866.2012655975, 0.08299999999999999, 0.9560000000000001, -0.081, 192.0, 1.0, 56.0, 14.5, 112.0, 126.5, 64.0, 0.0, 0.0, 0.0, 1.6689760439870052E9, 0.0, 2022-11-20 15:27:23.987
68.0, -34059.498794019084, -24154.703218305498, -63091.777335617226, -57546.91303335584, -42685.70753165574, -43315.46793168401, -40990.14890076505, -29125.641778187965, -46452.602321219725, -13886.155353326245, -49750.66927083365, -54148.03971624848, -45363.58062786825, -24789.358650369486, -51684.63160808464, -54772.90508424104, 0.08299999999999999, 0.9560000000000001, -0.081, 192.0, 0.0, 0.0, 0.0, 0.0, 0.0, 0.0, 0.0, 0.0, 0.0, 1.6689760439870121E9, 0.0, 2022-11-20 15:27:23.987
70.0, -34180.55584198902, -24293.105219972756, -63216.298903977746, -57662.09157253404, -42806.02697205865, -43429.21595921707, -41110.200120234505, -29241.088538299628, -46507.6770195576, -13931.305877125964, -49813.835300664345, -54204.32140878694, -45425.137332098166, -24844.63451440746, -51743.79667565783, -54827.68920990101, 0.08299999999999999, 0.9560000000000001, -0.081, 192.0, 0.0, 0.0, 0.0, 0.0, 0.0, 0.0, 0.0, 0.0, 0.0, 1.6689760439870193E9, 0.0, 2022-11-20 15:27:23.987
72.0, -34076.68728550521, -24187.672041377074, -63107.84823988059, -57561.84399865199, -42704.617107464925, -43327.76139113443, -41007.53855795128, -29138.404624271945, -46452.69172819755, -13889.262245805532, -49760.012300015966, -54154.67818435171, -45365.52522963587, -24786.698792779305, -51706.71513160648, -54779.74471804437, 0.08299999999999999, 0.9560000000000001, -0.081, 192.0, 0.0, 0.0, 0.0, 0.0, 0.0, 0.0, 0.0, 0.0, 0.0, 1.668976043987026E9, 0.0, 2022-11-20 15:27:23.987
74.0, -34234.84822927097, -24338.72513040604, -63262.81288418924, -57724.497643053255, -42861.52635354118, -43493.72309371509, -41167.08530987326, -29303.025222185282, -46539.148275750675, -13970.600243878394, -49852.973205205584, -54245.78389475154, -45459.84959123726, -24878.296241557153, -51796.90442048365, -54875.36548082418, 0.08299999999999999, 0.9560000000000001, -0.081, 192.0, 0.0, 0.0, 0.0, 0.0, 0.0, 0.0, 0.0, 0.0, 0.0, 1.668976043987033E9, 0.0, 2022-11-20 15:27:23.987
76.0, -34079.7941779845, -24210.26965502139, -63104.651940423486, -57567.49898999918, -42708.036924366585, -43339.876036629204, -41016.43455224449, -29150.407511044446, -46483.58183903478, -13929.718903269639, -49795.5515736999, -54196.49829822759, -45406.09364582225, -24829.68119736686, -51748.088210593254, -54833.388904737105, 0.08349999999999999, 0.9590000000000001, -0.0835, 192.0, 1.0, 80.0, 15.0, 8.0, 126.5, 40.0, 0.0, 0.0, 0.0, 1.6689760439870434E9, 0.0, 2022-11-20 15:27:23.987
78.0, -34236.39049963838, -24334.321836748342, -63252.911061395534, -57720.09434939556, -42864.05210066463, -43492.58315474787, -41168.38171105167, -29301.28178611777, -46497.03758919687, -13940.067760952445, -49814.0588181089, -54208.23296406662, -45428.355983299734, -24854.20106103433, -51758.83939967625, -54846.73289617692, 0.08349999999999999, 0.9590000000000001, -0.0835, 192.0, 0.0, 0.0, 0.0, 0.0, 0.0, 0.0, 0.0, 0.0, 0.0, 1.6689760439870503E9, 0.0, 2022-11-20 15:27:23.987
80.0, -34076.08378840492, -24220.03736734836, -63095.286559496715, -57550.51166421315, -42707.45577901075, -43322.95576607654, -41007.53855795128, -29133.62135095851, -46515.32131616132, -13958.798522805993, -49819.356181544805, -54215.51963275905, -45438.3248613268, -24861.39832274894, -51763.957949156524, -54850.62209971215, 0.08349999999999999, 0.9590000000000001, -0.0835, 192.0, 0.0, 0.0, 0.0, 0.0, 0.0, 0.0, 0.0, 0.0, 0.0, 1.6689760439870572E9, 0.0, 2022-11-20 15:27:23.987
82.0, -34213.658775527336, -24280.498836099963, -63226.491299449364, -57690.81356415911, -42845.23193183326, -43458.78731713144, -41142.073707827774, -29269.631715969055, -46475.40110056414, -13904.12615586831, -49781.78289911543, -54171.419640948734, -45406.831253389275, -24814.23614194824, -51720.46145444649, -54801.47061365493, 0.08349999999999999, 0.9590000000000001, -0.0835, 192.0, 0.0, 0.0, 0.0, 0.0, 0.0, 0.0, 0.0, 0.0, 0.0, 1.6689760439870644E9, 0.0, 2022-11-20 15:27:23.987
84.0, -34067.21014585616, -24207.74390789794, -63087.01641404825, -57532.518509926624, -42702.35958127494, -43315.423228195104, -41005.057514316744, -29128.323987522603, -46511.07448471481, -13942.504101098073, -49813.58943147534, -54201.21451630766, -45438.86130319373, -24849.86482261, -51767.84715269174, -54839.46857922895, 0.08349999999999999, 0.9590000000000001, -0.0835, 192.0, 0.0, 0.0, 0.0, 0.0, 0.0, 0.0, 0.0, 0.0, 0.0, 1.6689760439870713E9, 0.0, 2022-11-20 15:27:23.987
86.0, -34207.221473124206, -24258.370609089212, -63216.81299410022, -57674.161514539905, -42845.768373700186, -43467.258628280004, -41147.50518173041, -29273.6103264821, -46439.37008850218, -13866.485818205574, -49749.37286965524, -54128.43723636118, -45379.070386775784, -24789.313946880575, -51707.81036708479, -54776.36960463162, 0.08574999999999999, 0.9575, -0.08675, 192.0, 1.0, 96.0, 14.5, 112.0, 126.5, 24.0, 0.0, 0.0, 0.0, 1.6689760439870784E9, 0.0, 2022-11-20 15:27:23.987
88.0, -34092.73583802412, -24245.496004282955, -63111.916257371464, -57551.271623524626, -42732.579139778514, -43357.220990326525, -41038.00398564387, -29162.902136194964, -46527.65947910064, -13964.229996708633, -49835.650603252725, -54217.86656592686, -45470.645483809174, -24878.743276446257, -51803.453481609045, -54875.56664652427, 0.08574999999999999, 0.9575, -0.08675, 192.0, 0.0, 0.0, 0.0, 0.0, 0.0, 0.0, 0.0, 0.0, 0.0, 1.668976043987085E9, 0.0, 2022-11-20 15:27:23.987
90.0, -34203.19815912225, -24256.157786388136, -63204.56423813871, -57665.22081675778, -42832.42438226037, -43463.30236951141, -41136.66458566959, -29266.301306045214, -46430.76466688689, -13867.64810891725, -49741.482703862515, -54127.2749456495, -45376.87991581916, -24787.99519395771, -51698.40028266911, -54775.00614821984, 0.08574999999999999, 0.9575, -0.08675, 192.0, 0.0, 0.0, 0.0, 0.0, 0.0, 0.0, 0.0, 0.0, 0.0, 1.6689760439870925E9, 0.0, 2022-11-20 15:27:23.987
92.0, -34106.90684400879, -24267.46776908252, -63107.647074180495, -57558.20066430577, -42724.487808285696, -43352.77299317992, -41032.01371812984, -29161.873955950017, -46541.56226415185, -13989.44276445422, -49847.899359214236, -54238.49722605911, -45479.22855368001, -24896.244692354765, -51794.46808033802, -54875.63370175764, 0.08574999999999999, 0.9575, -0.08675, 192.0, 0.0, 0.0, 0.0, 0.0, 0.0, 0.0, 0.0, 0.0, 0.0, 1.6689760439870992E9, 0.0, 2022-11-20 15:27:23.987
94.0, -34219.49258083017, -24267.400713849154, -63194.50595313382, -57676.4637442188, -42826.4564664908, -43454.49578219602, -41131.94836758952, -29264.535518233242, -46419.99112605943, -13866.955204839136, -49730.97738396852, -54124.88330899279, -45365.50287789141, -24786.184702656832, -51661.050517684285, -54754.21902587641, 0.08574999999999999, 0.9575, -0.08675, 192.0, 0.0, 0.0, 0.0, 0.0, 0.0, 0.0, 0.0, 0.0, 0.0, 1.668976043987106E9, 0.0, 2022-11-20 15:27:23.987
96.0, -34176.53252798707, -24346.10120607629, -63161.96181320689, -57624.4512348713, -42787.83265207204, -43404.78550252742, -41093.57042235976, -29221.284892712225, -46606.62819226125, -14049.367791338896, -49912.406493712246, -54308.05585480403, -45544.138019578226, -24962.249393731287, -51831.907252300654, -54930.641344862146, 0.087875, 0.9577500000000001, -0.091375, 192.0, 1.0, 104.0, 14.5, 120.0, 126.5, 0.0, 0.0, 0.0, 0.0, 1.6689760439871132E9, 0.0, 2022-11-20 15:27:23.987
98.0, -34195.66562124081, -24248.669951995606, -63175.954005235915, -57655.78838059764, -42815.347649496514, -43431.40643017369, -41117.129161015655, -29246.83293662464, -46422.65098364961, -13857.321602978898, -49727.95989846705, -54121.48584383558, -45361.16663946708, -24775.545272296105, -51650.83577046821, -54748.675793251496, 0.087875, 0.9577500000000001, -0.091375, 192.0, 0.0, 0.0, 0.0, 0.0, 0.0, 0.0, 0.0, 0.0, 0.0, 1.66897604398712E9, 0.0, 2022-11-20 15:27:23.987
100.0, -34187.59664149245, -24359.467549260564, -63184.98410999586, -57640.07510424556, -42810.05028606061, -43422.868063791764, -41110.46834116797, -29236.327616730647, -46594.93822991112, -14034.280363831564, -49905.72332212011, -54300.29979947803, -45539.42180149815, -24950.9394110369, -51835.327069202314, -54921.544184868835, 0.087875, 0.9577500000000001, -0.091375, 192.0, 0.0, 0.0, 0.0, 0.0, 0.0, 0.0, 0.0, 0.0, 0.0, 1.668976043987127E9, 0.0, 2022-11-20 15:27:23.987
102.0, -34203.68989750027, -24263.511510313932, -63183.777115795274, -57659.02938354366, -42822.29904202212, -43440.05655527789, -41121.04071629533, -29250.900954115506, -46450.367146774195, -13884.456620747642, -49760.146410482696, -54154.81229481844, -45391.721474137485, -24805.787182544136, -51691.76181456588, -54774.179133674996, 0.087875, 0.9577500000000001, -0.091375, 192.0, 0.0, 0.0, 0.0, 0.0, 0.0, 0.0, 0.0, 0.0, 0.0, 1.668976043987134E9, 0.0, 2022-11-20 15:27:23.987
104.0, -34193.43044679528, -24367.2012528421, -63183.24067392835, -57643.181996724845, -42808.351553482, -43428.79127607242, -41113.217605735976, -29240.708558643888, -46594.088863621815, -14023.417416026285, -49901.05180752895, -54294.77891859757, -45529.92231010465, -24940.434091142906, -51831.43786566709, -54915.08453072125, 0.087875, 0.9577500000000001, -0.091375, 192.0, 0.0, 0.0, 0.0, 0.0, 0.0, 0.0, 0.0, 0.0, 0.0, 1.668976043987142E9, 0.0, 2022-11-20 15:27:23.987
106.0, -34159.94753360123, -24234.342483799755, -63137.441949539425, -57610.906077731386, -42774.51101237667, -43397.72235127954, -41076.784262273824, -29205.415154148955, -46432.888082610145, -13872.900768864247, -49744.7907620419, -54138.24965217706, -45372.11899425018, -24790.63269980344, -51681.21179118297, -54763.070316680714, 0.0919375, 0.959875, -0.0906875, 192.0, 1.5, 0.0, 15.0, 8.0, 126.5, 24.0, 0.0, 0.0, 0.0, 1.668976043987149E9, 0.0, 2022-11-20 15:27:23.987
108.0, -34239.810316540046, -24404.573369571375, -63224.747863381854, -57677.46957271929, -42854.083222637564, -43475.21584930609, -41161.720891203986, -29285.32264057668, -46575.64867444619, -14018.254163057109, -49890.99352252406, -54276.65165384432, -45520.780446622426, -24932.70038756137, -51824.709990586045, -54903.036940459846, 0.0919375, 0.959875, -0.0906875, 192.0, 0.0, 0.0, 0.0, 0.0, 0.0, 0.0, 0.0, 0.0, 0.0, 1.6689760439871576E9, 0.0, 2022-11-20 15:27:23.987
110.0, -34163.23324003616, -24240.4221582916, -63139.43125479594, -57601.87597297144, -42775.6956548328, -43396.20243265658, -41084.13798619962, -29209.25965419527, -46457.92203640009, -13893.374966785308, -49775.23383799003, -54156.19810297467, -45400.93039285307, -24803.686118565336, -51709.62085838567, -54787.746642559374, 0.0919375, 0.959875, -0.0906875, 192.0, 0.0, 0.0, 0.0, 0.0, 0.0, 0.0, 0.0, 0.0, 0.0, 1.6689760439871645E9, 0.0, 2022-11-20 15:27:23.987
112.0, -34252.84138355749, -24401.444125347633, -63232.861546619126, -57684.19744780034, -42864.230914620275, -43479.641494708245, -41172.069748886795, -29292.69871624693, -46578.91202913666, -14010.29694203102, -49900.805938339945, -54278.97623526767, -45523.66382165716, -24921.300997889164, -51819.77025506142, -54901.829946259255, 0.0919375, 0.959875, -0.0906875, 192.0, 0.0, 0.0, 0.0, 0.0, 0.0, 0.0, 0.0, 0.0, 0.0, 1.6689760439871716E9, 0.0, 2022-11-20 15:27:23.987
114.0, -34158.204097533715, -24264.964373703526, -63127.54012674572, -57597.27151361365, -42767.15728845087, -43383.41723482814, -41073.02916920533, -29192.942880742896, -46474.86465869721, -13927.595487546383, -49785.49328869502, -54179.01923406354, -45406.00423884443, -24810.279883179654, -51705.731654850446, -54790.09357572718, 0.0919375, 0.959875, -0.0906875, 192.0, 0.0, 0.0, 0.0, 0.0, 0.0, 0.0, 0.0, 0.0, 0.0, 1.6689760439871786E9, 0.0, 2022-11-20 15:27:23.987
116.0, -34244.30301717556, -24393.799828743915, -63228.19003202797, -57692.333482782065, -42859.80526921812, -43474.16531731669, -41168.31465581831, -29282.394562053036, -46561.54472369489, -13995.634197668338, -49878.54360086246, -54270.75079330812, -45492.66195209765, -24902.413773824428, -51794.49043208247, -54879.7017192485, 0.09096875, 0.9579375000000001, -0.08834375, 192.0, 1.0, 104.0, 14.5, 112.0, 126.5, 40.0, 0.0, 0.0, 0.0, 1.6689760439871857E9, 0.0, 2022-11-20 15:27:23.987
118.0, -34140.79208860303, -24267.154844660145, -63129.887059913526, -57603.10531891648, -42753.835648755514, -43373.40365331217, -41069.81051800377, -29181.565842815144, -46470.573123761795, -13911.345769327376, -49785.67210265066, -54181.276760253524, -45407.41239874511, -24809.94460701282, -51714.47118693247, -54797.961389775446, 0.09096875, 0.9579375000000001, -0.08834375, 192.0, 0.0, 0.0, 0.0, 0.0, 0.0, 0.0, 0.0, 0.0, 0.0, 1.6689760439871926E9, 0.0, 2022-11-20 15:27:23.987
120.0, -34274.03083730112, -24413.78228828696, -63261.96351789994, -57734.980611202795, -42880.34652237255, -43501.859128696815, -41199.71885677801, -29308.99313795485, -46568.89844762069, -14000.43982272623, -49896.55910689344, -54286.79934582703, -45504.59778363679, -24907.577026793602, -51811.79068229088, -54901.137042181144, 0.09096875, 0.9579375000000001, -0.08834375, 192.0, 0.0, 0.0, 0.0, 0.0, 0.0, 0.0, 0.0, 0.0, 0.0, 1.6689760439871995E9, 0.0, 2022-11-20 15:27:23.987
122.0, -34121.18960871573, -24262.41627483562, -63103.4449462229, -57583.43578379581, -42724.197235607775, -43350.20254256756, -41045.670633992035, -29153.849679690564, -46486.353455347235, -13924.734464256104, -49813.343562286325, -54210.91517340126, -45412.977983114484, -24821.321644940574, -51728.66454466159, -54821.006038308864, 0.09096875, 0.9579375000000001, -0.08834375, 192.0, 0.0, 0.0, 0.0, 0.0, 0.0, 0.0, 0.0, 0.0, 0.0, 1.6689760439872324E9, 0.0, 2022-11-20 15:27:23.987
124.0, -34274.1425960234, -24397.01847994548, -63252.5310817398, -57737.1263786705, -42880.502984583734, -43501.32268682989, -41198.087179432776, -29303.963995452406, -46523.703220332056, -13953.05412448098, -49849.10635341482, -54245.89565347382, -45455.66981502412, -24855.698627912836, -51757.028908375374, -54852.38788752412, 0.09096875, 0.9579375000000001, -0.08834375, 192.0, 0.0, 0.0, 0.0, 0.0, 0.0, 0.0, 0.0, 0.0, 0.0, 1.6689760439872396E9, 0.0, 2022-11-20 15:27:23.987
126.0, -34138.51221066859, -24298.3355281753, -63116.76658591826, -57602.010083438174, -42747.55480856357, -43364.6864729746, -41066.18953540201, -29165.651400762967, -46538.790647839385, -13971.0472787675, -49850.15688540422, -54256.33391813444, -45461.36950986022, -24869.44495075285, -51765.701385224034, -54858.26639631586, 0.09248437500000001, 0.95196875, -0.08517187500000001, 192.0, 1.0, 120.0, 14.5, 72.0, 126.5, 56.0, 0.0, 0.0, 0.0, 1.6689760439872468E9, 0.0, 2022-11-20 15:27:23.987
128.0, -34252.8860870464, -24366.59775574181, -63231.36397974062, -57720.85430870704, -42866.22021987679, -43478.76977667448, -41179.8705077017, -29277.70069571742, -46499.92096423161, -13933.116368426845, -49826.37462930377, -54229.668286999266, -45436.670832237105, -24840.34297947204, -51736.75587615441, -54827.77861687882, 0.09248437500000001, 0.95196875, -0.08517187500000001, 192.0, 0.0, 0.0, 0.0, 0.0, 0.0, 0.0, 0.0, 0.0, 0.0, 1.668976043987254E9, 0.0, 2022-11-20 15:27:23.987
130.0, -34137.059347279, -24308.125592246724, -63118.711187685876, -57597.58443803602, -42750.549942320584, -43362.116022362236, -41063.50732606737, -29157.940048925884, -46516.3271446618, -13952.204758191678, -49836.43291430866, -54238.474874314656, -45449.36662308772, -24847.897869097935, -51757.85592292022, -54846.8446548992, 0.09248437500000001, 0.95196875, -0.08517187500000001, 192.0, 0.0, 0.0, 0.0, 0.0, 0.0, 0.0, 0.0, 0.0, 0.0, 1.6689760439872608E9, 0.0, 2022-11-20 15:27:23.987
132.0, -34307.51375049517, -24404.707480038105, -63272.58059651621, -57766.027184251216, -42909.604955864546, -43528.435352854176, -41224.12696172321, -29320.683100304974, -46515.85775802824, -13963.782961819526, -49850.67097552669, -54252.5564733215, -45458.46378308103, -24856.145662801944, -51762.706251467025, -54854.019564869355, 0.09248437500000001, 0.95196875, -0.08517187500000001, 192.0, 0.0, 0.0, 0.0, 0.0, 0.0, 0.0, 0.0, 0.0, 0.0, 1.668976043987268E9, 0.0, 2022-11-20 15:27:23.987
134.0, -34152.95143758672, -24325.71641513305, -63123.382702277035, -57605.92163871785, -42750.59464580949, -43374.65535100167, -41065.384872601615, -29160.599906516065, -46561.92470335063, -14006.497145473617, -49888.221906211606, -54298.64577038834, -45497.44522541109, -24900.245654612263, -51800.54775482986, -54894.208001399995, 0.09248437500000001, 0.95196875, -0.08517187500000001, 192.0, 0.0, 0.0, 0.0, 0.0, 0.0, 0.0, 0.0, 0.0, 0.0, 1.668976043987275E9, 0.0, 2022-11-20 15:27:23.987
136.0, -34290.01233458666, -24374.331459323344, -63257.91785215353, -57758.44994288086, -42891.075359711096, -43524.94848071915, -41203.58570856878, -29303.695774518943, -46498.333990375286, -13931.954077715169, -49823.87123392478, -54232.86458645637, -45441.56586427282, -24845.461528952306, -51727.591660927734, -54833.16538729255, 0.09248437500000001, 0.95196875, -0.08517187500000001, 192.0, 0.0, 0.0, 0.0, 0.0, 0.0, 0.0, 0.0, 0.0, 0.0, 1.668976043987282E9, 0.0, 2022-11-20 15:27:23.987
138.0, -34150.738614885646, -24329.20328726808, -63116.677178940445, -57605.18403115083, -42752.785116766114, -43384.89244996219, -41068.71528252546, -29169.898232209474, -46569.23372378752, -13999.992787837124, -49886.56787712192, -54296.38824419836, -45510.25277498398, -24919.423451354916, -51797.798490261855, -54907.03790271735, 0.094, 0.9500000000000001, -0.09, 192.0, 1.0, 120.0, 14.5, 88.0, 126.5, 24.0, 0.0, 0.0, 0.0, 1.668976043987289E9, 0.0, 2022-11-20 15:27:23.987
140.0, -34291.68871542081, -24366.038962130424, -63239.09768332216, -57747.005849719746, -42887.27556315369, -43520.880463228284, -41199.897670733655, -29302.37702159608, -46473.32238832979, -13905.064929135435, -49793.96459984357, -54198.93463837322, -45419.75056168444, -24826.0602147651, -51702.13302399314, -54814.14405276109, 0.094, 0.9500000000000001, -0.09, 192.0, 0.0, 0.0, 0.0, 0.0, 0.0, 0.0, 0.0, 0.0, 0.0, 1.668976043987298E9, 0.0, 2022-11-20 15:27:23.987
142.0, -34183.99801063514, -24365.279002818945, -63138.31366757318, -57614.817633011065, -42772.11937571995, -43395.621287300746, -41084.205041432986, -29180.67177303693, -46596.614610745266, -14029.452387029218, -49923.49295896208, -54324.19381430076, -45542.953377122096, -24949.955934280868, -51827.63806910969, -54935.044638519845, 0.094, 0.9500000000000001, -0.09, 192.0, 0.0, 0.0, 0.0, 0.0, 0.0, 0.0, 0.0, 0.0, 0.0, 1.6689760439873052E9, 0.0, 2022-11-20 15:27:23.987
144.0, -34244.97356950922, -24308.57262713583, -63194.10362173362, -57691.66293044841, -42837.297062551625, -43465.7610614015, -41150.03092885386, -29247.12350930256, -46432.23988202094, -13863.043649559457, -49768.43890767562, -54166.457553679655, -45382.713721121996, -24795.259510905686, -51670.92998873353, -54776.88369475409, 0.094, 0.9500000000000001, -0.09, 192.0, 0.0, 0.0, 0.0, 0.0, 0.0, 0.0, 0.0, 0.0, 0.0, 1.6689760439873123E9, 0.0, 2022-11-20 15:27:23.987
146.0, -34202.751124233146, -24379.137084381233, -63166.14158942003, -57642.354982180004, -42799.053227788594, -43422.82336030285, -41115.0057452924, -29208.276177439235, -46584.20939257257, -14012.353302520909, -49915.066351302434, -54316.5718694415, -45535.040859584915, -24937.729530063814, -51820.26199343944, -54929.43435066156, 0.094, 0.9500000000000001, -0.09, 192.0, 0.0, 0.0, 0.0, 0.0, 0.0, 0.0, 0.0, 0.0, 0.0, 1.6689760439873192E9, 0.0, 2022-11-20 15:27:23.987
148.0, -34271.885069833406, -24323.928275576625, -63226.06661630471, -57726.68811400988, -42873.39512984695, -43500.22745135158, -41193.28155437488, -29285.792027210242, -46465.63338823717, -13885.641263203772, -49792.39997773171, -54195.134841815816, -45418.02947736138, -24822.171011229875, -51703.29531470482, -54807.55028814677, 0.09, 0.9580000000000001, -0.088, 192.0, 1.0, 104.0, 14.5, 120.0, 126.5, 32.0, 0.0, 0.0, 0.0, 1.6689760439873264E9, 0.0, 2022-11-20 15:27:23.987
150.0, -34253.556639380055, -24415.458669121108, -63220.92571508, -57697.921418895894, -42857.59244651705, -43478.07687259637, -41178.90938269012, -29265.6084019671, -46627.61648030478, -14046.68558200426, -49955.970043655645, -54355.843884449474, -45580.03492117345, -24989.18324579993, -51869.41347949666, -54973.132011071684, 0.09, 0.9580000000000001, -0.088, 192.0, 0.0, 0.0, 0.0, 0.0, 0.0, 0.0, 0.0, 0.0, 0.0, 1.6689760439873333E9, 0.0, 2022-11-20 15:27:23.987
152.0, -34234.08826995949, -24290.311251915846, -63188.71685131989, -57694.38984327196, -42845.43309753336, -43467.50449746901, -41160.80446968132, -29249.91747735947, -46457.363242788706, -13888.681100449694, -49791.17063178666, -54193.43610923721, -45425.04792512035, -24824.227371719764, -51707.27392521786, -54808.37730269162, 0.09, 0.9580000000000001, -0.088, 192.0, 0.0, 0.0, 0.0, 0.0, 0.0, 0.0, 0.0, 0.0, 0.0, 1.6689760439873405E9, 0.0, 2022-11-20 15:27:23.987
154.0, -34248.393386410884, -24402.11467768129, -63195.82470605669, -57672.976872083775, -42843.9131789104, -43460.128421798756, -41158.25637081342, -29244.486003456834, -46600.90614568069, -14025.809052683004, -49936.27815679052, -54332.55336672704, -45570.51307803549, -24960.79653034169, -51844.580691406816, -54948.455685193025, 0.09, 0.9580000000000001, -0.088, 192.0, 0.0, 0.0, 0.0, 0.0, 0.0, 0.0, 0.0, 0.0, 0.0, 1.6689760439873476E9, 0.0, 2022-11-20 15:27:23.987
156.0, -34211.37889759289, -24265.836091737285, -63152.35056309111, -57641.66207810189, -42804.26118424669, -43424.07505799235, -41114.13402725864, -29205.34809891559, -46457.31853929979, -13857.545120423452, -49777.73723336902, -54165.04939377897, -45408.86526213471, -24795.505380094695, -51679.021320226355, -54780.77289828932, 0.09, 0.9580000000000001, -0.088, 192.0, 0.0, 0.0, 0.0, 0.0, 0.0, 0.0, 0.0, 0.0, 0.0, 1.6689760439873557E9, 0.0, 2022-11-20 15:27:23.987
158.0, -34273.069712289536, -24401.622939303274, -63220.970418568904, -57689.807735658615, -42852.22802784777, -43472.153660315715, -41163.97841739398, -29254.83486113964, -46597.62043924576, -13983.899531829302, -49921.79422638348, -54305.440700702755, -45552.58697898233, -24932.163945694443, -51809.22023167852, -54916.313876666296, 0.088, 0.9580000000000001, -0.08600000000000001, 192.0, 1.0, 96.0, 14.5, 120.0, 126.5, 40.0, 0.0, 0.0, 0.0, 1.668976043987365E9, 0.0, 2022-11-20 15:27:23.987
160.0, -34230.355528635446, -24271.08875168428, -63173.60707206811, -57654.5590346526, -42811.011411072184, -43428.92538653915, -41120.37016396167, -29212.143029230003, -46502.1784904216, -13877.929911366691, -49812.82947216386, -54198.95699011767, -45446.08091665279, -24811.19630470232, -51708.41386418508, -54816.066302784246, 0.088, 0.9580000000000001, -0.08600000000000001, 192.0, 0.0, 0.0, 0.0, 0.0, 0.0, 0.0, 0.0, 0.0, 0.0, 1.6689760439873736E9, 0.0, 2022-11-20 15:27:23.987
162.0, -34303.98217487123, -24400.68416603615, -63253.536910240284, -57723.29064885267, -42880.14535667245, -43496.494710027546, -41191.0240281849, -29280.204091096413, -46635.99838447552, -13984.547732418507, -49941.709630693156, -54320.99751484365, -45583.67825551966, -24947.385483668506, -51835.818807580334, -54943.11361826821, 0.088, 0.9580000000000001, -0.08600000000000001, 192.0, 0.0, 0.0, 0.0, 0.0, 0.0, 0.0, 0.0, 0.0, 0.0, 1.6689760439873807E9, 0.0, 2022-11-20 15:27:23.987
164.0, -34217.19035115127, -24253.52028054241, -63155.99389743733, -57634.50951987619, -42784.03285551463, -43400.87394724774, -41094.71036132698, -29182.92929922692, -46509.04047596938, -13862.820132114904, -49806.86155639429, -54188.16109754576, -45451.73590799999, -24815.465487893285, -51709.352637452204, -54814.76990160584, 0.088, 0.9580000000000001, -0.08600000000000001, 192.0, 0.0, 0.0, 0.0, 0.0, 0.0, 0.0, 0.0, 0.0, 0.0, 1.668976043987388E9, 0.0, 2022-11-20 15:27:23.987
166.0, -34338.917951454874, -24408.909607995705, -63271.53006452681, -57740.09916068306, -42894.271659168204, -43510.17397763419, -41206.670249303614, -29293.101047647127, -46622.69909652461, -13961.637194351817, -49928.74561890908, -54299.495136677644, -45567.763813467485, -24922.46328860084, -51816.14927245966, -54922.8629377917, 0.088, 0.9580000000000001, -0.08600000000000001, 192.0, 0.0, 0.0, 0.0, 0.0, 0.0, 0.0, 0.0, 0.0, 0.0, 1.6689760439873948E9, 0.0, 2022-11-20 15:27:23.987
0.0, -17514.37992028951, -12306.110537780589, -31718.868818148236, -29073.718675818287, -21626.743272154723, -21979.900834548574, -20810.815192558195, -14790.797506665887, -23245.903640497167, -6918.736626951293, -24896.73643073278, -27084.07814312913, -22713.21686663829, -12392.231809166886, -25839.35419790199, -27392.80043754583, 0.092, 0.9580000000000001, -0.084, 192.0, 1.5, 0.0, 14.5, 120.0, 126.5, 56.0, 0.0, 0.0, 0.0, 1.6689760445591748E9, 0.0, 2022-11-20 15:27:24.559
2.0, -35148.76635655956, -24773.37715308394, -63560.91809998967, -58254.703373277596, -43371.548458522375, -44072.94619952991, -41740.27344468516, -29697.511160076996, -46910.90248953134, -14706.710244025022, -50389.57153434414, -54782.56103784574, -45759.13944949382, -25615.92616032674, -52117.048456317, -55376.91627465681, 0.092, 0.9580000000000001, -0.084, 192.0, 0.0, 0.0, 0.0, 0.0, 0.0, 0.0, 0.0, 0.0, 0.0, 1.6689760445592859E9, 0.0, 2022-11-20 15:27:24.559
4.0, -34989.5101773155, -24637.992636918145, -63397.79506895484, -58095.91658066709, -43207.66546817606, -43914.69584878634, -41577.73155900616, -29535.326902309287, -46870.98227393416, -14692.04749966234, -50351.0371269032, -54750.73215374138, -45716.40291409528, -25578.77756104202, -52083.31967393395, -55337.82307360448, 0.092, 0.9580000000000001, -0.084, 192.0, 0.0, 0.0, 0.0, 0.0, 0.0, 0.0, 0.0, 0.0, 0.0, 1.668976044559298E9, 0.0, 2022-11-20 15:27:24.559
6.0, -35131.980196473625, -24745.03514111461, -63538.074617156344, -58242.92400394964, -43350.85074315676, -44053.34371964261, -41718.055810696584, -29674.10888363229, -46869.529410544565, -14683.822057702788, -50353.138190882, -54754.822522976705, -45715.41943733924, -25588.008831502062, -52083.20791521167, -55337.53250092656, 0.092, 0.9580000000000001, -0.084, 192.0, 0.0, 0.0, 0.0, 0.0, 0.0, 0.0, 0.0, 0.0, 0.0, 1.6689760445593026E9, 0.0, 2022-11-20 15:27:24.559
8.0, -34977.3061248429, -24640.250163108132, -63388.22852232797, -58095.581304500265, -43199.32826749424, -43902.20122363582, -41567.74032923464, -29522.13937308066, -46869.79763147803, -14693.81328747431, -50340.42004828693, -54748.36286882912, -45714.48066407212, -25580.565700598443, -52079.43047039872, -55331.13990201234, 0.092, 0.9560000000000001, -0.084, 192.0, 1.0, 112.0, 14.5, 112.0, 126.5, 48.0, 0.0, 0.0, 0.0, 1.6689760445593073E9, 0.0, 2022-11-20 15:27:24.559
10.0, -35126.68283303772, -24726.52789670562, -63532.33021883133, -58250.92592846465, -43346.24628379897, -44054.975396987844, -41714.50188332819, -29670.599659752806, -46845.68009921075, -14655.23417654445, -50322.18102481139, -54724.9158888955, -45697.56039351945, -25569.792159770986, -52054.35181311987, -55315.67249484927, 0.092, 0.9560000000000001, -0.084, 192.0, 0.0, 0.0, 0.0, 0.0, 0.0, 0.0, 0.0, 0.0, 0.0, 1.668976044559312E9, 0.0, 2022-11-20 15:27:24.559
12.0, -35019.50621837452, -24694.184922478787, -63428.70753153653, -58133.78043577438, -43232.67707022156, -43939.30511943163, -41598.96571623871, -29552.157765884134, -46915.90928028933, -14727.206793690539, -50386.4422901204, -54789.065395482234, -45756.27842620354, -25628.97957908864, -52118.747188895606, -55381.47603052569, 0.092, 0.9560000000000001, -0.084, 192.0, 0.0, 0.0, 0.0, 0.0, 0.0, 0.0, 0.0, 0.0, 0.0, 1.668976044559317E9, 0.0, 2022-11-20 15:27:24.559
14.0, -35159.56224913147, -24752.634734229414, -63553.63143129724, -58271.57894034135, -43368.21804859854, -44076.12014724257, -41731.66802306986, -29684.97183143757, -46860.879285440365, -14678.14471461114, -50349.405449557955, -54748.519331040305, -45714.52536756103, -25584.566662855945, -52072.121449961836, -55336.54902417053, 0.092, 0.9560000000000001, -0.084, 192.0, 0.0, 0.0, 0.0, 0.0, 0.0, 0.0, 0.0, 0.0, 0.0, 1.6689760445593219E9, 0.0, 2022-11-20 15:27:24.559
16.0, -35028.0669365009, -24715.352024477965, -63428.327551880786, -58125.89026998166, -43241.34954707021, -43945.25068345675, -41603.972506996695, -29554.57175428531, -46942.038469557585, -14756.621689393723, -50416.57244164615, -54815.06047428375, -45784.48632770614, -25649.520832243066, -52144.16112234129, -55404.85595522594, 0.092, 0.9560000000000001, -0.084, 192.0, 0.0, 0.0, 0.0, 0.0, 0.0, 0.0, 0.0, 0.0, 0.0, 1.6689760445593264E9, 0.0, 2022-11-20 15:27:24.559
18.0, -35136.98698723161, -24731.914667119345, -63529.35743681878, -58245.00271618399, -43357.17628683762, -44061.92678951345, -41715.3959531064, -29667.313953317876, -46845.925968399766, -14657.648164945624, -50319.699981176855, -54714.52232772378, -45692.62065799483, -25556.761092753542, -52048.16037990575, -55307.581163356444, 0.08600000000000001, 0.9580000000000001, -0.078, 192.0, 1.0, 88.0, 14.5, 120.0, 126.5, 72.0, 0.0, 0.0, 0.0, 1.6689760445593312E9, 0.0, 2022-11-20 15:27:24.559
20.0, -35023.350718420836, -24731.691149674793, -63429.35573212573, -58119.5200228119, -43248.47975355146, -43942.74728807775, -41606.632364586876, -29553.498870551455, -46948.78869638308, -14761.941404574085, -50421.04279053722, -54815.75337836187, -45797.606801701404, -25658.79680619202, -52155.82873294696, -55408.23106863869, 0.08600000000000001, 0.9580000000000001, -0.078, 192.0, 0.0, 0.0, 0.0, 0.0, 0.0, 0.0, 0.0, 0.0, 0.0, 1.668976044559336E9, 0.0, 2022-11-20 15:27:24.559
22.0, -35103.32526008192, -24718.771841379625, -63495.24867477998, -58200.32157901783, -43324.09570504376, -44019.34671632609, -41677.19682183228, -29626.164391775656, -46807.01158130307, -14622.89120231762, -50286.44058542736, -54678.759536595295, -45665.03860533698, -25529.089633117874, -52020.08658886988, -55265.60458726938, 0.08600000000000001, 0.9580000000000001, -0.078, 192.0, 0.0, 0.0, 0.0, 0.0, 0.0, 0.0, 0.0, 0.0, 0.0, 1.6689760445593407E9, 0.0, 2022-11-20 15:27:24.559
24.0, -35029.631558612775, -24765.665801246858, -63425.89121173516, -58104.656112749115, -43246.42339306157, -43933.60542459553, -41598.54103309406, -29542.568867512808, -46935.08707703198, -14750.474959668514, -50413.71141835587, -54805.87390731263, -45791.750644654116, -25657.254535824602, -52149.05615437701, -55393.367158575915, 0.08600000000000001, 0.9580000000000001, -0.078, 192.0, 0.0, 0.0, 0.0, 0.0, 0.0, 0.0, 0.0, 0.0, 0.0, 1.6689760445593455E9, 0.0, 2022-11-20 15:27:24.559
26.0, -35096.955012912156, -24715.933169833803, -63478.596625160775, -58181.94844507557, -43307.018972279904, -43999.900698649966, -41661.66235943584, -29608.752382844974, -46779.76480481205, -14593.610417081169, -50262.457163626816, -54651.065725215165, -45637.92593931269, -25504.72623166159, -51995.43261473568, -55238.17899682272, 0.08600000000000001, 0.9580000000000001, -0.078, 192.0, 0.0, 0.0, 0.0, 0.0, 0.0, 0.0, 0.0, 0.0, 0.0, 1.6689760445593505E9, 0.0, 2022-11-20 15:27:24.559
28.0, -35082.29226854948, -24814.772583815167, -63473.45572393605, -58164.33527044479, -43298.70412334253, -43990.71413167884, -41657.594341944976, -29606.114876999247, -46955.941254608784, -14767.708154643555, -50429.08941854113, -54822.16832902054, -45816.78459844406, -25677.54991979002, -52166.08818365195, -55418.334057132495, 0.092, 0.9580000000000001, -0.08, 192.0, 1.0, 112.0, 14.5, 120.0, 126.5, 64.0, 0.0, 0.0, 0.0, 1.6689760445593553E9, 0.0, 2022-11-20 15:27:24.559
30.0, -35106.83448396141, -24728.1372223064, -63483.201084518565, -58199.04752958388, -43326.80026612285, -44016.552748269176, -41686.65160973687, -29635.86504886926, -46825.22825303415, -14645.824092128765, -50299.784576867176, -54693.981074569354, -45692.687713228195, -25556.023485186517, -52046.23812988259, -55292.31492189347, 0.092, 0.9580000000000001, -0.08, 192.0, 0.0, 0.0, 0.0, 0.0, 0.0, 0.0, 0.0, 0.0, 0.0, 1.66897604455936E9, 0.0, 2022-11-20 15:27:24.559
32.0, -35088.640163974786, -24817.76771757218, -63470.10296226776, -58164.96111928954, -43305.5214054014, -43991.07175959012, -41667.451461249766, -29613.110973013758, -46961.77505991162, -14770.747991889477, -50434.342078488124, -54824.939945333004, -45822.17136885779, -25689.999841451627, -52175.07358492298, -55422.71499904573, 0.092, 0.9580000000000001, -0.08, 192.0, 0.0, 0.0, 0.0, 0.0, 0.0, 0.0, 0.0, 0.0, 0.0, 1.6689760445593646E9, 0.0, 2022-11-20 15:27:24.559
34.0, -35081.26408830453, -24707.283044729596, -63440.08456946428, -58158.36735467522, -43291.775082561384, -43979.1806315399, -41649.61476917443, -29595.72131582753, -46793.01938927405, -14614.732815591433, -50265.34053866155, -54658.285338674235, -45654.22036102061, -25520.864191158318, -52006.25085905205, -55254.07108713044, 0.092, 0.9580000000000001, -0.08, 192.0, 0.0, 0.0, 0.0, 0.0, 0.0, 0.0, 0.0, 0.0, 0.0, 1.6689760445593693E9, 0.0, 2022-11-20 15:27:24.559
36.0, -35167.22889747965, -24883.481846270784, -63534.74420723251, -58233.96095442307, -43374.87886844622, -44058.30580691169, -41734.95372950479, -29678.802749967905, -46982.24925783268, -14793.077384600329, -50452.82697115267, -54846.01764035436, -45845.8195144915, -25710.876370772883, -52184.97540771669, -55438.45062714227, 0.092, 0.9580000000000001, -0.08, 192.0, 0.0, 0.0, 0.0, 0.0, 0.0, 0.0, 0.0, 0.0, 0.0, 1.6689760445593755E9, 0.0, 2022-11-20 15:27:24.559
38.0, -35083.78983542798, -24720.627036169415, -63441.29156366487, -58162.30126169935, -43292.825614550784, -43977.258381516745, -41653.01223433164, -29596.995365261482, -46855.693680726734, -14679.61992974519, -50326.09258009107, -54716.846909147134, -45719.91213797476, -25586.757133812564, -52062.6890138017, -55314.42079715977, 0.092, 0.9580000000000001, -0.076, 192.0, 1.0, 112.0, 14.5, 120.0, 126.5, 80.0, 0.0, 0.0, 0.0, 1.6689760445593803E9, 0.0, 2022-11-20 15:27:24.559
40.0, -35158.1987927197, -24874.854072911035, -63520.50614601447, -58222.13688160621, -43359.813792683344, -44037.943367712905, -41720.76037177567, -29659.87082241426, -46964.881952390904, -14783.6896519291, -50438.87948261255, -54828.71739014595, -45830.6650317508, -25701.108658445915, -52167.205770874716, -55417.7305600322, 0.092, 0.9580000000000001, -0.076, 192.0, 0.0, 0.0, 0.0, 0.0, 0.0, 0.0, 0.0, 0.0, 0.0, 1.668976044559385E9, 0.0, 2022-11-20 15:27:24.559
42.0, -35095.412742544744, -24751.114815606456, -63453.80854055984, -58162.211854721536, -43291.03747499436, -43977.05721581665, -41649.79358313007, -29594.782542560406, -46857.146544116324, -14663.52667373737, -50320.258774788235, -54706.74392065334, -45708.15512039127, -25576.788255785497, -52049.76970550653, -55297.79109928502, 0.092, 0.9580000000000001, -0.076, 192.0, 0.0, 0.0, 0.0, 0.0, 0.0, 0.0, 0.0, 0.0, 0.0, 1.66897604455939E9, 0.0, 2022-11-20 15:27:24.559
44.0, -35176.16959526177, -24880.754933447235, -63541.29326835791, -58239.459483559076, -43369.76031896595, -44056.607074333086, -41729.76812479116, -29674.57827026585, -46986.987827657205, -14790.171657821138, -50459.7113084449, -54840.54146296281, -45842.62321503439, -25713.625635340886, -52176.45939307921, -55434.136740462396, 0.092, 0.9580000000000001, -0.076, 192.0, 0.0, 0.0, 0.0, 0.0, 0.0, 0.0, 0.0, 0.0, 0.0, 1.6689760445593948E9, 0.0, 2022-11-20 15:27:24.559
46.0, -35065.39434974126, -24729.455975229263, -63427.09820593575, -58128.50542408293, -43260.884971724154, -43946.56943637961, -41618.99287927066, -29565.166481157125, -46857.32535807197, -14671.796819185833, -50328.41716151442, -54708.48735672085, -45711.01614368155, -25584.790180300497, -52051.80371425197, -55307.156480211794, 0.092, 0.9580000000000001, -0.076, 192.0, 0.0, 0.0, 0.0, 0.0, 0.0, 0.0, 0.0, 0.0, 0.0, 1.6689760445593996E9, 0.0, 2022-11-20 15:27:24.559
48.0, -35173.68855162723, -24859.49842447024, -63528.12809087373, -58225.95902990807, -43363.99356889648, -44047.42050736195, -41718.21227290777, -29667.045732384413, -46942.64196665787, -14747.412770678136, -50415.74542710131, -54790.89823852757, -45806.94983088372, -25675.448855811224, -52132.02412510206, -55388.36036781793, 0.087, 0.9590000000000001, -0.079, 192.0, 1.0, 72.0, 15.0, 0.0, 126.5, 56.0, 0.0, 0.0, 0.0, 1.6689760445594044E9, 0.0, 2022-11-20 15:27:24.559
50.0, -35032.04554701395, -24716.447259956272, -63375.59978671072, -58084.71835669498, -43215.68974443552, -43906.001020193224, -41570.73546299165, -29522.5193527364, -46856.09601212693, -14678.94937741153, -50322.091617833576, -54706.363940997595, -45713.519539060544, -25583.292613421992, -52038.95146119016, -55300.62977083085, 0.087, 0.9590000000000001, -0.079, 192.0, 0.0, 0.0, 0.0, 0.0, 0.0, 0.0, 0.0, 0.0, 0.0, 1.6689760445594091E9, 0.0, 2022-11-20 15:27:24.559
52.0, -35194.49802571512, -24868.640287952458, -63537.448768311595, -58249.20484414159, -43376.42113881363, -44067.850001794104, -41730.97511899175, -29681.060276157892, -46919.64202161336, -14731.207755948039, -50393.01370299026, -54771.85455225165, -45779.94892358172, -25656.963963146685, -52096.26133397357, -55366.20978906272, 0.087, 0.9590000000000001, -0.079, 192.0, 0.0, 0.0, 0.0, 0.0, 0.0, 0.0, 0.0, 0.0, 0.0, 1.668976044559414E9, 0.0, 2022-11-20 15:27:24.559
54.0, -35026.45761090012, -24728.204277539764, -63380.04778385732, -58095.1119178667, -43216.89673863611, -43908.4150085944, -41576.4128060833, -29523.74869868144, -46869.97644543368, -14697.613084031713, -50336.82141742962, -54720.423188259985, -45725.45537059967, -25605.01850903255, -52054.217702653135, -55319.51699489558, 0.087, 0.9590000000000001, -0.079, 192.0, 0.0, 0.0, 0.0, 0.0, 0.0, 0.0, 0.0, 0.0, 0.0, 1.668976044559419E9, 0.0, 2022-11-20 15:27:24.559
56.0, -35205.98682236514, -24869.668468197404, -63561.54394883442, -58278.55268461141, -43398.14703442419, -44092.34751371712, -41754.131526247445, -29701.802695012415, -46906.99093425166, -14728.190270446572, -50380.47437435084, -54761.99743294685, -45772.595199655916, -25652.337152044434, -52096.730720607135, -55362.23117854967, 0.087, 0.9590000000000001, -0.079, 192.0, 0.0, 0.0, 0.0, 0.0, 0.0, 0.0, 0.0, 0.0, 0.0, 1.6689760445594237E9, 0.0, 2022-11-20 15:27:24.559
58.0, -35081.9793441271, -24793.851351005003, -63440.03986597537, -58138.496653854454, -43276.061806209305, -43963.5791139101, -41626.57012064101, -29572.05081844936, -46939.53507417859, -14760.555596417857, -50401.32855192763, -54782.76220354583, -45798.947906368725, -25672.945460432227, -52126.19031979923, -55382.01247239262, 0.0885, 0.9555, -0.0775, 192.0, 1.0, 104.0, 14.5, 96.0, 126.5, 80.0, 0.0, 0.0, 0.0, 1.6689760445594285E9, 0.0, 2022-11-20 15:27:24.559
60.0, -35216.715659703696, -24868.68499144137, -63564.18145468015, -58274.03763223143, -43412.6980200646, -44105.35622899011, -41759.96533155028, -29709.759916038503, -46919.597318124455, -14737.846224051265, -50391.62789483403, -54765.95369171545, -45792.376493498865, -25663.334210316447, -52108.91242133528, -55365.36042277342, 0.0885, 0.9555, -0.0775, 192.0, 0.0, 0.0, 0.0, 0.0, 0.0, 0.0, 0.0, 0.0, 0.0, 1.668976044559433E9, 0.0, 2022-11-20 15:27:24.559
62.0, -35085.42151277322, -24814.81728730408, -63436.776511284894, -58139.92716549959, -43282.499108612436, -43979.29239026218, -41635.60022540095, -29585.886548267194, -46950.37567023941, -14788.987015365008, -50418.80761609168, -54802.40938692205, -45821.97020315769, -25697.241806655147, -52141.59067172893, -55403.89483021436, 0.0885, 0.9555, -0.0775, 192.0, 0.0, 0.0, 0.0, 0.0, 0.0, 0.0, 0.0, 0.0, 0.0, 1.6689760445594378E9, 0.0, 2022-11-20 15:27:24.559
64.0, -35219.6660899718, -24858.269078525198, -63559.420533111166, -58281.27959743495, -43415.08965672131, -44117.80615065171, -41774.60572416851, -29723.17096271169, -46898.58667833647, -14722.043540721363, -50369.63377829001, -54749.94984268545, -45769.60006589891, -25650.973695632663, -52085.77836582403, -55354.25160577913, 0.0885, 0.9555, -0.0775, 192.0, 0.0, 0.0, 0.0, 0.0, 0.0, 0.0, 0.0, 0.0, 0.0, 1.6689760445594435E9, 0.0, 2022-11-20 15:27:24.559
66.0, -35103.14644612628, -24839.9629998163, -63456.222528961014, -58151.08068598279, -43300.33580068777, -43991.98818111279, -41666.42328100482, -29606.159580488158, -46978.15888859736, -14810.288227830915, -50448.60249145061, -54829.678515157524, -45849.418145348805, -25735.686807118276, -52174.76066050061, -55438.87531028692, 0.0885, 0.9555, -0.0775, 192.0, 0.0, 0.0, 0.0, 0.0, 0.0, 0.0, 0.0, 0.0, 0.0, 1.6689760445594482E9, 0.0, 2022-11-20 15:27:24.559
68.0, -35201.114142073886, -24837.48195618176, -63546.72474226055, -58255.39627735571, -43392.44733958809, -44087.58659214814, -41744.22970345375, -29699.344003122333, -46882.78399500656, -14694.796764230343, -50354.32283333813, -54727.82161567469, -45752.05394650149, -25631.12534655635, -52077.441165142205, -55334.9620503142, 0.09225, 0.95475, -0.07875, 192.0, 1.5, 0.0, 14.5, 104.0, 126.5, 64.0, 0.0, 0.0, 0.0, 1.6689760445594544E9, 0.0, 2022-11-20 15:27:24.559
70.0, -35087.05319011846, -24839.29244748264, -63443.19146194357, -58132.64049680716, -43275.99475097594, -43964.16025926593, -41621.56332988302, -29574.598917317264, -46971.14044083839, -14800.274646314938, -50441.56169194719, -54818.569698163235, -45838.04110742106, -25719.66060634382, -52164.79178247354, -55422.15620543435, 0.09225, 0.95475, -0.07875, 192.0, 0.0, 0.0, 0.0, 0.0, 0.0, 0.0, 0.0, 0.0, 0.0, 1.668976044559459E9, 0.0, 2022-11-20 15:27:24.559
72.0, -35172.928592315744, -24809.542275612628, -63514.22530582253, -58229.35649506527, -43358.5844467383, -44054.10367895409, -41699.10153139848, -29654.126424089245, -46847.7588114451, -14687.24187460445, -50324.97499286831, -54701.759481639805, -45726.41649561125, -25600.704622352678, -52044.62880428181, -55298.81927952997, 0.09225, 0.95475, -0.07875, 192.0, 0.0, 0.0, 0.0, 0.0, 0.0, 0.0, 0.0, 0.0, 0.0, 1.6689760445594637E9, 0.0, 2022-11-20 15:27:24.559
74.0, -35121.25135913508, -24883.481846270784, -63471.06408727934, -58165.050526267354, -43300.84989081024, -43999.87834690551, -41643.84801910496, -29597.777676317415, -46983.568010755545, -14823.341646592815, -50449.74243041783, -54829.700866901985, -45851.6756715388, -25733.943371050762, -52170.357366842916, -55422.73735079019, 0.09225, 0.95475, -0.07875, 192.0, 0.0, 0.0, 0.0, 0.0, 0.0, 0.0, 0.0, 0.0, 0.0, 1.6689760445594702E9, 0.0, 2022-11-20 15:27:24.559
76.0, -35195.54855770452, -24840.25357249422, -63528.932753674126, -58241.605251026784, -43368.620379998734, -44072.78973731872, -41706.96934544675, -29669.370313807765, -46870.445832067235, -14701.614046289213, -50332.30636504965, -54712.48831897835, -45734.50782710408, -25616.999044060594, -52047.7356967611, -55301.07680571995, 0.09225, 0.95475, -0.07875, 192.0, 0.0, 0.0, 0.0, 0.0, 0.0, 0.0, 0.0, 0.0, 0.0, 1.6689760445594752E9, 0.0, 2022-11-20 15:27:24.559
78.0, -35178.13654877384, -24936.41077714095, -63518.80741343587, -58208.85994539976, -43350.20254256756, -44050.28153065223, -41691.72545572823, -29651.086586843325, -47018.45908385028, -14855.818731286376, -50489.28266635927, -54866.6483004866, -45889.09249175698, -25771.427246502313, -52200.755739302134, -55459.66243263036, 0.093125, 0.956375, -0.080375, 192.0, 1.0, 120.0, 14.5, 120.0, 126.5, 56.0, 0.0, 0.0, 0.0, 1.66897604455948E9, 0.0, 2022-11-20 15:27:24.559
80.0, -35212.46882825719, -24854.446930223337, -63539.21455612357, -58242.34285859381, -43384.713636006556, -44073.88497279704, -41720.35804037548, -29679.428598812654, -46901.76062604912, -14739.276735696405, -50369.96905445684, -54744.540720527264, -45770.695301377214, -25645.36340777438, -52086.672435602246, -55335.94552707023, 0.093125, 0.956375, -0.080375, 192.0, 0.0, 0.0, 0.0, 0.0, 0.0, 0.0, 0.0, 0.0, 0.0, 1.6689760445594847E9, 0.0, 2022-11-20 15:27:24.559
82.0, -35179.14237727432, -24926.0842712026, -63517.309846557364, -58192.99020683649, -43351.565998979335, -44028.0415449192, -41687.925659170825, -29641.229467538535, -47028.07033396606, -14855.259937674993, -50494.31180886171, -54864.23431208543, -45900.06719828453, -25767.940374367285, -52211.21635570721, -55450.833493570506, 0.093125, 0.956375, -0.080375, 192.0, 0.0, 0.0, 0.0, 0.0, 0.0, 0.0, 0.0, 0.0, 0.0, 1.6689760445594895E9, 0.0, 2022-11-20 15:27:24.559
84.0, -35168.90527831379, -24819.37704317296, -63495.27102652443, -58193.101965558766, -43341.641824441176, -44016.329230824624, -41672.68176945231, -29629.360691232767, -46865.95313143172, -14700.764679999911, -50329.62415571501, -54700.93246709496, -45736.921815505244, -25601.576340386433, -52050.864940984844, -55284.55886656748, 0.093125, 0.956375, -0.080375, 192.0, 0.0, 0.0, 0.0, 0.0, 0.0, 0.0, 0.0, 0.0, 0.0, 1.6689760445594945E9, 0.0, 2022-11-20 15:27:24.559
86.0, -35207.70790668821, -24946.22319295683, -63547.61881203876, -58228.820053198346, -43385.63005752922, -44063.04437673621, -41715.68652578432, -29674.935898177137, -47038.17332245986, -14862.300737178415, -50503.54307932175, -54870.96218716648, -45908.40439896636, -25786.894653665386, -52215.48553889818, -55454.63329012791, 0.093125, 0.956375, -0.080375, 192.0, 0.0, 0.0, 0.0, 0.0, 0.0, 0.0, 0.0, 0.0, 0.0, 1.6689760445594995E9, 0.0, 2022-11-20 15:27:24.559
88.0, -35119.50792306756, -24771.656068760883, -63446.0748369783, -58148.08555222578, -43295.55252737433, -43983.98625659779, -41624.78198108458, -29591.56389135884, -46863.69560524173, -14695.132040397173, -50327.85836790304, -54695.478641447866, -45730.12688519083, -25613.26630273656, -52041.834836224894, -55290.97381722616, 0.09256249999999999, 0.9571875000000001, -0.0831875, 192.0, 1.0, 112.0, 14.5, 120.0, 126.5, 40.0, 0.0, 0.0, 0.0, 1.6689760445595045E9, 0.0, 2022-11-20 15:27:24.559
90.0, -35200.17536880677, -24927.760652036748, -63530.184451363624, -58222.47215777304, -43379.036292914905, -44063.13378371403, -41708.556319303076, -29674.332401076845, -46988.48539453571, -14812.83632669882, -50453.31870953068, -54822.280087742816, -45858.47060185321, -25741.811185099028, -52166.7140324967, -55420.36806587793, 0.09256249999999999, 0.9571875000000001, -0.0831875, 192.0, 0.0, 0.0, 0.0, 0.0, 0.0, 0.0, 0.0, 0.0, 0.0, 1.6689760445595093E9, 0.0, 2022-11-20 15:27:24.559
92.0, -35099.48076003561, -24775.969955440756, -63421.53262156637, -58126.69493278205, -43276.37473063168, -43964.115555777025, -41601.6702773178, -29572.81077776084, -46869.261189611105, -14699.311816610316, -50325.06439984613, -54698.83140311616, -45734.15019919279, -25616.797878360496, -52054.12829567531, -55302.46261387618, 0.09256249999999999, 0.9571875000000001, -0.0831875, 192.0, 0.0, 0.0, 0.0, 0.0, 0.0, 0.0, 0.0, 0.0, 0.0, 1.668976044559514E9, 0.0, 2022-11-20 15:27:24.559
94.0, -35247.40460484083, -24964.484568176817, -63569.07648671586, -58270.61781532977, -43417.12366546675, -44107.211423779896, -41742.329805175046, -29716.085459719357, -46976.147231596384, -14803.917980661152, -50443.21572103688, -54813.42879693852, -45855.34135762946, -25733.496336161654, -52154.77820095757, -55409.84039423948, 0.09256249999999999, 0.9571875000000001, -0.0831875, 192.0, 0.0, 0.0, 0.0, 0.0, 0.0, 0.0, 0.0, 0.0, 0.0, 1.6689760445595188E9, 0.0, 2022-11-20 15:27:24.559
96.0, -35109.248472362575, -24790.655051547892, -63432.19440367156, -58146.16330220262, -43290.255163938426, -43979.1806315399, -41614.164902468314, -29591.47448438102, -46908.64496334136, -14748.195081734071, -50368.5385428117, -54747.267633350806, -45785.805080629005, -25667.715152229688, -52090.8969153043, -55350.161236543805, 0.09256249999999999, 0.9571875000000001, -0.0831875, 192.0, 0.0, 0.0, 0.0, 0.0, 0.0, 0.0, 0.0, 0.0, 0.0, 1.6689760445595236E9, 0.0, 2022-11-20 15:27:24.559
98.0, -35249.25979963062, -24939.517669620236, -63572.92098676217, -58282.97833001356, -43434.6027296308, -44124.17639782148, -41757.908971060395, -29734.480945406074, -46971.00633037166, -14788.517628731446, -50430.788151119734, -54805.53863114579, -45852.83796225047, -25737.027911785593, -52151.69366022273, -55417.50704258765, 0.08828125, 0.95759375, -0.08259375, 192.0, 1.0, 80.0, 14.5, 120.0, 126.5, 56.0, 0.0, 0.0, 0.0, 1.6689760445595286E9, 0.0, 2022-11-20 15:27:24.559
100.0, -35116.66925152174, -24804.691947065825, -63437.58117408529, -58144.10694171274, -43301.74396058845, -43987.98721885529, -41622.770324083605, -29598.984670518003, -46940.87617884591, -14767.037602309896, -50390.71147331136, -54769.909950484034, -45810.749627441124, -25701.24276891265, -52120.289459263025, -55380.023167136096, 0.08828125, 0.95759375, -0.08259375, 192.0, 0.0, 0.0, 0.0, 0.0, 0.0, 0.0, 0.0, 0.0, 0.0, 1.6689760445595345E9, 0.0, 2022-11-20 15:27:24.559
102.0, -35252.321988621, -24918.64114029898, -63572.63041408425, -58278.86560903378, -43435.36268894228, -44120.980098364365, -41752.656311113395, -29731.88814304926, -46959.98692035519, -14786.662433941656, -50421.22160449286, -54794.34040717369, -45842.80202899004, -25729.98711228217, -52142.08241010695, -55398.50805980064, 0.08828125, 0.95759375, -0.08259375, 192.0, 0.0, 0.0, 0.0, 0.0, 0.0, 0.0, 0.0, 0.0, 0.0, 1.6689760445595396E9, 0.0, 2022-11-20 15:27:24.559
104.0, -35113.1376758978, -24813.63264484795, -63436.307124651335, -58139.14485444366, -43293.719684329, -43982.51104146374, -41612.220300700705, -29594.536673371396, -46950.26391151713, -14781.476829228024, -50404.63661010702, -54781.19758143397, -45821.41140954631, -25709.870542272394, -52126.726761666156, -55386.1251933724, 0.08828125, 0.95759375, -0.08259375, 192.0, 0.0, 0.0, 0.0, 0.0, 0.0, 0.0, 0.0, 0.0, 0.0, 1.6689760445595443E9, 0.0, 2022-11-20 15:27:24.559
106.0, -35252.45609908773, -24911.667396028926, -63568.38358263774, -58281.12313522377, -43424.27622369245, -44118.25318554082, -41742.62037785297, -29730.45763140412, -46940.65266140136, -14762.92488133012, -50401.440310649916, -54774.49205809737, -45813.901223409324, -25697.062992699506, -52105.045569544505, -55373.40705077733, 0.08828125, 0.95759375, -0.08259375, 192.0, 0.0, 0.0, 0.0, 0.0, 0.0, 0.0, 0.0, 0.0, 0.0, 1.668976044559549E9, 0.0, 2022-11-20 15:27:24.559
108.0, -35108.15323688427, -24827.37896768796, -63427.58994431376, -58130.740598528464, -43278.52049809939, -43968.18357326789, -41597.93753599376, -29582.869062765727, -46953.974301096714, -14790.685747943611, -50415.65602012349, -54798.922514787024, -45832.7660957296, -25726.299074447048, -52131.688848935235, -55399.29037085657, 0.084140625, 0.960796875, -0.085296875, 192.0, 1.0, 64.0, 15.0, 16.0, 126.5, 32.0, 0.0, 0.0, 0.0, 1.668976044559554E9, 0.0, 2022-11-20 15:27:24.559
110.0, -35272.3267999085, -24923.156192678955, -63587.44962065812, -58300.8597255778, -43443.87870357975, -44133.78764793726, -41762.44637518482, -29746.88616357877, -46927.82276008401, -14754.833549837298, -50391.38202564503, -54769.95465397295, -45805.787540172045, -25700.16988517879, -52106.76665386756, -55370.54602748705, 0.084140625, 0.960796875, -0.085296875, 192.0, 0.0, 0.0, 0.0, 0.0, 0.0, 0.0, 0.0, 0.0, 0.0, 1.6689760445595589E9, 0.0, 2022-11-20 15:27:24.559
112.0, -35130.41557436175, -24868.1709013189, -63454.32263068231, -58153.36056391723, -43305.342591445755, -43987.13785256599, -41623.66439386182, -29604.036164764904, -47000.2424121192, -14838.496129333513, -50458.10198284411, -54836.4957972164, -45874.20622994974, -25760.98898184168, -52180.37094835889, -55440.127007976414, 0.084140625, 0.960796875, -0.085296875, 192.0, 0.0, 0.0, 0.0, 0.0, 0.0, 0.0, 0.0, 0.0, 0.0, 1.6689760445595636E9, 0.0, 2022-11-20 15:27:24.559
114.0, -35220.38134579436, -24858.11261631401, -63524.730625716526, -58248.95897495258, -43386.83705172981, -44073.99673151931, -41700.509691299165, -29683.228395370057, -46887.924896231285, -14726.893869268164, -50356.37919382801, -54730.21325233141, -45770.270618232564, -25653.41003577829, -52072.9931679956, -55333.48683518015, 0.084140625, 0.960796875, -0.085296875, 192.0, 0.0, 0.0, 0.0, 0.0, 0.0, 0.0, 0.0, 0.0, 0.0, 1.6689760445595686E9, 0.0, 2022-11-20 15:27:24.559
116.0, -35118.278577122524, -24852.614087178004, -63430.22745015949, -58143.72696205699, -43284.08608246876, -43975.850221616056, -41599.65862031682, -29580.05274296436, -46968.525286737124, -14816.904344189687, -50430.27406099726, -54811.66300912655, -45844.7689825021, -25729.204801226235, -52146.21748283118, -55413.88605998589, 0.084140625, 0.960796875, -0.085296875, 192.0, 0.0, 0.0, 0.0, 0.0, 0.0, 0.0, 0.0, 0.0, 0.0, 1.668976044559574E9, 0.0, 2022-11-20 15:27:24.559
118.0, -35239.87206695939, -24863.052351838633, -63542.969649192055, -58276.496324121515, -43410.35108689679, -44107.412589479994, -41725.63305206693, -29711.235131172554, -46880.928800216774, -14714.376892373193, -50340.308289564644, -54719.17149057049, -45758.8488768159, -25639.88723038283, -52054.843551497885, -55327.67538162177, 0.084140625, 0.960796875, -0.085296875, 192.0, 0.0, 0.0, 0.0, 0.0, 0.0, 0.0, 0.0, 0.0, 0.0, 1.668976044559579E9, 0.0, 2022-11-20 15:27:24.559
120.0, -35154.04136825101, -24901.65381451295, -63466.88431106619, -58177.90277932916, -43321.45819919804, -44010.1377976105, -41636.31548122352, -29619.458868439066, -47019.710781539776, -14857.517463864979, -50470.82012543918, -54856.14298059261, -45892.53466040309, -25777.216348316237, -52190.22806766368, -55461.22705474223, 0.08600000000000001, 0.964, -0.088, 192.0, 1.0, 88.0, 15.0, 16.0, 126.5, 32.0, 0.0, 0.0, 0.0, 1.668976044559584E9, 0.0, 2022-11-20 15:27:24.559
122.0, -35235.82640121298, -24872.998878121245, -63537.49347180051, -58266.505094349995, -43401.20922341457, -44086.53606015874, -41709.942127459304, -29692.794941996926, -46894.04927421204, -14724.34577040026, -50348.377269313016, -54729.855624420125, -45766.49317341962, -25641.96594261717, -52062.42079286824, -55325.17198624277, 0.08600000000000001, 0.964, -0.088, 192.0, 0.0, 0.0, 0.0, 0.0, 0.0, 0.0, 0.0, 0.0, 0.0, 1.6689760450393372E9, 0.0, 2022-11-20 15:27:25.039
124.0, -35166.513641657075, -24922.46328860084, -63479.17777051661, -58190.41975622413, -43333.08110631479, -44012.26121333375, -41647.62546391791, -29622.789278362907, -47043.91772078487, -14864.312394179393, -50495.40704434002, -54874.091431390225, -45901.631820396404, -25778.356287283455, -52204.19790794825, -55462.34464196499, 0.08600000000000001, 0.964, -0.088, 192.0, 0.0, 0.0, 0.0, 0.0, 0.0, 0.0, 0.0, 0.0, 0.0, 1.668976045039398E9, 0.0, 2022-11-20 15:27:25.039
126.0, -35207.10440958791, -24837.34784571503, -63507.1398028302, -58249.83069298634, -43376.8905254472, -44067.76059481628, -41693.2900778401, -29672.72307547606, -46878.87243972688, -14710.219467904506, -50334.519187750724, -54722.92658363898, -45743.73909756412, -25628.376081988346, -52047.91451071674, -55311.87269829187, 0.08600000000000001, 0.964, -0.088, 192.0, 0.0, 0.0, 0.0, 0.0, 0.0, 0.0, 0.0, 0.0, 0.0, 1.6689760450394027E9, 0.0, 2022-11-20 15:27:25.039
128.0, -35181.98104882015, -24928.766480537237, -63488.96783458804, -58212.77150067944, -43351.565998979335, -44042.838399748616, -41670.737167684696, -29647.1973833081, -47023.84585426401, -14859.126789465761, -50475.89397143054, -54870.69396623301, -45891.931163302805, -25775.42820875981, -52189.848088007944, -55458.85776982996, 0.08600000000000001, 0.964, -0.088, 192.0, 0.0, 0.0, 0.0, 0.0, 0.0, 0.0, 0.0, 0.0, 0.0, 1.6689760450394075E9, 0.0, 2022-11-20 15:27:25.039
130.0, -35184.64090641033, -24818.214752461285, -63481.56940717333, -58222.69567521759, -43349.84491465627, -44045.81118176117, -41668.18906881679, -29646.459775741074, -46880.168840905295, -14714.600409817745, -50333.22278657232, -54725.318220295696, -45750.221103456155, -25624.241009264115, -52049.92616771772, -55315.627791360355, 0.088, 0.964, -0.082, 192.0, 1.0, 96.0, 15.0, 16.0, 126.5, 56.0, 0.0, 0.0, 0.0, 1.6689760450394125E9, 0.0, 2022-11-20 15:27:25.039
132.0, -35191.43583672474, -24928.07357645912, -63500.56838996034, -58222.874489173235, -43352.70593794656, -44047.442859106406, -41671.63123746291, -29645.05161584039, -47010.92654596884, -14843.36880962477, -50474.50816327431, -54859.02635562734, -45891.95351504726, -25763.604135942955, -52180.14743091434, -55442.87627254442, 0.088, 0.964, -0.082, 192.0, 0.0, 0.0, 0.0, 0.0, 0.0, 0.0, 0.0, 0.0, 0.0, 1.6689760450394242E9, 0.0, 2022-11-20 15:27:25.039
134.0, -35191.63700242484, -24825.81434557609, -63497.30503526986, -58237.47017830255, -43357.10923160425, -44048.649853307, -41675.65455146487, -29646.77270016345, -46886.60614330842, -14725.798633789855, -50344.62217624452, -54732.582537243674, -45753.573865124454, -25628.353730243893, -52058.08455444391, -55314.5549076265, 0.088, 0.964, -0.082, 192.0, 0.0, 0.0, 0.0, 0.0, 0.0, 0.0, 0.0, 0.0, 0.0, 1.6689760450394287E9, 0.0, 2022-11-20 15:27:25.039
136.0, -35244.90120946184, -24962.294097220194, -63561.074562200854, -58278.329167166856, -43410.01581072996, -44096.41553120798, -41732.383278892434, -29695.097171675825, -47055.38416569045, -14885.99358630104, -50515.41185562752, -54900.220620658474, -45930.28675678811, -25796.640014247896, -52235.490350185675, -55486.015139343166, 0.088, 0.964, -0.082, 192.0, 0.0, 0.0, 0.0, 0.0, 0.0, 0.0, 0.0, 0.0, 0.0, 1.6689760450394337E9, 0.0, 2022-11-20 15:27:25.039
138.0, -35172.25803998209, -24814.414955903885, -63473.32161346932, -58204.65781744216, -43333.41638248162, -44023.90647219497, -41655.94031285528, -29618.318929471843, -46913.60705061043, -14749.469131168025, -50366.951568955374, -54755.06839216571, -45782.11704279388, -25649.6549427098, -52098.72002586365, -55336.6607828928, 0.088, 0.964, -0.082, 192.0, 0.0, 0.0, 0.0, 0.0, 0.0, 0.0, 0.0, 0.0, 0.0, 1.6689760450394385E9, 0.0, 2022-11-20 15:27:25.039
140.0, -35249.908000219824, -24958.002562284775, -63551.44096034062, -58278.64209158923, -43407.37830488424, -44108.597231936124, -41735.601930093995, -29699.67927928916, -47027.89152001042, -14853.427094629658, -50481.83953545565, -54870.13517262163, -45903.41995995283, -25772.008391858148, -52205.293143426556, -55444.64206035639, 0.092, 0.96, -0.078, 192.0, 1.0, 112.0, 15.0, 0.0, 126.5, 72.0, 0.0, 0.0, 0.0, 1.6689760450394433E9, 0.0, 2022-11-20 15:27:25.039
142.0, -35157.9976270196, -24812.559761114095, -63449.69581958006, -58195.58300919331, -43309.50001591445, -44026.47692280733, -41639.7800016141, -29611.322833457332, -46916.78099832308, -14762.701363885566, -50363.15177239797, -54762.66798528052, -45787.36970274088, -25661.657829482298, -52087.38769142481, -55342.47223645118, 0.092, 0.96, -0.078, 192.0, 0.0, 0.0, 0.0, 0.0, 0.0, 0.0, 0.0, 0.0, 0.0, 1.6689760450394478E9, 0.0, 2022-11-20 15:27:25.039
144.0, -35325.635710434406, -25018.911065925487, -63613.19883027063, -58354.392153548266, -43471.393701004235, -44187.610648585636, -41800.44434075884, -29777.865681393825, -47041.92841552835, -14889.055775291417, -50500.74911126484, -54896.06319618979, -45919.62497468293, -25802.473819550734, -52201.80627129153, -55471.41945021385, 0.092, 0.96, -0.078, 192.0, 0.0, 0.0, 0.0, 0.0, 0.0, 0.0, 0.0, 0.0, 0.0, 1.6689760450394523E9, 0.0, 2022-11-20 15:27:25.039
146.0, -35188.530109945554, -24863.38762800546, -63465.2302819765, -58212.07859660132, -43326.44263821157, -44046.951120728394, -41657.81785938953, -29636.870877369747, -46987.97130441324, -14839.658420045189, -50438.4547994679, -54838.507454217375, -45856.3248343855, -25741.744129865663, -52139.13197983885, -55414.9812954642, 0.092, 0.96, -0.078, 192.0, 0.0, 0.0, 0.0, 0.0, 0.0, 0.0, 0.0, 0.0, 0.0, 1.668976045039457E9, 0.0, 2022-11-20 15:27:25.039
148.0, -35313.23049226171, -24996.693431936914, -63592.92579804967, -58337.76245567352, -43448.41610770418, -44165.1247936636, -41777.354988736515, -29754.88808809377, -47029.79141828912, -14872.917815794686, -50486.19812562444, -54887.27896061885, -45900.62599189592, -25793.53312176861, -52177.93460821326, -55461.29410997559, 0.092, 0.96, -0.078, 192.0, 0.0, 0.0, 0.0, 0.0, 0.0, 0.0, 0.0, 0.0, 0.0, 1.6689760450394619E9, 0.0, 2022-11-20 15:27:25.039
150.0, -35176.25900223959, -24867.388590262963, -63460.15643598515, -58204.88133488671, -43313.36686770521, -44025.87342570704, -41642.484562693186, -29618.229522494024, -46975.07434786253, -14821.218230869561, -50418.42763643595, -54823.62119241014, -45835.69417425325, -25724.130955234883, -52120.155348796296, -55397.45752781124, 0.08600000000000001, 0.9580000000000001, -0.082, 192.0, 1.0, 88.0, 14.5, 120.0, 126.5, 56.0, 0.0, 0.0, 0.0, 1.6689760450394666E9, 0.0, 2022-11-20 15:27:25.039
152.0, -35305.586195658, -24976.554510182683, -63583.89569328973, -58330.56519395891, -43443.96811055757, -44153.635997013575, -41772.61641891199, -29746.349721711842, -47018.794360017106, -14855.349344652814, -50466.170962592485, -54865.418954541565, -45885.09152949948, -25775.495263993176, -52169.485648809154, -55443.72563883372, 0.08600000000000001, 0.9580000000000001, -0.082, 192.0, 0.0, 0.0, 0.0, 0.0, 0.0, 0.0, 0.0, 0.0, 0.0, 1.6689760450394711E9, 0.0, 2022-11-20 15:27:25.039
154.0, -35151.269751938555, -24846.892040597446, -63440.8221770313, -58175.71230837254, -43302.59332687775, -44004.32634405212, -41633.32034746651, -29599.677574596117, -46963.96553086824, -14809.997655152996, -50413.800825333696, -54813.20527949397, -45841.61738653391, -25728.08721400347, -52138.886110649844, -55402.91135345833, 0.08600000000000001, 0.9580000000000001, -0.082, 192.0, 0.0, 0.0, 0.0, 0.0, 0.0, 0.0, 0.0, 0.0, 0.0, 1.668976045039476E9, 0.0, 2022-11-20 15:27:25.039
156.0, -35294.61148913044, -24945.530288878716, -63585.39326016823, -58328.19590904664, -43449.95837807159, -44156.67583425949, -41783.702884161816, -29748.98722755757, -46974.29203680659, -14812.970437165552, -50426.83189235114, -54820.42489295303, -45859.67759605379, -25740.961818809727, -52152.14069511184, -55412.61201055194, 0.08600000000000001, 0.9580000000000001, -0.082, 192.0, 0.0, 0.0, 0.0, 0.0, 0.0, 0.0, 0.0, 0.0, 0.0, 1.6689760450394807E9, 0.0, 2022-11-20 15:27:25.039
158.0, -35131.75667902907, -24842.9134300844, -63428.90869723663, -58161.65306111015, -43286.94710575904, -43991.25057354577, -41621.09394324946, -29583.5843185883, -46991.882859692916, -14844.12876893625, -50440.17588379096, -54841.32377401874, -45880.71058758624, -25756.406874228345, -52175.25239887863, -55431.65569682785, 0.08600000000000001, 0.9580000000000001, -0.082, 192.0, 0.0, 0.0, 0.0, 0.0, 0.0, 0.0, 0.0, 0.0, 0.0, 1.6689760450394852E9, 0.0, 2022-11-20 15:27:25.039
160.0, -35289.29177395008, -24923.871448501523, -63572.831579784346, -58320.35044674283, -43432.7028313521, -44146.72930797688, -41767.207296753804, -29734.97268378409, -46925.76639959412, -14775.575968691823, -50382.01664471825, -54780.683491311494, -45822.66310723581, -25708.17180969379, -52101.625752642845, -55365.44982975124, 0.088, 0.96, -0.08600000000000001, 192.0, 1.0, 96.0, 15.0, 0.0, 126.5, 40.0, 0.0, 0.0, 0.0, 1.66897604503949E9, 0.0, 2022-11-20 15:27:25.039
162.0, -35163.60791487788, -24885.2252823383, -63450.09815098026, -58182.90957008715, -43303.86737631171, -44017.737390725306, -41641.34462372597, -29606.226635721523, -47018.48143559473, -14874.035403017451, -50461.92413114597, -54867.698832476, -45901.02832329611, -25796.371793314433, -52181.84616349294, -55448.57596738052, 0.088, 0.96, -0.08600000000000001, 192.0, 0.0, 0.0, 0.0, 0.0, 0.0, 0.0, 0.0, 0.0, 0.0, 1.6689760450394948E9, 0.0, 2022-11-20 15:27:25.039
164.0, -35264.48133760469, -24895.30591908764, -63541.6955997581, -58290.39910917272, -43407.132435695225, -44123.95288037692, -41747.31424418858, -29715.280796918967, -46925.96756529422, -14770.010384322452, -50373.522981825234, -54774.49205809737, -45812.560118742, -25705.534303848068, -52087.96883678065, -55361.29240528255, 0.088, 0.96, -0.08600000000000001, 192.0, 0.0, 0.0, 0.0, 0.0, 0.0, 0.0, 0.0, 0.0, 0.0, 1.6689760450395014E9, 0.0, 2022-11-20 15:27:25.039
166.0, -35142.8431442789, -24871.34484903155, -63429.40043561464, -58162.725944844, -43293.20559420653, -44003.58873648509, -41634.68380387829, -29601.130437985714, -46987.63602824641, -14840.79835901241, -50435.23614826634, -54838.194529795, -45880.44236665277, -25773.237737803192, -52159.11443938189, -55430.60516483846, 0.088, 0.96, -0.08600000000000001, 192.0, 0.0, 0.0, 0.0, 0.0, 0.0, 0.0, 0.0, 0.0, 0.0, 1.668976045039506E9, 0.0, 2022-11-20 15:27:25.039
168.0, -35245.504706562126, -24869.35554377503, -63515.924038401135, -58272.67417581966, -43389.809833742365, -44105.15506329001, -41731.288043414126, -29705.177808425167, -46896.70913180222, -14750.810235835343, -50347.796123957174, -54754.68841250997, -45792.085920820944, -25692.816161252995, -52068.81339178245, -55341.779332373066, 0.088, 0.96, -0.08600000000000001, 192.0, 0.0, 0.0, 0.0, 0.0, 0.0, 0.0, 0.0, 0.0, 0.0, 1.6689760450395107E9, 0.0, 2022-11-20 15:27:25.039
170.0, -35187.34546748942, -24921.144535677977, -63463.59860463126, -58199.65102668417, -43328.09666730126, -44040.55852181417, -41671.1842025738, -29641.698854172097, -47005.45036857729, -14866.458161647102, -50452.89402638603, -54862.78144869584, -45897.586154649995, -25795.790647958594, -52169.79857323153, -55444.99968826767, 0.084, 0.96, -0.08600000000000001, 192.0, 1.0, 80.0, 15.0, 0.0, 126.5, 40.0, 0.0, 0.0, 0.0, 1.6689760450395155E9, 0.0, 2022-11-20 15:27:25.039
172.0, -35280.73105582369, -24902.659643013438, -63541.27091661345, -58299.02688253247, -43417.25777593348, -44137.006299138826, -41758.51246816069, -29733.16219248321, -46914.88110004438, -14768.959852333051, -50363.93408345391, -54767.808886505234, -45809.58733672945, -25704.88610325886, -52077.217647697646, -55353.49164646765, 0.084, 0.96, -0.08600000000000001, 192.0, 0.0, 0.0, 0.0, 0.0, 0.0, 0.0, 0.0, 0.0, 0.0, 1.6689760450395205E9, 0.0, 2022-11-20 15:27:25.039
174.0, -35242.420165827294, -24984.51173120877, -63519.85794542527, -58251.395315098205, -43385.317133106844, -44097.57782191966, -41724.20254042179, -29694.806598997904, -47068.996378063726, -14926.00320887604, -50521.536233608276, -54925.612202359705, -45967.41300432837, -25862.912936557885, -52239.96069907674, -55512.94899141181, 0.084, 0.96, -0.08600000000000001, 192.0, 0.0, 0.0, 0.0, 0.0, 0.0, 0.0, 0.0, 0.0, 0.0, 1.6689760450395248E9, 0.0, 2022-11-20 15:27:25.039
176.0, -35269.44342487376, -24884.375916048994, -63540.175681135144, -58291.24847546202, -43413.41327588717, -44128.49028450135, -41749.661177356385, -29719.39351789874, -46931.86842583042, -14784.561369962857, -50379.40149061698, -54779.4764971109, -45828.47456079419, -25719.70530983273, -52107.616020156864, -55369.29432979755, 0.084, 0.96, -0.08600000000000001, 192.0, 0.0, 0.0, 0.0, 0.0, 0.0, 0.0, 0.0, 0.0, 0.0, 1.6689760450395296E9, 0.0, 2022-11-20 15:27:25.039
178.0, -35275.21017494323, -25001.744926183812, -63560.29225114492, -58289.72855683906, -43417.45894163358, -44128.75850543482, -41758.02072978267, -29722.276892933478, -47074.96429383329, -14930.831185678386, -50527.95118426695, -54928.49557739444, -45976.91249572188, -25865.326924959056, -52261.0383940981, -55517.732264725244, 0.084, 0.96, -0.08600000000000001, 192.0, 0.0, 0.0, 0.0, 0.0, 0.0, 0.0, 0.0, 0.0, 0.0, 1.6689760450395343E9, 0.0, 2022-11-20 15:27:25.039
180.0, -35247.65047402984, -24879.279718313184, -63519.52266925844, -58268.33793739533, -43387.37349359674, -44098.09191204213, -41726.50477010069, -29693.800770497415, -46926.81693158352, -14791.535114232913, -50388.05161572118, -54788.305436170755, -45840.768020244606, -25719.88412378837, -52122.032895330536, -55374.68110021128, 0.084, 0.96, -0.088, 192.0, 1.0, 80.0, 15.0, 0.0, 126.5, 32.0, 0.0, 0.0, 0.0, 1.668976045039539E9, 0.0, 2022-11-20 15:27:25.039
182.0, -35288.88944254988, -25030.53397304225, -63560.98515522303, -58296.23291447556, -43420.632889346234, -44134.41349678201, -41766.7602618647, -29732.849268060836, -47065.017767550686, -14925.57852573139, -50523.3243731647, -54924.9640017705, -45976.13018466594, -25858.531994644643, -52250.309556759545, -55512.25608733369, 0.084, 0.96, -0.088, 192.0, 0.0, 0.0, 0.0, 0.0, 0.0, 0.0, 0.0, 0.0, 0.0, 1.6689760450395439E9, 0.0, 2022-11-20 15:27:25.039
184.0, -35226.05868888601, -24875.837549667067, -63481.65881415115, -58240.04062891491, -43348.6826239446, -44074.24260070832, -41696.91106044186, -29669.571479507864, -46925.81110308303, -14781.5885879503, -50376.36165337106, -54777.7777645323, -45825.41237180381, -25712.91037951832, -52095.479022917636, -55370.00958562012, 0.084, 0.96, -0.088, 192.0, 0.0, 0.0, 0.0, 0.0, 0.0, 0.0, 0.0, 0.0, 0.0, 1.6689760450395489E9, 0.0, 2022-11-20 15:27:25.039
186.0, -35239.156811136825, -24975.951013082387, -63501.887142883206, -58241.78406498243, -43359.27735081642, -44086.08902526963, -41711.417342593355, -29681.306145346898, -47038.866226537975, -14883.736060111054, -50489.64029427055, -54887.59188504123, -45940.90383540438, -25825.317302384057, -52196.195983433245, -55479.13080205093, 0.084, 0.96, -0.088, 192.0, 0.0, 0.0, 0.0, 0.0, 0.0, 0.0, 0.0, 0.0, 0.0, 1.6689760450395536E9, 0.0, 2022-11-20 15:27:25.039
188.0, -35175.49904292811, -24836.587886403548, -63433.98254322798, -58185.6364829107, -43303.97913503399, -44027.32628909663, -41653.191048287285, -29621.850505095783, -46866.37781457637, -14718.400206375147, -50312.39096073997, -54714.54467946824, -45766.26965597506, -25654.192346834225, -52031.95536517565, -55305.74832031111, 0.084, 0.96, -0.088, 192.0, 0.0, 0.0, 0.0, 0.0, 0.0, 0.0, 0.0, 0.0, 0.0, 1.6689760450395582E9, 0.0, 2022-11-20 15:27:25.039
190.0, -35295.17028274182, -25007.265807064272, -63564.0026407245, -58301.172650000175, -43435.27328196446, -44146.50579053233, -41778.13729979245, -29739.823012330893, -47021.7000867963, -14875.644728618234, -50478.01738715379, -54877.66771050307, -45934.913567890355, -25817.516543569156, -52203.66146608132, -55464.02102279914, 0.086, 0.9570000000000001, -0.08499999999999999, 192.0, 1.0, 96.0, 14.5, 104.0, 126.5, 56.0, 0.0, 0.0, 0.0, 1.668976045039563E9, 0.0, 2022-11-20 15:27:25.039
192.0, -35238.57566578098, -24907.9793581938, -63495.986282347, -58250.568300553365, -43377.87400220323, -44082.82567057916, -41717.60877580748, -29675.96407842208, -46940.87617884591, -14805.97434115104, -50391.851412278585, -54801.47061365493, -45850.51338082712, -25742.973475810704, -52134.952203625704, -55382.459507281725, 0.086, 0.9570000000000001, -0.08499999999999999, 192.0, 0.0, 0.0, 0.0, 0.0, 0.0, 0.0, 0.0, 0.0, 0.0, 1.6689760450395684E9, 0.0, 2022-11-20 15:27:25.039
194.0, -35359.90093468439, -25062.38520889106, -63616.28337100546, -58362.349374574354, -43491.867898925295, -44190.38226489809, -41828.78635272817, -29785.107646597346, -47071.857401354006, -14924.215069319614, -50528.75584706734, -54934.59760363074, -45987.03783596013, -25873.351201218513, -52264.68172844431, -55512.010218144685, 0.086, 0.9570000000000001, -0.08499999999999999, 192.0, 0.0, 0.0, 0.0, 0.0, 0.0, 0.0, 0.0, 0.0, 0.0, 1.6689760450395737E9, 0.0, 2022-11-20 15:27:25.039
196.0, -35245.97409319569, -24933.370939895027, -63501.08248008281, -58242.18639638262, -43371.77197596693, -44071.11335648458, -41708.80218849208, -29667.64922948471, -46985.311446823056, -14844.732266036543, -50435.66083141099, -54838.909785617565, -45890.72416910221, -25774.40002851487, -52169.016262175595, -55420.18925192228, 0.086, 0.9570000000000001, -0.08499999999999999, 192.0, 0.0, 0.0, 0.0, 0.0, 0.0, 0.0, 0.0, 0.0, 0.0, 1.6689760450395806E9, 0.0, 2022-11-20 15:27:25.039
198.0, -35364.23717310872, -25055.56792683219, -63625.22406878759, -58358.303708827945, -43492.89607917024, -44192.72919806591, -41833.74843999725, -29791.880225167304, -47050.399726676915, -14909.32880751238, -50513.981343982385, -54908.64722831813, -45965.98249268324, -25844.69626482681, -52238.26196649814, -55497.682749948835, 0.086, 0.9570000000000001, -0.08499999999999999, 192.0, 0.0, 0.0, 0.0, 0.0, 0.0, 0.0, 0.0, 0.0, 0.0, 1.668976045039586E9, 0.0, 2022-11-20 15:27:25.039
200.0, -35169.10644401389, -24867.67916294088, -63426.472357091, -58161.04956400986, -43297.18420471957, -44002.60525972906, -41643.87037084942, -29602.42683916412, -46959.159905810346, -14821.866431458764, -50412.59383113311, -54814.76990160584, -45876.41905265082, -25754.551679438555, -52152.163046856294, -55410.7791675066, 0.087, 0.9585, -0.0875, 192.0, 1.0, 96.0, 15.0, 0.0, 126.5, 24.0, 0.0, 0.0, 0.0, 1.6689760450395913E9, 0.0, 2022-11-20 15:27:25.039
202.0, -35351.02729213563, -25017.61466474708, -63596.97146379608, -58340.958755130625, -43473.18184056066, -44189.68936081998, -41823.57839627009, -29785.711143697637, -46973.59913272848, -14833.668152531167, -50431.23518600884, -54831.46665471395, -45900.84950934047, -25783.944223397284, -52170.267959865094, -55429.085246215494, 0.087, 0.9585, -0.0875, 192.0, 0.0, 0.0, 0.0, 0.0, 0.0, 0.0, 0.0, 0.0, 0.0, 1.668976045039596E9, 0.0, 2022-11-20 15:27:25.039
204.0, -35206.858540398905, -24913.656701285447, -63448.667639335115, -58197.304093516366, -43329.08014405729, -44053.14255394251, -41683.07533062403, -29646.23625829652, -46973.845001917485, -14854.611737085788, -50425.26727023927, -54832.89716635909, -45897.31793371653, -25789.39804904438, -52177.59933204643, -55438.249461442174, 0.087, 0.9585, -0.0875, 192.0, 0.0, 0.0, 0.0, 0.0, 0.0, 0.0, 0.0, 0.0, 0.0, 1.6689760450396008E9, 0.0, 2022-11-20 15:27:25.039
206.0, -35355.2964753266, -25006.148219841507, -63589.170704981174, -58345.987897633066, -43473.58417196085, -44200.46290164744, -41822.88549219197, -29788.95214664366, -46981.802222943574, -14858.411533643191, -50442.72398265886, -54844.0953903312, -45910.885442600906, -25809.984005687715, -52182.60612280442, -55450.85584531497, 0.087, 0.9585, -0.0875, 192.0, 0.0, 0.0, 0.0, 0.0, 0.0, 0.0, 0.0, 0.0, 0.0, 1.6689760450396056E9, 0.0, 2022-11-20 15:27:25.039
208.0, -35221.99067139514, -24939.27180043123, -63462.21279647503, -58200.299227273375, -43338.02084183942, -44059.311635412174, -41685.623429491934, -29649.72313043155, -46999.72832199673, -14889.212237502605, -50459.13016308906, -54860.25570157239, -45920.161416549854, -25824.087956439016, -52196.486556111166, -55461.674089631335, 0.087, 0.9585, -0.0875, 192.0, 0.0, 0.0, 0.0, 0.0, 0.0, 0.0, 0.0, 0.0, 0.0, 1.6689760450396101E9, 0.0, 2022-11-20 15:27:25.039
210.0, -35355.16236485987, -25001.56611222817, -63586.68966134664, -58331.70513292612, -43467.750366658016, -44189.95758175344, -41812.76015195372, -29777.910384882736, -46956.790620898086, -14827.253201872492, -50421.17690100395, -54811.12656725962, -45881.13527073089, -25779.5856332285, -52146.19513108673, -55416.18828966478, 0.0895, 0.95725, -0.08474999999999999, 192.0, 1.0, 112.0, 14.5, 112.0, 126.5, 56.0, 0.0, 0.0, 0.0, 1.668976045039615E9, 0.0, 2022-11-20 15:27:25.039
212.0, -35234.12766863438, -24969.111379279064, -63470.41588669013, -58199.71808191754, -43348.23558905549, -44061.703272068895, -41691.72545572823, -29654.528755489442, -47040.90023528341, -14913.776804658986, -50492.791890238754, -54886.317835607275, -45960.014576913665, -25856.609744621488, -52217.20662322124, -55487.98209285523, 0.0895, 0.95725, -0.08474999999999999, 192.0, 0.0, 0.0, 0.0, 0.0, 0.0, 0.0, 0.0, 0.0, 0.0, 1.6689760450396197E9, 0.0, 2022-11-20 15:27:25.039
214.0, -35352.61426599196, -25000.694394194412, -63576.92194901967, -58324.0161328335, -43467.683311424655, -44175.07131994621, -41809.69796296334, -29770.489605723575, -46945.72650739271, -14819.228925613037, -50403.00493276178, -54795.74856707437, -45876.66492183983, -25771.829577902507, -52123.9551453537, -55388.80740270703, 0.0895, 0.95725, -0.08474999999999999, 192.0, 0.0, 0.0, 0.0, 0.0, 0.0, 0.0, 0.0, 0.0, 0.0, 1.6689760450396245E9, 0.0, 2022-11-20 15:27:25.039
216.0, -35228.249159842635, -24986.65749867648, -63454.16616847112, -58187.04464281138, -43336.36681274972, -44040.40205960299, -41681.4883567677, -29636.468545969554, -47022.72826704124, -14908.702958667633, -50479.47025054339, -54877.91357969208, -45950.783306453624, -25844.62920959344, -52204.175556203794, -55459.081287274515, 0.0895, 0.95725, -0.08474999999999999, 192.0, 0.0, 0.0, 0.0, 0.0, 0.0, 0.0, 0.0, 0.0, 0.0, 1.6689760450396292E9, 0.0, 2022-11-20 15:27:25.039
218.0, -35318.19257953079, -24964.596326899093, -63534.83361421033, -58291.13671673975, -43420.18585445712, -44139.509694517816, -41767.92255257637, -29727.663663347204, -46909.606088352935, -14785.813067652354, -50367.97974920032, -54761.5727498022, -45834.73304924167, -25726.14261223586, -52087.141822235804, -55345.690887652745, 0.0895, 0.95725, -0.08474999999999999, 192.0, 0.0, 0.0, 0.0, 0.0, 0.0, 0.0, 0.0, 0.0, 0.0, 1.6689760450396338E9, 0.0, 2022-11-20 15:27:25.039
220.0, -35277.31123892203, -25032.724443998868, -63505.0387388514, -58234.45269280108, -43371.61551375574, -44094.426225951465, -41721.006240964685, -29679.138026134733, -47047.382241175445, -14928.841880421864, -50508.460463101925, -54900.511193336395, -45974.409100342884, -25874.289974485633, -52227.53312915959, -55493.30180803559, 0.08775, 0.9586250000000001, -0.083375, 192.0, 1.0, 88.0, 15.0, 0.0, 126.5, 56.0, 0.0, 0.0, 0.0, 1.6689760450396388E9, 0.0, 2022-11-20 15:27:25.039
222.0, -35330.0390040921, -24971.65947814697, -63551.26214638498, -58302.5584581564, -43428.947738283605, -44154.619473769606, -41774.87394510197, -29734.860925061814, -46933.857731086944, -14816.412605811669, -50397.707569325874, -54786.897276270065, -45862.35980538843, -25761.10074056396, -52115.48383420514, -55385.85697243893, 0.08775, 0.9586250000000001, -0.083375, 192.0, 0.0, 0.0, 0.0, 0.0, 0.0, 0.0, 0.0, 0.0, 0.0, 1.6689760450396435E9, 0.0, 2022-11-20 15:27:25.039
224.0, -35296.757256598146, -25051.499909341328, -63523.16600360465, -58259.307832635386, -43392.6932087771, -44115.2133482949, -41742.463915641776, -29698.82991299986, -47056.23353197975, -14943.929307929197, -50519.301059162746, -54910.61418183019, -45986.63550455994, -25888.17040779238, -52240.13951303238, -55511.31731406657, 0.08775, 0.9586250000000001, -0.083375, 192.0, 0.0, 0.0, 0.0, 0.0, 0.0, 0.0, 0.0, 0.0, 0.0, 1.6689760450396485E9, 0.0, 2022-11-20 15:27:25.039
226.0, -35323.51229471115, -24965.691562377404, -63538.231079367535, -58301.530277911465, -43425.952604526596, -44145.00822365382, -41772.88463984545, -29733.206895972122, -46931.15317000785, -14831.432978085635, -50392.70077856789, -54792.306398428256, -45871.45696538174, -25767.314525522535, -52117.87547086185, -55387.980388162185, 0.08775, 0.9586250000000001, -0.083375, 192.0, 0.0, 0.0, 0.0, 0.0, 0.0, 0.0, 0.0, 0.0, 0.0, 1.6689760450396533E9, 0.0, 2022-11-20 15:27:25.039
228.0, -35304.22273924622, -25060.172386189985, -63517.443957024094, -58261.94533848111, -43402.75149378199, -44111.145330804036, -41753.304511702605, -29710.74339279454, -47063.050814038615, -14966.258700640048, -50523.95022200945, -54925.92512678208, -46005.47802513576, -25903.570759722086, -52257.19389405178, -55526.404741573904, 0.08775, 0.9586250000000001, -0.083375, 192.0, 0.0, 0.0, 0.0, 0.0, 0.0, 0.0, 0.0, 0.0, 0.0, 1.6689760450396607E9, 0.0, 2022-11-20 15:27:25.039
230.0, -35320.092477809485, -24974.453446203883, -63501.08248008281, -58273.836466531335, -43402.08094144833, -44119.0131448523, -41755.49498265922, -29717.06893647539, -46904.487538872665, -14821.665265758666, -50363.4870485648, -54768.21121790543, -45841.08094466698, -25740.67124613181, -52097.714197363166, -55366.14273382935, 0.08687500000000001, 0.9583125000000001, -0.0856875, 192.0, 1.0, 88.0, 14.5, 120.0, 126.5, 32.0, 0.0, 0.0, 0.0, 1.6689760450396655E9, 0.0, 2022-11-20 15:27:25.039
232.0, -35353.70950147027, -25124.679520688, -63539.23690786802, -58287.403975415706, -43430.78058132894, -44150.21618011191, -41785.312209762604, -29744.606285644328, -47085.98370384976, -15003.384948180314, -50545.98904204238, -54945.37114445819, -46017.30209795262, -25919.574608752086, -52264.97230112223, -55535.52425331167, 0.08687500000000001, 0.9583125000000001, -0.0856875, 192.0, 0.0, 0.0, 0.0, 0.0, 0.0, 0.0, 0.0, 0.0, 0.0, 1.6689760450396705E9, 0.0, 2022-11-20 15:27:25.039
234.0, -35320.450105720774, -25013.121964111564, -63496.61213119175, -58251.64118428722, -43394.92838322263, -44119.05784834121, -41745.459049398785, -29707.792962526437, -46937.92574857781, -14844.441693358624, -50395.22652569134, -54786.80786929225, -45863.49974435565, -25765.369923754923, -52105.35849396688, -55370.5683792315, 0.08687500000000001, 0.9583125000000001, -0.0856875, 192.0, 0.0, 0.0, 0.0, 0.0, 0.0, 0.0, 0.0, 0.0, 0.0, 1.668976045039677E9, 0.0, 2022-11-20 15:27:25.039
236.0, -35420.496513902726, -25194.528722110837, -63607.38737671225, -58337.0695515954, -43493.94661115964, -44214.097465765175, -41839.917521466916, -29800.37388806032, -47104.021561625195, -15006.514192404056, -50569.346614998176, -54952.389592217165, -46039.3185662411, -25932.18099262488, -52258.80321965256, -55522.56024152759, 0.08687500000000001, 0.9583125000000001, -0.0856875, 192.0, 0.0, 0.0, 0.0, 0.0, 0.0, 0.0, 0.0, 0.0, 0.0, 1.6689760450396817E9, 0.0, 2022-11-20 15:27:25.039
238.0, -35323.06525982205, -25029.885772453043, -63506.558657474365, -58251.7976464984, -43404.45022636059, -44117.068543084686, -41741.03340399664, -29703.948462480126, -46996.48731905071, -14906.04310107745, -50459.17486657797, -54847.6940211885, -45929.124466076435, -25826.01020646217, -52151.3583840559, -55410.82387099551, 0.08687500000000001, 0.9583125000000001, -0.0856875, 192.0, 0.0, 0.0, 0.0, 0.0, 0.0, 0.0, 0.0, 0.0, 0.0, 1.6689760450396864E9, 0.0, 2022-11-20 15:27:25.039
240.0, -35403.62094683897, -25166.901965964076, -63605.755699367015, -58344.73619994357, -43496.494710027546, -44200.14997722507, -41831.736782996275, -29790.874396666815, -47082.54153520364, -14981.703756058665, -50543.35153619666, -54933.859996063715, -46018.19616773083, -25914.07607961608, -52243.20170202276, -55503.29303780712, 0.0884375, 0.9571562500000002, -0.08784375, 192.0, 1.0, 104.0, 14.5, 112.0, 126.5, 24.0, 0.0, 0.0, 0.0, 1.6689760450396912E9, 0.0, 2022-11-20 15:27:25.039
242.0, -35273.69025632027, -25003.086030851133, -63476.47320943752, -58239.235966114524, -43376.868173702744, -44082.64685662352, -41715.23949089521, -29675.561747021886, -46963.5855512125, -14878.125772252772, -50417.153587001994, -54817.83209059621, -45899.17312850632, -25799.121057882436, -52144.29523280803, -55402.732539502686, 0.0884375, 0.9571562500000002, -0.08784375, 192.0, 0.0, 0.0, 0.0, 0.0, 0.0, 0.0, 0.0, 0.0, 0.0, 1.6689760455196505E9, 0.0, 2022-11-20 15:27:25.519
244.0, -35385.69484778582, -25149.55701226676, -63573.23391118454, -58344.95971738813, -43481.13906158675, -44191.879831776605, -41818.70571597883, -29784.101818096857, -47040.967290516775, -14962.660069782743, -50502.447843843445, -54902.36638812618, -45997.207879687296, -25894.630061939963, -52230.23769023868, -55498.152136582394, 0.0884375, 0.9571562500000002, -0.08784375, 192.0, 0.0, 0.0, 0.0, 0.0, 0.0, 0.0, 0.0, 0.0, 0.0, 1.6689760455197194E9, 0.0, 2022-11-20 15:27:25.519
246.0, -35269.152852195846, -25025.057795650697, -63450.053447491344, -58220.88518391671, -43358.71855720503, -44075.29313269772, -41699.23564186521, -29669.370313807765, -46956.29888252007, -14883.624301388778, -50410.224546220845, -54809.9866282924, -45895.283924971096, -25802.16089512836, -52135.26512804808, -55405.43710058178, 0.0884375, 0.9571562500000002, -0.08784375, 192.0, 0.0, 0.0, 0.0, 0.0, 0.0, 0.0, 0.0, 0.0, 0.0, 1.6689760455197256E9, 0.0, 2022-11-20 15:27:25.519
248.0, -35437.483839688764, -25205.21285596047, -63623.100653064335, -58375.201627636154, -43521.75218126204, -44239.332585255215, -41861.7775275442, -29832.828621009427, -47052.6572528669, -14963.844712238875, -50514.33897189367, -54903.43927186004, -45996.26910642017, -25900.240349798245, -52229.00834429364, -55497.50393599319, 0.0884375, 0.9571562500000002, -0.08784375, 192.0, 0.0, 0.0, 0.0, 0.0, 0.0, 0.0, 0.0, 0.0, 0.0, 1.668976045519732E9, 0.0, 2022-11-20 15:27:25.519
250.0, -35266.2247736722, -25056.685514054956, -63455.306107438344, -58195.09127081529, -43349.21906581153, -44067.47002213836, -41688.01506614865, -29661.122520103756, -46995.101510894485, -14913.061548836416, -50454.2574827978, -54843.111913575165, -45932.32076553354, -25833.028654221136, -52175.38650934536, -55435.88017652991, 0.08721875000000001, 0.9565781250000001, -0.089921875, 192.0, 1.0, 88.0, 14.5, 112.0, 126.5, 16.0, 0.0, 0.0, 0.0, 1.6689760455197377E9, 0.0, 2022-11-20 15:27:25.519
252.0, -35436.4109559549, -25196.003937244885, -63621.02194082999, -58363.22109260811, -43519.628765538786, -44230.30248049527, -41854.22263791831, -29825.497248828084, -47013.42994134784, -14923.388054774769, -50482.577143022674, -54864.34607080771, -45963.657911259885, -25859.560174889586, -52199.839317779464, -55455.30384246157, 0.08721875000000001, 0.9565781250000001, -0.089921875, 192.0, 0.0, 0.0, 0.0, 0.0, 0.0, 0.0, 0.0, 0.0, 0.0, 1.6689760455197432E9, 0.0, 2022-11-20 15:27:25.519
254.0, -35298.6795066213, -25112.698985659958, -63491.314767755845, -58227.68011423113, -43390.010999442464, -44091.38638870554, -41723.576691577044, -29688.861034972793, -47025.00814497568, -14955.440456323679, -50484.49939304584, -54878.47237330346, -45965.2001816273, -25865.21516623678, -52213.272716197105, -55464.31159547706, 0.08721875000000001, 0.9565781250000001, -0.089921875, 192.0, 0.0, 0.0, 0.0, 0.0, 0.0, 0.0, 0.0, 0.0, 0.0, 1.6689760455197492E9, 0.0, 2022-11-20 15:27:25.519
0.0, -35444.23406651426, -25199.244940190907, -63626.05108333244, -58376.65449102575, -43539.43241112619, -44239.71256491096, -41871.500536382264, -29838.215391423157, -47028.78558978863, -14941.649429994755, -50492.00957918281, -54884.46264081748, -45984.489737092226, -25873.5076634297, -52216.759588332134, -55475.59922642699, 0.08721875000000001, 0.9565781250000001, -0.089921875, 192.0, 0.0, 0.0, 0.0, 0.0, 0.0, 0.0, 0.0, 0.0, 0.0, 1.668976045519755E9, 0.0, 2022-11-20 15:27:25.519
2.0, -35280.64164884587, -25100.651395398545, -63452.84741554826, -58196.61118943825, -43366.74283346449, -44066.53124887124, -41702.36488608896, -29669.549127763406, -47036.92162477036, -14955.172235390215, -50491.27197161579, -54885.24495187342, -45983.9532952253, -25877.441570453833, -52217.76541683262, -55480.74012765171, 0.08721875000000001, 0.9565781250000001, -0.089921875, 192.0, 0.0, 0.0, 0.0, 0.0, 0.0, 0.0, 0.0, 0.0, 0.0, 1.6689760455197608E9, 0.0, 2022-11-20 15:27:25.519
4.0, -35451.1184038065, -25199.13318146863, -63599.96659755309, -58364.875121697805, -43522.75800976253, -44228.715506638946, -41857.50834435324, -29829.587618063408, -46986.45138579028, -14904.634941176766, -50448.043697839224, -54837.032239083324, -45934.60064346798, -25836.359064144977, -52158.5109422816, -55428.191176437285, 0.08721875000000001, 0.9565781250000001, -0.089921875, 192.0, 0.0, 0.0, 0.0, 0.0, 0.0, 0.0, 0.0, 0.0, 0.0, 1.668976045519778E9, 0.0, 2022-11-20 15:27:25.519
6.0, -35309.810675360044, -25154.943782680486, -63466.39257268818, -58215.07373035834, -43374.141260879194, -44084.03266477975, -41710.12094141495, -29682.87076745877, -47058.75927910319, -14994.712471331653, -50520.70921906343, -54910.34596089673, -46001.49941462272, -25907.83994291305, -52225.230899480695, -55496.967494126264, 0.084, 0.9520000000000001, -0.084, 192.0, 1.0, 80.0, 14.5, 96.0, 126.5, 48.0, 0.0, 0.0, 0.0, 1.6689760455197833E9, 0.0, 2022-11-20 15:27:25.519
8.0, -35435.27101698769, -25187.845550518698, -63588.94718753662, -58355.10740937083, -43497.32172457239, -44214.23157623191, -41833.9272539529, -29808.912254442246, -46981.6904642213, -14908.43473773417, -50448.624843195066, -54834.99823033789, -45925.95051836378, -25839.041273479615, -52143.423514774266, -55417.01530420963, 0.084, 0.9520000000000001, -0.084, 192.0, 0.0, 0.0, 0.0, 0.0, 0.0, 0.0, 0.0, 0.0, 0.0, 1.6689760455197897E9, 0.0, 2022-11-20 15:27:25.519
10.0, -35341.59485597549, -25203.156495470586, -63509.218515064545, -58248.51194006347, -43404.11495019376, -44114.8110168947, -41740.74283131872, -29710.45282011662, -47086.14016606095, -15013.040901785005, -50547.91129206554, -54937.34686819874, -46025.862816079, -25937.165431638412, -52243.51462644513, -55514.35715131249, 0.084, 0.9520000000000001, -0.084, 192.0, 0.0, 0.0, 0.0, 0.0, 0.0, 0.0, 0.0, 0.0, 0.0, 1.6689760455197957E9, 0.0, 2022-11-20 15:27:25.519
12.0, -35434.57811290957, -25180.26830914835, -63591.71880384908, -58353.25221458104, -43497.03115189447, -44213.27045122033, -41830.194512628856, -29802.787876461494, -46983.568010755545, -14913.687397681166, -50447.39549725002, -54831.4890064584, -45928.073934087035, -25840.40472989139, -52140.137808339336, -55409.505118072644, 0.084, 0.9520000000000001, -0.084, 192.0, 0.0, 0.0, 0.0, 0.0, 0.0, 0.0, 0.0, 0.0, 0.0, 1.6689760455198014E9, 0.0, 2022-11-20 15:27:25.519
14.0, -35364.55009753109, -25223.004844546896, -63538.43224506763, -58282.53129512445, -43431.51818889596, -44144.918816676, -41767.67668338736, -29736.22438147359, -47111.79996869564, -15051.59766097041, -50574.040481333795, -54964.9736243455, -46059.05515659513, -25966.200347685855, -52277.668091972846, -55543.816750504586, 0.084, 0.9520000000000001, -0.084, 192.0, 0.0, 0.0, 0.0, 0.0, 0.0, 0.0, 0.0, 0.0, 0.0, 1.6689760455198073E9, 0.0, 2022-11-20 15:27:25.519
16.0, -35401.05049622661, -25143.54439300828, -63568.696507060115, -58335.415522505704, -43475.014683605994, -44194.65144808906, -41809.3179833076, -29781.576070973406, -46963.54084772359, -14908.14416505625, -50427.994183062816, -54822.280087742816, -45916.71924790374, -25836.537878100622, -52143.04353511853, -55409.303952372546, 0.084, 0.9540000000000001, -0.082, 192.0, 1.0, 80.0, 14.5, 104.0, 126.5, 56.0, 0.0, 0.0, 0.0, 1.6689760455198133E9, 0.0, 2022-11-20 15:27:25.519
18.0, -35387.9523739758, -25243.747263401423, -63563.91323374668, -58307.92287682568, -43455.70277639661, -44173.193773411964, -41793.85057614453, -29760.833652118883, -47109.07305587209, -15046.345001023414, -50573.92872261152, -54965.8229906348, -46065.78303167618, -25980.95249902636, -52287.05582464407, -55558.4124396339, 0.084, 0.9540000000000001, -0.082, 192.0, 0.0, 0.0, 0.0, 0.0, 0.0, 0.0, 0.0, 0.0, 0.0, 1.6689760455198193E9, 0.0, 2022-11-20 15:27:25.519
20.0, -35404.71618231728, -25155.12259663613, -63566.68485005914, -58336.466054495104, -43475.64053245074, -44197.22189870142, -41811.50845426422, -29783.498320996565, -46966.7371471807, -14905.99839758854, -50434.99027907733, -54822.16832902054, -45920.876672372426, -25835.979084489238, -52145.16695084178, -55415.58479256449, 0.084, 0.9540000000000001, -0.082, 192.0, 0.0, 0.0, 0.0, 0.0, 0.0, 0.0, 0.0, 0.0, 0.0, 1.6689760455198338E9, 0.0, 2022-11-20 15:27:25.519
22.0, -35418.395449923926, -25275.24087133895, -63590.1094782483, -58340.35525803033, -43489.83389017986, -44209.53770989629, -41826.68528874937, -29798.205768848155, -47128.98846018177, -15069.344946067924, -50596.41457753356, -54982.296226298364, -46083.55266851815, -25999.705612624362, -52303.97609519674, -55578.79723057714, 0.084, 0.9540000000000001, -0.082, 192.0, 0.0, 0.0, 0.0, 0.0, 0.0, 0.0, 0.0, 0.0, 0.0, 1.668976045519842E9, 0.0, 2022-11-20 15:27:25.519
24.0, -35391.46159785528, -25141.26451507384, -63552.02210569646, -58318.00351357502, -43463.16825904468, -44190.49402362038, -41802.433646015365, -29775.675210437206, -46992.26283934866, -14939.637772993778, -50458.191389821935, -54845.30238453179, -45946.20119884029, -25865.706904614795, -52168.591579030945, -55444.93263303431, 0.084, 0.9540000000000001, -0.082, 192.0, 0.0, 0.0, 0.0, 0.0, 0.0, 0.0, 0.0, 0.0, 0.0, 1.668976045519848E9, 0.0, 2022-11-20 15:27:25.519
26.0, -35425.68211861636, -25270.77052244789, -63592.612873627295, -58331.951002115136, -43501.233279852066, -44222.702887380474, -41841.3256813676, -29810.320414342932, -47099.48415750077, -15052.558785981988, -50570.84418187669, -54954.11067654022, -46063.70431944184, -25977.42092340242, -52280.05972862956, -55558.30068091163, 0.084, 0.9560000000000001, -0.09, 192.0, 1.0, 80.0, 14.5, 112.0, 126.5, 24.0, 0.0, 0.0, 0.0, 1.6689760455198548E9, 0.0, 2022-11-20 15:27:25.519
28.0, -35368.394597577404, -25131.20623006895, -63522.45074778209, -58279.91614102318, -43446.6056164033, -44169.03634894328, -41781.22184052728, -29754.709274138128, -46980.30465606507, -14935.390941547268, -50447.08257282765, -54834.66295417106, -45944.41305928386, -25859.82839582305, -52166.37875632987, -55444.08326674501, 0.084, 0.9560000000000001, -0.09, 192.0, 0.0, 0.0, 0.0, 0.0, 0.0, 0.0, 0.0, 0.0, 0.0, 1.6689760455198612E9, 0.0, 2022-11-20 15:27:25.519
30.0, -35432.87938033097, -25276.470217283993, -63591.74115559354, -58345.54086274396, -43504.384875820266, -44226.547387426785, -41840.85629473404, -29813.248492866576, -47087.74949166173, -15031.391683982813, -50558.77423987082, -54946.75695261442, -46051.14263905795, -25970.67069657692, -52268.280359301614, -55551.505750597215, 0.084, 0.9560000000000001, -0.09, 192.0, 0.0, 0.0, 0.0, 0.0, 0.0, 0.0, 0.0, 0.0, 0.0, 1.668976045519868E9, 0.0, 2022-11-20 15:27:25.519
32.0, -35351.9437136583, -25142.650323230067, -63501.08248008281, -58279.40205090071, -43418.86710153426, -44144.85176144264, -41754.57856113656, -29729.988244770557, -46982.517478766145, -14935.010961891528, -50451.08353508515, -54845.503550231886, -45938.691012703304, -25859.962506289783, -52161.70724173871, -55451.749915093176, 0.084, 0.9560000000000001, -0.09, 192.0, 0.0, 0.0, 0.0, 0.0, 0.0, 0.0, 0.0, 0.0, 0.0, 1.6689760455198736E9, 0.0, 2022-11-20 15:27:25.519
34.0, -35422.10583950351, -25267.90949915761, -63580.811152554896, -58346.83726392237, -43493.27605882598, -44209.38124768511, -41827.93698643887, -29799.18924560419, -47070.9633315758, -15016.192497753203, -50542.45746641845, -54931.80363557382, -46032.30011848213, -25947.693103276863, -52243.82755086751, -55531.56799454308, 0.084, 0.9560000000000001, -0.09, 192.0, 0.0, 0.0, 0.0, 0.0, 0.0, 0.0, 0.0, 0.0, 0.0, 1.6689760455198796E9, 0.0, 2022-11-20 15:27:25.519
36.0, -35311.62116666093, -25118.555142707246, -63468.94067155608, -58241.87347196025, -43390.7933104984, -44102.875185355566, -41727.30943290108, -29696.617090298783, -46963.563199468044, -14918.627133205788, -50429.98348831934, -54822.056570298264, -45929.59385270999, -25837.387244389924, -52147.960918898694, -55419.16107167734, 0.092, 0.9580000000000001, -0.09, 192.0, 1.0, 112.0, 14.5, 120.0, 126.5, 24.0, 0.0, 0.0, 0.0, 1.6689760455198984E9, 0.0, 2022-11-20 15:27:25.519
38.0, -35438.02028155569, -25252.24092629444, -63594.713937606095, -58353.76630470352, -43513.43733232467, -44220.13243676811, -41849.9311029829, -29813.494362055586, -47037.36865965947, -14990.264474185047, -50512.97551548189, -54899.97475146947, -46012.20590021681, -25914.32194880509, -52230.30474547204, -55494.44174700281, 0.092, 0.9580000000000001, -0.09, 192.0, 0.0, 0.0, 0.0, 0.0, 0.0, 0.0, 0.0, 0.0, 0.0, 1.668976045519906E9, 0.0, 2022-11-20 15:27:25.519
40.0, -35321.27712026562, -25116.38702349508, -63470.75116285696, -58227.12132061974, -43392.51439482145, -44098.181319019954, -41729.41049687988, -29689.620994284272, -46983.7915282001, -14939.57071776041, -50452.29052928574, -54834.21591928195, -45952.258521587675, -25844.562154360076, -52180.214486147706, -55431.29806891657, 0.092, 0.9580000000000001, -0.09, 192.0, 0.0, 0.0, 0.0, 0.0, 0.0, 0.0, 0.0, 0.0, 0.0, 1.6689760455199118E9, 0.0, 2022-11-20 15:27:25.519
42.0, -35456.43811898686, -25241.7579581449, -63598.78195509696, -58358.61663325031, -43521.998050451046, -44233.65524216357, -41861.308140910645, -29820.535161559008, -47033.92649101335, -14985.145924704782, -50506.42645435649, -54885.893152462624, -46002.84051929004, -25896.284091029658, -52224.158015746834, -55481.63419742992, 0.092, 0.9580000000000001, -0.09, 192.0, 0.0, 0.0, 0.0, 0.0, 0.0, 0.0, 0.0, 0.0, 0.0, 1.6689760455199175E9, 0.0, 2022-11-20 15:27:25.519
44.0, -35311.86703584994, -25104.384136722583, -63458.12242723971, -58217.37596003723, -43381.04794991588, -44092.9063073285, -41720.89448224241, -29679.316840090378, -46994.20744111627, -14970.39377336428, -50462.90760790201, -54852.9466811355, -45955.2983588336, -25851.2006224633, -52187.27763739558, -55449.514740647646, 0.092, 0.9580000000000001, -0.09, 192.0, 0.0, 0.0, 0.0, 0.0, 0.0, 0.0, 0.0, 0.0, 0.0, 1.6689760455199237E9, 0.0, 2022-11-20 15:27:25.519
46.0, -35488.11054088003, -25253.783196661854, -63631.43785374616, -58391.8313255109, -43559.34781543587, -44270.55797225928, -41899.4402169514, -29856.923801532248, -47030.43961887832, -14991.315006174447, -50506.42645435649, -54891.79401299883, -46001.09708322252, -25895.993518351737, -52222.45928316823, -55488.11620332196, 0.08600000000000001, 0.9560000000000001, -0.09, 192.0, 1.0, 88.0, 14.5, 112.0, 126.5, 24.0, 0.0, 0.0, 0.0, 1.6689760455199296E9, 0.0, 2022-11-20 15:27:25.519
48.0, -35348.412138034364, -25163.280983362318, -63493.058203823355, -58240.75588473748, -43418.822398045355, -44123.12586583208, -41761.5076019177, -29716.264273675, -47049.59506387652, -15009.174049994237, -50519.502224862845, -54904.82508001627, -46012.094141494534, -25904.93421613386, -52242.687611900285, -55504.2988663076, 0.08600000000000001, 0.9560000000000001, -0.09, 192.0, 0.0, 0.0, 0.0, 0.0, 0.0, 0.0, 0.0, 0.0, 0.0, 1.6689760455199356E9, 0.0, 2022-11-20 15:27:25.519
50.0, -35487.30587807964, -25233.42075746307, -63622.184231541665, -58383.29295912897, -43550.09419323137, -44258.82330642024, -41893.449949437374, -29848.743063061604, -47028.36090664398, -14986.01764273854, -50506.24764040085, -54888.77652749736, -45999.15248145491, -25883.096561801027, -52221.14053024537, -55484.383461997924, 0.08600000000000001, 0.9560000000000001, -0.09, 192.0, 0.0, 0.0, 0.0, 0.0, 0.0, 0.0, 0.0, 0.0, 0.0, 1.6689760455199416E9, 0.0, 2022-11-20 15:27:25.519
52.0, -35351.65314098038, -25175.686201535013, -63485.48096245301, -58253.205806399084, -43401.544499581396, -44121.404781509016, -41754.489154158735, -29710.11754394979, -47058.49105816973, -15022.92037283425, -50530.05224824575, -54922.48295813596, -46022.040667777146, -25904.487181244753, -52243.51462644513, -55508.34453205401, 0.08600000000000001, 0.9560000000000001, -0.09, 192.0, 0.0, 0.0, 0.0, 0.0, 0.0, 0.0, 0.0, 0.0, 0.0, 1.668976045519948E9, 0.0, 2022-11-20 15:27:25.519
54.0, -35509.769381257225, -25229.46449869448, -63624.30764726492, -58424.26370671555, -43537.19723668066, -44277.62112350716, -41900.13312102951, -29856.365007920864, -47019.21904316176, -14984.274206671025, -50496.88225947407, -54898.03014970185, -45982.880411491446, -25886.382268235957, -52196.911239255816, -55472.55938918107, 0.08600000000000001, 0.9560000000000001, -0.09, 192.0, 0.0, 0.0, 0.0, 0.0, 0.0, 0.0, 0.0, 0.0, 0.0, 1.6689760455199544E9, 0.0, 2022-11-20 15:27:25.519
56.0, -35383.21380415127, -25181.475303348936, -63506.89393364119, -58293.50600165201, -43405.27724090544, -44149.925607433994, -41773.80106136812, -29726.233151702065, -47100.579392979074, -15083.828876474963, -50575.47099297893, -54982.855019909744, -46059.9715781178, -25971.073027977112, -52278.5398100066, -55556.62430007748, 0.092, 0.9540000000000001, -0.09, 192.0, 1.0, 112.0, 14.5, 104.0, 126.5, 24.0, 0.0, 0.0, 0.0, 1.6689760455199609E9, 0.0, 2022-11-20 15:27:25.519
58.0, -35486.903546679445, -25168.757160753867, -63604.146373766234, -58410.025645497524, -43513.52673930249, -44262.33253029973, -41878.96601903034, -29832.2921791425, -46991.033493403615, -14970.617290808832, -50472.69767197343, -54876.23719885793, -45959.098155391, -25874.89347158593, -52175.587675045455, -55453.38159243842, 0.092, 0.9540000000000001, -0.09, 192.0, 0.0, 0.0, 0.0, 0.0, 0.0, 0.0, 0.0, 0.0, 0.0, 1.6689760455199668E9, 0.0, 2022-11-20 15:27:25.519
60.0, -35373.446091824306, -25168.377181098127, -63500.59074170479, -58280.81021080139, -43401.65625830368, -44146.014052154314, -41768.50369793221, -29714.945520752135, -47091.10225333003, -15082.688937507743, -50571.7382516549, -54977.1776768181, -46063.88313339748, -25979.2314147033, -52284.06069088706, -55555.864340766, 0.092, 0.9540000000000001, -0.09, 192.0, 0.0, 0.0, 0.0, 0.0, 0.0, 0.0, 0.0, 0.0, 0.0, 1.6689760455199733E9, 0.0, 2022-11-20 15:27:25.519
62.0, -35495.73248573929, -25160.487015305403, -63603.40876619921, -58395.22879066811, -43512.99029743556, -44259.18093433153, -41880.038902764194, -29829.542914574497, -46981.86927817694, -14977.367517634335, -50467.44501202644, -54868.078812131746, -45958.36054782398, -25872.479483184754, -52176.88407622386, -55447.57013888004, 0.092, 0.9540000000000001, -0.09, 192.0, 0.0, 0.0, 0.0, 0.0, 0.0, 0.0, 0.0, 0.0, 0.0, 1.6689760455199795E9, 0.0, 2022-11-20 15:27:25.519
64.0, -35460.752005666734, -25230.04564405032, -63574.59736759632, -58339.03650510747, -43478.523907485476, -44213.337506453696, -41847.80768725964, -29792.930757156704, -47128.85434971504, -15111.32152215499, -50607.70220848348, -55006.279648098905, -46098.19306113638, -26004.555941171166, -52319.06352270407, -55584.96631204681, 0.092, 0.9540000000000001, -0.09, 192.0, 0.0, 0.0, 0.0, 0.0, 0.0, 0.0, 0.0, 0.0, 0.0, 1.6689760455199862E9, 0.0, 2022-11-20 15:27:25.519
66.0, -35497.69943925136, -25151.725131478925, -63594.289254461444, -58382.22007539512, -43519.338192860865, -44251.73780342792, -41883.682237110406, -29828.827658751925, -47022.7506187857, -14995.092450987393, -50500.10091067564, -54895.66086478959, -45992.24579241822, -25895.680593929363, -52214.99380052016, -55474.63810141541, 0.08600000000000001, 0.9520000000000001, -0.08, 192.0, 1.0, 88.0, 14.5, 96.0, 126.5, 64.0, 0.0, 0.0, 0.0, 1.668976045520017E9, 0.0, 2022-11-20 15:27:25.520
68.0, -35440.32251123458, -25222.691920124522, -63548.1999573946, -58320.23868802055, -43466.31985501288, -44194.33852366669, -41836.14007665397, -29776.099893581857, -47128.72023924831, -15108.4157953758, -50606.4952142829, -55005.45263355406, -46099.80238673716, -26002.588987659095, -52320.13640643792, -55579.80305907763, 0.08600000000000001, 0.9520000000000001, -0.08, 192.0, 0.0, 0.0, 0.0, 0.0, 0.0, 0.0, 0.0, 0.0, 0.0, 1.6689760455200248E9, 0.0, 2022-11-20 15:27:25.520
70.0, -35462.18251731188, -25126.557067222246, -63556.82773075435, -58355.442685537666, -43484.33536104386, -44221.07121003523, -41853.99912047376, -29798.1834171037, -46988.507746280164, -14971.176084420214, -50469.25550332732, -54868.65995748758, -45955.90185593389, -25864.20933773629, -52179.18630590276, -55439.50115913167, 0.08600000000000001, 0.9520000000000001, -0.08, 192.0, 0.0, 0.0, 0.0, 0.0, 0.0, 0.0, 0.0, 0.0, 0.0, 1.6689760455200307E9, 0.0, 2022-11-20 15:27:25.520
72.0, -35446.78216538217, -25210.532571140837, -63554.033762697436, -58331.19104280366, -43469.40439574771, -44207.883680806604, -41845.572512814106, -29788.371001287822, -47115.756227464226, -15087.628673032365, -50598.783862445816, -54993.58385724829, -46080.44577603886, -25992.84362707658, -52299.662208516864, -55569.85653279502, 0.08600000000000001, 0.9520000000000001, -0.08, 192.0, 0.0, 0.0, 0.0, 0.0, 0.0, 0.0, 0.0, 0.0, 0.0, 1.6689760455200372E9, 0.0, 2022-11-20 15:27:25.520
74.0, -35421.03295576965, -25078.38905792106, -63518.06980586884, -58311.56621117189, -43443.16344775718, -44178.111157192136, -41815.241195588256, -29757.346779983855, -46968.592341970485, -14945.136302129782, -50447.350793761114, -54840.76498040736, -45936.41113476886, -25842.01405549217, -52149.2573200771, -55417.909373987844, 0.08600000000000001, 0.9520000000000001, -0.08, 192.0, 0.0, 0.0, 0.0, 0.0, 0.0, 0.0, 0.0, 0.0, 0.0, 1.6689760455200431E9, 0.0, 2022-11-20 15:27:25.520
76.0, -35471.61495347202, -25225.932923070544, -63574.88794027424, -58360.62829025129, -43485.18472733316, -44223.84282634769, -41860.52582985471, -29802.586710761396, -47110.41416053941, -15090.377937600368, -50599.07443512374, -54991.683958969596, -46081.42925279489, -25991.033135775702, -52288.486336289214, -55564.358003659014, 0.085, 0.9520000000000001, -0.082, 192.0, 1.0, 80.0, 14.5, 96.0, 126.5, 48.0, 0.0, 0.0, 0.0, 1.668976045520049E9, 0.0, 2022-11-20 15:27:25.520
78.0, -35424.72099360478, -25096.53867441877, -63520.461442525564, -58330.16286255871, -43437.97784304355, -44182.715616549925, -41816.09056187756, -29757.525593939496, -46965.70896693575, -14962.950642460662, -50457.72200318838, -54856.14298059261, -45944.30130056159, -25857.83909056653, -52152.4089160453, -55436.26015618565, 0.085, 0.9520000000000001, -0.082, 192.0, 0.0, 0.0, 0.0, 0.0, 0.0, 0.0, 0.0, 0.0, 0.0, 1.6689760455200553E9, 0.0, 2022-11-20 15:27:25.520
80.0, -35491.70917173733, -25241.735606400445, -63591.09295500434, -58387.40568010875, -43503.84843395334, -44245.12168706914, -41884.509251655254, -29824.536123816506, -47110.52591926169, -15113.400234389333, -50609.17742361753, -55009.431244067106, -46096.203755879855, -26011.14970578548, -52300.42216782834, -55590.26367548272, 0.085, 0.9520000000000001, -0.082, 192.0, 0.0, 0.0, 0.0, 0.0, 0.0, 0.0, 0.0, 0.0, 0.0, 1.6689760455200615E9, 0.0, 2022-11-20 15:27:25.520
82.0, -35387.371228619966, -25076.35504917563, -63479.647157150175, -58277.72567006656, -43404.53963333841, -44135.32991830468, -41785.75924465171, -29719.192352198646, -46961.37272851142, -14961.520130815523, -50451.687032185444, -54850.443285756504, -45939.406268525876, -25851.73706433023, -52152.05128813402, -55428.28058341511, 0.085, 0.9520000000000001, -0.082, 192.0, 0.0, 0.0, 0.0, 0.0, 0.0, 0.0, 0.0, 0.0, 0.0, 1.6689760455200684E9, 0.0, 2022-11-20 15:27:25.520
84.0, -35494.100808394054, -25223.831859091744, -63587.40491716921, -58365.34450833136, -43514.8231404809, -44232.60471017417, -41889.828966835616, -29821.56334180395, -47075.25486651121, -15052.64819295981, -50565.18919052949, -54951.56257767232, -46062.60908396353, -25956.343228381065, -52262.692423187786, -55521.77793047165, 0.085, 0.9520000000000001, -0.082, 192.0, 0.0, 0.0, 0.0, 0.0, 0.0, 0.0, 0.0, 0.0, 0.0, 1.6689760455200744E9, 0.0, 2022-11-20 15:27:25.520
86.0, -35401.78810379364, -25104.49589544486, -63489.0348898214, -58276.40691714369, -43416.60957534428, -44140.67198522949, -41790.631924942965, -29725.74141332405, -47001.739978997706, -14991.449116641179, -50487.7180442474, -54881.02047217137, -45984.17681266985, -25880.2578902552, -52187.70232054023, -55442.49629288868, 0.0825, 0.9570000000000001, -0.083, 192.0, 1.0, 64.0, 15.0, 8.0, 126.5, 48.0, 0.0, 0.0, 0.0, 1.6689760455200813E9, 0.0, 2022-11-20 15:27:25.520
88.0, -35547.54382938669, -25275.397333550136, -63628.57683045588, -58420.0392270135, -43550.451821142655, -44286.114786400176, -41925.703516686386, -29865.082188258435, -47085.73783466075, -15073.904701936806, -50581.237743048405, -54974.69663318356, -46072.24268582377, -25973.107036722547, -52261.26191154265, -55533.42318933287, 0.0825, 0.9570000000000001, -0.083, 192.0, 0.0, 0.0, 0.0, 0.0, 0.0, 0.0, 0.0, 0.0, 0.0, 1.6689760455200872E9, 0.0, 2022-11-20 15:27:25.520
90.0, -35397.831845025044, -25106.932235590488, -63480.87650309521, -58277.34569041082, -43400.18104316963, -44146.148162621044, -41780.014846326696, -29721.65104408873, -47028.36090664398, -15030.251745015592, -50520.91038476353, -54920.426597646074, -46007.847310048026, -25924.961379165816, -52202.94621025875, -55489.65847368938, 0.0825, 0.9570000000000001, -0.083, 192.0, 0.0, 0.0, 0.0, 0.0, 0.0, 0.0, 0.0, 0.0, 0.0, 1.6689760455200932E9, 0.0, 2022-11-20 15:27:25.520
92.0, -35543.9899020183, -25240.774481388868, -63627.839222888855, -58422.3414566924, -43555.05628050045, -44294.27317312636, -41933.660737712475, -29872.05593252849, -47070.82922110906, -15057.096190106415, -50571.85001037717, -54961.26323476592, -46061.2232758073, -25974.224623945312, -52254.62344343942, -55545.26961389418, 0.0825, 0.9570000000000001, -0.083, 192.0, 0.0, 0.0, 0.0, 0.0, 0.0, 0.0, 0.0, 0.0, 0.0, 1.6689760455200992E9, 0.0, 2022-11-20 15:27:25.520
94.0, -35382.78912100662, -25111.31317750373, -63474.59566290327, -58257.78791401243, -43410.30638340788, -44138.28034857278, -41790.1625383094, -29721.02519524398, -47031.95953750129, -15020.931067577729, -50521.75975105283, -54909.98833298544, -46013.92698453987, -25918.546428507143, -52223.01807677962, -55500.52142149465, 0.0825, 0.9570000000000001, -0.083, 192.0, 0.0, 0.0, 0.0, 0.0, 0.0, 0.0, 0.0, 0.0, 0.0, 1.6689760455201137E9, 0.0, 2022-11-20 15:27:25.520
96.0, -35543.00642526227, -25236.550001686814, -63626.229897288074, -58413.66897984374, -43570.74720510808, -44297.13419641664, -41951.18450536543, -29882.650659400304, -47045.54939813011, -15024.68616064622, -50542.85979781864, -54920.73952206845, -46040.21263601931, -25936.070196160104, -52235.691515885774, -55508.143366353914, 0.08225, 0.9585, -0.08549999999999999, 192.0, 1.0, 72.0, 15.0, 0.0, 126.5, 32.0, 0.0, 0.0, 0.0, 1.66897604552012E9, 0.0, 2022-11-20 15:27:25.520
98.0, -35396.28957465763, -25145.31018082025, -63483.71517464104, -58257.34087912332, -43416.564871855364, -44146.014052154314, -41802.63481171546, -29733.341006438855, -47079.74756714673, -15066.483922777645, -50567.62553067512, -54947.82983634828, -46063.905485141935, -25955.47151034731, -52255.830437640005, -55523.72253223926, 0.08225, 0.9585, -0.08549999999999999, 192.0, 0.0, 0.0, 0.0, 0.0, 0.0, 0.0, 0.0, 0.0, 0.0, 1.6689760455201263E9, 0.0, 2022-11-20 15:27:25.520
100.0, -35541.26298919475, -25228.570428916268, -63626.60987694382, -58417.46877640114, -43560.89008580329, -44304.39851336462, -41949.664586742474, -29884.148226278812, -47034.373525902454, -15030.788186882519, -50536.5789576267, -54916.58209759976, -46029.841426592044, -25926.436594299867, -52216.37960867639, -55487.75857541068, 0.08225, 0.9585, -0.08549999999999999, 192.0, 0.0, 0.0, 0.0, 0.0, 0.0, 0.0, 0.0, 0.0, 0.0, 1.6689760455201344E9, 0.0, 2022-11-20 15:27:25.520
102.0, -35409.34299341953, -25180.536530081812, -63503.04943359488, -58293.46129816309, -43425.72908708204, -44178.42408161451, -41820.38209681298, -29754.686922393674, -47084.732006160266, -15085.50525730911, -50582.89177213809, -54970.74037441497, -46078.54587776016, -25984.707592094852, -52273.6894814598, -55551.68456455285, 0.08225, 0.9585, -0.08549999999999999, 192.0, 0.0, 0.0, 0.0, 0.0, 0.0, 0.0, 0.0, 0.0, 0.0, 1.6689760455201411E9, 0.0, 2022-11-20 15:27:25.520
104.0, -35561.625428393534, -25242.584972689747, -63636.087016592865, -58459.53475946603, -43567.97558879561, -44326.035001997356, -41963.18739213794, -29900.53205496455, -47032.60773809049, -15033.69391366171, -50534.96963202592, -54927.981487271965, -46030.40022020343, -25940.51819330671, -52220.604088378444, -55509.30565706559, 0.08225, 0.9585, -0.08549999999999999, 192.0, 0.0, 0.0, 0.0, 0.0, 0.0, 0.0, 0.0, 0.0, 0.0, 1.668976045520147E9, 0.0, 2022-11-20 15:27:25.520
106.0, -35425.57035989408, -25193.344079654704, -63511.319579043346, -58319.23285952007, -43434.960357542084, -44182.425043872005, -41828.2722626057, -29757.100910794845, -47116.02444839769, -15129.359379930424, -50617.04523766581, -55013.09693015778, -46109.2348228973, -26023.331406513622, -52305.048978930594, -55593.88465808448, 0.083125, 0.9592499999999999, -0.08675, 192.0, 1.0, 80.0, 15.0, 0.0, 126.5, 32.0, 0.0, 0.0, 0.0, 1.668976046000738E9, 0.0, 2022-11-20 15:27:26.000
108.0, -35537.999634504275, -25202.485943136926, -63615.52341169398, -58434.97019230964, -43547.52374261901, -44289.08756841273, -41937.1476098475, -29862.511737646073, -47017.25208964969, -15019.969942566151, -50522.11737896412, -54911.73176905296, -46015.08927525154, -25926.213076855314, -52208.176518461296, -55493.25710454668, 0.083125, 0.9592499999999999, -0.08675, 192.0, 0.0, 0.0, 0.0, 0.0, 0.0, 0.0, 0.0, 0.0, 0.0, 1.6689760460007658E9, 0.0, 2022-11-20 15:27:26.000
110.0, -35412.71810683228, -25183.732829538923, -63505.10579408477, -58295.33884469734, -43428.16542722767, -44155.379433081085, -41817.27520433369, -29737.543134396452, -47113.27518382969, -15119.479908881178, -50612.66429575256, -55003.418624808626, -46107.536090318696, -26014.033080820212, -52305.004275441686, -55579.78070733318, 0.083125, 0.9592499999999999, -0.08675, 192.0, 0.0, 0.0, 0.0, 0.0, 0.0, 0.0, 0.0, 0.0, 0.0, 1.6689760460007703E9, 0.0, 2022-11-20 15:27:26.000
112.0, -35521.81697151864, -25179.061314947765, -63601.46416443159, -58409.06452048595, -43538.82891402589, -44271.988483904424, -41925.547054475195, -29848.653656083785, -46982.04809213258, -14980.988500236095, -50485.12524189058, -54870.313986577276, -45982.27691439115, -25881.822512367075, -52181.01914894809, -55443.144493477885, 0.083125, 0.9592499999999999, -0.08675, 192.0, 0.0, 0.0, 0.0, 0.0, 0.0, 0.0, 0.0, 0.0, 0.0, 1.668976046000775E9, 0.0, 2022-11-20 15:27:26.000
114.0, -35473.894831406455, -25249.648123937623, -63548.490530072515, -58346.27847031099, -43483.620105221285, -44219.350125712175, -41873.15456547196, -29794.383620546298, -47138.555006808645, -15145.318525471512, -50641.34158388872, -55032.05120945588, -46145.39994542598, -26041.257505566777, -52337.68252583534, -55601.26073375472, 0.083125, 0.9592499999999999, -0.08675, 192.0, 0.0, 0.0, 0.0, 0.0, 0.0, 0.0, 0.0, 0.0, 0.0, 1.6689760460007794E9, 0.0, 2022-11-20 15:27:26.000
116.0, -35537.731413570815, -25193.03115523233, -63588.23193171406, -58413.35605542136, -43538.493637859065, -44280.77271947536, -41925.79292366421, -29851.42527239624, -47003.975153443236, -15016.147794264292, -50505.442977600454, -54901.24880090342, -46007.19910945882, -25908.37638477998, -52191.166840930804, -55460.08711577501, 0.0875625, 0.959625, -0.089375, 192.0, 1.0, 112.0, 15.0, 0.0, 126.5, 16.0, 0.0, 0.0, 0.0, 1.6689760460007849E9, 0.0, 2022-11-20 15:27:26.000
118.0, -35533.97632050232, -25303.448772841548, -63595.58565563985, -58396.16756393523, -43534.53737909048, -44275.76592871737, -41923.26717654076, -29846.641999082807, -47177.04471076068, -15181.237778811192, -50679.13838376265, -55069.266863973964, -46173.40668122849, -26077.221462395366, -52353.97694754326, -55628.14988233446, 0.0875625, 0.959625, -0.089375, 192.0, 0.0, 0.0, 0.0, 0.0, 0.0, 0.0, 0.0, 0.0, 0.0, 1.6689760460007892E9, 0.0, 2022-11-20 15:27:26.000
120.0, -35541.19593396139, -25190.23718717542, -63595.608007384304, -58407.36578790734, -43539.72298380411, -44284.25959161039, -41930.71030744437, -29855.761510820572, -47057.7087471138, -15049.384838269334, -50549.31945196622, -54932.42948441857, -46053.17664780339, -25945.61439104252, -52226.70611461474, -55502.1978023288, 0.0875625, 0.959625, -0.089375, 192.0, 0.0, 0.0, 0.0, 0.0, 0.0, 0.0, 0.0, 0.0, 0.0, 1.6689760460007937E9, 0.0, 2022-11-20 15:27:26.000
122.0, -35539.206628704866, -25296.67619427159, -63613.33294073737, -58395.832287768404, -43537.934844247684, -44279.96805667497, -41937.371127292055, -29859.293086444508, -47176.6870828494, -15174.845179896973, -50676.14325000563, -55056.973404523545, -46176.55827719668, -26074.516901316274, -52354.915720810386, -55628.35104803456, 0.0875625, 0.959625, -0.089375, 192.0, 0.0, 0.0, 0.0, 0.0, 0.0, 0.0, 0.0, 0.0, 0.0, 1.668976046000798E9, 0.0, 2022-11-20 15:27:26.000
