%OpenBCI Raw EEG Data
%Number of channels = 16
%Sample Rate = 125 Hz
%Board = OpenBCI_GUI$BoardCytonSerialDaisy
Sample Index, EXG Channel 0, EXG Channel 1, EXG Channel 2, EXG Channel 3, EXG Channel 4, EXG Channel 5, EXG Channel 6, EXG Channel 7, EXG Channel 8, EXG Channel 9, EXG Channel 10, EXG Channel 11, EXG Channel 12, EXG Channel 13, EXG Channel 14, EXG Channel 15, Accel Channel 0, Accel Channel 1, Accel Channel 2, Other, Other, Other, Other, Other, Other, Other, Analog Channel 0, Analog Channel 1, Analog Channel 2, Timestamp, Other, Timestamp (Formatted)
60.0, -17690.48931485287, 22979.068515189712, -36286.805425501516, -35304.04392529058, -28312.060631759243, -29145.71364470883, -24591.50100845111, -3778.741214125301, -26306.52800876236, -3811.1959470744073, -29151.838022689586, -34287.4418839743, -27826.290169512056, -11184.052966124174, -23054.080969581722, -35466.40699701393, 0.0, 0.0, 0.0, 192.0, 0.0, 0.0, 0.0, 0.0, 0.0, 0.0, 0.0, 0.0, 0.0, 1.668976737247157E9, 0.0, 2022-11-20 15:38:57.247
62.0, -17682.73325952688, 23360.72455176408, -36265.32539907997, -35294.298564708064, -28291.07234371571, -29127.072289833104, -24573.217281486664, -3753.4390394018938, -26216.226961162924, -3726.236966399785, -29049.444681339824, -34192.178749105784, -27729.328302064932, -11087.985168455263, -22968.943174951455, -35377.11177791498, 0.0, 0.0, 0.0, 192.0, 0.0, 0.0, 0.0, 0.0, 0.0, 0.0, 0.0, 0.0, 0.0, 1.6689767372471645E9, 0.0, 2022-11-20 15:38:57.247
64.0, -17709.93533252899, 23010.137439982587, -36297.0648762065, -35317.432620219304, -28321.828344086214, -29158.05180764816, -24599.212360288187, -3784.664426405958, -26307.511485518397, -3812.984086630832, -29148.95464765485, -34286.36900024045, -27827.430108479275, -11187.428079536925, -23050.996428846887, -35463.09893883454, 0.0, 0.0, 0.0, 192.0, 0.0, 0.0, 0.0, 0.0, 0.0, 0.0, 0.0, 0.0, 0.0, 1.6689767372471704E9, 0.0, 2022-11-20 15:38:57.247
66.0, -17672.96554719991, 23308.019138338466, -36254.77537569706, -35287.45893090474, -28281.930480233492, -29125.19474329886, -24558.889813290814, -3746.532350365204, -26230.755595058872, -3744.78891429769, -29064.733274547252, -34207.04265916856, -27738.15724112478, -11106.067729719607, -22969.74783775185, -35391.57335657756, 0.0, 0.0, 0.0, 192.0, 0.0, 0.0, 0.0, 0.0, 0.0, 0.0, 0.0, 0.0, 0.0, 1.6689767372471762E9, 0.0, 2022-11-20 15:38:57.247
68.0, -17711.187030218487, 23078.62318499365, -36296.57313782849, -35319.4889807092, -28325.7846028548, -29163.371522828525, -24596.01606083108, -3783.3456734830947, -26292.804037666803, -3795.7732434002455, -29140.103356850548, -34271.75095936668, -27811.470962938187, -11176.20750382036, -23026.923600068523, -35454.87349687499, 0.078, 0.9580000000000001, -0.138, 192.0, 1.0, 56.0, 14.5, 120.0, 125.5, 88.0, 0.0, 0.0, 0.0, 1.6689767372471824E9, 0.0, 2022-11-20 15:38:57.247
70.0, -17666.952927941435, 23251.7374458, -36252.16022159579, -35278.562936611524, -28288.010154725333, -29122.445478730857, -24559.00157201309, -3745.7723910537234, -26236.924676528535, -3748.052268988165, -29068.22014668228, -34207.847321968955, -27742.15820338228, -11110.381616399482, -22967.244442372852, -35393.361496133984, 0.078, 0.9580000000000001, -0.138, 192.0, 0.0, 0.0, 0.0, 0.0, 0.0, 0.0, 0.0, 0.0, 0.0, 1.668976737247188E9, 0.0, 2022-11-20 15:38:57.247
72.0, -17704.861486537637, 23149.567621894792, -36287.7665505131, -35304.75918111315, -28330.545524423782, -29152.888554678986, -24595.63608117534, -3777.690682135902, -26294.34630803422, -3794.4544904773825, -29135.4765457483, -34265.15719475236, -27817.483582196666, -11174.464067752848, -23031.12572802612, -35441.23893275725, 0.078, 0.9580000000000001, -0.138, 192.0, 0.0, 0.0, 0.0, 0.0, 0.0, 0.0, 0.0, 0.0, 0.0, 1.6689767372471943E9, 0.0, 2022-11-20 15:38:57.247
74.0, -17641.315477051197, 23213.851238948257, -36218.722011890655, -35241.32493034899, -28267.625363782092, -29091.309498704613, -24537.320379891444, -3719.777312252201, -26220.406737376063, -3725.365248366028, -29047.41067259439, -34184.556804246524, -27728.92597066474, -11085.995863198741, -22952.738160221357, -35362.06905389656, 0.078, 0.9580000000000001, -0.138, 192.0, 0.0, 0.0, 0.0, 0.0, 0.0, 0.0, 0.0, 0.0, 0.0, 1.6689767372472003E9, 0.0, 2022-11-20 15:38:57.247
76.0, -17725.156870503055, 23205.02229988841, -36301.065838464005, -35327.647367435384, -28350.75150141138, -29175.91085146795, -24619.597151231428, -3803.3504847705944, -26276.77783689235, -3768.749984353779, -29122.177257797393, -34246.717005576735, -27803.960776801203, -11156.202692532861, -23013.825477817714, -35428.92312156238, 0.078, 0.9580000000000001, -0.138, 192.0, 0.0, 0.0, 0.0, 0.0, 0.0, 0.0, 0.0, 0.0, 0.0, 1.6689767372472064E9, 0.0, 2022-11-20 15:38:57.247
78.0, -17641.36018054011, 23135.977761265967, -36219.32550899094, -35248.097508918945, -28266.910107959524, -29091.4659609158, -24533.744100778593, -3720.492568074771, -26248.927563301037, -3755.003661513765, -29078.94898402083, -34216.25157788415, -27756.932706467236, -11117.645933347456, -22979.493198334363, -35396.04370546862, 0.078, 0.9580000000000001, -0.138, 192.0, 1.0, 56.0, 14.5, 120.0, 125.5, 88.0, 0.0, 0.0, 0.0, 1.6689767372472124E9, 0.0, 2022-11-20 15:38:57.247
80.0, -17714.226867464407, 23269.12710298623, -36289.733504025164, -35321.94767259928, -28337.452213460474, -29168.177147886414, -24605.91788362478, -3792.487536965315, -26260.43871169552, -3758.244664459785, -29106.933368078873, -34235.876409515906, -27784.000669002613, -11143.395142959971, -22993.641852574572, -35412.91927253238, 0.078, 0.9580000000000001, -0.138, 192.0, 0.0, 0.0, 0.0, 0.0, 0.0, 0.0, 0.0, 0.0, 0.0, 1.6689767372472184E9, 0.0, 2022-11-20 15:38:57.247
82.0, -17635.459320003905, 23080.791304205814, -36212.64233739881, -35237.54748553604, -28259.422273566997, -29092.963527794305, -24533.09590018939, -3722.7724460092127, -26241.596191119694, -3750.8462370450784, -29067.683704815354, -34207.53439754658, -27749.713093008173, -11114.784910057177, -22970.530148807782, -35395.57431883506, 0.078, 0.9580000000000001, -0.138, 192.0, 0.0, 0.0, 0.0, 0.0, 0.0, 0.0, 0.0, 0.0, 0.0, 1.6689767372472248E9, 0.0, 2022-11-20 15:38:57.247
84.0, -17727.481451926407, 23322.637179212237, -36299.322402396494, -35325.546303456584, -28342.973094340934, -29172.87101422203, -24615.193857573733, -3800.46710973586, -26259.611697150674, -3753.8637225465445, -29097.210359240817, -34224.74524077716, -27783.039543991035, -11138.63422139099, -22990.579663584194, -35412.33812717654, 0.078, 0.9580000000000001, -0.138, 192.0, 0.0, 0.0, 0.0, 0.0, 0.0, 0.0, 0.0, 0.0, 0.0, 1.6689767372472308E9, 0.0, 2022-11-20 15:38:57.247
86.0, -17647.193985842943, 23016.820611574723, -36227.41684048377, -35242.80014548304, -28264.74198874736, -29089.677821359375, -24536.538068835507, -3722.2360041422853, -26267.72538038795, -3776.1260600240303, -29094.595205139543, -34231.16019143584, -27773.16007294179, -11131.280497465194, -22999.27449217731, -35411.77933356516, 0.078, 0.9580000000000001, -0.138, 192.0, 0.0, 0.0, 0.0, 0.0, 0.0, 0.0, 0.0, 0.0, 0.0, 1.6689767372472367E9, 0.0, 2022-11-20 15:38:57.247
88.0, -17723.480489668906, 23369.95582222412, -36303.658640820824, -35325.88157962341, -28342.213135029455, -29165.316124596135, -24613.91980813978, -3794.8791736220332, -26243.518441142853, -3745.593577098081, -29088.202606225328, -34217.68208952929, -27766.409846116287, -11117.087139736073, -22989.68559380598, -35395.462560112785, 0.081, 0.9590000000000001, -0.136, 192.0, 1.0, 80.0, 15.0, 0.0, 125.5, 104.0, 0.0, 0.0, 0.0, 1.6689767372472427E9, 0.0, 2022-11-20 15:38:57.247
90.0, -17647.48455852086, 22990.199683928455, -36228.69088991772, -35238.95564543673, -28270.866366728114, -29092.985879538763, -24546.171670695745, -3732.2495856582627, -26270.38523797813, -3777.1542402689747, -29101.166618009403, -34238.044528728075, -27778.92682301126, -11137.695448123866, -23014.36191968464, -35420.496513902726, 0.081, 0.9590000000000001, -0.136, 192.0, 0.0, 0.0, 0.0, 0.0, 0.0, 0.0, 0.0, 0.0, 0.0, 1.6689767372472486E9, 0.0, 2022-11-20 15:38:57.247
92.0, -17728.286114726798, 23403.841066818368, -36297.89189075135, -35321.143009798885, -28345.431786231016, -29168.28890660869, -24620.468869265183, -3803.6410574485135, -26240.56801087475, -3735.423533370916, -29078.14432122044, -34206.796789979555, -27759.324343123957, -11113.376750156493, -22984.25411990334, -35390.96985947727, 0.081, 0.9590000000000001, -0.136, 192.0, 0.0, 0.0, 0.0, 0.0, 0.0, 0.0, 0.0, 0.0, 0.0, 1.6689767372472577E9, 0.0, 2022-11-20 15:38:57.247
94.0, -17669.74689599835, 22947.8654799301, -36241.006701112594, -35254.937142722265, -28280.768189521816, -29112.767173381708, -24559.649772602294, -3750.1980364558744, -26288.02076435337, -3798.7460254128014, -29120.746746152254, -34259.45749991626, -27793.58956737394, -11159.533102456702, -23021.402719188063, -35433.90756057591, 0.081, 0.9590000000000001, -0.136, 192.0, 0.0, 0.0, 0.0, 0.0, 0.0, 0.0, 0.0, 0.0, 0.0, 1.668976737247264E9, 0.0, 2022-11-20 15:38:57.247
96.0, -17733.158795018055, 23423.130622283297, -36295.679068050275, -35324.1381435559, -28334.65824540356, -29176.670810779433, -24618.59132273094, -3808.5137377397705, -26241.082100997224, -3748.2757864327177, -29083.195815467338, -34215.91630171732, -27751.948267453703, -11120.708122337834, -22972.228881386385, -35394.85906301249, 0.081, 0.9590000000000001, -0.136, 192.0, 0.0, 0.0, 0.0, 0.0, 0.0, 0.0, 0.0, 0.0, 0.0, 1.6689767372472699E9, 0.0, 2022-11-20 15:38:57.247
98.0, -17672.920843711003, 22945.63030548457, -36244.47122150317, -35260.56978232501, -28279.896471488057, -29124.792411898663, -24562.46609240366, -3761.0386325166983, -26296.804999924305, -3802.858746392578, -29127.966359611317, -34262.89966856237, -27801.770305844584, -11172.899445640975, -23024.688425622993, -35446.87157235999, 0.0785, 0.9575, -0.133, 192.0, 1.0, 48.0, 14.5, 112.0, 125.5, 120.0, 0.0, 0.0, 0.0, 1.6689767372472758E9, 0.0, 2022-11-20 15:38:57.247
100.0, -17715.255047709354, 23443.515413226538, -36282.826814988475, -35319.31016675355, -28320.330777207706, -29170.34526709858, -24603.63800569034, -3799.9977231022986, -26226.039376978802, -3729.276803645707, -29063.615687324487, -34194.838606695965, -27738.58192426943, -11108.995808243253, -22961.812968470214, -35389.96403097678, 0.0785, 0.9575, -0.133, 192.0, 0.0, 0.0, 0.0, 0.0, 0.0, 0.0, 0.0, 0.0, 0.0, 1.6689767372472816E9, 0.0, 2022-11-20 15:38:57.247
102.0, -17673.63609953357, 22956.35914282312, -36246.9075616488, -35269.488128362675, -28285.327945390698, -29125.105336321038, -24566.020019772055, -3762.692661606391, -26299.3083953033, -3805.2727347937507, -29136.795298671164, -34272.4885669337, -27814.510800184107, -11184.522352757735, -23037.585382173704, -35466.80932841412, 0.0785, 0.9575, -0.133, 192.0, 0.0, 0.0, 0.0, 0.0, 0.0, 0.0, 0.0, 0.0, 0.0, 1.6689767372472875E9, 0.0, 2022-11-20 15:38:57.247
104.0, -17697.351300400653, 23449.84095690739, -36255.334169308444, -35291.370486184416, -28297.59905309666, -29133.15196432495, -24575.43010418774, -3765.2631122187513, -26202.257120878356, -3708.4449778133608, -29038.26880911217, -34171.57044071799, -27713.995005368593, -11080.497334062737, -22934.454433256917, -35358.202202105786, 0.0785, 0.9575, -0.133, 192.0, 0.0, 0.0, 0.0, 0.0, 0.0, 0.0, 0.0, 0.0, 0.0, 1.6689767372472937E9, 0.0, 2022-11-20 15:38:57.247
106.0, -17688.79058227427, 22974.173483153998, -36249.52271575007, -35271.96917199721, -28285.93144249099, -29118.355109495536, -24564.030714515535, -3755.7412690807905, -26302.504694760406, -3806.6138394610693, -29139.96924638382, -34271.41568319985, -27808.609939647908, -11172.340652029592, -23019.346358698174, -35436.38860421045, 0.0785, 0.9575, -0.133, 192.0, 0.0, 0.0, 0.0, 0.0, 0.0, 0.0, 0.0, 0.0, 0.0, 1.6689767372472997E9, 0.0, 2022-11-20 15:38:57.247
108.0, -17719.725396600414, 23391.637014345768, -36278.624687030875, -35312.44818120577, -28315.011062027344, -29151.256877333748, -24596.82072363147, -3783.3903769720055, -26228.542772357796, -3733.8365595145897, -29065.470882114278, -34197.431409052784, -27726.355520052377, -11091.494392334747, -22949.16188110851, -35361.77848121864, 0.07625, 0.95675, -0.1335, 192.0, 1.0, 40.0, 14.5, 112.0, 125.5, 104.0, 0.0, 0.0, 0.0, 1.6689767372473059E9, 0.0, 2022-11-20 15:38:57.247
110.0, -17711.812879063236, 22995.318233408718, -36285.8666522344, -35306.45791369175, -28322.588303397693, -29158.565897770633, -24602.38630800084, -3794.65565617748, -26328.58918053975, -3827.177444359952, -29174.145063655982, -34298.50599747968, -27838.248352795646, -11201.956713432875, -23059.13246382862, -35473.894831406455, 0.07625, 0.95675, -0.1335, 192.0, 0.0, 0.0, 0.0, 0.0, 0.0, 0.0, 0.0, 0.0, 0.0, 1.6689767372473116E9, 0.0, 2022-11-20 15:38:57.247
112.0, -17684.25317814984, 23370.9169472357, -36250.88617216184, -35285.31316343703, -28295.252119928853, -29136.43767075988, -24576.994726299614, -3768.7723360982345, -26218.864467008647, -3724.426475098905, -29054.69734128682, -34185.272060069095, -27724.25445607358, -11091.561447568112, -22953.743988721846, -35374.31780985806, 0.07625, 0.95675, -0.1335, 192.0, 0.0, 0.0, 0.0, 0.0, 0.0, 0.0, 0.0, 0.0, 0.0, 1.668976737247318E9, 0.0, 2022-11-20 15:38:57.247
114.0, -17706.627274349605, 23061.74761792989, -36271.40507357181, -35292.37631468491, -28316.30746320575, -29156.19661285837, -24595.546674197518, -3793.8286416326337, -26295.754467934905, -3793.336903254617, -29137.73407193829, -34261.37974993941, -27811.56036991601, -11177.436849765403, -23028.197649502476, -35454.62762768598, 0.07625, 0.95675, -0.1335, 192.0, 0.0, 0.0, 0.0, 0.0, 0.0, 0.0, 0.0, 0.0, 0.0, 1.668976737247324E9, 0.0, 2022-11-20 15:38:57.247
116.0, -17687.11420144012, 23308.935559861133, -36239.66559644527, -35270.181032440785, -28285.283241901787, -29125.261798532225, -24564.701266849195, -3761.485667405804, -26228.833345035717, -3737.8598735165447, -29056.95486747681, -34189.04950488204, -27728.188363097714, -11096.568238326101, -22947.48550027436, -35377.80468199309, 0.07625, 0.95675, -0.1335, 192.0, 0.0, 0.0, 0.0, 0.0, 0.0, 0.0, 0.0, 0.0, 0.0, 1.66897673724733E9, 0.0, 2022-11-20 15:38:57.247
118.0, -17731.37065546163, 23105.869961484666, -36287.23010864617, -35304.446256690775, -28325.069347032233, -29155.21313610234, -24600.86638937788, -3796.8461271341002, -26300.58244473725, -3799.7742056577454, -29148.5299645102, -34271.08040703302, -27811.202742004723, -11173.793515419187, -23014.920713296022, -35444.70345314783, 0.077125, 0.954375, -0.13275, 192.0, 1.0, 56.0, 14.5, 96.0, 125.5, 112.0, 0.0, 0.0, 0.0, 1.668976737247336E9, 0.0, 2022-11-20 15:38:57.247
120.0, -17672.02677393279, 23260.767550559947, -36229.67436667375, -35248.90217171934, -28267.982991693378, -29090.99657428224, -24542.90831600527, -3732.6966205473686, -26230.10739446967, -3740.3185654066287, -29066.163786192395, -34198.414885808816, -27727.406052041777, -11092.05318594613, -22941.450529271428, -35365.6453330094, 0.077125, 0.954375, -0.13275, 192.0, 0.0, 0.0, 0.0, 0.0, 0.0, 0.0, 0.0, 0.0, 0.0, 1.668976737247342E9, 0.0, 2022-11-20 15:38:57.247
122.0, -17738.500861942874, 23171.9193663501, -36297.0648762065, -35309.72126838223, -28337.27339950483, -29152.195650600872, -24608.9577208707, -3797.069644578653, -26293.54164523383, -3794.5438974552035, -29145.28896156418, -34267.906459320366, -27812.096811782936, -11168.362041516548, -23015.010120273844, -35428.185513995355, 0.077125, 0.954375, -0.13275, 192.0, 0.0, 0.0, 0.0, 0.0, 0.0, 0.0, 0.0, 0.0, 0.0, 1.668976737247348E9, 0.0, 2022-11-20 15:38:57.247
124.0, -17666.8188174747, 23200.954282397543, -36230.21080854068, -35242.10724140492, -28263.892622458057, -29087.442646913845, -24543.064778216456, -3733.3448211365726, -26237.05878699527, -3747.0687922321313, -29071.32703916157, -34202.54995853305, -27739.118366136358, -11099.853944761033, -22959.466035302405, -35370.98739993422, 0.077125, 0.954375, -0.13275, 192.0, 0.0, 0.0, 0.0, 0.0, 0.0, 0.0, 0.0, 0.0, 0.0, 1.668976737247356E9, 0.0, 2022-11-20 15:38:57.247
126.0, -17754.124731317133, 23228.201058888564, -36320.40009741785, -35334.66581519435, -28346.839946131702, -29176.648459034976, -24629.87895368087, -3822.461226279882, -26290.09947658771, -3781.4904786933043, -29137.868182405018, -34256.26120045915, -27807.626462891873, -11161.388297246493, -23012.953759783955, -35427.91729306189, 0.077125, 0.954375, -0.13275, 192.0, 0.0, 0.0, 0.0, 0.0, 0.0, 0.0, 0.0, 0.0, 0.0, 1.668976737247362E9, 0.0, 2022-11-20 15:38:57.247
128.0, -17656.40290455853, 23136.82712755527, -36222.65591891479, -35239.581494281476, -28247.35233156113, -29084.693382345842, -24534.95109497918, -3729.50032109026, -26256.05776978228, -3759.943397038388, -29086.973260280283, -34219.00084245215, -27754.563421554976, -11116.617753102511, -22970.97718369689, -35392.445074611314, 0.0775625, 0.9531875000000001, -0.13237500000000002, 192.0, 1.0, 56.0, 14.5, 96.0, 125.5, 112.0, 0.0, 0.0, 0.0, 1.668976737247368E9, 0.0, 2022-11-20 15:38:57.247
130.0, -17749.743789403892, 23299.458420212082, -36315.058030493026, -35332.408289004365, -28345.409434486563, -29181.565842815144, -24627.979055402167, -3821.008362890287, -26275.324973502753, -3763.340862195595, -29119.450344973844, -34239.54209560658, -27792.27081445108, -11146.703201139355, -22990.89258800657, -35417.36726967899, 0.0775625, 0.9531875000000001, -0.13237500000000002, 192.0, 0.0, 0.0, 0.0, 0.0, 0.0, 0.0, 0.0, 0.0, 0.0, 1.6689767372474034E9, 0.0, 2022-11-20 15:38:57.247
132.0, -17658.548672026238, 23080.70189722799, -36222.61121542587, -35233.68063374527, -28257.92470668849, -29092.069458016096, -24538.348560136386, -3732.9424897363774, -26265.44550245351, -3762.692661606391, -29091.4659609158, -34220.76663026412, -27766.007514716093, -11123.7256078393, -22980.58843381267, -35406.638432340435, 0.0775625, 0.9531875000000001, -0.13237500000000002, 192.0, 0.0, 0.0, 0.0, 0.0, 0.0, 0.0, 0.0, 0.0, 0.0, 1.6689767372474096E9, 0.0, 2022-11-20 15:38:57.247
134.0, -17739.864318354645, 23364.501996577026, -36298.13775994036, -35313.945748084276, -28334.41237621455, -29169.20532813136, -24608.9577208707, -3798.4554527348823, -26260.639877395617, -3747.2923096766845, -29102.083039532074, -34218.91143547433, -27772.422465374766, -11129.179433486395, -22982.8236082582, -35407.063115485085, 0.0775625, 0.9531875000000001, -0.13237500000000002, 192.0, 0.0, 0.0, 0.0, 0.0, 0.0, 0.0, 0.0, 0.0, 0.0, 1.6689767372474153E9, 0.0, 2022-11-20 15:38:57.247
136.0, -17643.461244518905, 23046.682542167015, -36214.31871823296, -35226.05868888601, -28249.855726940124, -29084.246347456738, -24526.815059997447, -3719.106759918542, -26265.06552279777, -3759.6528243604694, -29093.455266172325, -34218.01736569612, -27758.385569856833, -11126.117244496018, -22992.88189326309, -35410.147656219924, 0.0775625, 0.9531875000000001, -0.13237500000000002, 192.0, 0.0, 0.0, 0.0, 0.0, 0.0, 0.0, 0.0, 0.0, 0.0, 1.6689767372474215E9, 0.0, 2022-11-20 15:38:57.247
138.0, -17723.212268735442, 23417.989721058577, -36291.54399532604, -35320.315995254045, -28336.89341984909, -29170.881708965506, -24613.182200572755, -3800.601220202592, -26232.029644492824, -3729.522672834715, -29077.831396798065, -34198.43723755327, -27743.566363282964, -11112.10270072254, -22978.442666344963, -35394.18851067883, 0.07878125, 0.95359375, -0.13518750000000002, 192.0, 1.0, 64.0, 14.5, 104.0, 125.5, 88.0, 0.0, 0.0, 0.0, 1.6689767372474277E9, 0.0, 2022-11-20 15:38:57.247
140.0, -17625.57984895466, 23022.810879088745, -36198.06900001395, -35216.73801144815, -28244.78188094877, -29080.357143921512, -24522.43411808421, -3712.1553673929416, -26254.38138894813, -3760.6810046054134, -29087.42029516939, -34215.6257290394, -27755.546898311008, -11127.547756141157, -22997.50870436534, -35414.34978417752, 0.07878125, 0.95359375, -0.13518750000000002, 192.0, 0.0, 0.0, 0.0, 0.0, 0.0, 0.0, 0.0, 0.0, 0.0, 1.6689767372474337E9, 0.0, 2022-11-20 15:38:57.247
142.0, -17719.859507067147, 23441.526107970014, -36279.71992250919, -35306.972003814226, -28326.79043135529, -29166.992505430284, -24603.749764412616, -3788.6430369190025, -26212.360109372155, -3712.311829604129, -29054.674989542367, -34175.66080995331, -27724.477973518133, -11092.679034790879, -22954.705113733427, -35373.08846391302, 0.07878125, 0.95359375, -0.13518750000000002, 192.0, 0.0, 0.0, 0.0, 0.0, 0.0, 0.0, 0.0, 0.0, 0.0, 1.6689767372474396E9, 0.0, 2022-11-20 15:38:57.247
144.0, -17665.053029662733, 22965.702172005436, -36221.27011075856, -35237.3686715804, -28254.437834553464, -29096.405696440423, -24532.91708623375, -3719.9561262078437, -26279.594156693718, -3786.430214217927, -29110.621405914, -34240.01148224014, -27772.40011363031, -11143.05986679314, -23000.83911428918, -35420.38475518045, 0.07878125, 0.95359375, -0.13518750000000002, 192.0, 0.0, 0.0, 0.0, 0.0, 0.0, 0.0, 0.0, 0.0, 0.0, 1.6689767372474456E9, 0.0, 2022-11-20 15:38:57.247
146.0, -17729.716626371937, 23440.341465513884, -36285.39726560083, -35311.46470444974, -28313.84877131567, -29153.71556922383, -24591.523360195562, -3769.241722731796, -26232.09669972619, -3738.7986467836677, -29075.28329793016, -34201.87940619939, -27729.14948810929, -11099.608075572023, -22950.97237240939, -35371.36737958996, 0.07878125, 0.95359375, -0.13518750000000002, 192.0, 0.0, 0.0, 0.0, 0.0, 0.0, 0.0, 0.0, 0.0, 0.0, 1.6689767372474515E9, 0.0, 2022-11-20 15:38:57.247
148.0, -17669.143398898053, 22962.26000335932, -36233.92119812026, -35248.70100601924, -28259.422273566997, -29092.158864993915, -24534.816984512447, -3716.0669226726204, -26288.26663354238, -3792.040502076209, -29128.033414844682, -34260.73154935021, -27781.653735834807, -11145.786779616688, -23008.34930042616, -35424.43042092686, 0.07878125, 0.95359375, -0.13518750000000002, 192.0, 0.0, 0.0, 0.0, 0.0, 0.0, 0.0, 0.0, 0.0, 0.0, 1.6689767372474575E9, 0.0, 2022-11-20 15:38:57.247
150.0, -17724.17339374702, 23437.50279396806, -36288.6159168024, -35324.51812321164, -28318.31912020673, -29150.67573197791, -24592.618595673874, -3766.6042168860695, -26221.300807154275, -3721.811320997634, -29061.581678579056, -34197.431409052784, -27719.515886249053, -11077.390441583448, -22948.96071540841, -35366.20412662079, 0.08, 0.9480000000000001, -0.134, 192.0, 1.0, 64.0, 14.5, 80.0, 125.5, 104.0, 0.0, 0.0, 0.0, 1.6689767372474637E9, 0.0, 2022-11-20 15:38:57.247
152.0, -17670.93153845448, 22971.826549986192, -36248.53923899403, -35269.53283185158, -28274.46499758542, -29108.118010535007, -24546.216374184656, -3726.3934286109725, -26296.425020268565, -3795.5497259556923, -29135.744766681764, -34273.82967160102, -27797.076439508968, -11158.281404767205, -23030.678693137015, -35448.88322936097, 0.08, 0.9480000000000001, -0.134, 192.0, 0.0, 0.0, 0.0, 0.0, 0.0, 0.0, 0.0, 0.0, 0.0, 1.6689767372474697E9, 0.0, 2022-11-20 15:38:57.247
154.0, -17698.02185273431, 23430.327883997907, -36265.16893686878, -35297.96425079874, -28297.59905309666, -29126.28997877717, -24567.67404886175, -3742.1514084519636, -26208.984995959403, -3706.656838256936, -29043.40971033689, -34183.506272257124, -27710.597540211387, -11068.04741240113, -22952.335828821164, -35366.584106276525, 0.08, 0.9480000000000001, -0.134, 192.0, 0.0, 0.0, 0.0, 0.0, 0.0, 0.0, 0.0, 0.0, 0.0, 1.6689767372474754E9, 0.0, 2022-11-20 15:38:57.247
156.0, -17692.612730576126, 22983.851788503147, -36261.34678856692, -35277.93708776678, -28294.425105384005, -29119.942083351863, -24563.270755204056, -3741.7043735628577, -26294.77099117887, -3785.625551417536, -29126.982882855285, -34264.039607529594, -27800.384497688356, -11145.429151705403, -23035.32785598372, -35443.65292115843, 0.08, 0.9480000000000001, -0.134, 192.0, 0.0, 0.0, 0.0, 0.0, 0.0, 0.0, 0.0, 0.0, 0.0, 1.668976737247484E9, 0.0, 2022-11-20 15:38:57.247
158.0, -17688.343547385164, 23396.085011492374, -36243.68891044723, -35272.013875486125, -28281.662259300025, -29110.643757658454, -24553.592449854907, -3725.298193132662, -26210.728432026917, -3702.8123382106232, -29036.45831781129, -34173.179766318775, -27709.5917117109, -11056.290394817639, -22951.486462531862, -35357.68811198331, 0.08, 0.9480000000000001, -0.134, 192.0, 0.0, 0.0, 0.0, 0.0, 0.0, 0.0, 0.0, 0.0, 0.0, 1.6689767372474916E9, 0.0, 2022-11-20 15:38:57.247
160.0, -17722.56406814624, 22994.491218863874, -36277.4623963192, -35295.9302420533, -28311.255968958852, -29145.378368542002, -24585.376630470353, -3761.105687750064, -26296.24620631292, -3784.9326473394212, -29131.833211402085, -34264.888973818895, -27800.809180833006, -11148.245471506772, -23034.433786205507, -35438.15439202242, 0.084, 0.9480000000000001, -0.13, 192.0, 1.0, 80.0, 14.5, 80.0, 125.5, 120.0, 0.0, 0.0, 0.0, 1.6689767372474997E9, 0.0, 2022-11-20 15:38:57.247
162.0, -17699.273550423808, 23320.960798378088, -36243.21952381367, -35278.31706742252, -28275.582584808184, -29117.23752227277, -24554.1959469552, -3731.176701924408, -26230.979112503424, -3732.2495856582627, -29056.597239565523, -34201.67824049929, -27722.82394442844, -11077.502200305726, -22961.790616725757, -35376.57533604805, 0.084, 0.9480000000000001, -0.13, 192.0, 0.0, 0.0, 0.0, 0.0, 0.0, 0.0, 0.0, 0.0, 0.0, 1.668976737247508E9, 0.0, 2022-11-20 15:38:57.247
164.0, -17730.36482696114, 23035.372559472627, -36277.998838186126, -35303.99922180167, -28304.058707244243, -29144.66311271943, -24582.895586835813, -3760.9045220499665, -26296.425020268565, -3794.4768422218376, -29134.269551547713, -34276.713046635756, -27798.238730220644, -11152.246433764272, -23024.308445967254, -35443.20588626932, 0.084, 0.9480000000000001, -0.13, 192.0, 0.0, 0.0, 0.0, 0.0, 0.0, 0.0, 0.0, 0.0, 0.0, 1.6689767372475152E9, 0.0, 2022-11-20 15:38:57.247
166.0, -17691.0257567198, 23268.724771586036, -36235.351709765404, -35269.80105278505, -28263.73616024687, -29101.27837673168, -24544.517641606053, -3718.883242473989, -26230.397967147586, -3733.5459868366706, -29055.054969198107, -34203.04169691106, -27718.353595537377, -11074.708232248811, -22950.63709624256, -35372.5520220461, 0.084, 0.9480000000000001, -0.13, 192.0, 0.0, 0.0, 0.0, 0.0, 0.0, 0.0, 0.0, 0.0, 0.0, 1.6689767372475233E9, 0.0, 2022-11-20 15:38:57.247
168.0, -17740.46781545494, 23098.58329279224, -36290.26994589209, -35310.95061432727, -28315.525152149818, -29152.307409323148, -24595.256101519597, -3771.856876833067, -26299.77778193686, -3783.010397316265, -29138.13640333848, -34269.69459887679, -27801.390326188844, -11151.44177096388, -23019.41341393154, -35439.227275756275, 0.084, 0.9480000000000001, -0.13, 192.0, 0.0, 0.0, 0.0, 0.0, 0.0, 0.0, 0.0, 0.0, 0.0, 1.6689767372475317E9, 0.0, 2022-11-20 15:38:57.247
170.0, -17680.319271125707, 23208.620930745714, -36233.42945974225, -35252.45609908773, -28255.44366305395, -29089.789580081655, -24535.934571735215, -3712.8035679821455, -26241.43972890851, -3737.949280494366, -29064.822681525075, -34206.68503125728, -27725.61791248535, -11080.385575340459, -22958.728427735383, -35374.0495889246, 0.08, 0.9480000000000001, -0.134, 192.0, 1.0, 64.0, 14.5, 80.0, 125.5, 104.0, 0.0, 0.0, 0.0, 1.6689767372475398E9, 0.0, 2022-11-20 15:38:57.247
172.0, -17749.65438242607, 23150.305229461817, -36301.08819020846, -35316.85147486347, -28323.32591096472, -29153.894383179475, -24597.96066259869, -3775.1872867569077, -26294.882749901146, -3779.657635647969, -29133.420185258412, -34267.68294187581, -27796.003555775114, -11140.601174903057, -23015.881838307603, -35427.49260991724, 0.08, 0.9480000000000001, -0.134, 192.0, 0.0, 0.0, 0.0, 0.0, 0.0, 0.0, 0.0, 0.0, 0.0, 1.6689767372475483E9, 0.0, 2022-11-20 15:38:57.247
174.0, -17664.136608140067, 23149.701732361526, -36215.078677544436, -35238.88859020336, -28239.752738446325, -29079.485425887757, -24520.80244073897, -3700.4877567872713, -26243.76431033186, -3740.363268895539, -29065.783806536652, -34211.96004294873, -27727.696624719698, -11082.263121874705, -22959.801311469237, -35377.96114420428, 0.08, 0.9480000000000001, -0.134, 192.0, 0.0, 0.0, 0.0, 0.0, 0.0, 0.0, 0.0, 0.0, 0.0, 1.6689767372475564E9, 0.0, 2022-11-20 15:38:57.247
176.0, -17751.84485338269, 23213.158334870142, -36303.21160593171, -35332.45299249327, -28327.125707522122, -29165.561993785144, -24607.326043525463, -3784.8655921060554, -26275.973174091956, -3758.3564231820615, -29113.124801292994, -34247.52166837712, -27778.345677655423, -11129.000619530752, -22997.978090998902, -35420.25064471372, 0.08, 0.9480000000000001, -0.134, 192.0, 0.0, 0.0, 0.0, 0.0, 0.0, 0.0, 0.0, 0.0, 0.0, 1.6689767372475643E9, 0.0, 2022-11-20 15:38:57.247
178.0, -17669.07634366469, 23076.924452415045, -36223.12530554835, -35255.54063982256, -28244.848936182134, -29082.18998696685, -24525.76452800805, -3708.9590679358325, -26255.677790126538, -3756.300062692173, -29078.56900436509, -34227.405098367344, -27740.235953359123, -11102.200877928839, -22978.822646000703, -35402.928042760854, 0.08, 0.9480000000000001, -0.134, 192.0, 0.0, 0.0, 0.0, 0.0, 0.0, 0.0, 0.0, 0.0, 0.0, 1.6689767372475724E9, 0.0, 2022-11-20 15:38:57.247
180.0, -17760.696144186993, 23265.237899451007, -36313.53811187007, -35346.22166707774, -28334.993521570388, -29169.562956042646, -24615.886761651847, -3795.728539911335, -26267.703028643493, -3755.5177516362373, -29109.660280902423, -34244.191258453284, -27769.44968336221, -11123.949125283852, -22999.900341022058, -35424.139848248946, 0.074, 0.9540000000000001, -0.136, 192.0, 1.0, 40.0, 14.5, 104.0, 125.5, 96.0, 0.0, 0.0, 0.0, 1.6689767372475815E9, 0.0, 2022-11-20 15:38:57.247
2.0, -17874.26535776441, 22944.669180472993, -36239.21856155617, -35247.605770540926, -28290.64766057106, -29107.939196579362, -24590.517531695074, -3728.293326889673, -26270.184072278033, -3772.7956501001895, -29069.13656820495, -34196.98437416367, -27819.450535708733, -11103.586686085067, -22984.656451303537, -35403.48683637224, 0.074, 0.9540000000000001, -0.136, 192.0, 0.0, 0.0, 0.0, 0.0, 0.0, 0.0, 0.0, 0.0, 0.0, 1.668976737836766E9, 0.0, 2022-11-20 15:38:57.836
4.0, -17806.696034276014, 23076.164493103566, -36169.19054617769, -35187.0548948115, -28223.972406860878, -29040.816907980075, -24528.58084780942, -3666.826029637579, -26212.784792516806, -3728.1592164229414, -28997.29806152559, -34137.41697519028, -27746.092110406415, -11037.693743430824, -22926.810136653203, -35342.555980987076, 0.074, 0.9540000000000001, -0.136, 192.0, 0.0, 0.0, 0.0, 0.0, 0.0, 0.0, 0.0, 0.0, 0.0, 1.6689767378368192E9, 0.0, 2022-11-20 15:38:57.836
6.0, -17875.315889753805, 23012.797297572768, -36242.59367496892, -35256.50176483414, -28293.575739094704, -29112.945987337353, -24599.949967855213, -3740.497379362271, -26255.878955826636, -3750.8909405339887, -29054.183251164348, -34181.9192984008, -27801.83736107795, -11090.019177200697, -22971.69243951946, -35385.6501442969, 0.074, 0.9540000000000001, -0.136, 192.0, 0.0, 0.0, 0.0, 0.0, 0.0, 0.0, 0.0, 0.0, 0.0, 1.6689767378368285E9, 0.0, 2022-11-20 15:38:57.836
8.0, -17800.683415017535, 23009.55629462675, -36170.44224386719, -35188.08307505644, -28216.417517234986, -29042.76150974769, -24528.80436525397, -3669.5529424611263, -26229.705063069472, -3737.2116729273407, -29011.022032621153, -34148.481088695655, -27756.083340177935, -11056.46920877328, -22947.753721207824, -35359.319789328554, 0.08600000000000001, 0.9460000000000001, -0.15, 192.0, 1.0, 88.0, 14.5, 72.0, 125.5, 40.0, 0.0, 0.0, 0.0, 1.6689767378368487E9, 0.0, 2022-11-20 15:38:57.836
10.0, -17874.041840319853, 23070.21892907845, -36241.4537360017, -35258.714587535214, -28291.385268138085, -29110.084964047073, -24600.508761466597, -3737.5022456052598, -26250.134557501624, -3748.856931788556, -29047.32126561657, -34176.33136228697, -27796.31648019749, -11089.750956267233, -22979.31438437872, -35386.454807097296, 0.08600000000000001, 0.9460000000000001, -0.15, 192.0, 0.0, 0.0, 0.0, 0.0, 0.0, 0.0, 0.0, 0.0, 0.0, 1.668976737836858E9, 0.0, 2022-11-20 15:38:57.836
12.0, -17805.8019644978, 22946.12204386259, -36172.40919737926, -35188.73127564565, -28219.457354480906, -29037.195925378317, -24529.832545498914, -3666.110773815009, -26224.1394787001, -3736.5411205936816, -29004.428268006835, -34143.76487061559, -27754.02697968805, -11052.490598260236, -22948.31251481921, -35353.95537065928, 0.08600000000000001, 0.9460000000000001, -0.15, 192.0, 0.0, 0.0, 0.0, 0.0, 0.0, 0.0, 0.0, 0.0, 0.0, 1.6689767378368664E9, 0.0, 2022-11-20 15:38:57.836
14.0, -17894.381927774182, 23110.89910398711, -36253.72484370766, -35279.59111685647, -28303.432858399494, -29124.39008049847, -24611.528171483063, -3749.751001566768, -26257.980019805436, -3760.0328040162094, -29055.32319013157, -34183.52862400158, -27805.36893670189, -11096.165906925906, -22979.78377101228, -35391.64041181093, 0.08600000000000001, 0.9460000000000001, -0.15, 192.0, 0.0, 0.0, 0.0, 0.0, 0.0, 0.0, 0.0, 0.0, 0.0, 1.6689767378368757E9, 0.0, 2022-11-20 15:38:57.836
16.0, -17807.18777265403, 22881.369040175563, -36159.48988908409, -35192.59812743642, -28213.19886603342, -29041.71097775829, -24521.00360643907, -3667.273064526685, -26246.91590630006, -3767.69945236438, -29027.830544451543, -34173.179766318775, -27773.92003225327, -11076.272854360683, -22954.30278233323, -35380.84451923901, 0.08600000000000001, 0.9460000000000001, -0.15, 192.0, 0.0, 0.0, 0.0, 0.0, 0.0, 0.0, 0.0, 0.0, 0.0, 1.6689767378368845E9, 0.0, 2022-11-20 15:38:57.836
18.0, -17891.63266320618, 23170.935889594068, -36241.4537360017, -35275.41134064333, -28294.894492017567, -29119.159772295927, -24598.05006957651, -3738.59748108357, -26235.292999183297, -3746.8676265320337, -29034.804288721596, -34169.49172848365, -27779.597375344918, -11080.474982318281, -22941.87521241608, -35375.48010056974, 0.08600000000000001, 0.9520000000000001, -0.148, 192.0, 1.0, 88.0, 14.5, 96.0, 125.5, 48.0, 0.0, 0.0, 0.0, 1.668976737836893E9, 0.0, 2022-11-20 15:38:57.836
20.0, -17796.011900426376, 22845.360379858063, -36159.02050245053, -35175.811967350484, -28210.71782239888, -29028.925779929854, -24513.538123790997, -3655.8289713655677, -26246.46887141095, -3768.7946878426897, -29034.51371604368, -34179.10297859943, -27776.848110776915, -11081.369052096494, -22957.007343412322, -35381.31390587257, 0.08600000000000001, 0.9520000000000001, -0.148, 192.0, 0.0, 0.0, 0.0, 0.0, 0.0, 0.0, 0.0, 0.0, 0.0, 1.668976737836902E9, 0.0, 2022-11-20 15:38:57.836
22.0, -17880.903825867634, 23217.36046282774, -36242.75013718011, -35261.866183503415, -28298.89545427507, -29111.828400114588, -24601.805162645003, -3738.9104055059443, -26213.410641361552, -3723.085370431587, -29010.21736982076, -34144.368367715884, -27759.860784990884, -11055.508083761702, -22941.428177526974, -35354.93884741531, 0.08600000000000001, 0.9520000000000001, -0.148, 192.0, 0.0, 0.0, 0.0, 0.0, 0.0, 0.0, 0.0, 0.0, 0.0, 1.6689767378369107E9, 0.0, 2022-11-20 15:38:57.836
24.0, -17803.209162140985, 22808.591760229083, -36171.06809271194, -35172.41450219328, -28228.59921796313, -29034.089032899028, -24532.201830411177, -3670.2905500281518, -26264.19380476401, -3775.880190835022, -29047.52243131667, -34184.04271412405, -27796.428238919765, -11092.500220835236, -22989.17150368351, -35398.43534212534, 0.08600000000000001, 0.9520000000000001, -0.148, 192.0, 0.0, 0.0, 0.0, 0.0, 0.0, 0.0, 0.0, 0.0, 0.0, 1.6689767378369195E9, 0.0, 2022-11-20 15:38:57.836
26.0, -17856.20514824452, 23268.9929925195, -36216.84446535641, -35228.226808098174, -28273.54857606275, -29078.27843168717, -24579.72163912316, -3711.0601319146317, -26196.62448127562, -3694.631599739981, -28990.234910277715, -34115.31109992398, -27741.934685937726, -11026.651981669902, -22923.591485451638, -35325.61335868995, 0.08600000000000001, 0.9520000000000001, -0.148, 192.0, 0.0, 0.0, 0.0, 0.0, 0.0, 0.0, 0.0, 0.0, 0.0, 1.6689767378369284E9, 0.0, 2022-11-20 15:38:57.836
28.0, -17804.90789471959, 22794.152533310957, -36166.150708931775, -35169.12879575835, -28212.684775910948, -29028.009358407184, -24521.47299307263, -3665.1272970589757, -26254.493147670408, -3756.5459318811813, -29041.219239380272, -34173.11271108541, -27789.812122560994, -11075.691709004845, -22967.937346450966, -35374.40721683588, 0.084, 0.9520000000000001, -0.15, 192.0, 1.0, 80.0, 14.5, 96.0, 125.5, 40.0, 0.0, 0.0, 0.0, 1.6689767378369372E9, 0.0, 2022-11-20 15:38:57.836
30.0, -17875.69586940955, 23253.99497198999, -36220.55485493599, -35245.370596095396, -28273.25800338483, -29090.66129811541, -24583.968470569667, -3721.744265764268, -26195.350431841664, -3697.045588141154, -28987.239776520706, -34119.13324822584, -27732.97163641115, -11020.795824622612, -22901.597368907616, -35317.164399285844, 0.084, 0.9520000000000001, -0.15, 192.0, 0.0, 0.0, 0.0, 0.0, 0.0, 0.0, 0.0, 0.0, 0.0, 1.6689767378369462E9, 0.0, 2022-11-20 15:38:57.836
32.0, -17810.182906411042, 22780.83089361559, -36162.14974667427, -35178.51652842957, -28218.54093295824, -29037.575905034057, -24528.603199553872, -3673.598608207537, -26276.844892125715, -3788.7324438968235, -29062.69926580182, -34203.10875214443, -27810.956872815714, -11102.111470951018, -22977.101561677642, -35398.83767352554, 0.084, 0.9520000000000001, -0.15, 192.0, 0.0, 0.0, 0.0, 0.0, 0.0, 0.0, 0.0, 0.0, 0.0, 1.6689767378369553E9, 0.0, 2022-11-20 15:38:57.836
34.0, -17856.965107556, 23259.448797637084, -36206.85323558489, -35238.35214833643, -28266.530128303784, -29087.80027482513, -24578.827569344947, -3719.106759918542, -26185.29214683678, -3697.9396579193663, -28969.96187805675, -34110.12549521035, -27723.270979317545, -11019.119443788462, -22891.606139136093, -35319.824256876025, 0.084, 0.9520000000000001, -0.15, 192.0, 0.0, 0.0, 0.0, 0.0, 0.0, 0.0, 0.0, 0.0, 0.0, 1.6689767378369644E9, 0.0, 2022-11-20 15:38:57.836
36.0, -17823.81747052878, 22801.50625723675, -36181.77457830603, -35192.21814778067, -28241.674988469484, -29051.635152296443, -24552.228993443132, -3695.145689862453, -26270.251127511397, -3776.774260613234, -29056.977219221262, -34190.9717549052, -27807.961739058705, -11101.284456406172, -22979.0238117008, -35401.02814448215, 0.084, 0.9520000000000001, -0.15, 192.0, 0.0, 0.0, 0.0, 0.0, 0.0, 0.0, 0.0, 0.0, 0.0, 1.6689767378369732E9, 0.0, 2022-11-20 15:38:57.836
38.0, -17845.72218009498, 23248.02705622042, -36191.676401099736, -35215.7098312032, -28254.102558386632, -29063.88390825795, -24564.96948778266, -3704.8686987005117, -26193.69640275197, -3695.5703730071036, -28981.49537819569, -34111.10897196639, -27727.92014216425, -11017.711283887778, -22907.922912588467, -35322.953501099764, 0.078, 0.9460000000000001, -0.152, 192.0, 1.0, 56.0, 14.5, 72.0, 125.5, 32.0, 0.0, 0.0, 0.0, 1.6689767378369815E9, 0.0, 2022-11-20 15:38:57.836
40.0, -17856.093389522244, 22811.206914330356, -36201.6452791268, -35210.479523000664, -28258.125872388588, -29066.879042014963, -24565.215356971665, -3709.49550980276, -26278.185996793032, -3774.0696995341423, -29071.95288800632, -34197.990202664165, -27808.766401859095, -11097.864639504509, -22985.30465189274, -35395.753132790705, 0.078, 0.9460000000000001, -0.152, 192.0, 0.0, 0.0, 0.0, 0.0, 0.0, 0.0, 0.0, 0.0, 0.0, 1.6689767378369925E9, 0.0, 2022-11-20 15:38:57.836
42.0, -17854.327601710273, 23197.512113751425, -36202.919328560754, -35219.59903473843, -28253.856689197626, -29064.666219313887, -24560.342676680408, -3701.8065097101344, -26208.605016303663, -3710.0319516696877, -28999.622642948943, -34125.81641981798, -27730.267075332056, -11021.645190911913, -22913.62260742457, -35323.78051564461, 0.078, 0.9460000000000001, -0.152, 192.0, 0.0, 0.0, 0.0, 0.0, 0.0, 0.0, 0.0, 0.0, 0.0, 1.668976737837001E9, 0.0, 2022-11-20 15:38:57.837
44.0, -17862.217767502996, 22840.532403055717, -36224.35465149339, -35228.07034588699, -28272.98978245137, -29077.22789969777, -24571.853825074893, -3715.1952046388633, -26288.557206220295, -3785.916124095455, -29087.263832958204, -34209.68016501429, -27825.46315496721, -11113.332046667581, -23001.9790532564, -35410.92996727586, 0.078, 0.9460000000000001, -0.152, 192.0, 0.0, 0.0, 0.0, 0.0, 0.0, 0.0, 0.0, 0.0, 0.0, 1.66897673783701E9, 0.0, 2022-11-20 15:38:57.837
46.0, -17833.96516251149, 23159.760017366414, -36186.78136906402, -35200.1083135734, -28235.461203510906, -29045.17549814886, -24537.722711291637, -3679.410061765917, -26201.675975522518, -3705.5168992897156, -28989.407895732867, -34119.66969009277, -27728.72480496464, -11015.61021990898, -22915.05311906971, -35322.8864458664, 0.078, 0.9460000000000001, -0.152, 192.0, 0.0, 0.0, 0.0, 0.0, 0.0, 0.0, 0.0, 0.0, 0.0, 1.6689767378370187E9, 0.0, 2022-11-20 15:38:57.837
48.0, -17872.00783157442, 22894.824790337658, -36227.48389571713, -35232.25012210013, -28276.051971441746, -29083.88871954545, -24577.017078044068, -3720.3808093524945, -26276.10728455869, -3771.6780628774245, -29077.384361908957, -34197.02907765259, -27812.454439694222, -11096.903514492931, -22986.891625749067, -35397.630679324946, 0.08600000000000001, 0.9520000000000001, -0.146, 192.0, 1.0, 88.0, 14.5, 96.0, 125.5, 56.0, 0.0, 0.0, 0.0, 1.6689767378370275E9, 0.0, 2022-11-20 15:38:57.837
50.0, -17820.978798982957, 23111.94963597651, -36174.35379914687, -35184.886775599334, -28225.134697572554, -29031.160954375384, -24526.502135575072, -3668.1000790715316, -26203.41941159003, -3710.59074528107, -28993.542968457103, -34122.061326749485, -27724.790897940507, -11015.721978631256, -22913.354386491108, -35325.16632380084, 0.08600000000000001, 0.9520000000000001, -0.146, 192.0, 0.0, 0.0, 0.0, 0.0, 0.0, 0.0, 0.0, 0.0, 0.0, 1.6689767378370364E9, 0.0, 2022-11-20 15:38:57.837
52.0, -17870.443209462548, 22964.003439426833, -36229.80847714048, -35230.327872076974, -28276.521358075304, -29081.631193355464, -24572.300859963998, -3714.502300560749, -26265.512557686874, -3763.139696495497, -29070.924707761373, -34188.17778684828, -27802.329099455965, -11086.398194598938, -22976.810988999725, -35386.81243500858, 0.08600000000000001, 0.9520000000000001, -0.146, 192.0, 0.0, 0.0, 0.0, 0.0, 0.0, 0.0, 0.0, 0.0, 0.0, 1.6689767378370452E9, 0.0, 2022-11-20 15:38:57.837
54.0, -17806.070185431265, 23063.08872259721, -36166.910668243254, -35180.37172321937, -28216.73044165736, -29025.68477698383, -24515.058042413955, -3657.4606487108053, -26200.446629577476, -3717.273916873207, -28994.07941032403, -34126.73284134064, -27727.04842413049, -11019.678237399845, -22917.86943887108, -35327.91558836884, 0.08600000000000001, 0.9520000000000001, -0.146, 192.0, 0.0, 0.0, 0.0, 0.0, 0.0, 0.0, 0.0, 0.0, 0.0, 1.668976737837054E9, 0.0, 2022-11-20 15:38:57.837
56.0, -17893.845485907255, 23026.297751223774, -36253.523678007565, -35273.623201086906, -28307.99261426838, -29117.639853672965, -24607.661319692295, -3749.952167266866, -26255.96836280446, -3764.2572837182624, -29061.805196023608, -34189.943574660254, -27804.385459945854, -11093.953084224831, -22983.091829191664, -35393.47325485626, 0.08600000000000001, 0.9520000000000001, -0.146, 192.0, 0.0, 0.0, 0.0, 0.0, 0.0, 0.0, 0.0, 0.0, 0.0, 1.6689767378370633E9, 0.0, 2022-11-20 15:38:57.837
58.0, -17811.591066311725, 22996.346413653664, -36159.981627462104, -35188.328944245455, -28219.569113203182, -29035.921875944365, -24525.47395533013, -3671.586951206559, -26222.351339143675, -3746.889978276489, -29004.160047073372, -34148.52579218457, -27752.909392465284, -11051.417714526382, -22944.892697917545, -35357.95633291678, 0.096, 0.9480000000000001, -0.146, 192.0, 1.5, 0.0, 14.5, 80.0, 125.5, 56.0, 0.0, 0.0, 0.0, 1.6689767378370724E9, 0.0, 2022-11-20 15:38:57.837
60.0, -17893.510209740427, 23090.983699677432, -36230.523732963054, -35252.03141594308, -28290.178273937498, -29105.48050468928, -24594.58554918594, -3740.3856206399946, -26251.073330768744, -3754.690737091391, -29046.65071328291, -34172.2186413072, -27791.68966909524, -11084.207723642317, -22964.49517780485, -35380.03985643862, 0.096, 0.9480000000000001, -0.146, 192.0, 0.0, 0.0, 0.0, 0.0, 0.0, 0.0, 0.0, 0.0, 0.0, 1.6689767378370807E9, 0.0, 2022-11-20 15:38:57.837
62.0, -17813.312150634785, 22935.259096057307, -36154.192525648185, -35167.4524149242, -28212.39420323303, -29020.476820525746, -24517.315568603943, -3666.1554773039197, -26232.364920659653, -3743.939548008388, -29017.057003624082, -34147.49761193962, -27750.607162786386, -11046.992069124231, -22934.409729768005, -35347.07103336704, 0.096, 0.9480000000000001, -0.146, 192.0, 0.0, 0.0, 0.0, 0.0, 0.0, 0.0, 0.0, 0.0, 0.0, 1.6689767378370895E9, 0.0, 2022-11-20 15:38:57.837
64.0, -17901.556837744338, 23134.05551124281, -36252.495497762626, -35263.45315735974, -28303.097582232665, -29105.94989132284, -24600.709927166692, -3746.241777687285, -26247.13942374461, -3747.69464107688, -29050.8081377516, -34168.843527894445, -27784.134779469347, -11073.657700259411, -22954.705113733427, -35366.09236789851, 0.096, 0.9480000000000001, -0.146, 192.0, 0.0, 0.0, 0.0, 0.0, 0.0, 0.0, 0.0, 0.0, 0.0, 1.6689767378370984E9, 0.0, 2022-11-20 15:38:57.837
66.0, -17806.360758109186, 22879.647955852506, -36171.671589812235, -35174.202641749696, -28217.177476546465, -29022.667291482365, -24510.72180398963, -3662.3556807465175, -26248.94991504549, -3761.6421296169915, -29038.671140512364, -34164.8649173814, -27773.24947991961, -11065.85694144451, -22954.54865152224, -35364.41598706436, 0.096, 0.9480000000000001, -0.146, 192.0, 0.0, 0.0, 0.0, 0.0, 0.0, 0.0, 0.0, 0.0, 0.0, 1.6689767378371072E9, 0.0, 2022-11-20 15:38:57.837
68.0, -17890.403317261138, 23204.128230110196, -36250.305026806, -35261.1732794253, -28302.516436876827, -29107.581568668076, -24596.597206186918, -3744.8336177866004, -26229.168621202545, -3733.6130420700365, -29033.194963120815, -34150.157469529804, -27773.74121829763, -11061.878330931466, -22945.54089850675, -35353.37422530344, 0.094, 0.9470000000000001, -0.146, 192.0, 1.0, 112.0, 14.5, 72.0, 125.5, 56.0, 0.0, 0.0, 0.0, 1.6689767378371172E9, 0.0, 2022-11-20 15:38:57.837
70.0, -17794.961368436976, 22850.769502016246, -36153.52197331452, -35151.51562112756, -28208.952034586913, -29009.27859655364, -24501.758754463048, -3653.5490934311265, -26245.306580699278, -3757.4176499149385, -29029.261056096682, -34155.65599866581, -27776.40107588781, -11062.19125535384, -22957.387323068062, -35359.40919630638, 0.094, 0.9470000000000001, -0.146, 192.0, 0.0, 0.0, 0.0, 0.0, 0.0, 0.0, 0.0, 0.0, 0.0, 1.668976737837126E9, 0.0, 2022-11-20 15:38:57.837
72.0, -17892.92906438459, 23229.139832155684, -36240.872590645864, -35247.046976929545, -28301.37649790961, -29097.836208085562, -24591.769229384572, -3738.396315383472, -26225.681749067517, -3723.8900332319777, -29015.98411989023, -34133.0583850215, -27768.44385486172, -11043.99693536722, -22935.884944902056, -35332.676509937824, 0.094, 0.9470000000000001, -0.146, 192.0, 0.0, 0.0, 0.0, 0.0, 0.0, 0.0, 0.0, 0.0, 0.0, 1.6689767378371377E9, 0.0, 2022-11-20 15:38:57.837
74.0, -17803.633845285636, 22817.063071377645, -36158.171136161225, -35150.778013560535, -28219.859685881103, -29012.98898613322, -24508.531333033006, -3662.0204045796877, -26253.308505214278, -3750.823885300623, -29032.03267240914, -34152.90673409781, -27784.961794014194, -11061.207778597805, -22958.124930635087, -35357.68811198331, 0.094, 0.9470000000000001, -0.146, 192.0, 0.0, 0.0, 0.0, 0.0, 0.0, 0.0, 0.0, 0.0, 0.0, 1.6689767378371468E9, 0.0, 2022-11-20 15:38:57.837
76.0, -17881.30615726783, 23261.54986161588, -36227.953282350696, -35244.47652631719, -28294.64862282856, -29094.796370839642, -24579.922804823258, -3728.539196078682, -26210.57196981573, -3703.594649266559, -29000.561416216067, -34117.456867391695, -27752.238840131624, -11029.691818915822, -22921.132793561555, -35327.22268429073, 0.094, 0.9470000000000001, -0.146, 192.0, 0.0, 0.0, 0.0, 0.0, 0.0, 0.0, 0.0, 0.0, 0.0, 1.6689767378371553E9, 0.0, 2022-11-20 15:38:57.837
78.0, -17820.53176409385, 22788.966928597325, -36169.279953155514, -35180.997572064116, -28238.165764589998, -29038.626437023457, -24522.79174599549, -3678.0019018652324, -26267.81478736577, -3771.0522140326757, -29052.551573819113, -34177.67246695429, -27800.317442454987, -11088.499258577736, -22973.346468609154, -35390.54517633262, 0.087, 0.9505000000000001, -0.148, 192.0, 1.0, 64.0, 14.5, 104.0, 125.5, 40.0, 0.0, 0.0, 0.0, 1.6689767378371644E9, 0.0, 2022-11-20 15:38:57.837
80.0, -17880.881474123176, 23261.527509871426, -36225.2487212716, -35251.15969790932, -28295.430933884494, -29097.61269064101, -24582.38149671334, -3730.7073152908465, -26210.90724598256, -3715.8434052280672, -29002.170741816848, -34122.620120360865, -27747.477918562643, -11036.173824807862, -22920.21637203889, -35341.59485597549, 0.087, 0.9505000000000001, -0.148, 192.0, 0.0, 0.0, 0.0, 0.0, 0.0, 0.0, 0.0, 0.0, 0.0, 1.668976737837173E9, 0.0, 2022-11-20 15:38:57.837
82.0, -17823.549249595315, 22785.167132039922, -36173.616191579844, -35185.3561622329, -28236.847011667134, -29037.330035845047, -24525.89863847478, -3673.665663440903, -26275.01204908038, -3783.010397316265, -29062.632210568456, -34185.272060069095, -27805.994785546638, -11094.154249924928, -22983.672974547502, -35397.04953396911, 0.087, 0.9505000000000001, -0.148, 192.0, 0.0, 0.0, 0.0, 0.0, 0.0, 0.0, 0.0, 0.0, 0.0, 1.6689767378371832E9, 0.0, 2022-11-20 15:38:57.837
84.0, -17858.61913664569, 23262.063951738353, -36202.33818320491, -35222.504761517615, -28265.367837592108, -29063.12394894647, -24552.85484228788, -3690.6529892269364, -26195.193969630476, -3704.175794622397, -28982.858834607465, -34102.45884686218, -27724.522677007044, -11014.358522219483, -22906.291235243232, -35313.65517540636, 0.087, 0.9505000000000001, -0.148, 192.0, 0.0, 0.0, 0.0, 0.0, 0.0, 0.0, 0.0, 0.0, 0.0, 1.6689767378371923E9, 0.0, 2022-11-20 15:38:57.837
86.0, -17828.913668264588, 22799.94163512488, -36184.5908981074, -35181.399903464306, -28240.557401246715, -29032.435003809336, -24523.104670417866, -3662.1992185353306, -26266.49603444291, -3768.727632609324, -29055.770225020675, -34169.13410057236, -27797.143494742337, -11076.965758438797, -22976.922747722, -35379.50341457169, 0.087, 0.9505000000000001, -0.148, 192.0, 0.0, 0.0, 0.0, 0.0, 0.0, 0.0, 0.0, 0.0, 0.0, 1.668976737837201E9, 0.0, 2022-11-20 15:38:57.837
88.0, -17835.038046245343, 23240.82979450581, -36187.89895628679, -35194.98976409314, -28243.753700703826, -29031.429175308847, -24527.776185009025, -3657.6841661553585, -26185.60507125915, -3688.8424979260562, -28973.649915891878, -34090.61242230087, -27714.039708857505, -10987.55878061757, -22901.463258440883, -35299.66298337734, 0.08149999999999999, 0.94825, -0.148, 192.0, 1.0, 48.0, 14.5, 72.0, 125.5, 48.0, 0.0, 0.0, 0.0, 1.6689767378372102E9, 0.0, 2022-11-20 15:38:57.837
90.0, -17840.268354447886, 22829.80356571717, -36198.15840699177, -35202.656412441305, -28252.604991508128, -29046.27073362717, -24540.069644459447, -3669.754108161224, -26264.707894886484, -3761.0609842611534, -29057.826585510564, -34176.890155898356, -27797.255253464613, -11066.326328078072, -22986.73516353788, -35379.54811806061, 0.08149999999999999, 0.94825, -0.148, 192.0, 0.0, 0.0, 0.0, 0.0, 0.0, 0.0, 0.0, 0.0, 0.0, 1.668976737837219E9, 0.0, 2022-11-20 15:38:57.837
92.0, -17823.81747052878, 23204.999948143955, -36178.84649978238, -35201.22590079616, -28231.48259299786, -29035.854820710996, -24526.971522208634, -3653.392631219939, -26186.588548015185, -3692.77640495019, -28970.721837368234, -34104.090524207415, -27708.228255299124, -10985.770641061144, -22906.67121489897, -35309.475399193216, 0.08149999999999999, 0.94825, -0.148, 192.0, 0.0, 0.0, 0.0, 0.0, 0.0, 0.0, 0.0, 0.0, 0.0, 1.668976737837228E9, 0.0, 2022-11-20 15:38:57.837
94.0, -17848.225575473974, 22860.738380043316, -36211.50239843159, -35229.702023232225, -28259.735197989372, -29066.6108210815, -24560.454435402684, -3689.9600851488217, -26267.032476309836, -3764.79372558519, -29057.5583645771, -34189.809464193524, -27796.182369730755, -11073.881217703965, -22986.154018182042, -35390.791045521626, 0.08149999999999999, 0.94825, -0.148, 192.0, 0.0, 0.0, 0.0, 0.0, 0.0, 0.0, 0.0, 0.0, 0.0, 1.66897673783727E9, 0.0, 2022-11-20 15:38:57.837
96.0, -17806.18194415354, 23156.317848720297, -36162.77559551902, -35194.25215652611, -28219.256188780808, -29031.764451475676, -24523.305836117965, -3649.9951660627326, -26192.064725406733, -3698.3196375751068, -28969.15721525636, -34111.66776557777, -27709.52465647753, -10996.432423166327, -22914.650787669514, -35319.533684198104, 0.08149999999999999, 0.94825, -0.148, 192.0, 0.0, 0.0, 0.0, 0.0, 0.0, 0.0, 0.0, 0.0, 0.0, 1.668976737837279E9, 0.0, 2022-11-20 15:38:57.837
98.0, -17860.9660698135, 22912.72853764636, -36212.53057867653, -35233.904151189825, -28268.69824751595, -29083.955774778817, -24570.08803726292, -3696.5762015075925, -26260.23754599542, -3753.461391146349, -29046.606009794, -34177.225432065185, -27788.13574172685, -11074.19414212634, -22979.001459956344, -35386.00777220819, 0.07974999999999999, 0.949125, -0.147, 192.0, 1.0, 56.0, 14.5, 88.0, 125.5, 56.0, 0.0, 0.0, 0.0, 1.668976737837288E9, 0.0, 2022-11-20 15:38:57.837
100.0, -17823.66100831759, 23072.18588259052, -36166.128357187314, -35193.60395593691, -28221.089031826144, -29041.845088225018, -24526.412728597254, -3652.073878297076, -26209.633196548606, -3716.9386407063776, -28983.238814263204, -34121.65899534929, -27718.554761237476, -11016.37017922046, -22921.87040112858, -35329.23434129171, 0.07974999999999999, 0.949125, -0.147, 192.0, 0.0, 0.0, 0.0, 0.0, 0.0, 0.0, 0.0, 0.0, 0.0, 1.668976737837297E9, 0.0, 2022-11-20 15:38:57.837
102.0, -17885.53063696988, 22947.038465385256, -36230.9037126188, -35248.61159904142, -28275.31436387472, -29091.577719638077, -24577.084133277433, -3702.58882076607, -26264.86435709767, -3760.9045220499665, -29058.698303544323, -34183.640382723854, -27788.225148704667, -11078.060993917108, -22972.273584875296, -35385.69484778582, 0.07974999999999999, 0.949125, -0.147, 192.0, 0.0, 0.0, 0.0, 0.0, 0.0, 0.0, 0.0, 0.0, 0.0, 1.6689767378373063E9, 0.0, 2022-11-20 15:38:57.837
104.0, -17815.256752402398, 23007.812858559235, -36162.8873542413, -35184.03740931003, -28201.73242112785, -29016.83348617953, -24504.418612053232, -3627.084627996043, -26218.506839097365, -3732.2272339138076, -29001.50018948319, -34141.775565359065, -27726.646092730298, -11017.688932143323, -22925.3125697747, -35334.95638787227, 0.07974999999999999, 0.949125, -0.147, 192.0, 0.0, 0.0, 0.0, 0.0, 0.0, 0.0, 0.0, 0.0, 0.0, 1.6689767378373184E9, 0.0, 2022-11-20 15:38:57.837
106.0, -17890.135096327675, 23003.07428873471, -36241.431384257245, -35261.106224191935, -28278.10833193163, -29089.074324259083, -24579.38636295633, -3698.4537480418385, -26256.370694204652, -3751.0921062340867, -29056.261963398694, -34185.80850193602, -27783.508930624597, -11063.7111739768, -22974.039372687268, -35377.29059187062, 0.07974999999999999, 0.949125, -0.147, 192.0, 0.0, 0.0, 0.0, 0.0, 0.0, 0.0, 0.0, 0.0, 0.0, 1.6689767378373275E9, 0.0, 2022-11-20 15:38:57.837
108.0, -17807.835973243236, 22937.941305391945, -36165.234287409105, -35182.53984243153, -28201.508903683294, -29006.886959896918, -24506.631434754305, -3625.564709373082, -26221.121993198634, -3727.8686437450224, -29003.86947439545, -34147.318797983986, -27734.089223633913, -11015.65492339789, -22947.12787236308, -35345.01467287716, 0.082875, 0.9495625000000001, -0.1475, 192.0, 1.0, 88.0, 14.5, 88.0, 125.5, 48.0, 0.0, 0.0, 0.0, 1.668976737837336E9, 0.0, 2022-11-20 15:38:57.837
110.0, -17896.572398730805, 23056.874937638633, -36243.3536342804, -35259.765119524614, -28288.680707058993, -29086.57092888009, -24588.908206094293, -3704.823995211601, -26245.753615588383, -3728.2262716563073, -29041.062777169085, -34168.32943777197, -27776.065799720982, -11039.32542077606, -22976.162788410522, -35373.6025540355, 0.082875, 0.9495625000000001, -0.1475, 192.0, 0.0, 0.0, 0.0, 0.0, 0.0, 0.0, 0.0, 0.0, 0.0, 1.6689767378373451E9, 0.0, 2022-11-20 15:38:57.837
112.0, -17810.182906411042, 22878.731534329836, -36146.30235985546, -35160.836298565424, -28199.25137749331, -28997.387468503413, -24499.65769048425, -3620.2226424482637, -26237.90815328457, -3730.819074013123, -29011.670233210356, -34147.18468751725, -27751.54593605351, -11012.592734407513, -22958.370799824097, -35355.20706834878, 0.082875, 0.9495625000000001, -0.1475, 192.0, 0.0, 0.0, 0.0, 0.0, 0.0, 0.0, 0.0, 0.0, 0.0, 1.668976737837355E9, 0.0, 2022-11-20 15:38:57.837
114.0, -17903.83671567878, 23107.881618485644, -36236.35753826589, -35254.043072944056, -28291.631137327095, -29088.42612366988, -24585.06370604798, -3703.7734632222014, -26233.3931009046, -3718.9055942184445, -29019.403936791892, -34144.6589403938, -27765.046389704516, -11020.907583344888, -22945.607953740116, -35347.160440344865, 0.082875, 0.9495625000000001, -0.1475, 192.0, 0.0, 0.0, 0.0, 0.0, 0.0, 0.0, 0.0, 0.0, 0.0, 1.668976737837364E9, 0.0, 2022-11-20 15:38:57.837
116.0, -17827.483156619448, 22807.652986961963, -36172.00686597906, -35180.03644705253, -28218.429174235964, -29025.349500817003, -24512.688757501695, -3638.7745903461687, -26253.86729882566, -3753.014356257243, -29029.015186907673, -34165.44606273724, -27774.72469505366, -11039.213662053784, -22961.63415451457, -35366.874678954446, 0.082875, 0.9495625000000001, -0.1475, 192.0, 0.0, 0.0, 0.0, 0.0, 0.0, 0.0, 0.0, 0.0, 0.0, 1.6689767378373728E9, 0.0, 2022-11-20 15:38:57.837
118.0, -17898.785221431877, 23145.164328237097, -36245.18647732574, -35267.34236089497, -28288.948927992456, -29105.43580120037, -24583.655546147293, -3710.1660621364194, -26237.05878699527, -3727.8462920005672, -29029.015186907673, -34157.66765566679, -27774.009439231093, -11041.694705688324, -22949.072474130688, -35361.95729517428, 0.0824375, 0.95178125, -0.14875, 192.0, 1.0, 72.0, 14.5, 104.0, 125.5, 40.0, 0.0, 0.0, 0.0, 1.6689767378373823E9, 0.0, 2022-11-20 15:38:57.837
120.0, -17804.483211574938, 22778.99805057026, -36157.58999080539, -35175.744912117116, -28198.111438526088, -29018.06283212457, -24497.89190267228, -3627.9563460298, -26251.453310424487, -3755.3165859361397, -29029.998663663708, -34170.83283315096, -27774.992915987124, -11053.719944205279, -22961.20947136992, -35382.0515134396, 0.0824375, 0.95178125, -0.14875, 192.0, 0.0, 0.0, 0.0, 0.0, 0.0, 0.0, 0.0, 0.0, 0.0, 1.6689767383166647E9, 0.0, 2022-11-20 15:38:58.316
122.0, -17876.075849065288, 23191.901825893143, -36211.1447705203, -35249.72918626418, -28259.82460496719, -29079.463074143303, -24561.10263599189, -3686.3167508026067, -26201.921844711527, -3702.499413788249, -28991.687773667312, -34128.6550913638, -27735.452680045688, -11014.93966757532, -22914.315511502686, -35338.778536174126, 0.0824375, 0.95178125, -0.14875, 192.0, 0.0, 0.0, 0.0, 0.0, 0.0, 0.0, 0.0, 0.0, 0.0, 1.6689767383168323E9, 0.0, 2022-11-20 15:38:58.316
124.0, -17820.732929793947, 22741.894154774447, -36149.90099071276, -35177.93538307374, -28204.414630462485, -29014.486553011724, -24502.42930679671, -3628.917471041378, -26257.734150616427, -3764.0337662737093, -29031.920913686863, -34178.87946115487, -27778.993878244626, -11059.844322186033, -22962.1705963815, -35382.43149309534, 0.0824375, 0.95178125, -0.14875, 192.0, 0.0, 0.0, 0.0, 0.0, 0.0, 0.0, 0.0, 0.0, 0.0, 1.6689767383168378E9, 0.0, 2022-11-20 15:38:58.316
126.0, -17881.26145377892, 23211.616064502727, -36204.01456403906, -35229.09852613194, -28260.428102067486, -29057.960695977297, -24553.167766710256, -3673.4421459963496, -26203.642929034584, -3701.203012609841, -28974.901613581376, -34112.53948361152, -27733.61983700035, -11004.07671977004, -22904.95013057591, -35312.80580911706, 0.0824375, 0.95178125, -0.14875, 192.0, 0.0, 0.0, 0.0, 0.0, 0.0, 0.0, 0.0, 0.0, 0.0, 1.6689767383168433E9, 0.0, 2022-11-20 15:38:58.316
128.0, -17839.9107265366, 22725.577381322073, -36176.92424975923, -35181.82458660896, -28225.693491183938, -29024.611893249978, -24518.366100593343, -3643.62491889297, -26282.768104406372, -3777.6683303914465, -29052.46216684129, -34180.801711178035, -27807.64881463633, -11070.461400802304, -22977.25802388883, -35373.24492612421, 0.08121875, 0.954890625, -0.14737499999999998, 192.0, 1.0, 64.0, 14.5, 120.0, 125.5, 56.0, 0.0, 0.0, 0.0, 1.6689767383168483E9, 0.0, 2022-11-20 15:38:58.316
130.0, -17877.752229899434, 23210.96786391352, -36216.57624442295, -35241.1684681378, -28264.40671258053, -29074.948021763328, -24561.549670880995, -3683.8804106569783, -26210.035527948803, -3703.4828905442823, -28988.044439321096, -34113.72412606765, -27740.995912670605, -11005.216658737261, -22910.180438778454, -35311.576463172016, 0.08121875, 0.954890625, -0.14737499999999998, 192.0, 0.0, 0.0, 0.0, 0.0, 0.0, 0.0, 0.0, 0.0, 0.0, 1.6689767383168533E9, 0.0, 2022-11-20 15:38:58.316
132.0, -17828.086653719743, 22741.491823374254, -36177.39363639279, -35195.63796468234, -28226.319340028687, -29042.493288814225, -24527.28444663101, -3658.1088493000093, -26280.667040427572, -3775.6790251349244, -29061.581678579056, -34193.7210194732, -27814.287282739555, -11080.005595684719, -22990.713774050924, -35403.28567067214, 0.08121875, 0.954890625, -0.14737499999999998, 192.0, 0.0, 0.0, 0.0, 0.0, 0.0, 0.0, 0.0, 0.0, 0.0, 1.6689767383168583E9, 0.0, 2022-11-20 15:38:58.316
134.0, -17851.645392375638, 23215.281750593396, -36188.12247373134, -35223.04120338454, -28240.15506984652, -29070.410617638903, -24548.47390037464, -3680.2370763107633, -26179.65950723404, -3674.470326241294, -28959.031875018107, -34094.81455025847, -27712.162162323257, -10979.690966569302, -22896.54587466072, -35321.165361543346, 0.08121875, 0.954890625, -0.14737499999999998, 192.0, 0.0, 0.0, 0.0, 0.0, 0.0, 0.0, 0.0, 0.0, 0.0, 1.6689767383168635E9, 0.0, 2022-11-20 15:38:58.316
136.0, -17828.421929886572, 22775.801751113147, -36168.96702873314, -35187.52428144506, -28220.15025855902, -29044.41553883738, -24532.64886530028, -3666.669567426392, -26267.971249576956, -3758.3117196931507, -29047.343617361024, -34180.06410361101, -27802.574968644974, -11066.013403655697, -22982.756553024836, -35404.62677533946, 0.08121875, 0.954890625, -0.14737499999999998, 192.0, 0.0, 0.0, 0.0, 0.0, 0.0, 0.0, 0.0, 0.0, 0.0, 1.6689767383168771E9, 0.0, 2022-11-20 15:38:58.316
138.0, -17861.234290746965, 23176.322660007794, -36190.37999992132, -35217.49797075963, -28242.1667268475, -29061.29110590114, -24555.2464789446, -3685.2885705576628, -26184.487484036385, -3681.2876083001624, -28962.071712264027, -34097.675573548746, -27711.4916099896, -10975.153562444873, -22896.94820606091, -35316.538550441095, 0.08121875, 0.954890625, -0.14737499999999998, 192.0, 0.0, 0.0, 0.0, 0.0, 0.0, 0.0, 0.0, 0.0, 0.0, 1.6689767383168821E9, 0.0, 2022-11-20 15:38:58.316
140.0, -17864.20707275952, 22782.686088405382, -36196.03499126852, -35206.411505509794, -28246.12298561609, -29052.350408119015, -24550.82083354245, -3680.5052972442268, -26284.33272651824, -3768.615873887047, -29068.66718157139, -34195.64326949636, -27813.482619939165, -11077.77042123919, -22987.98686122738, -35401.16225494889, 0.076, 0.9580000000000001, -0.154, 192.0, 1.0, 48.0, 14.5, 120.0, 125.5, 24.0, 0.0, 0.0, 0.0, 1.6689767383168893E9, 0.0, 2022-11-20 15:38:58.316
142.0, -17849.52197665238, 23132.15561296411, -36166.93301998771, -35187.07724655596, -28223.8606481386, -29021.057965881584, -24525.071623929933, -3646.3518317165176, -26198.256158620854, -3690.630637482481, -28969.514843167646, -34106.549216097505, -27715.850200158384, -10981.948492759288, -22897.32818571665, -35298.34423045447, 0.076, 0.9580000000000001, -0.154, 192.0, 0.0, 0.0, 0.0, 0.0, 0.0, 0.0, 0.0, 0.0, 0.0, 1.6689767383168964E9, 0.0, 2022-11-20 15:38:58.316
144.0, -17879.607424689224, 22818.67239697843, -36196.07969475743, -35211.172427078774, -28256.024808409788, -29050.38345460695, -24553.301877176986, -3676.9066663869226, -26281.806979394794, -3766.2018854858743, -29054.65263779791, -34185.78615019157, -27810.442782693244, -11070.707269991311, -22982.734201280382, -35373.49079531322, 0.076, 0.9580000000000001, -0.154, 192.0, 0.0, 0.0, 0.0, 0.0, 0.0, 0.0, 0.0, 0.0, 0.0, 1.6689767383169036E9, 0.0, 2022-11-20 15:38:58.316
146.0, -17851.801854586825, 23070.330687800728, -36168.27412465503, -35195.54855770452, -28221.223142292874, -29029.41751830787, -24523.015263440047, -3649.9281108293667, -26206.682766280504, -3703.6393527554696, -28967.614944888945, -34104.60461432989, -27722.622778728342, -10988.45285039578, -22908.347595733117, -35308.40251545936, 0.076, 0.9580000000000001, -0.154, 192.0, 0.0, 0.0, 0.0, 0.0, 0.0, 0.0, 0.0, 0.0, 0.0, 1.6689767383169105E9, 0.0, 2022-11-20 15:38:58.316
148.0, -17897.131192342185, 22857.564432330662, -36230.16610505177, -35243.42599432779, -28267.26773587081, -29085.632155612966, -24571.652659374795, -3703.1923178663637, -26293.653403956105, -3781.1328507820194, -29076.155015963916, -34199.97950792069, -27824.70319565573, -11086.174677154384, -22998.603939843648, -35412.807513810105, 0.076, 0.9580000000000001, -0.154, 192.0, 0.0, 0.0, 0.0, 0.0, 0.0, 0.0, 0.0, 0.0, 0.0, 1.6689767383169167E9, 0.0, 2022-11-20 15:38:58.316
150.0, -17833.696941578026, 23013.199628972965, -36178.62298233783, -35196.44262748273, -28213.131810800056, -29037.933532945342, -24520.847144227882, -3653.9737765757773, -26217.90334199707, -3720.3584576080393, -28990.436075977814, -34128.25275996361, -27736.90554343528, -11003.942609303309, -22926.005473852812, -35347.56277174506, 0.084, 0.9580000000000001, -0.14400000000000002, 192.0, 1.0, 80.0, 14.5, 120.0, 125.5, 64.0, 0.0, 0.0, 0.0, 1.668976738316923E9, 0.0, 2022-11-20 15:38:58.316
152.0, -17874.600633931237, 22941.78580543826, -36227.93093060624, -35245.8176309845, -28269.033523682778, -29090.951870793328, -24570.378609940843, -3702.9688004218106, -26259.276420983842, -3751.047402745176, -29046.829527238555, -34181.069932111495, -27801.83736107795, -11066.013403655697, -22982.242462902363, -35400.40229563741, 0.084, 0.9580000000000001, -0.14400000000000002, 192.0, 0.0, 0.0, 0.0, 0.0, 0.0, 0.0, 0.0, 0.0, 0.0, 1.6689767383169293E9, 0.0, 2022-11-20 15:38:58.316
154.0, -17804.90789471959, 22972.60886104213, -36152.31497911394, -35182.89747034281, -28203.699374639917, -29032.367948575968, -24508.352519077365, -3646.3294799720625, -26198.010289431848, -3714.5470040496593, -28967.25731697766, -34120.02731800405, -27728.993025898104, -11004.389644192415, -22922.987988351346, -35346.98162638922, 0.084, 0.9580000000000001, -0.14400000000000002, 192.0, 0.0, 0.0, 0.0, 0.0, 0.0, 0.0, 0.0, 0.0, 0.0, 1.6689767383169353E9, 0.0, 2022-11-20 15:38:58.316
156.0, -17888.570474215805, 22998.715698565924, -36222.09712530341, -35254.244238644154, -28280.58937556617, -29106.48633318977, -24586.404810715296, -3720.2243471413076, -26241.596191119694, -3741.1008764625644, -29022.086146126527, -34159.23227777866, -27787.219320204178, -11061.677165231367, -22960.40480856953, -35392.62388856696, 0.084, 0.9580000000000001, -0.14400000000000002, 192.0, 0.0, 0.0, 0.0, 0.0, 0.0, 0.0, 0.0, 0.0, 0.0, 1.6689767383169415E9, 0.0, 2022-11-20 15:38:58.316
158.0, -17810.80875525579, 22901.351499718607, -36134.52299052751, -35165.77603409005, -28196.77033385877, -29015.067698367562, -24504.306853330952, -3633.7454478437244, -26224.430051378018, -3736.4517136158606, -28986.45746546477, -34136.053518778506, -27749.4001685858, -11029.736522404733, -22927.234819797854, -35355.7435102157, 0.084, 0.9580000000000001, -0.14400000000000002, 192.0, 0.0, 0.0, 0.0, 0.0, 0.0, 0.0, 0.0, 0.0, 0.0, 1.6689767383169477E9, 0.0, 2022-11-20 15:38:58.316
160.0, -17890.06804109431, 23065.793283676303, -36216.062154300475, -35239.78265998157, -28277.862462742625, -29083.62049861199, -24581.330964723944, -3703.728759733291, -26231.582609603716, -3727.1086844335423, -29009.546817487102, -34145.7094723832, -27773.54005259753, -11041.582946966046, -22941.674046715983, -35351.65314098038, 0.078, 0.9540000000000001, -0.14200000000000002, 192.0, 1.0, 56.0, 14.5, 104.0, 125.5, 72.0, 0.0, 0.0, 0.0, 1.6689767383169541E9, 0.0, 2022-11-20 15:38:58.316
162.0, -17805.936074964535, 22857.72089454185, -36131.326691070404, -35148.676949581735, -28187.762580843282, -28998.92973887083, -24493.80153343696, -3622.2566511936966, -26227.38048164612, -3730.886129246489, -28988.73734339921, -34130.91261755379, -27749.4001685858, -11017.308952487583, -22940.042369370745, -35344.433527521316, 0.078, 0.9540000000000001, -0.14200000000000002, 192.0, 0.0, 0.0, 0.0, 0.0, 0.0, 0.0, 0.0, 0.0, 0.0, 1.6689767383169613E9, 0.0, 2022-11-20 15:38:58.316
164.0, -17906.206000591043, 23105.19940915101, -36224.55581719349, -35254.244238644154, -28276.901337731048, -29102.306556976626, -24583.923767080756, -3713.7646929937237, -26230.062690980758, -3722.1913006533746, -29007.110477341474, -34137.171106001275, -27763.861747248382, -11031.032923583141, -22948.0666456302, -35364.93007718684, 0.078, 0.9540000000000001, -0.14200000000000002, 192.0, 0.0, 0.0, 0.0, 0.0, 0.0, 0.0, 0.0, 0.0, 0.0, 1.6689767383169813E9, 0.0, 2022-11-20 15:38:58.316
166.0, -17819.056548959798, 22792.856132132547, -36147.46465056713, -35175.610801650386, -28196.9044443255, -29026.467088039768, -24503.435135297197, -3639.1992734908195, -26250.693351113005, -3758.691699348891, -29015.40297453439, -34157.84646962243, -27772.087189207938, -11049.249595314217, -22973.525282564795, -35396.40133337991, 0.078, 0.9540000000000001, -0.14200000000000002, 192.0, 0.0, 0.0, 0.0, 0.0, 0.0, 0.0, 0.0, 0.0, 0.0, 1.6689767383169885E9, 0.0, 2022-11-20 15:38:58.316
168.0, -17906.630683735693, 23138.0117700114, -36232.37892775285, -35268.929334751294, -28285.015020968323, -29108.7215076353, -24589.846979361413, -3719.1961668963636, -26219.870295509136, -3722.750094264757, -29001.142561571905, -34137.41697519028, -27761.2018896582, -11032.552842206102, -22949.631267742072, -35372.462615068274, 0.078, 0.9540000000000001, -0.14200000000000002, 192.0, 0.0, 0.0, 0.0, 0.0, 0.0, 0.0, 0.0, 0.0, 0.0, 1.6689767383169973E9, 0.0, 2022-11-20 15:38:58.316
170.0, -17810.071147688766, 22763.75416085174, -36142.72608074261, -35160.52337414305, -28196.815037347682, -29010.64205296541, -24498.048364883467, -3628.470436152272, -26254.180223248033, -3749.4827806333046, -29022.46612578227, -34161.355693501915, -27783.240709691134, -11050.367182536982, -22969.434913329475, -35384.554908818594, 0.082, 0.9500000000000001, -0.14200000000000002, 192.0, 1.0, 72.0, 14.5, 88.0, 125.5, 72.0, 0.0, 0.0, 0.0, 1.6689767383170047E9, 0.0, 2022-11-20 15:38:58.317
172.0, -17893.30904404033, 23184.592805456257, -36210.87654958684, -35236.139325635355, -28267.155977148534, -29076.982030508763, -24570.982107041134, -3695.1903933513636, -26195.104562652657, -3682.8075269231235, -28971.81707284654, -34103.24115791811, -27737.084357390926, -10995.001911521187, -22901.798534607715, -35313.02932656161, 0.082, 0.9500000000000001, -0.14200000000000002, 192.0, 0.0, 0.0, 0.0, 0.0, 0.0, 0.0, 0.0, 0.0, 0.0, 1.6689767383170118E9, 0.0, 2022-11-20 15:38:58.317
174.0, -17833.786348555845, 22723.811593510105, -36153.209048892146, -35163.4514526667, -28208.86262760909, -29015.872361167952, -24514.655711013762, -3644.4072299489058, -26265.44550245351, -3758.4234784154273, -29032.591466020524, -34170.13992907285, -27794.55069238552, -11055.32926980606, -22954.146320122043, -35364.28187659763, 0.082, 0.9500000000000001, -0.14200000000000002, 192.0, 0.0, 0.0, 0.0, 0.0, 0.0, 0.0, 0.0, 0.0, 0.0, 1.6689767383170185E9, 0.0, 2022-11-20 15:38:58.317
176.0, -17888.39166026016, 23179.653069931635, -36204.90863381727, -35227.176276108774, -28262.26094511282, -29068.197794937827, -24571.09386576341, -3696.956181163333, -26209.163809915044, -3702.432358554883, -28983.55173868558, -34119.44617264821, -27746.896773206805, -11006.401301193393, -22910.09103180063, -35318.19257953079, 0.082, 0.9500000000000001, -0.14200000000000002, 192.0, 0.0, 0.0, 0.0, 0.0, 0.0, 0.0, 0.0, 0.0, 0.0, 1.6689767383170254E9, 0.0, 2022-11-20 15:38:58.317
178.0, -17832.557002610803, 22713.14981140492, -36159.534592573, -35166.088958512424, -28212.77418288877, -29012.653709966387, -24518.32139710443, -3649.0340410511544, -26251.363903446665, -3755.495399891782, -29027.718785729267, -34168.485899983156, -27786.906395781803, -11050.076609859063, -22962.327058592684, -35370.07097841155, 0.082, 0.9500000000000001, -0.14200000000000002, 192.0, 0.0, 0.0, 0.0, 0.0, 0.0, 0.0, 0.0, 0.0, 0.0, 1.6689767383170323E9, 0.0, 2022-11-20 15:38:58.317
180.0, -17881.127343312186, 23185.285709534375, -36203.88045357233, -35231.78073546657, -28267.06657017071, -29069.829472283065, -24573.82077858696, -3700.7559777207352, -26190.65656550605, -3690.8765066714896, -28969.179567000818, -34107.800913786996, -27733.530430022533, -10995.65011211039, -22913.689662657936, -35320.96419584325, 0.076, 0.9560000000000001, -0.14, 192.0, 1.0, 48.0, 14.5, 112.0, 125.5, 80.0, 0.0, 0.0, 0.0, 1.6689767383170393E9, 0.0, 2022-11-20 15:38:58.317
182.0, -17830.18771769854, 22729.734805790762, -36159.80281350647, -35179.67881914125, -28226.54285747324, -29037.397091078412, -24536.04633045749, -3668.5247622161824, -26265.311391986776, -3770.1357925100083, -29040.660445768888, -34185.36146704692, -27809.63811989285, -11082.665453274902, -22990.06557346172, -35403.844464283524, 0.076, 0.9560000000000001, -0.14, 192.0, 0.0, 0.0, 0.0, 0.0, 0.0, 0.0, 0.0, 0.0, 0.0, 1.6689767383170445E9, 0.0, 2022-11-20 15:38:58.317
184.0, -17864.274127992885, 23175.58505244077, -36178.15359570427, -35214.77105793608, -28247.397035050042, -29069.203623438316, -24561.90729879228, -3693.759881706224, -26176.642021732572, -3683.4557275123275, -28946.40313940086, -34088.46665483316, -27717.01249087006, -10993.102013242486, -22898.468124683874, -35321.09830630998, 0.076, 0.9560000000000001, -0.14, 192.0, 0.0, 0.0, 0.0, 0.0, 0.0, 0.0, 0.0, 0.0, 0.0, 1.6689767383170495E9, 0.0, 2022-11-20 15:38:58.317
186.0, -17865.369363471196, 22732.75229129223, -36171.71629330114, -35196.59908969392, -28238.523392501284, -29061.782844279154, -24551.916069020757, -3689.177774092886, -26267.971249576956, -3775.0084728012653, -29042.11330915848, -34184.13212110187, -27806.754744858117, -11087.873409732987, -22978.621480300604, -35405.14086546193, 0.076, 0.9560000000000001, -0.14, 192.0, 0.0, 0.0, 0.0, 0.0, 0.0, 0.0, 0.0, 0.0, 0.0, 1.6689767383170545E9, 0.0, 2022-11-20 15:38:58.317
188.0, -17879.96505260051, 23123.080804715253, -36179.04766548248, -35215.62042422538, -28242.479651269874, -29066.074379214573, -24559.62742085784, -3694.408082295428, -26201.34069935569, -3715.172852894408, -28968.509014667157, -34118.932082525745, -27731.429366043732, -11011.452795440293, -22906.58180792115, -35330.82131514804, 0.076, 0.9560000000000001, -0.14, 192.0, 0.0, 0.0, 0.0, 0.0, 0.0, 0.0, 0.0, 0.0, 0.0, 1.6689767383170598E9, 0.0, 2022-11-20 15:38:58.317
190.0, -17879.9203491116, 22766.525777164195, -36194.58212787892, -35212.73704919065, -28247.44173853895, -29062.22987916826, -24561.147339480798, -3697.984361408277, -26281.04702008331, -3790.9899700868095, -29058.273620399672, -34203.4216765668, -27819.852867108926, -11095.160078425417, -22984.25411990334, -35404.73853406173, 0.076, 0.9560000000000001, -0.134, 192.0, 1.0, 48.0, 14.5, 112.0, 125.5, 104.0, 0.0, 0.0, 0.0, 1.6689767383170648E9, 0.0, 2022-11-20 15:38:58.317
192.0, -17868.319793739294, 23092.034231666832, -36184.56854636294, -35208.22199681068, -28233.270732554287, -29044.393187092926, -24548.071568974447, -3677.7783844206792, -26199.127876654613, -3711.5742220371035, -28970.766540857145, -34115.221692946165, -27732.18932535521, -11005.239010481717, -22905.598331165118, -35320.91949235433, 0.076, 0.9560000000000001, -0.134, 192.0, 0.0, 0.0, 0.0, 0.0, 0.0, 0.0, 0.0, 0.0, 0.0, 1.66897673831707E9, 0.0, 2022-11-20 15:38:58.317
194.0, -17885.68709918107, 22823.120394125035, -36208.3955059523, -35225.05286038552, -28253.07437814169, -29065.359123392, -24562.309630192474, -3695.63742824047, -26277.314278759277, -3778.1824205139187, -29063.727446046767, -34196.60439450794, -27821.953931087726, -11091.360281868016, -22987.428067615994, -35398.48004561425, 0.076, 0.9560000000000001, -0.134, 192.0, 0.0, 0.0, 0.0, 0.0, 0.0, 0.0, 0.0, 0.0, 0.0, 1.6689767383170753E9, 0.0, 2022-11-20 15:38:58.317
196.0, -17833.808700300302, 23066.46383600996, -36151.44326108018, -35178.44947319621, -28203.11822928408, -29016.386451290426, -24509.380699322308, -3643.7590293597023, -26188.51079803834, -3700.577163765093, -28962.809319831053, -34105.141056196815, -27720.991101383104, -10996.633588866423, -22899.026918295254, -35312.29171899459, 0.076, 0.9560000000000001, -0.134, 192.0, 0.0, 0.0, 0.0, 0.0, 0.0, 0.0, 0.0, 0.0, 0.0, 1.6689767383170805E9, 0.0, 2022-11-20 15:38:58.317
198.0, -17899.388718532173, 22881.369040175563, -36216.77741012304, -35233.97120642319, -28266.373666092597, -29083.352277678525, -24568.76928434006, -3705.8968789454557, -26256.907136071582, -3760.859818561056, -29045.734291760244, -34177.60541172092, -27806.106544268914, -11077.345738094538, -22965.053971416233, -35383.169100662366, 0.076, 0.9560000000000001, -0.134, 192.0, 0.0, 0.0, 0.0, 0.0, 0.0, 0.0, 0.0, 0.0, 0.0, 1.6689767383170855E9, 0.0, 2022-11-20 15:38:58.317
200.0, -17833.898107278124, 22996.16759969802, -36145.520048799524, -35166.49128991262, -28202.604139161605, -29017.593445491013, -24506.832600454403, -3642.507331670205, -26198.703193509962, -3718.3244488626065, -28971.4370931908, -34115.57932085745, -27733.083395133424, -11013.196231507807, -22905.01718580928, -35325.903931367866, 0.078, 0.96, -0.14200000000000002, 192.0, 1.0, 56.0, 15.0, 0.0, 125.5, 72.0, 0.0, 0.0, 0.0, 1.6689767383170924E9, 0.0, 2022-11-20 15:38:58.317
202.0, -17911.123384371207, 22932.576886722672, -36220.28663400253, -35236.318139591, -28279.18121566549, -29094.304632461626, -24584.43785720323, -3721.2301756417964, -26250.58159239073, -3753.8637225465445, -29036.346559089015, -34166.608353448915, -27802.284395967057, -11071.064897902597, -22959.39898006904, -35382.83382449554, 0.078, 0.96, -0.14200000000000002, 192.0, 0.0, 0.0, 0.0, 0.0, 0.0, 0.0, 0.0, 0.0, 0.0, 1.6689767383170974E9, 0.0, 2022-11-20 15:38:58.317
204.0, -17835.61919160118, 22922.67506392897, -36144.84949646586, -35159.42813866474, -28203.073525795167, -29015.067698367562, -24511.99585342358, -3646.821218350079, -26217.746879785882, -3728.7627135232347, -28984.35640148597, -34125.19057097323, -27747.63438077383, -11021.958115334286, -22914.91900860298, -35336.83393440652, 0.078, 0.96, -0.14200000000000002, 192.0, 0.0, 0.0, 0.0, 0.0, 0.0, 0.0, 0.0, 0.0, 0.0, 1.6689767383171024E9, 0.0, 2022-11-20 15:38:58.317
206.0, -17911.369253560217, 22993.73125955239, -36230.9037126188, -35241.32493034899, -28286.69140180247, -29101.7701151097, -24595.81489513098, -3725.6111175550363, -26253.397912192097, -3750.9356440228994, -29039.296989357113, -34165.7142836707, -27802.284395967057, -11069.276758346172, -22957.83435795717, -35372.19439413481, 0.078, 0.96, -0.14200000000000002, 192.0, 0.0, 0.0, 0.0, 0.0, 0.0, 0.0, 0.0, 0.0, 0.0, 1.6689767383171077E9, 0.0, 2022-11-20 15:38:58.317
208.0, -17809.132374421642, 22882.441923909417, -36140.80383071945, -35144.51952511305, -28198.692583881926, -29012.273730310648, -24508.084298143902, -3640.8533025805123, -26211.935426227505, -3727.667478044925, -28983.819959619042, -34122.30719593849, -27749.176651141246, -11024.7520833912, -22924.48555522985, -35334.26348379415, 0.078, 0.96, -0.14200000000000002, 192.0, 0.0, 0.0, 0.0, 0.0, 0.0, 0.0, 0.0, 0.0, 0.0, 1.6689767383171127E9, 0.0, 2022-11-20 15:38:58.317
210.0, -17900.416898777115, 23063.401647019586, -36234.435288242734, -35235.42406981278, -28292.592262338672, -29102.060687787616, -24598.407697487797, -3727.5780710671033, -26222.396042632587, -3726.326373377606, -29010.910273898873, -34138.221637990675, -27782.078418979458, -11049.227243569761, -22946.323209562684, -35351.38492004692, 0.076, 0.958, -0.14, 192.0, 1.0, 40.0, 14.5, 112.0, 125.5, 88.0, 0.0, 0.0, 0.0, 1.6689767383171177E9, 0.0, 2022-11-20 15:38:58.317
212.0, -17817.849554759214, 22820.639350490495, -36148.1352029008, -35143.33488265692, -28207.18624677494, -29014.955939645286, -24513.828696468914, -3646.463590438794, -26226.061728723256, -3738.8433502725784, -28996.06871558055, -34133.79599258852, -27767.907412994795, -11035.257403285195, -22944.982104895367, -35349.14974560139, 0.076, 0.958, -0.14, 192.0, 0.0, 0.0, 0.0, 0.0, 0.0, 0.0, 0.0, 0.0, 0.0, 1.6689767383171227E9, 0.0, 2022-11-20 15:38:58.317
214.0, -17912.419785549617, 23100.393784093118, -36220.86777935836, -35235.31231109051, -28287.2278436694, -29100.38430695347, -24598.787677143537, -3730.4837978462933, -26226.173487445532, -3725.8346349995895, -29003.98123311773, -34133.3042542105, -27778.345677655423, -11039.258365542695, -22935.952000135425, -35347.83099267852, 0.076, 0.958, -0.14, 192.0, 0.0, 0.0, 0.0, 0.0, 0.0, 0.0, 0.0, 0.0, 0.0, 1.668976738317128E9, 0.0, 2022-11-20 15:38:58.317
216.0, -17830.746511309924, 22758.680314860383, -36141.608493519845, -35152.610856605876, -28203.90054034001, -29019.806268192086, -24521.651807028273, -3657.4382969663498, -26244.568973132253, -3753.953129524366, -29011.022032621153, -34151.27505675257, -27778.63625033334, -11045.606260968001, -22942.702226960926, -35361.063225396065, 0.076, 0.958, -0.14, 192.0, 0.0, 0.0, 0.0, 0.0, 0.0, 0.0, 0.0, 0.0, 0.0, 1.6689767383171332E9, 0.0, 2022-11-20 15:38:58.317
218.0, -17908.329416314296, 23136.491851388437, -36221.515979947566, -35244.34241585045, -28277.616593553616, -29091.130684748972, -24591.836284617937, -3723.5324053206928, -26218.216266419444, -3718.123283162509, -29000.20378830478, -34130.82321057597, -27766.74512228312, -11027.27783051465, -22922.093918573133, -35340.298454797085, 0.076, 0.958, -0.14, 192.0, 0.0, 0.0, 0.0, 0.0, 0.0, 0.0, 0.0, 0.0, 0.0, 1.6689767383171382E9, 0.0, 2022-11-20 15:38:58.317
220.0, -17822.789290283836, 22723.141041176445, -36146.995263933575, -35157.30472294149, -28196.926796069958, -29007.490456997213, -24510.02889991151, -3643.535511915149, -26250.268667968354, -3760.07750750512, -29025.88594268393, -34164.75315865912, -27787.822817304474, -11053.384668038449, -22955.10744513362, -35368.03696966612, 0.077, 0.9570000000000001, -0.14, 192.0, 1.0, 56.0, 14.5, 112.0, 125.5, 80.0, 0.0, 0.0, 0.0, 1.6689767383171432E9, 0.0, 2022-11-20 15:38:58.317
222.0, -17889.88922713867, 23175.49564546295, -36214.095200788404, -35237.50278204713, -28267.26773587081, -29072.690495573344, -24574.714848365173, -3704.488719044771, -26193.584644029695, -3697.626733496992, -28981.607136917966, -34112.695945822714, -27742.67229350475, -11006.311894215572, -22907.63233991055, -35317.030288819115, 0.077, 0.9570000000000001, -0.14, 192.0, 0.0, 0.0, 0.0, 0.0, 0.0, 0.0, 0.0, 0.0, 0.0, 1.6689767383171484E9, 0.0, 2022-11-20 15:38:58.317
224.0, -17826.14205195213, 22716.63668353995, -36148.738700001086, -35152.83437405043, -28201.151275772012, -28998.750924915188, -24503.546894019473, -3638.5510729016155, -26246.021836521846, -3749.1251527220197, -29025.416556050368, -34157.66765566679, -27787.68870683774, -11051.015383126187, -22955.263907344808, -35365.533574287125, 0.077, 0.9570000000000001, -0.14, 192.0, 0.0, 0.0, 0.0, 0.0, 0.0, 0.0, 0.0, 0.0, 0.0, 1.6689767383171537E9, 0.0, 2022-11-20 15:38:58.317
226.0, -17905.73661395748, 23170.935889594068, -36212.351764720894, -35225.723412719184, -28266.150148648045, -29072.489329873246, -24574.133703009335, -3707.4838528017826, -26193.450533562966, -3693.6481229839474, -28977.78498861611, -34102.145922439806, -27734.737424223116, -11001.41686217986, -22899.652767140004, -35306.45791369175, 0.077, 0.9570000000000001, -0.14, 192.0, 0.0, 0.0, 0.0, 0.0, 0.0, 0.0, 0.0, 0.0, 0.0, 1.6689767383171587E9, 0.0, 2022-11-20 15:38:58.317
228.0, -17846.124511495174, 22697.257721097198, -36153.61138029234, -35150.10746122688, -28206.694508396926, -29015.738250701223, -24517.382623837308, -3655.0690120540876, -26262.13744427412, -3767.0959552640866, -29044.61670453748, -34171.279868040074, -27794.483637152152, -11067.37686006747, -22961.1200643921, -35373.87077496896, 0.077, 0.9570000000000001, -0.14, 192.0, 0.0, 0.0, 0.0, 0.0, 0.0, 0.0, 0.0, 0.0, 0.0, 1.6689767383171637E9, 0.0, 2022-11-20 15:38:58.317
230.0, -17882.423744490596, 23171.025296571886, -36186.423741152736, -35198.0072495946, -28246.30179957173, -29062.363989634992, -24557.95104002369, -3691.859983427523, -26186.186216614988, -3695.6150764960144, -28965.759750099154, -34092.66878279076, -27718.4430025152, -10995.046615010097, -22887.42636292295, -35303.77570435711, 0.0775, 0.9545000000000001, -0.14200000000000002, 192.0, 1.0, 56.0, 14.5, 96.0, 125.5, 64.0, 0.0, 0.0, 0.0, 1.6689767383171687E9, 0.0, 2022-11-20 15:38:58.317
232.0, -17857.680363378568, 22711.898113715426, -36174.06322646895, -35173.30857197149, -28234.030691865766, -29043.18619289234, -24541.388397382307, -3677.800736165135, -26263.81382510827, -3768.325301209128, -29041.532163802643, -34166.3624842599, -27802.865541322895, -11077.05516541662, -22969.92665170749, -35382.65501053989, 0.0775, 0.9545000000000001, -0.14200000000000002, 192.0, 0.0, 0.0, 0.0, 0.0, 0.0, 0.0, 0.0, 0.0, 0.0, 1.6689767383171751E9, 0.0, 2022-11-20 15:38:58.317
234.0, -17871.180817029574, 23150.037008528354, -36183.629773095825, -35206.72442993217, -28245.720654215893, -29058.407730866402, -24555.84997604489, -3689.244829326252, -26189.98601317239, -3697.3808643079838, -28964.709218109754, -34093.540500824514, -27727.62956948633, -11001.238048224217, -22898.490476428327, -35305.96617531373, 0.0775, 0.9545000000000001, -0.14200000000000002, 192.0, 0.0, 0.0, 0.0, 0.0, 0.0, 0.0, 0.0, 0.0, 0.0, 1.6689767383171804E9, 0.0, 2022-11-20 15:38:58.317
236.0, -17850.706619108514, 22734.98746573776, -36178.4888718711, -35189.44653146822, -28236.310569800207, -29051.299876129615, -24544.495289861596, -3682.3828437784728, -26270.832272867236, -3774.1591065119633, -29054.585582564545, -34180.28762105556, -27813.192047261247, -11090.91324697891, -22980.275509390296, -35389.56169957658, 0.0775, 0.9545000000000001, -0.14200000000000002, 192.0, 0.0, 0.0, 0.0, 0.0, 0.0, 0.0, 0.0, 0.0, 0.0, 1.6689767383171854E9, 0.0, 2022-11-20 15:38:58.317
238.0, -17829.67362757607, 23125.204220438507, -36158.84168849489, -35181.69047614223, -28221.916046370992, -29036.346559089015, -24530.48074608812, -3667.2283610377744, -26180.531225267798, -3684.1709833348973, -28953.48864239319, -34079.95064019569, -27709.77052566654, -10987.469373639748, -22879.46914189686, -35288.017724516125, 0.0775, 0.9545000000000001, -0.14200000000000002, 192.0, 0.0, 0.0, 0.0, 0.0, 0.0, 0.0, 0.0, 0.0, 0.0, 1.6689767383171904E9, 0.0, 2022-11-20 15:38:58.317
240.0, -17856.29455522234, 22773.812445856627, -36186.78136906402, -35195.325040259966, -28249.274581584286, -29058.631248310954, -24555.268830689056, -3694.117509617509, -26275.593194436216, -3769.8675715765444, -29049.824660995564, -34172.50921398511, -27812.96852981669, -11081.123182907484, -22967.758532495325, -35375.16717614736, 0.07875, 0.9512500000000002, -0.14400000000000002, 192.0, 1.0, 64.0, 14.5, 80.0, 125.5, 56.0, 0.0, 0.0, 0.0, 1.6689767387974937E9, 0.0, 2022-11-20 15:38:58.797
242.0, -17831.10413922121, 23070.889481412112, -36158.34995011687, -35177.53305167354, -28215.478743967862, -29025.21539035027, -24522.255304128565, -3657.8406283665454, -26195.775114986314, -3694.497489273249, -28959.143633740383, -34089.070151933454, -27719.44883101569, -10987.55878061757, -22877.457484895884, -35288.82238731651, 0.07875, 0.9512500000000002, -0.14400000000000002, 192.0, 0.0, 0.0, 0.0, 0.0, 0.0, 0.0, 0.0, 0.0, 0.0, 1.6689767387975814E9, 0.0, 2022-11-20 15:38:58.797
244.0, -17863.424761703583, 22815.23022833231, -36202.11466576036, -35211.15007533432, -28256.248325854343, -29058.117158188485, -24554.732388822125, -3691.3011898161403, -26278.945956104515, -3766.425402930427, -29058.474786099767, -34180.801711178035, -27814.734317628663, -11078.597435784035, -22964.96456443841, -35376.55298430359, 0.07875, 0.9512500000000002, -0.14400000000000002, 192.0, 0.0, 0.0, 0.0, 0.0, 0.0, 0.0, 0.0, 0.0, 0.0, 1.6689767387976193E9, 0.0, 2022-11-20 15:38:58.797
246.0, -17815.837897758236, 23019.480469164904, -36148.69399651218, -35166.06660676797, -28204.52638918476, -29007.713974441765, -24509.71597548914, -3644.921320071378, -26194.09873415217, -3699.0572451421317, -28967.033799533107, -34098.591995071416, -27718.934740893215, -10990.352748674482, -22883.96184253238, -35295.41615193083, 0.07875, 0.9512500000000002, -0.14400000000000002, 192.0, 0.0, 0.0, 0.0, 0.0, 0.0, 0.0, 0.0, 0.0, 0.0, 1.6689767387977228E9, 0.0, 2022-11-20 15:38:58.797
248.0, -17875.382944987174, 22877.904519784992, -36208.999003052595, -35221.521284761584, -28266.1725003925, -29073.964545007297, -24573.127874508846, -3711.68598075938, -26257.689447127515, -3752.0979347345756, -29045.734291760244, -34166.07191158199, -27798.21637847619, -11072.115429891996, -22955.509776533818, -35365.891202198414, 0.07875, 0.9512500000000002, -0.14400000000000002, 192.0, 0.0, 0.0, 0.0, 0.0, 0.0, 0.0, 0.0, 0.0, 0.0, 1.6689767387977283E9, 0.0, 2022-11-20 15:38:58.797
250.0, -17815.726139035956, 22950.279468331275, -36137.406365562245, -35154.37664441784, -28197.53029317025, -29009.792686676108, -24509.403051066765, -3646.6200526499815, -26208.202684903466, -3720.3808093524945, -28980.198977017284, -34113.36649815637, -27731.027034643535, -11012.838603596521, -22898.57988340615, -35313.29754749507, 0.081375, 0.948625, -0.14200000000000002, 192.0, 1.0, 80.0, 14.5, 72.0, 125.5, 80.0, 0.0, 0.0, 0.0, 1.6689767387977335E9, 0.0, 2022-11-20 15:38:58.797
252.0, -17893.420802762605, 22929.112366332098, -36215.03397405553, -35231.110183132914, -28277.30366913124, -29093.812894083607, -24589.087020049934, -3727.0863326890867, -26256.907136071582, -3753.886074291, -29040.92866670235, -34164.30612377002, -27795.377706930365, -11070.461400802304, -22944.602125239628, -35360.97381841824, 0.081375, 0.948625, -0.14200000000000002, 192.0, 0.0, 0.0, 0.0, 0.0, 0.0, 0.0, 0.0, 0.0, 0.0, 1.6689767387977388E9, 0.0, 2022-11-20 15:38:58.797
254.0, -17815.949656480512, 22889.52742690175, -36143.7319092431, -35155.96361827417, -28201.151275772012, -29017.861666424476, -24514.901580202768, -3655.2925294986403, -26227.268722923844, -3735.5799955821035, -28995.845198135998, -34127.35869018539, -27750.003665686094, -11029.401246237903, -22915.63426442555, -35331.44716399279, 0.081375, 0.948625, -0.14200000000000002, 192.0, 0.0, 0.0, 0.0, 0.0, 0.0, 0.0, 0.0, 0.0, 0.0, 1.6689767387977445E9, 0.0, 2022-11-20 15:38:58.797
0.0, -17896.706509197535, 22993.708907807937, -36229.003814340096, -35236.318139591, -28280.36585812162, -29094.349335950537, -24591.88098810685, -3728.494492589771, -26245.46304291046, -3742.7996090411675, -29029.5516287746, -34148.79401311803, -27784.537110869544, -11056.357450051004, -22941.450529271428, -35352.97189390325, 0.081375, 0.948625, -0.14200000000000002, 192.0, 0.0, 0.0, 0.0, 0.0, 0.0, 0.0, 0.0, 0.0, 0.0, 1.6689767387977514E9, 0.0, 2022-11-20 15:38:58.797
2.0, -17815.882601247144, 22822.539248769197, -36149.25279012356, -35154.24253395111, -28201.598310661117, -29013.92775940034, -24512.174667379222, -3650.173980018375, -26234.309522427266, -3743.8724927750222, -29001.299023783093, -34133.0583850215, -27755.97158145566, -11030.451778227303, -22927.54774422023, -35335.60458846147, 0.081375, 0.948625, -0.14200000000000002, 192.0, 0.0, 0.0, 0.0, 0.0, 0.0, 0.0, 0.0, 0.0, 0.0, 1.6689767387977583E9, 0.0, 2022-11-20 15:38:58.797
4.0, -17909.558762259338, 23034.590248416695, -36237.96686386667, -35254.2218868997, -28293.55338735025, -29110.934330336375, -24604.263854535086, -3741.0338212291986, -26255.744845359906, -3751.69560333438, -29035.94422768882, -34156.41595797729, -27794.30482319651, -11068.42739205687, -22950.21241309791, -35362.739606230214, 0.0826875, 0.9513125, -0.14400000000000002, 192.0, 1.0, 80.0, 14.5, 104.0, 125.5, 56.0, 0.0, 0.0, 0.0, 1.6689767387977648E9, 0.0, 2022-11-20 15:38:58.797
6.0, -17807.366586609674, 22778.17103602541, -36133.47245853811, -35143.156068701275, -28195.89861582501, -29009.747983187197, -24505.692661487185, -3646.240072994241, -26251.520365657852, -3759.228141215818, -29016.31939605706, -34147.36350147289, -27774.88115726485, -11057.13976110694, -22940.422349026485, -35355.050606137585, 0.0826875, 0.9513125, -0.14400000000000002, 192.0, 0.0, 0.0, 0.0, 0.0, 0.0, 0.0, 0.0, 0.0, 0.0, 1.6689767387977936E9, 0.0, 2022-11-20 15:38:58.797
8.0, -17892.7726021734, 23098.493885814416, -36204.819226839456, -35219.53197950506, -28268.050046926743, -29084.022830012185, -24579.34165946742, -3718.9279459628997, -26224.921789756037, -3717.9668209513216, -29002.84129415051, -34119.51322788158, -27764.219375159668, -11039.034848098141, -22909.219313766876, -35323.02055633313, 0.0826875, 0.9513125, -0.14400000000000002, 192.0, 0.0, 0.0, 0.0, 0.0, 0.0, 0.0, 0.0, 0.0, 0.0, 1.668976738797815E9, 0.0, 2022-11-20 15:38:58.797
10.0, -17816.553153580804, 22725.77854702217, -36131.97489165961, -35134.058908707964, -28184.0521912637, -28998.572110959543, -24496.684908471696, -3641.948538058822, -26252.52619415834, -3755.718917336335, -29018.353404802492, -34145.821231105474, -27770.83549151844, -11049.8083889256, -22925.223162796876, -35338.10798384047, 0.0826875, 0.9513125, -0.14400000000000002, 192.0, 0.0, 0.0, 0.0, 0.0, 0.0, 0.0, 0.0, 0.0, 0.0, 1.6689767387978225E9, 0.0, 2022-11-20 15:38:58.797
12.0, -17907.636512236182, 23110.742641775923, -36223.03589857053, -35231.244293599644, -28272.855671984635, -29081.161806721906, -24581.77799961305, -3717.4527308288493, -26224.161830444555, -3714.4575970718383, -29003.333032528524, -34122.32954768295, -27753.334075609935, -11021.064045556075, -22897.32818571665, -35305.3850299579, 0.0826875, 0.9513125, -0.14400000000000002, 192.0, 0.0, 0.0, 0.0, 0.0, 0.0, 0.0, 0.0, 0.0, 0.0, 1.66897673879783E9, 0.0, 2022-11-20 15:38:58.797
14.0, -17818.38599662614, 22690.01575589368, -36151.44326108018, -35146.66529258076, -28194.44575243542, -29001.58959646101, -24504.910350431248, -3642.373221203473, -26275.213214780477, -3776.2601704907624, -29047.120099916472, -34172.50921398511, -27799.736297099153, -11064.024098399175, -22952.916974177002, -35358.2469055947, 0.08434375, 0.9516562500000001, -0.14300000000000002, 192.0, 1.0, 88.0, 14.5, 96.0, 125.5, 72.0, 0.0, 0.0, 0.0, 1.6689767387978492E9, 0.0, 2022-11-20 15:38:58.797
16.0, -17880.21092178952, 23157.502491176427, -36211.92708157624, -35214.92752014727, -28258.461148555416, -29061.492271601233, -24568.746932595604, -3701.4488817988495, -26205.922806969025, -3701.247716098752, -28985.36222998646, -34103.03999221802, -27745.890944706316, -11002.266228469161, -22896.30000547171, -35300.28883222209, 0.08434375, 0.9516562500000001, -0.14300000000000002, 192.0, 0.0, 0.0, 0.0, 0.0, 0.0, 0.0, 0.0, 0.0, 0.0, 1.668976738797856E9, 0.0, 2022-11-20 15:38:58.797
18.0, -17823.795118784325, 22689.456962282296, -36159.89222048428, -35148.38637690382, -28207.67798515296, -29010.597349476502, -24515.28155985851, -3653.794962620135, -26264.126749530646, -3764.7043186073684, -29037.151221889406, -34158.00293183362, -27800.02686977707, -11056.871540173477, -22955.822700956192, -35355.117661370954, 0.08434375, 0.9516562500000001, -0.14300000000000002, 192.0, 0.0, 0.0, 0.0, 0.0, 0.0, 0.0, 0.0, 0.0, 0.0, 1.6689767387978632E9, 0.0, 2022-11-20 15:38:58.797
20.0, -17887.676404437592, 23160.92230807809, -36209.35663096388, -35213.38524977985, -28264.093788158156, -29074.679800829865, -24571.630307630337, -3707.752073735246, -26205.878103480114, -3708.4449778133608, -28981.003639817674, -34100.51424509457, -27743.231087116135, -11005.864859326466, -22900.524485173763, -35301.98756480069, 0.08434375, 0.9516562500000001, -0.14300000000000002, 192.0, 0.0, 0.0, 0.0, 0.0, 0.0, 0.0, 0.0, 0.0, 0.0, 1.6689767387978709E9, 0.0, 2022-11-20 15:38:58.797
22.0, -17826.56673509678, 22698.844694953525, -36153.47726982561, -35137.635187820815, -28205.554569429707, -29021.952035659797, -24514.56630403594, -3661.528666201671, -26283.90804337359, -3778.5624001696588, -29054.02678895316, -34167.12244357138, -27812.879122838873, -11080.810258485111, -22970.239576129865, -35377.067074426064, 0.08434375, 0.9516562500000001, -0.14300000000000002, 192.0, 0.0, 0.0, 0.0, 0.0, 0.0, 0.0, 0.0, 0.0, 0.0, 1.6689767387978776E9, 0.0, 2022-11-20 15:38:58.797
24.0, -17860.116703524196, 23169.997116326944, -36184.032104496015, -35187.59133667843, -28237.20463957842, -29063.235707668748, -24549.70324631968, -3696.755015463235, -26195.50689405285, -3689.11071885952, -28965.044494276586, -34073.35687558137, -27724.72384270714, -10998.22056272275, -22884.14065648802, -35299.99825954417, 0.08434375, 0.9516562500000001, -0.14300000000000002, 192.0, 0.0, 0.0, 0.0, 0.0, 0.0, 0.0, 0.0, 0.0, 0.0, 1.6689767387978847E9, 0.0, 2022-11-20 15:38:58.797
26.0, -17828.19841244202, 22717.64251204044, -36161.72506352962, -35159.98693227612, -28210.807229376704, -29037.64296026742, -24526.792708252993, -3679.0971373435427, -26264.663191397573, -3766.64892037498, -29039.6546172684, -34155.52188819908, -27800.87623606637, -11076.161095638407, -22957.677895745983, -35378.13995815992, 0.09, 0.9500000000000001, -0.14400000000000002, 192.0, 1.0, 104.0, 14.5, 88.0, 125.5, 64.0, 0.0, 0.0, 0.0, 1.668976738797891E9, 0.0, 2022-11-20 15:38:58.797
28.0, -17838.6590288471, 23153.412121941106, -36162.708540285654, -35184.52914768805, -28213.02005207778, -29038.04529166762, -24532.71592053365, -3679.767689677202, -26177.379629299598, -3689.848326426545, -28948.034816746094, -34077.44724481669, -27710.39637451129, -10988.721071329246, -22876.295194184208, -35296.332573453496, 0.09, 0.9500000000000001, -0.14400000000000002, 192.0, 0.0, 0.0, 0.0, 0.0, 0.0, 0.0, 0.0, 0.0, 0.0, 1.668976738797898E9, 0.0, 2022-11-20 15:38:58.797
30.0, -17864.72116288199, 22730.293599402143, -36190.15648247677, -35200.77886590706, -28239.462165768407, -29058.094806444027, -24554.151243466287, -3702.54411727716, -26267.121883287655, -3772.952112311377, -29042.068605669574, -34171.45868199571, -27803.849018078927, -11078.016290428197, -22967.557366795227, -35379.68222852734, 0.09, 0.9500000000000001, -0.14400000000000002, 192.0, 0.0, 0.0, 0.0, 0.0, 0.0, 0.0, 0.0, 0.0, 0.0, 1.668976738797905E9, 0.0, 2022-11-20 15:38:58.797
32.0, -17854.77463659938, 23090.0002229214, -36171.179851434215, -35193.89452861482, -28226.25228479532, -29045.331960360047, -24539.890830503802, -3686.8755444139892, -26206.816876747238, -3716.0892744170756, -28973.91813682534, -34104.738724796625, -27730.71411022116, -11007.742405860712, -22900.77035436277, -35311.75527712766, 0.09, 0.9500000000000001, -0.14400000000000002, 192.0, 0.0, 0.0, 0.0, 0.0, 0.0, 0.0, 0.0, 0.0, 0.0, 1.6689767387979112E9, 0.0, 2022-11-20 15:38:58.797
34.0, -17859.66966863509, 22787.42465822991, -36184.188566707206, -35193.089865814436, -28238.724558201382, -29055.859631998497, -24548.116272463354, -3699.8395561980674, -26281.695220672515, -3781.043443804198, -29056.7089982878, -34176.53252798707, -27813.37086121689, -11090.577970812079, -22969.72548600739, -35383.32556287355, 0.09, 0.9500000000000001, -0.14400000000000002, 192.0, 0.0, 0.0, 0.0, 0.0, 0.0, 0.0, 0.0, 0.0, 0.0, 1.6689767387979164E9, 0.0, 2022-11-20 15:38:58.797
36.0, -17834.43454914505, 23050.728207913424, -36157.4335285942, -35171.408673692786, -28211.813057877192, -29028.948131674308, -24523.4399465847, -3672.01163435121, -26197.89853070957, -3705.6063062675366, -28963.479872164713, -34088.60076529989, -27718.06302285946, -10996.678292355335, -22881.637261109026, -35294.94676529727, 0.084, 0.9560000000000001, -0.152, 192.0, 1.0, 80.0, 14.5, 112.0, 125.5, 32.0, 0.0, 0.0, 0.0, 1.6689767387979271E9, 0.0, 2022-11-20 15:38:58.797
38.0, -17873.68421240857, 22831.904629695968, -36209.423686197246, -35203.12579907486, -28255.466014798407, -29070.70119031682, -24563.53897613752, -3711.5518702926483, -26270.96638333397, -3767.274769219729, -29055.32319013157, -34166.72011217119, -27806.061840780003, -11077.368089838994, -22963.10936964862, -35369.35572258898, 0.084, 0.9560000000000001, -0.152, 192.0, 0.0, 0.0, 0.0, 0.0, 0.0, 0.0, 0.0, 0.0, 0.0, 1.6689767387979326E9, 0.0, 2022-11-20 15:38:58.797
40.0, -17809.04296744382, 22998.44747763246, -36148.96221744564, -35148.78870830402, -28200.547778671717, -29016.6993757128, -24512.621702268327, -3656.991262077244, -26200.42427783302, -3710.702504003347, -28969.336029212005, -34090.679477534235, -27724.656787473774, -11003.026187780642, -22903.005528808302, -35305.72030612473, 0.084, 0.9560000000000001, -0.152, 192.0, 0.0, 0.0, 0.0, 0.0, 0.0, 0.0, 0.0, 0.0, 0.0, 1.6689767387979395E9, 0.0, 2022-11-20 15:38:58.797
42.0, -17856.741590111447, 22904.838371853635, -36188.994191765094, -35191.86051986939, -28249.54280251775, -29059.100634944516, -24555.380589411332, -3694.788061951168, -26241.551487630786, -3737.2787281607066, -29017.369928046457, -34134.46654492218, -27782.436046890743, -11054.010516883198, -22954.25807884432, -35353.77655670363, 0.084, 0.9560000000000001, -0.152, 192.0, 0.0, 0.0, 0.0, 0.0, 0.0, 0.0, 0.0, 0.0, 0.0, 1.6689767387979448E9, 0.0, 2022-11-20 15:38:58.797
44.0, -17800.303435361795, 22939.617686226095, -36128.331557313395, -35142.08318496742, -28186.68969710943, -29002.774238917144, -24496.215521838134, -3632.985488532244, -26194.434010318997, -3703.572297522104, -28953.242773204183, -34084.733913509124, -27712.542141978996, -10991.023301008141, -22900.30096772921, -35298.85832057695, 0.084, 0.9560000000000001, -0.152, 192.0, 0.0, 0.0, 0.0, 0.0, 0.0, 0.0, 0.0, 0.0, 0.0, 1.66897673879795E9, 0.0, 2022-11-20 15:38:58.797
46.0, -17878.91452061111, 22952.62640149908, -36214.0504972995, -35219.77784869407, -28265.59135503666, -29081.251213699725, -24574.37957219834, -3710.1213586475087, -26243.518441142853, -3737.591652583081, -29024.9024659279, -34141.17206825877, -27776.423427632264, -11049.8083889256, -22958.527262035284, -35357.79987070559, 0.084, 0.9520000000000001, -0.152, 192.0, 1.0, 80.0, 14.5, 96.0, 125.5, 32.0, 0.0, 0.0, 0.0, 1.668976738797955E9, 0.0, 2022-11-20 15:38:58.797
48.0, -17787.33942357772, 22881.659612853484, -36131.21493234813, -35135.48942035311, -28179.380676672543, -28993.274747523636, -24489.822922923915, -3626.3246686845628, -26215.42229836253, -3719.397332596461, -28982.36709622945, -34104.8504835189, -27728.948322409193, -11004.32258895905, -22928.15124132052, -35327.021518590635, 0.084, 0.9520000000000001, -0.152, 192.0, 0.0, 0.0, 0.0, 0.0, 0.0, 0.0, 0.0, 0.0, 0.0, 1.6689767387979603E9, 0.0, 2022-11-20 15:38:58.797
50.0, -17863.178892514574, 23024.397852945072, -36209.66955538625, -35220.15782834981, -28256.49419504335, -29074.27746942967, -24566.33294419443, -3702.141785876964, -26215.89168499609, -3705.762768478724, -29001.142561571905, -34112.94181501172, -27748.707264507684, -11017.308952487583, -22939.885907159558, -35341.17017283084, 0.084, 0.9520000000000001, -0.152, 192.0, 0.0, 0.0, 0.0, 0.0, 0.0, 0.0, 0.0, 0.0, 0.0, 1.6689767387979655E9, 0.0, 2022-11-20 15:38:58.797
52.0, -17787.965272422465, 22813.46444052034, -36137.80869696244, -35152.78967056151, -28184.409819174984, -29008.317471542057, -24495.500266015562, -3634.125427499465, -26213.701214039473, -3721.364286108528, -28981.16010202886, -34112.22655918915, -27729.95415090968, -11007.18361224933, -22936.913125147003, -35343.025367620634, 0.084, 0.9520000000000001, -0.152, 192.0, 0.0, 0.0, 0.0, 0.0, 0.0, 0.0, 0.0, 0.0, 0.0, 1.6689767387979712E9, 0.0, 2022-11-20 15:38:58.797
54.0, -17873.550101941837, 23059.355981273173, -36213.06702054346, -35240.341453592955, -28263.177366635486, -29088.47082715879, -24573.083171019935, -3709.2272888692964, -26216.42812686302, -3716.558661050637, -28995.26405278016, -34122.553065127504, -27748.30493310749, -11031.547013705615, -22943.037503127754, -35355.02825439313, 0.084, 0.9520000000000001, -0.152, 192.0, 0.0, 0.0, 0.0, 0.0, 0.0, 0.0, 0.0, 0.0, 0.0, 1.6689767387979767E9, 0.0, 2022-11-20 15:38:58.797
56.0, -17767.98281287942, 22779.73565813728, -36100.41422848871, -35124.425306847734, -28153.922039737947, -28976.287421737605, -24466.71121915713, -3602.1624329283754, -26220.00440597587, -3731.243757157774, -28981.048343306586, -34121.636643604834, -27733.418671300256, -11022.069874056564, -22936.35433153562, -35349.37326304594, 0.08600000000000001, 0.9460000000000001, -0.15, 192.0, 1.0, 88.0, 14.5, 72.0, 125.5, 40.0, 0.0, 0.0, 0.0, 1.6689767387979822E9, 0.0, 2022-11-20 15:38:58.797
58.0, -17865.43641870456, 23113.71542378848, -36176.34310440339, -35211.530054990064, -28230.521467986284, -29050.338751118037, -24542.349522393888, -3669.284721527663, -26183.928690425004, -3681.10879434452, -28960.238869218694, -34091.864119990365, -27708.898807632784, -10986.262379439162, -22896.188246749432, -35303.529835168105, 0.08600000000000001, 0.9460000000000001, -0.15, 192.0, 0.0, 0.0, 0.0, 0.0, 0.0, 0.0, 0.0, 0.0, 0.0, 1.6689767387979877E9, 0.0, 2022-11-20 15:38:58.797
60.0, -17790.62513001265, 22716.07788992857, -36101.10713256683, -35125.85581849287, -28148.579972813128, -28964.6868663653, -24461.436207465675, -3591.701816523292, -26230.755595058872, -3738.7986467836677, -28997.7450964147, -34139.6074461469, -27736.033825401526, -11015.18553676433, -22925.133755819053, -35329.94959711428, 0.08600000000000001, 0.9460000000000001, -0.15, 192.0, 0.0, 0.0, 0.0, 0.0, 0.0, 0.0, 0.0, 0.0, 0.0, 1.668976738797993E9, 0.0, 2022-11-20 15:38:58.797
62.0, -17866.911633838612, 23135.553078121317, -36185.10498822987, -35209.987784622645, -28226.475802239875, -29036.771242233666, -24534.57111532344, -3659.986395834255, -26172.484597263887, -3674.559733219115, -28953.376883670913, -34091.28297463453, -27691.509150446553, -10960.64728029338, -22870.841368537112, -35267.29765740605, 0.08600000000000001, 0.9460000000000001, -0.15, 192.0, 0.0, 0.0, 0.0, 0.0, 0.0, 0.0, 0.0, 0.0, 0.0, 1.668976738797998E9, 0.0, 2022-11-20 15:38:58.797
64.0, -17816.19552566952, 22679.219863321767, -36144.335406343394, -35147.827583292434, -28182.152292985, -28985.96572708675, -24484.97259437711, -3614.634706334437, -26247.318237700256, -3751.9638242678434, -29021.03561413713, -34164.68610342575, -27760.911316980284, -11024.685028157834, -22945.362084551107, -35334.487001238704, 0.08600000000000001, 0.9460000000000001, -0.15, 192.0, 0.0, 0.0, 0.0, 0.0, 0.0, 0.0, 0.0, 0.0, 0.0, 1.6689767387980037E9, 0.0, 2022-11-20 15:38:58.798
66.0, -17877.39460198815, 23138.90583978961, -36206.71912511815, -35218.816723682496, -28252.001494407836, -29058.56419307759, -24553.01130449907, -3680.6170559665034, -26197.183274887, -3698.654913741936, -28976.55564267107, -34111.734820811136, -27723.874476417837, -10986.240027694706, -22904.078412542156, -35293.471550163216, 0.084, 0.9440000000000001, -0.148, 192.0, 1.0, 80.0, 14.5, 64.0, 125.5, 48.0, 0.0, 0.0, 0.0, 1.668976738798009E9, 0.0, 2022-11-20 15:38:58.798
68.0, -17800.638711528627, 22677.789351676627, -36136.981682417594, -35136.11526919786, -28187.91904305447, -28994.235872535217, -24489.08531535689, -3622.055485493599, -26249.799281334792, -3758.0211470152317, -29020.879151925943, -34158.964056845194, -27778.949174755715, -11041.828816155055, -22960.74008473636, -35356.749338716196, 0.084, 0.9440000000000001, -0.148, 192.0, 0.0, 0.0, 0.0, 0.0, 0.0, 0.0, 0.0, 0.0, 0.0, 1.668976738798016E9, 0.0, 2022-11-20 15:38:58.798
70.0, -17861.748380869434, 23145.186679981554, -36184.30032542948, -35198.946022861724, -28239.462165768407, -29056.5078325877, -24547.579830596427, -3676.571390220093, -26174.74212345387, -3679.745337932746, -28945.15144171136, -34081.62702102983, -27706.70833667616, -10971.398469376383, -22883.917139043468, -35285.33551518148, 0.084, 0.9440000000000001, -0.148, 192.0, 0.0, 0.0, 0.0, 0.0, 0.0, 0.0, 0.0, 0.0, 0.0, 1.6689767387980218E9, 0.0, 2022-11-20 15:38:58.798
72.0, -17825.180926940553, 22670.748552173205, -36149.096327912375, -35154.488403140116, -28199.29608098222, -29013.59248323351, -24507.61491151034, -3639.892177568934, -26265.266688497864, -3764.8607808185557, -29034.066681154574, -34165.49076622615, -27792.539035384543, -11059.531397763658, -22966.8197592282, -35367.72404524375, 0.084, 0.9440000000000001, -0.148, 192.0, 0.0, 0.0, 0.0, 0.0, 0.0, 0.0, 0.0, 0.0, 0.0, 1.6689767387980292E9, 0.0, 2022-11-20 15:38:58.798
74.0, -17852.67357262058, 23127.126470461666, -36173.124453201825, -35202.32113627448, -28222.38543300455, -29040.056948668596, -24530.592504810396, -3656.1642475323974, -26179.57010025622, -3686.9202479029, -28947.900706279364, -34086.58910829891, -27701.902711618273, -10973.767754288645, -22877.703354084893, -35278.83115754499, 0.084, 0.9440000000000001, -0.148, 192.0, 0.0, 0.0, 0.0, 0.0, 0.0, 0.0, 0.0, 0.0, 0.0, 1.6689767387980344E9, 0.0, 2022-11-20 15:38:58.798
76.0, -17825.404444385105, 22693.81555245108, -36152.940827958686, -35175.320228972465, -28200.43601994944, -29016.6993757128, -24505.93853067619, -3636.0029740337104, -26264.48437744193, -3769.7334611098127, -29033.999625921206, -34178.47712975468, -27790.192102216733, -11062.124200120474, -22969.949003451944, -35365.42181556485, 0.084, 0.9500000000000001, -0.14, 192.0, 1.0, 80.0, 14.5, 88.0, 125.5, 80.0, 0.0, 0.0, 0.0, 1.6689767387980397E9, 0.0, 2022-11-20 15:38:58.798
78.0, -17828.15370895311, 23107.658101041092, -36152.091461669384, -35195.9061856158, -28203.364098473085, -29023.516657771666, -24513.3369580909, -3642.7084973703027, -26164.482672748887, -3680.684111199869, -28927.4265083583, -34080.42002682925, -27687.731705633607, -10965.162332673352, -22876.38460116203, -35275.143119709865, 0.084, 0.9500000000000001, -0.14, 192.0, 0.0, 0.0, 0.0, 0.0, 0.0, 0.0, 0.0, 0.0, 0.0, 1.6689767387980459E9, 0.0, 2022-11-20 15:38:58.798
80.0, -17843.285839949353, 22721.107032431013, -36168.87762175532, -35204.64571769783, -28219.993796347833, -29043.767338248177, -24529.1396414208, -3662.3333290020623, -26254.739016859417, -3768.1017837645754, -29025.438907794825, -34175.057312853016, -27789.74506732763, -11067.645081000934, -22971.78184649728, -35378.117606415464, 0.084, 0.9500000000000001, -0.14, 192.0, 0.0, 0.0, 0.0, 0.0, 0.0, 0.0, 0.0, 0.0, 0.0, 1.6689767387980509E9, 0.0, 2022-11-20 15:38:58.798
82.0, -17831.14884271012, 23051.421111991538, -36151.19739189117, -35192.866348369884, -28199.81017110469, -29028.03171015164, -24511.481763301108, -3641.0991717695206, -26177.871367677613, -3696.665608485414, -28938.669435819324, -34094.36751536936, -27701.746249407086, -10983.468411382248, -22885.99585127781, -35303.082800279, 0.084, 0.9500000000000001, -0.14, 192.0, 0.0, 0.0, 0.0, 0.0, 0.0, 0.0, 0.0, 0.0, 0.0, 1.668976738798056E9, 0.0, 2022-11-20 15:38:58.798
84.0, -17862.642450647647, 22752.712399090815, -36185.82024405244, -35209.20547356671, -28223.72653767187, -29049.198812150815, -24534.70522579017, -3666.8036778931237, -26262.249202996398, -3769.7781645987234, -29035.072509655063, -34179.90764139982, -27794.371878429876, -11063.62176699898, -22964.875157460592, -35377.223536637255, 0.084, 0.9500000000000001, -0.14, 192.0, 0.0, 0.0, 0.0, 0.0, 0.0, 0.0, 0.0, 0.0, 0.0, 1.6689767387980611E9, 0.0, 2022-11-20 15:38:58.798
86.0, -17829.159537453597, 22990.803181028747, -36154.43839483719, -35178.22595575165, -28190.042458777723, -29011.044384365607, -24502.004623652057, -3628.8727675524674, -26196.42331557552, -3704.0416841556653, -28961.289401208094, -34106.23629167513, -27711.402203011778, -10979.758021802667, -22893.23781648133, -35301.853454333956, 0.08600000000000001, 0.9520000000000001, -0.138, 192.0, 1.0, 88.0, 14.5, 96.0, 125.5, 88.0, 0.0, 0.0, 0.0, 1.6689767387980664E9, 0.0, 2022-11-20 15:38:58.798
88.0, -17887.117610826208, 22788.497541963763, -36222.700622403696, -35234.0159099121, -28261.05395091223, -29073.159882206906, -24566.467054661163, -3693.335198561573, -26268.820615866258, -3771.633359388514, -29052.015131952183, -34189.65300198233, -27804.69838436823, -11066.773362967178, -22978.755590767338, -35378.13995815992, 0.08600000000000001, 0.9520000000000001, -0.138, 192.0, 0.0, 0.0, 0.0, 0.0, 0.0, 0.0, 0.0, 0.0, 0.0, 1.6689767387980716E9, 0.0, 2022-11-20 15:38:58.798
90.0, -17809.981740710944, 22946.43496828496, -36140.982644675096, -35151.67208333875, -28187.71787735437, -28991.79953238959, -24496.617853238327, -3619.1944622033197, -26194.32225159672, -3709.8084342251345, -28959.657723862856, -34107.376230642345, -27722.063985116958, -10984.7424608162, -22908.951092833413, -35299.23830023269, 0.08600000000000001, 0.9520000000000001, -0.138, 192.0, 0.0, 0.0, 0.0, 0.0, 0.0, 0.0, 0.0, 0.0, 0.0, 1.668976738798078E9, 0.0, 2022-11-20 15:38:58.798
92.0, -17872.700735652536, 22881.14552273101, -36200.14771224829, -35209.428991011264, -28247.575849005683, -29054.049140697618, -24558.15220572379, -3678.471288498794, -26252.68265636953, -3749.9745190113213, -29027.227047351247, -34159.70166441222, -27795.467113908187, -11050.925976148364, -22967.78088423978, -35353.843611937, 0.08600000000000001, 0.9520000000000001, -0.138, 192.0, 0.0, 0.0, 0.0, 0.0, 0.0, 0.0, 0.0, 0.0, 0.0, 1.6689767387980833E9, 0.0, 2022-11-20 15:38:58.798
94.0, -17800.41519408407, 22895.76356360478, -36124.08472586688, -35131.80138251798, -28163.332124153632, -28976.466235693246, -24474.064943082925, -3599.659037549381, -26198.0326411763, -3703.3487800775506, -28957.131976739405, -34096.267413648064, -27717.951264137184, -10985.301254427583, -22906.425345709962, -35295.080875764, 0.08600000000000001, 0.9520000000000001, -0.138, 192.0, 0.0, 0.0, 0.0, 0.0, 0.0, 0.0, 0.0, 0.0, 0.0, 1.6689767387980883E9, 0.0, 2022-11-20 15:38:58.798
96.0, -17880.747363656446, 22935.884944902056, -36203.81339833896, -35212.73704919065, -28238.545744245737, -29054.049140697618, -24549.546784108494, -3676.0125966087103, -26227.022853734834, -3717.586841295581, -29004.87530289594, -34131.13613499834, -27761.87244199186, -11020.684065900334, -22933.33684603415, -35330.50839072566, 0.078, 0.9580000000000001, -0.136, 192.0, 1.0, 56.0, 14.5, 120.0, 125.5, 96.0, 0.0, 0.0, 0.0, 1.6689767387980936E9, 0.0, 2022-11-20 15:38:58.798
98.0, -17792.770897480357, 22831.099966895577, -36123.43652527768, -35138.35044364339, -28157.47596710634, -28973.091122280493, -24471.583899448386, -3599.726092782747, -26205.743993013384, -3718.3244488626065, -28968.821939089532, -34116.94277726922, -27722.555723494974, -10994.733690587724, -22915.030767325257, -35311.643518405384, 0.078, 0.9580000000000001, -0.136, 192.0, 0.0, 0.0, 0.0, 0.0, 0.0, 0.0, 0.0, 0.0, 0.0, 1.6689767387980988E9, 0.0, 2022-11-20 15:38:58.798
100.0, -17887.005852103932, 22994.80414328625, -36222.05242181449, -35240.67672975978, -28259.869308456102, -29068.398960637925, -24567.361124439376, -3690.049492126643, -26221.770193787837, -3722.057190186643, -28999.77910516013, -34140.99325430313, -27761.090130935925, -11021.645190911913, -22940.9140874045, -35332.475344237726, 0.078, 0.9580000000000001, -0.136, 192.0, 0.0, 0.0, 0.0, 0.0, 0.0, 0.0, 0.0, 0.0, 0.0, 1.6689767387981038E9, 0.0, 2022-11-20 15:38:58.798
102.0, -17792.636787013627, 22780.65207965995, -36131.86313293733, -35146.62058909185, -28169.165929456467, -28979.193148516795, -24482.402143764753, -3604.218793418264, -26220.47379260943, -3731.9366612358886, -28978.701410138776, -34133.57247514397, -27745.935648195227, -11008.79293785011, -22945.719712462393, -35332.09536458199, 0.078, 0.9580000000000001, -0.136, 192.0, 0.0, 0.0, 0.0, 0.0, 0.0, 0.0, 0.0, 0.0, 0.0, 1.668976738798109E9, 0.0, 2022-11-20 15:38:58.798
104.0, -17902.942645900566, 23041.139309542097, -36231.440154485725, -35257.328779378986, -28265.54665154775, -29083.41933291189, -24578.067610033468, -3698.5208032752043, -26222.99953973288, -3721.49839657526, -28996.202826047283, -34137.729899612656, -27761.35835186939, -11024.305048502094, -22949.16188110851, -35341.505448997676, 0.078, 0.9580000000000001, -0.136, 192.0, 0.0, 0.0, 0.0, 0.0, 0.0, 0.0, 0.0, 0.0, 0.0, 1.6689767392771587E9, 0.0, 2022-11-20 15:38:59.277
106.0, -17803.94676970801, 22731.478241858273, -36141.36262433084, -35154.66721709576, -28169.61296434557, -28984.40110497488, -24479.719934430115, -3604.598773074004, -26239.875106796637, -3751.047402745176, -29002.729535428232, -34152.34794048643, -27760.3525233689, -11032.284621272638, -22956.292087589754, -35351.11669911345, 0.08, 0.9570000000000001, -0.135, 192.0, 1.0, 72.0, 14.5, 112.0, 125.5, 104.0, 0.0, 0.0, 0.0, 1.668976739277272E9, 0.0, 2022-11-20 15:38:59.277
108.0, -17891.856180650735, 23086.66981299756, -36225.494590460614, -35243.31423560551, -28253.92374443099, -29069.337733905046, -24561.86259530337, -3681.689939700358, -26215.154077429066, -3717.8997657179557, -28991.39720098939, -34128.90096055281, -27749.333113352433, -11012.570382663058, -22929.984084365857, -35323.91462611135, 0.08, 0.9570000000000001, -0.135, 192.0, 0.0, 0.0, 0.0, 0.0, 0.0, 0.0, 0.0, 0.0, 0.0, 1.6689767392772775E9, 0.0, 2022-11-20 15:38:59.277
110.0, -17816.46374660298, 22695.29076758513, -36160.562772817946, -35157.774109575046, -28188.0531535212, -28998.326241770537, -24496.573149749416, -3620.602622104004, -26254.448444181497, -3761.2845017057066, -29018.33105305804, -34163.21088829171, -27775.663468320785, -11040.845339399022, -22967.44560807295, -35356.7940422051, 0.08, 0.9570000000000001, -0.135, 192.0, 0.0, 0.0, 0.0, 0.0, 0.0, 0.0, 0.0, 0.0, 0.0, 1.6689767392772827E9, 0.0, 2022-11-20 15:38:59.277
112.0, -17880.970881101, 23136.62596185517, -36221.292462503014, -35221.1636568503, -28247.709959472413, -29056.150204676414, -24557.459301645675, -3676.3478727755396, -26204.112315668146, -3698.990189908766, -28977.986154316208, -34113.83588478993, -27740.25830510358, -10992.632626608924, -22930.29700878823, -35311.42000096083, 0.08, 0.9570000000000001, -0.135, 192.0, 0.0, 0.0, 0.0, 0.0, 0.0, 0.0, 0.0, 0.0, 0.0, 1.6689767392772875E9, 0.0, 2022-11-20 15:38:59.277
114.0, -17823.124566450664, 22686.68534596984, -36164.83195600891, -35157.59529561941, -28192.970537301368, -29000.807285405077, -24501.334071318397, -3625.5423576286266, -26256.370694204652, -3755.294234191684, -29020.342710059012, -34161.37804524637, -27784.60416610291, -11034.56449920708, -22976.162788410522, -35359.878582939935, 0.08, 0.9570000000000001, -0.135, 192.0, 0.0, 0.0, 0.0, 0.0, 0.0, 0.0, 0.0, 0.0, 0.0, 1.6689767392772927E9, 0.0, 2022-11-20 15:38:59.277
116.0, -17903.367329045217, 23134.748415320926, -36230.16610505177, -35250.93618046477, -28265.747817247848, -29081.631193355464, -24576.212415243677, -3696.9338294188774, -26213.43299310601, -3708.467329557816, -28982.702372396277, -34121.07784999345, -27746.76266274007, -10999.516963901158, -22934.029750112266, -35324.54047495609, 0.08399999999999999, 0.9575, -0.1375, 192.0, 1.0, 96.0, 14.5, 120.0, 125.5, 80.0, 0.0, 0.0, 0.0, 1.668976739277298E9, 0.0, 2022-11-20 15:38:59.277
118.0, -17838.43551140255, 22664.333601514532, -36172.96799099064, -35175.588449905925, -28212.52831369976, -29020.32035831456, -24519.215466882644, -3641.926186314367, -26281.829331139248, -3780.8646298485555, -29045.84605048252, -34188.51306301511, -27809.861637337406, -11067.555674023113, -22998.916864266022, -35389.47229259876, 0.08399999999999999, 0.9575, -0.1375, 192.0, 0.0, 0.0, 0.0, 0.0, 0.0, 0.0, 0.0, 0.0, 0.0, 1.6689767392773082E9, 0.0, 2022-11-20 15:38:59.277
120.0, -17865.995212315942, 23148.651200372125, -36199.25364247008, -35213.45230501322, -28240.35623554662, -29050.18228890685, -24548.026865485535, -3665.015538336699, -26197.94323419848, -3695.5703730071036, -28964.664514620843, -34101.92240499525, -27730.669406732253, -10983.580170104524, -22923.792651151736, -35306.74848636967, 0.08399999999999999, 0.9575, -0.1375, 192.0, 0.0, 0.0, 0.0, 0.0, 0.0, 0.0, 0.0, 0.0, 0.0, 1.6689767392773135E9, 0.0, 2022-11-20 15:38:59.277
122.0, -17829.315999664785, 22684.38311629094, -36170.39754037828, -35173.55444116049, -28203.498208939818, -29018.17459084685, -24511.437059812197, -3635.7124013557914, -26267.77008387686, -3761.105687750064, -29033.619646265466, -34169.80465290602, -27799.423372676778, -11051.127141848463, -22986.55634958224, -35372.97670519075, 0.08399999999999999, 0.9575, -0.1375, 192.0, 0.0, 0.0, 0.0, 0.0, 0.0, 0.0, 0.0, 0.0, 0.0, 1.6689767392773185E9, 0.0, 2022-11-20 15:38:59.277
