%OpenBCI Raw EEG Data
%Number of channels = 16
%Sample Rate = 125 Hz
%Board = OpenBCI_GUI$BoardCytonSerialDaisy
Sample Index, EXG Channel 0, EXG Channel 1, EXG Channel 2, EXG Channel 3, EXG Channel 4, EXG Channel 5, EXG Channel 6, EXG Channel 7, EXG Channel 8, EXG Channel 9, EXG Channel 10, EXG Channel 11, EXG Channel 12, EXG Channel 13, EXG Channel 14, EXG Channel 15, Accel Channel 0, Accel Channel 1, Accel Channel 2, Other, Other, Other, Other, Other, Other, Other, Analog Channel 0, Analog Channel 1, Analog Channel 2, Timestamp, Other, Timestamp (Formatted)
0.0, 12215.451862269863, 1230.8435119203941, -33534.03163361927, -13626.137510077657, 4330.069342859905, 24306.449211412575, 35632.05577517221, 27441.706054414044, 0.0, 0.0, 0.0, 0.0, 0.0, 0.0, 0.0, 0.0, 0.0, 0.0, 0.0, 192.0, 0.0, 0.0, 0.0, 0.0, 0.0, 0.0, 0.0, 0.0, 0.0, 1.6626773111383724E9, 0.0, 2022-09-08 18:48:31.138
78.0, 12229.220536854333, 1243.069916137447, -33515.27852002127, -13608.345521491234, 4342.742781966064, 24319.167354007644, 35499.37582008551, 27446.66814168312, 7758.648128348366, 7498.093843232852, -12360.045297151244, -26438.380949304217, 7936.031572345683, 2007.0525416198425, -7375.002786517476, 606.1793096279275, 0.0, 0.0, 0.0, 192.0, 0.0, 0.0, 0.0, 0.0, 0.0, 0.0, 0.0, 0.0, 0.0, 1.6626773111383777E9, 0.0, 2022-09-08 18:48:31.138
80.0, 12224.303153074165, 1243.3381370709108, -33521.469953235384, -13611.765338392896, 4337.534825507978, 24329.33739773481, 35518.33009938361, 27423.779955360886, 7749.282747421593, 7493.221162941595, -12361.386401818563, -26443.23127785102, 7938.9596508693285, 1984.9466663535436, -7374.645158606191, 602.3348095816148, 0.0, 0.0, 0.0, 192.0, 0.0, 0.0, 0.0, 0.0, 0.0, 0.0, 0.0, 0.0, 0.0, 1.662677311138382E9, 0.0, 2022-09-08 18:48:31.138
82.0, 12239.770560237237, 1254.6928232542066, -33501.86747334808, -13595.448564940521, 4342.072229632406, 24345.85533688728, 35352.94954215879, 27467.6340779822, 7742.979555485196, 7499.814927555911, -12355.373782560086, -26443.745367973494, 7945.5757672281, 2016.060294635331, -7384.904609311177, 615.0306004322291, 0.096, 0.457, 0.027, 192.0, 3.0, 0.0, 14.0, 72.0, 0.5, 88.0, 0.0, 0.0, 0.0, 1.6626773111383862E9, 0.0, 2022-09-08 18:48:31.138
84.0, 12228.482929287307, 1238.0854771239135, -33507.701278650915, -13610.826565125772, 4335.724334207098, 24339.10511006178, 35385.896013485915, 27499.798238253385, 7714.346970837948, 7496.8421455433545, -12365.521474542795, -26452.86487971126, 7942.2453573042585, 2006.3819892861832, -7377.282664451917, 627.7934465162094, 0.096, 0.457, 0.027, 192.0, 0.0, 0.0, 0.0, 0.0, 0.0, 0.0, 0.0, 0.0, 0.0, 1.6626773111383903E9, 0.0, 2022-09-08 18:48:31.138
86.0, 12255.23796740031, 1278.96681773267, -33477.86169980308, -13588.631282881652, 4355.326814094403, 24342.860203130273, 35225.231674341165, 27458.3804557777, 7714.52578479359, 7503.8829450467765, -12350.38934354655, -26436.771623703436, 7949.509674252234, 2012.5510707558478, -7372.007652760465, 642.6350048345333, 0.096, 0.457, 0.027, 192.0, 0.0, 0.0, 0.0, 0.0, 0.0, 0.0, 0.0, 0.0, 0.0, 1.6626773111383946E9, 0.0, 2022-09-08 18:48:31.138
88.0, 12259.440095357908, 1279.391500877321, -33479.29221144822, -13584.764431090884, 4362.188799642182, 24349.16339506667, 35231.87014244439, 27469.042237882884, 7731.446055346258, 7515.282334718983, -12333.379666016062, -26409.100164067768, 7973.336633841591, 2021.8270447048003, -7358.037812475898, 651.419240405469, 0.096, 0.457, 0.027, 192.0, 0.0, 0.0, 0.0, 0.0, 0.0, 0.0, 0.0, 0.0, 0.0, 1.662677311138399E9, 0.0, 2022-09-08 18:48:31.138
90.0, 12294.398223686007, 1318.2164809961894, -33436.2427516273, -13537.892822968106, 4418.381085202824, 24383.67448850566, 35033.92309354819, 27490.209339882058, 7739.693849050266, 7524.312439478927, -12316.705264652404, -26379.059419519836, 7980.176267644914, 2040.9154344696326, -7354.260367662951, 668.1383452580387, 0.096, 0.457, 0.027, 192.0, 0.0, 0.0, 0.0, 0.0, 0.0, 0.0, 0.0, 0.0, 0.0, 1.6626773111384032E9, 0.0, 2022-09-08 18:48:31.138
92.0, 12313.374854728563, 1342.3563650079209, -33412.59460599358, -13516.68101748002, 4431.166283031259, 24403.098154437324, 34925.38302247322, 27484.86727295724, 7767.6335296194, 7558.622367217823, -12281.993005513312, -26331.919590463593, 8015.670837839943, 2092.6597228836686, -7307.142890351163, 703.2976392862367, 0.14900000000000002, 0.6905, 0.0425, 192.0, 3.0, 40.0, 14.0, 112.0, 0.5, 104.0, 0.0, 0.0, 0.0, 1.6626773111384072E9, 0.0, 2022-09-08 18:48:31.138
94.0, 12350.59050924665, 1384.7352724951832, -33370.327457228595, -13466.166075011024, 4465.78913519253, 24438.12333799879, 34535.97093057286, 27484.934328190608, 7774.227294233716, 7592.395853089793, -12264.111609949066, -26297.25203481341, 8037.419085194956, 2111.2787260149394, -7302.11374784872, 713.6017934801333, 0.14900000000000002, 0.6905, 0.0425, 192.0, 0.0, 0.0, 0.0, 0.0, 0.0, 0.0, 0.0, 0.0, 0.0, 1.6626773111384115E9, 0.0, 2022-09-08 18:48:31.138
96.0, 12382.017061950812, 1420.6768775793169, -33327.769735785696, -13425.105920446626, 4504.591763566943, 24491.74517294707, 34404.989708064764, 27556.817538358875, 7827.715018715266, 7634.998278021608, -12211.160327334444, -26238.690464340507, 8092.583190510654, 2161.1231161502737, -7245.474427398972, 780.3888059125908, 0.14900000000000002, 0.6905, 0.0425, 192.0, 0.0, 0.0, 0.0, 0.0, 0.0, 0.0, 0.0, 0.0, 0.0, 1.6626773111384156E9, 0.0, 2022-09-08 18:48:31.138
98.0, 12382.240579395364, 1421.0792089795125, -33327.27799740768, -13423.206022167924, 4506.312847890002, 24497.489571272086, 34423.89928387395, 27551.4531196896, 7849.753838748198, 7640.429751924247, -12199.917399873424, -26222.2395804214, 8104.474318560878, 2172.0084157000083, -7222.921517243567, 801.4441491894901, 0.14900000000000002, 0.6905, 0.0425, 192.0, 0.0, 0.0, 0.0, 0.0, 0.0, 0.0, 0.0, 0.0, 0.0, 1.66267731113842E9, 0.0, 2022-09-08 18:48:31.138
100.0, 12374.126896158088, 1409.6351158183952, -33327.63562531896, -13429.062179215214, 4497.5733158079765, 24511.392356323286, 34674.57409794022, 27656.014580251525, 7844.143550889916, 7629.544452374513, -12205.773556920714, -26226.039376978802, 8102.4626615599, 2166.889866219743, -7220.999267220411, 810.3624952271575, 0.14900000000000002, 0.6905, 0.0425, 192.0, 0.0, 0.0, 0.0, 0.0, 0.0, 0.0, 0.0, 0.0, 0.0, 1.6626773111384242E9, 0.0, 2022-09-08 18:48:31.138
102.0, 12364.426239064484, 1401.7896535145824, -33327.88149450797, -13438.651077586543, 4481.480059800156, 24485.509036244042, 34893.26356569095, 27625.973835703593, 7841.975431677751, 7622.2801354265375, -12208.99220812228, -26231.0908712257, 8096.941780679439, 2156.451601559115, -7213.131453172142, 815.1681202850485, 0.17250000000000001, 0.80425, 0.05725000000000001, 192.0, 3.0, 16.0, 14.0, 88.0, 1.0, 32.0, 0.0, 0.0, 0.0, 1.6626773111384284E9, 0.0, 2022-09-08 18:48:31.138
104.0, 12368.382497833074, 1404.7624355271382, -33327.613273574505, -13439.947478764949, 4470.684167228243, 24485.24081531058, 35113.85293172037, 27623.001053691038, 7839.650850254399, 7615.082873711929, -12209.327484289108, -26228.699234568983, 8096.539449279243, 2143.934624664143, -7219.814624764279, 804.1710620130375, 0.17250000000000001, 0.80425, 0.05725000000000001, 192.0, 0.0, 0.0, 0.0, 0.0, 0.0, 0.0, 0.0, 0.0, 0.0, 1.6626773111384325E9, 0.0, 2022-09-08 18:48:31.138
106.0, 12333.044389849234, 1367.3009118200437, -33356.08939601057, -13471.843418102673, 4445.06906808246, 24442.392521189755, 35332.27417853763, 27579.75042817002, 7823.35642854648, 7585.466812308648, -12223.051455384668, -26246.848851066694, 8073.74066993483, 2122.2757842869505, -7236.153749961109, 785.864983304141, 0.17250000000000001, 0.80425, 0.05725000000000001, 192.0, 0.0, 0.0, 0.0, 0.0, 0.0, 0.0, 0.0, 0.0, 0.0, 1.6626773111384368E9, 0.0, 2022-09-08 18:48:31.138
108.0, 12269.252511173787, 1307.5994023799185, -33404.883254156506, -13533.467177565954, 4391.2684191785365, 24410.049546962924, 35596.76237067728, 27569.043942575925, 7791.572247931033, 7548.139399068285, -12268.179627439933, -26296.24620631292, 8034.267489226758, 2073.258408696462, -7276.498648702937, 743.7766484947978, 0.17250000000000001, 0.80425, 0.05725000000000001, 192.0, 0.0, 0.0, 0.0, 0.0, 0.0, 0.0, 0.0, 0.0, 0.0, 1.6626773111384437E9, 0.0, 2022-09-08 18:48:31.138
110.0, 12232.193318866888, 1284.1524224463014, -33435.348681849086, -13566.72657331545, 4366.636796788788, 24368.967040654068, 35781.41013162257, 27531.515363635466, 7735.849349003953, 7484.056947714919, -12326.718846168382, -26357.06530297581, 7987.284122381702, 2014.9427074125658, -7321.425655058105, 695.675694426977, 0.17250000000000001, 0.80425, 0.05725000000000001, 192.0, 0.0, 0.0, 0.0, 0.0, 0.0, 0.0, 0.0, 0.0, 0.0, 1.6626773111384475E9, 0.0, 2022-09-08 18:48:31.138
112.0, 12237.155406135966, 1273.6694542967623, -33433.82876322613, -13568.671175083064, 4353.158694882238, 24368.788226698427, 35846.38665275415, 27533.124689236247, 7727.489796577668, 7473.641034798746, -12324.953058356412, -26359.971029755, 7976.778802487708, 2001.9563438840323, -7331.819216229823, 686.0867960556503, 0.18525000000000003, 0.876125, 0.074625, 192.0, 3.0, 24.0, 14.5, 80.0, 1.0, 112.0, 0.0, 0.0, 0.0, 1.662677311138452E9, 0.0, 2022-09-08 18:48:31.138
114.0, 12211.361493034541, 1252.9270354422374, -33443.35060636409, -13584.92089330207, 4322.782674167475, 24333.986560581514, 35898.86854873521, 27494.00913643946, 7720.29253486306, 7451.065772898886, -12339.794616674735, -26371.348067682753, 7957.086915622583, 1983.2479337749403, -7344.626765802714, 663.064499266684, 0.18525000000000003, 0.876125, 0.074625, 192.0, 0.0, 0.0, 0.0, 0.0, 0.0, 0.0, 0.0, 0.0, 0.0, 1.6626773111384563E9, 0.0, 2022-09-08 18:48:31.138
116.0, 12196.296417271664, 1241.9970324035924, -33441.7412807633, -13575.98019551995, 4316.211261297615, 24343.57545895284, 35897.14746441215, 27514.706851805076, 7709.5636975245125, 7443.443828039626, -12328.708151424904, -26359.054608232334, 7956.818694689119, 1981.2809802628733, -7337.563614554837, 662.6621678664885, 0.18525000000000003, 0.876125, 0.074625, 192.0, 0.0, 0.0, 0.0, 0.0, 0.0, 0.0, 0.0, 0.0, 0.0, 1.6626773111384604E9, 0.0, 2022-09-08 18:48:31.138
118.0, 12147.435503892364, 1202.0321133175032, -33483.29317370572, -13609.21723952499, 4279.532048646456, 24314.540542905397, 35915.25237742095, 27484.755514234963, 7669.017633082585, 7400.997865318998, -12366.124971643088, -26389.0282975469, 7924.743941395753, 1946.524017634871, -7372.208818460563, 640.4221821334579, 0.18525000000000003, 0.876125, 0.074625, 192.0, 0.0, 0.0, 0.0, 0.0, 0.0, 0.0, 0.0, 0.0, 0.0, 1.6626773111384647E9, 0.0, 2022-09-08 18:48:31.138
120.0, 12144.283907924166, 1208.5141192095423, -33476.72176083586, -13607.987893579948, 4274.547609632923, 24316.99923479548, 35913.48658960898, 27466.3823802927, 7641.681449613745, 7382.870600565744, -12377.770230504302, -26407.244969277977, 7902.369845195991, 1922.071209200765, -7387.005673289976, 616.1928911439051, 0.18525000000000003, 0.876125, 0.074625, 192.0, 0.0, 0.0, 0.0, 0.0, 0.0, 0.0, 0.0, 0.0, 0.0, 1.6626773111384687E9, 0.0, 2022-09-08 18:48:31.138
122.0, 12145.245032935743, 1225.1885205732012, -33476.162967224474, -13602.042329554837, 4280.426118424669, 24312.551237648873, 35935.368947430725, 27484.73316249051, 7647.537606661035, 7400.8637548522665, -12371.221169378898, -26390.436457447584, 7907.778967354175, 1940.3772879096614, -7392.571257659347, 622.4737313358464, 0.18525000000000003, 0.876125, 0.074625, 192.0, 0.0, 0.0, 0.0, 0.0, 0.0, 0.0, 0.0, 0.0, 0.0, 1.662677311138473E9, 0.0, 2022-09-08 18:48:31.138
124.0, 12157.851416808537, 1230.6870497092068, -33461.76844379526, -13594.152163762114, 4291.624342396777, 24323.25772324297, 35818.1563995071, 27495.909034718163, 7635.266498955071, 7397.913324584166, -12366.97433793239, -26378.813550330826, 7904.336798708057, 1943.8865117891446, -7390.023158791442, 627.1452459270056, 0.202, 0.9560000000000001, 0.124, 192.0, 3.0, 40.0, 14.5, 112.0, 1.5, 112.0, 0.0, 0.0, 0.0, 1.662677311138477E9, 0.0, 2022-09-08 18:48:31.138
126.0, 12145.245032935743, 1218.1477210697797, -33468.36220840958, -13591.916989316582, 4287.489269672546, 24321.38017670872, 35852.22045805698, 27498.09950567478, 7644.60952813739, 7389.062033779864, -12359.97824191788, -26371.348067682753, 7913.255144745725, 1945.6522996011138, -7387.989150046009, 638.1423041990166, 0.202, 0.9560000000000001, 0.124, 192.0, 0.0, 0.0, 0.0, 0.0, 0.0, 0.0, 0.0, 0.0, 0.0, 1.6626773111384814E9, 0.0, 2022-09-08 18:48:31.138
128.0, 12139.612393333005, 1217.81244490295, -33473.033723000735, -13599.091899286735, 4281.566057391889, 24312.14890624868, 35783.958230490476, 27502.703965032575, 7639.759199590588, 7391.565429158858, -12363.822741964192, -26378.210053230534, 7916.250278502736, 1942.3665931661837, -7388.324426212839, 630.4086006174804, 0.202, 0.9560000000000001, 0.124, 192.0, 0.0, 0.0, 0.0, 0.0, 0.0, 0.0, 0.0, 0.0, 0.0, 1.6626773111384857E9, 0.0, 2022-09-08 18:48:31.138
130.0, 12119.227602389767, 1201.9874098285925, -33492.23387148784, -13625.489309488454, 4263.0141094939845, 24296.27916768541, 35868.5148797649, 27501.988709210007, 7616.960420246175, 7373.438164405605, -12394.936370245978, -26402.12641979771, 7887.170658966382, 1907.6096305381814, -7402.294266497406, 608.7274084958325, 0.202, 0.9560000000000001, 0.124, 192.0, 0.0, 0.0, 0.0, 0.0, 0.0, 0.0, 0.0, 0.0, 0.0, 1.6626773111384897E9, 0.0, 2022-09-08 18:48:31.138
132.0, 12090.215038086777, 1175.746461838062, -33515.47968572136, -13653.294879590856, 4219.450559550591, 24260.404617834643, 35759.50542205637, 27487.661241014153, 7573.061594135952, 7344.179730913607, -12422.02668452581, -26426.266303809443, 7870.69742330282, 1902.1781566355417, -7430.479816255548, 581.167707582439, 0.202, 0.9560000000000001, 0.124, 192.0, 0.0, 0.0, 0.0, 0.0, 0.0, 0.0, 0.0, 0.0, 0.0, 1.662677311138494E9, 0.0, 2022-09-08 18:48:31.138
134.0, 12086.370538040464, 1183.2566479750453, -33520.01708984579, -13658.547539537853, 4224.613812519767, 24263.355048102745, 35788.40622763708, 27504.44740110009, 7571.7428412130885, 7330.992201684976, -12435.951821321467, -26440.906696427668, 7853.486580072235, 1884.140298860109, -7441.275708827461, 571.9140853779418, 0.186, 0.9400000000000001, 0.154, 192.0, 2.5, 104.0, 14.5, 48.0, 2.0, 104.0, 0.0, 0.0, 0.0, 1.6626773111384983E9, 0.0, 2022-09-08 18:48:31.138
136.0, 12093.59015149953, 1187.7717003550174, -33497.73240062385, -13638.475673016987, 4241.444676094613, 24283.739839045986, 35655.34629289464, 27512.002290725984, 7558.957643384653, 7329.3158208508285, -12437.047056799776, -26437.8892109262, 7855.74410626222, 1891.5387262748154, -7438.504092515003, 587.2473820742824, 0.186, 0.9400000000000001, 0.154, 192.0, 0.0, 0.0, 0.0, 0.0, 0.0, 0.0, 0.0, 0.0, 0.0, 1.6626773111385024E9, 0.0, 2022-09-08 18:48:31.138
138.0, 12084.671805461861, 1174.4500606596544, -33494.46904593337, -13655.708867992029, 4221.305754340381, 24271.759304017938, 35705.45890396344, 27511.354090136778, 7557.840056161887, 7333.853224975255, -12441.025667312822, -26437.28571382591, 7870.786830280642, 1893.0586448977763, -7430.256298810995, 592.3659315545477, 0.186, 0.9400000000000001, 0.154, 192.0, 0.0, 0.0, 0.0, 0.0, 0.0, 0.0, 0.0, 0.0, 0.0, 1.662677311138507E9, 0.0, 2022-09-08 18:48:31.138
140.0, 12065.739877908216, 1163.7659268100176, -33498.20178725741, -13665.61069078573, 4206.575954744334, 24249.385207818177, 35621.416344811485, 27461.688513957088, 7545.479541478103, 7320.151605624153, -12448.84877787218, -26451.52377504394, 7853.955966705796, 1870.4163277645503, -7464.320357360883, 572.7410999227882, 0.186, 0.9400000000000001, 0.154, 192.0, 0.0, 0.0, 0.0, 0.0, 0.0, 0.0, 0.0, 0.0, 0.0, 1.662677311138512E9, 0.0, 2022-09-08 18:48:31.138
142.0, 12052.529996935129, 1152.455944115632, -33499.319374480176, -13666.772981497406, 4213.952030414585, 24251.016885163415, 35782.773588034346, 27458.223993566513, 7528.447512203159, 7303.387797282672, -12466.573711225237, -26470.165129919664, 7844.702344501298, 1850.74679264388, -7464.610930038802, 565.2532655302604, 0.186, 0.9400000000000001, 0.154, 192.0, 0.0, 0.0, 0.0, 0.0, 0.0, 0.0, 0.0, 0.0, 0.0, 1.6626773111385164E9, 0.0, 2022-09-08 18:48:31.138
144.0, 12017.013074995646, 1133.1663886507022, -33520.68764217945, -13685.883723006693, 4192.472003993035, 24240.019826891403, 35749.24597135138, 27492.220996883036, 7509.739102094067, 7299.655055958636, -12483.739850966913, -26480.089304457822, 7831.0677803835615, 1855.7535834018688, -7476.770279022489, 569.4777452323134, 0.168, 0.934, 0.182, 192.0, 2.5, 32.0, 14.5, 24.0, 2.5, 88.0, 0.0, 0.0, 0.0, 1.6626773111385207E9, 0.0, 2022-09-08 18:48:31.138
146.0, 11986.860571725438, 1107.305420315912, -33544.55930525772, -13720.48422342351, 4194.729530183021, 24224.194791817044, 35842.184524796554, 27489.695249759585, 7488.259075672517, 7269.033166054865, -12519.18971767303, -26517.707290376104, 7813.655771452877, 1829.4679319224279, -7507.05689275943, 545.5166751762242, 0.168, 0.934, 0.182, 192.0, 0.0, 0.0, 0.0, 0.0, 0.0, 0.0, 0.0, 0.0, 0.0, 1.6626773111385248E9, 0.0, 2022-09-08 18:48:31.138
148.0, 11989.60983629344, 1108.4453592831326, -33534.43396501946, -13727.05563629337, 4173.830649117309, 24221.60198946023, 35868.894859420645, 27456.14528133217, 7465.750869006022, 7249.162465234097, -12536.378209159162, -26535.454575473617, 7819.891908155908, 1808.0996642231542, -7489.801346039933, 531.7032971028444, 0.168, 0.934, 0.182, 192.0, 0.0, 0.0, 0.0, 0.0, 0.0, 0.0, 0.0, 0.0, 0.0, 1.6626773111385293E9, 0.0, 2022-09-08 18:48:31.138
150.0, 11974.768277975116, 1098.655295211708, -33553.29883733974, -13759.219796564556, 4144.572215625312, 24205.419326474588, 35926.003566503954, 27450.691455685075, 7471.763488264501, 7235.460845882994, -12534.523014369372, -26540.573124953884, 7823.803463435586, 1790.3523791256405, -7493.534087363969, 507.16108169091723, 0.168, 0.934, 0.182, 192.0, 0.0, 0.0, 0.0, 0.0, 0.0, 0.0, 0.0, 0.0, 0.0, 1.662677311138534E9, 0.0, 2022-09-08 18:48:31.138
152.0, 11958.071524867002, 1087.5241264729652, -33566.3746078461, -13770.507427514485, 4129.998878240452, 24188.052021032814, 35882.57412702729, 27461.509700001443, 7451.289290343439, 7211.14214791562, -12554.81839833479, -26563.39425604275, 7804.0668730815505, 1769.073518404188, -7516.846956830855, 487.4244913368811, 0.168, 0.934, 0.182, 192.0, 0.0, 0.0, 0.0, 0.0, 0.0, 0.0, 0.0, 0.0, 0.0, 1.6626773111385384E9, 0.0, 2022-09-08 18:48:31.138
154.0, 11944.928699127282, 1082.8973153707166, -33577.90810798504, -13783.985529421036, 4106.641305284656, 24178.373715683665, 35868.44782453153, 27467.522319259922, 7438.95112740411, 7200.100386154698, -12558.662898381102, -26561.851985675334, 7804.625666692933, 1765.5419427802497, -7532.023791316008, 491.60426755002356, 0.14200000000000002, 0.904, 0.198, 192.0, 2.0, 56.0, 14.0, 32.0, 3.0, 24.0, 0.0, 0.0, 0.0, 1.6626773111385424E9, 0.0, 2022-09-08 18:48:31.138
156.0, 11919.447710448232, 1058.9138935701721, -33596.10242797166, -13804.459727342097, 4094.705473745522, 24161.92283176456, 35845.17965855356, 27412.246455221946, 7398.092138539808, 7159.889597879601, -12592.436384253071, -26585.790703986968, 7774.20494248926, 1733.243672042331, -7562.131591097306, 460.7365084572445, 0.14200000000000002, 0.904, 0.198, 192.0, 0.0, 0.0, 0.0, 0.0, 0.0, 0.0, 0.0, 0.0, 0.0, 1.6626773111385467E9, 0.0, 2022-09-08 18:48:31.138
158.0, 11911.199916744223, 1048.8109050763733, -33607.30065194376, -13822.49758511753, 4092.962037678008, 24149.58466882523, 35812.16613199307, 27428.04913855185, 7392.727719870534, 7166.304548538274, -12588.368366762206, -26576.291212593464, 7788.353596729469, 1735.3447360211296, -7555.940157883187, 459.06012762309643, 0.14200000000000002, 0.904, 0.198, 192.0, 0.0, 0.0, 0.0, 0.0, 0.0, 0.0, 0.0, 0.0, 0.0, 1.662677311138551E9, 0.0, 2022-09-08 18:48:31.138
160.0, 11883.997843742114, 1028.113189710759, -33622.209265495454, -13842.54709989394, 4039.6531271521008, 24108.904493916572, 35801.638460354625, 27370.694562279532, 7359.870655521233, 7132.799283599768, -12622.298314845362, -26609.058869964945, 7753.462523634735, 1683.8463167961022, -7587.053786164974, 419.18461551482864, 0.14200000000000002, 0.904, 0.198, 192.0, 0.0, 0.0, 0.0, 0.0, 0.0, 0.0, 0.0, 0.0, 0.0, 1.6626773111385553E9, 0.0, 2022-09-08 18:48:31.138
162.0, 11900.78400382805, 1047.8497800647951, -33607.79239032178, -13830.074826487878, 4050.4713714684694, 24123.00844466787, 35739.12063111313, 27394.342707913245, 7345.9231669811215, 7135.861472590145, -12616.620971753713, -26603.31447163993, 7750.467389877724, 1684.4498138963957, -7610.970152732152, 405.0806647635299, 0.14200000000000002, 0.904, 0.198, 192.0, 0.0, 0.0, 0.0, 0.0, 0.0, 0.0, 0.0, 0.0, 0.0, 1.6626773111385593E9, 0.0, 2022-09-08 18:48:31.138
164.0, 11896.917152037282, 1051.11313475527, -33585.95473598895, -13811.344064634332, 4071.929046145564, 24173.21046271449, 35744.395642804586, 27433.14533628766, 7359.513027609948, 7143.394010471584, -12591.363500519217, -26576.738247482568, 7773.221465733227, 1704.43227343944, -7576.123783126329, 444.6656041938787, 0.10200000000000001, 0.908, 0.226, 192.0, 1.5, 24.0, 14.0, 48.0, 3.5, 8.0, 0.0, 0.0, 0.0, 1.6626773111385636E9, 0.0, 2022-09-08 18:48:31.138
166.0, 11898.392367171333, 1042.887692795717, -33588.2793174123, -13814.786233280449, 4061.4013745071147, 24152.69156130452, 35610.91102491749, 27424.025824549895, 7355.713231052546, 7126.36198119664, -12588.077794084287, -26571.217366602108, 7782.92212282683, 1697.8385088251246, -7574.201533103173, 461.0494328796188, 0.10200000000000001, 0.908, 0.226, 192.0, 0.0, 0.0, 0.0, 0.0, 0.0, 0.0, 0.0, 0.0, 0.0, 1.6626773111385677E9, 0.0, 2022-09-08 18:48:31.138
168.0, 11885.897742020816, 1020.3124308958568, -33609.87110255612, -13823.056378728912, 4048.3032522563044, 24120.929732433528, 35588.134597317534, 27370.336934368246, 7350.393515872182, 7113.196803712464, -12608.708454216536, -26567.663439233715, 7763.610215617445, 1692.630552367038, -7594.78748974651, 450.56646473007976, 0.10200000000000001, 0.908, 0.226, 192.0, 0.0, 0.0, 0.0, 0.0, 0.0, 0.0, 0.0, 0.0, 0.0, 1.662677311138572E9, 0.0, 2022-09-08 18:48:31.138
170.0, 11896.000730514614, 1030.6389368342086, -33635.93323659101, -13801.822221496372, 4041.0612870527852, 24131.613866283165, 35493.206738615845, 27383.099780452227, 7354.036850218398, 7098.154079694043, -12615.145756619664, -26548.932677380166, 7777.803573346565, 1694.6422093680155, -7590.339492599905, 468.8948951834316, 0.10200000000000001, 0.908, 0.226, 192.0, 0.0, 0.0, 0.0, 0.0, 0.0, 0.0, 0.0, 0.0, 0.0, 1.6626773111385763E9, 0.0, 2022-09-08 18:48:31.138
172.0, 11904.740262596639, 1042.239492206513, -33646.46090822946, -13766.841741423816, 4042.290632997827, 24140.241639642914, 35470.22914531579, 27333.523611250355, 7367.000862002476, 7093.25904765833, -12627.863899214733, -26540.103738320322, 7779.748175114176, 1686.8414505531134, -7599.526059571035, 480.4060435779147, 0.10200000000000001, 0.908, 0.226, 192.0, 0.0, 0.0, 0.0, 0.0, 0.0, 0.0, 0.0, 0.0, 0.0, 1.6626773111385813E9, 0.0, 2022-09-08 18:48:31.138
174.0, 11911.378730699866, 1059.5397424149207, -33631.149963277574, -13743.372409745743, 4061.80370590731, 24116.86171494266, 35335.336367528005, 27315.999843597394, 7386.022196533942, 7120.215251471431, -12616.531564775893, -26509.0571652719, 7803.597486447989, 1717.9327270904455, -7598.788452004011, 482.3506453455264, 0.112, 0.96, 0.228, 192.0, 1.5, 64.0, 15.0, 0.0, 3.5, 16.0, 0.0, 0.0, 0.0, 1.6626773111385856E9, 0.0, 2022-09-08 18:48:31.138
176.0, 11895.106660736403, 1045.368736430256, -33636.89436160259, -13741.740732400505, 4065.9834821204527, 24130.96566569396, 35437.2156187553, 27444.410615493136, 7392.660664637168, 7109.844042044168, -12618.476166543505, -26508.14074374923, 7810.9959138626955, 1714.3117444886857, -7572.59220750239, 511.6314305819787, 0.112, 0.96, 0.228, 192.0, 0.0, 0.0, 0.0, 0.0, 0.0, 0.0, 0.0, 0.0, 0.0, 1.66267731113859E9, 0.0, 2022-09-08 18:48:31.138
178.0, 11908.584762642951, 1056.3881464467224, -33626.903131831066, -13729.2908107389, 4089.4975172874356, 24142.275648388346, 35310.101248037965, 27395.594405602744, 7406.183470032629, 7111.945106022967, -12617.40328280965, -26501.479923901552, 7813.275791797137, 1712.8365293546356, -7582.941065185198, 499.1591571759173, 0.112, 0.96, 0.228, 192.0, 0.0, 0.0, 0.0, 0.0, 0.0, 0.0, 0.0, 0.0, 0.0, 1.662677311138594E9, 0.0, 2022-09-08 18:48:31.138
180.0, 11904.40498642981, 1056.2316842355353, -33637.1402307916, -13728.150871771679, 4070.4091275226033, 24147.371846124155, 35333.81644890505, 27424.785783861375, 7421.092083584319, 7124.1044550066545, -12614.251686841451, -26483.28560391493, 7828.385571048924, 1736.3282127771633, -7570.468791779136, 519.7004103303445, 0.112, 0.96, 0.228, 192.0, 0.0, 0.0, 0.0, 0.0, 0.0, 0.0, 0.0, 0.0, 0.0, 1.6626773111385982E9, 0.0, 2022-09-08 18:48:31.138
182.0, 11901.476907906164, 1063.2501319945018, -33630.255893499365, -13719.05371177837, 4081.0932613722402, 24160.805244541796, 35214.59224398044, 27414.5710366453, 7400.5731821743475, 7115.230812457898, -12625.002875924454, -26492.09219123032, 7826.798597192597, 1725.3535062496076, -7578.604826760868, 524.6624975994226, 0.112, 0.96, 0.228, 192.0, 0.0, 0.0, 0.0, 0.0, 0.0, 0.0, 0.0, 0.0, 0.0, 1.6626773111386025E9, 0.0, 2022-09-08 18:48:31.138
184.0, 11893.87731479136, 1062.1325447717363, -33626.16552426404, -13727.390912460198, 4067.8163251657875, 24167.846044045218, 35257.68640729027, 27427.177420518092, 7384.591684888803, 7107.362998409629, -12629.205003882053, -26502.552807635406, 7824.384608791424, 1715.272869500264, -7577.64370174929, 529.5128261462244, 0.109, 0.9590000000000001, 0.228, 192.0, 1.5, 40.0, 14.5, 120.0, 3.5, 16.0, 0.0, 0.0, 0.0, 1.6626773111386068E9, 0.0, 2022-09-08 18:48:31.138
186.0, 11912.228096989167, 1068.0334053079373, -33608.59705312217, -13723.367598458242, 4077.4275752815697, 24163.889785276628, 35156.18713571872, 27417.05208027984, 7374.287530694906, 7129.893556820579, -12615.101053130753, -26498.73065933355, 7833.146492617905, 1732.7966371532248, -7571.631082490812, 537.6712128724114, 0.109, 0.9590000000000001, 0.228, 192.0, 0.0, 0.0, 0.0, 0.0, 0.0, 0.0, 0.0, 0.0, 0.0, 1.6626773111386108E9, 0.0, 2022-09-08 18:48:31.138
188.0, 11903.488564907142, 1056.365794702267, -33615.07905901421, -13736.152796286678, 4059.099144828218, 24159.73236080794, 35210.16659857829, 27414.168705245105, 7360.205931688062, 7125.467911418428, -12614.765776963923, -26509.77242109447, 7828.340867560014, 1717.6421544125265, -7573.30746332496, 524.7072010883332, 0.109, 0.9590000000000001, 0.228, 192.0, 0.0, 0.0, 0.0, 0.0, 0.0, 0.0, 0.0, 0.0, 0.0, 1.6626773111386151E9, 0.0, 2022-09-08 18:48:31.138
190.0, 11905.321407952477, 1058.1539342586916, -33613.22386422442, -13742.76891264545, 4057.288653527338, 24155.798453783806, 35113.04826891998, 27396.51082712541, 7352.293414150884, 7130.877033576612, -12604.841602425768, -26504.810333825393, 7832.40888505088, 1722.2689655147751, -7572.167524357739, 522.2708609427049, 0.109, 0.9590000000000001, 0.228, 192.0, 0.0, 0.0, 0.0, 0.0, 0.0, 0.0, 0.0, 0.0, 0.0, 1.6626773111386194E9, 0.0, 2022-09-08 18:48:31.138
192.0, 11892.893838035327, 1049.7049748545855, -33618.923559060524, -13758.638651208717, 4050.672537168567, 24139.213459397968, 35147.15703095878, 27393.09101022375, 7338.815312244334, 7106.69244607597, -12621.516003789426, -26530.000749826522, 7817.299105799092, 1703.1582240054875, -7599.9730944601415, 491.5595640611129, 0.109, 0.9590000000000001, 0.228, 192.0, 0.0, 0.0, 0.0, 0.0, 0.0, 0.0, 0.0, 0.0, 0.0, 1.6626773111386237E9, 0.0, 2022-09-08 18:48:31.138
194.0, 11905.813146330494, 1063.6748151391525, -33606.40658216555, -13748.446255737097, 4062.9436448745305, 24136.73241576343, 35068.36713175382, 27383.502111852424, 7333.741466252979, 7109.106434477143, -12620.957210178043, -26528.503182948018, 7821.255364567682, 1700.6101251375826, -7599.235486893116, 494.15236641792853, 0.10650000000000001, 0.9525000000000001, 0.223, 192.0, 1.5, 32.0, 14.5, 72.0, 3.0, 104.0, 0.0, 0.0, 0.0, 1.6626773111386278E9, 0.0, 2022-09-08 18:48:31.138
196.0, 11915.938486568748, 1080.013940335982, -33606.473637398914, -13738.633839921218, 4071.0126246228965, 24147.282439146333, 35104.39814381578, 27400.131809727172, 7359.915359010143, 7090.778004023791, -12602.517021002415, -26508.476019916063, 7834.040562396117, 1711.1825002649427, -7593.424033334736, 507.0269712241854, 0.10650000000000001, 0.9525000000000001, 0.223, 192.0, 0.0, 0.0, 0.0, 0.0, 0.0, 0.0, 0.0, 0.0, 0.0, 1.662677311138632E9, 0.0, 2022-09-08 18:48:31.138
198.0, 11911.401082444321, 1075.2977222559123, -33619.0353177828, -13730.922488084138, 4057.355708760704, 24132.418529083556, 35127.711013282664, 27379.568204828287, 7362.016422988942, 7078.171620150998, -12605.40039603715, -26494.550883120406, 7836.78982696412, 1724.1688637934762, -7608.98084747563, 513.5536806051351, 0.10650000000000001, 0.9525000000000001, 0.223, 192.0, 0.0, 0.0, 0.0, 0.0, 0.0, 0.0, 0.0, 0.0, 0.0, 1.662677311138636E9, 0.0, 2022-09-08 18:48:31.138
0.0, 5652.152675646863, 340.57353026551374, -16833.255211502936, -7151.194769286486, 1692.7870145782251, 11881.53915185203, 17641.427235773474, 13503.00174987337, 3688.9989601372436, 3537.431780985806, -6303.571916052332, -13244.459121758835, 3914.0363233132753, 865.1242691426598, -3805.2950865382063, 260.5542851155144, 0.14125, 0.93625, 0.2275, 192.0, 2.5, 64.0, 14.0, 96.0, 3.5, 32.0, 0.0, 0.0, 0.0, 1.6626773117349975E9, 0.0, 2022-09-08 18:48:31.734
2.0, 11329.942802183963, 703.1411770750495, -33637.877838358625, -14281.535360996171, 3402.091968308922, 23776.154074210415, 35164.52433640055, 27000.795543288656, 6293.804203725363, 6152.74234446792, -13245.934336892884, -26696.878873929843, 7161.454219991472, 933.6100141537207, -7934.288136278169, 313.1926433077626, 0.14125, 0.93625, 0.2275, 192.0, 0.0, 0.0, 0.0, 0.0, 0.0, 0.0, 0.0, 0.0, 0.0, 1.6626773117350576E9, 0.0, 2022-09-08 18:48:31.735
4.0, 11326.679447493489, 697.7320549168653, -33641.36471049365, -14292.800640201645, 3389.19501175821, 23754.182309410848, 35195.63796468234, 27001.6225578335, 6308.601058554776, 6157.83854220373, -13225.840118627564, -26677.410504509273, 7180.475554522938, 932.9618135645168, -7926.934412352373, 318.7805794215893, 0.14125, 0.93625, 0.2275, 192.0, 0.0, 0.0, 0.0, 0.0, 0.0, 0.0, 0.0, 0.0, 0.0, 1.6626773117350934E9, 0.0, 2022-09-08 18:48:31.735
6.0, 11326.522985282301, 696.3015432717256, -33628.26658824284, -14283.479962763782, 3382.9812267996344, 23744.07932091705, 35110.61192877435, 26961.165900369397, 6296.397006082178, 6138.21371057197, -13230.198708796348, -26684.76422843507, 7167.668004950047, 919.5954703802432, -7942.223005559803, 304.40840773682686, 0.14125, 0.93625, 0.2275, 192.0, 0.0, 0.0, 0.0, 0.0, 0.0, 0.0, 0.0, 0.0, 0.0, 1.6626773117351608E9, 0.0, 2022-09-08 18:48:31.735
8.0, 11327.953496927441, 687.6290664230664, -33613.93912004699, -14275.925073137889, 3378.6226366308497, 23745.688646517832, 35090.98709714259, 27003.9247875124, 6284.1258983762145, 6144.181626341538, -13222.599115681543, -26675.197681808197, 7176.899275410089, 916.1980052230365, -7935.651592689943, 319.85346315544405, 0.20800000000000002, 0.93, 0.22, 192.0, 3.0, 64.0, 14.5, 8.0, 3.0, 112.0, 0.0, 0.0, 0.0, 1.6626773117351656E9, 0.0, 2022-09-08 18:48:31.735
10.0, 11328.378180072092, 695.3180665156921, -33593.53197735929, -14249.371200724985, 3390.7372821256263, 23750.963658209286, 35029.340985934854, 27010.563255615623, 6298.72158750553, 6139.6665739615655, -13216.13946153396, -26672.023734095543, 7172.9430166415, 917.3155924458018, -7929.258993775725, 332.4821987726926, 0.20800000000000002, 0.93, 0.22, 192.0, 0.0, 0.0, 0.0, 0.0, 0.0, 0.0, 0.0, 0.0, 0.0, 1.66267731173517E9, 0.0, 2022-09-08 18:48:31.735
12.0, 11334.077874908195, 700.3248572736809, -33596.9294425165, -14248.365372224496, 3392.7936426155143, 23768.42037062888, 35005.871654256785, 27010.898531782455, 6315.664209802653, 6163.806457973297, -13195.240580468248, -26649.13554777331, 7199.563944287771, 935.7557816214302, -7904.314446963603, 366.9038852338654, 0.20800000000000002, 0.93, 0.22, 192.0, 0.0, 0.0, 0.0, 0.0, 0.0, 0.0, 0.0, 0.0, 0.0, 1.6626773117351744E9, 0.0, 2022-09-08 18:48:31.735
14.0, 11332.937935940974, 705.3987032650356, -33593.55432910375, -14241.548090165626, 3396.5040321950955, 23766.542824094635, 34924.01956606145, 26978.04146743315, 6296.374654337723, 6144.382792041635, -13217.100586545539, -26668.022771838045, 7184.498868524894, 939.6226334121983, -7923.827519873085, 350.49770480367005, 0.20800000000000002, 0.93, 0.22, 192.0, 0.0, 0.0, 0.0, 0.0, 0.0, 0.0, 0.0, 0.0, 0.0, 1.6626773117351787E9, 0.0, 2022-09-08 18:48:31.735
16.0, 11333.273212107804, 711.0760463566836, -33589.1286837016, -14239.894061075935, 3405.601192188405, 23779.529187623168, 34854.88562046118, 26976.543900554647, 6316.178299925125, 6167.852123719707, -13191.776060077675, -26646.721559372138, 7198.200487875997, 957.146401065159, -7916.943182580851, 363.50642007665874, 0.20800000000000002, 0.93, 0.22, 192.0, 0.0, 0.0, 0.0, 0.0, 0.0, 0.0, 0.0, 0.0, 0.0, 1.6626773117351835E9, 0.0, 2022-09-08 18:48:31.735
18.0, 11338.861148221631, 723.5930232516555, -33578.84688125216, -14235.289601718141, 3415.1453870708215, 23793.051993018627, 34788.97032606248, 27019.861581309033, 6306.321180620334, 6153.3458415682135, -13205.701196873331, -26659.394998478296, 7189.505659282882, 946.5069707044329, -7931.874147876996, 356.1973996397733, 0.228, 0.932, 0.214, 192.0, 3.5, 16.0, 14.5, 16.0, 3.0, 88.0, 0.0, 0.0, 0.0, 1.662677311735188E9, 0.0, 2022-09-08 18:48:31.735
20.0, 11354.574424573711, 723.5930232516555, -33562.708921755424, -14233.277944717163, 3423.706105197204, 23798.23759773226, 34676.85397587466, 27029.785755847188, 6332.852701288784, 6171.897789466118, -13174.65462382491, -26634.092823754887, 7229.425874880061, 975.921866407617, -7916.607906414021, 381.6113330854575, 0.228, 0.932, 0.214, 192.0, 0.0, 0.0, 0.0, 0.0, 0.0, 0.0, 0.0, 0.0, 0.0, 1.6626773117351923E9, 0.0, 2022-09-08 18:48:31.735
22.0, 11340.559880800234, 713.8253109246864, -33575.00238120584, -14232.473281916773, 3420.4651022511844, 23789.095734250037, 34657.989103554384, 26997.75570604273, 6314.658381302164, 6144.606309486188, -13200.739109604254, -26657.025713566032, 7208.549345558804, 953.8606946302289, -7937.216214801814, 356.9126554623432, 0.228, 0.932, 0.214, 192.0, 0.0, 0.0, 0.0, 0.0, 0.0, 0.0, 0.0, 0.0, 0.0, 1.6626773117351968E9, 0.0, 2022-09-08 18:48:31.735
24.0, 11348.807674504242, 725.3588110636248, -33574.30947712773, -14220.716264333281, 3438.033573393056, 23804.786658857665, 34643.862801058625, 27008.23867419227, 6336.406628657178, 6182.447812849023, -13178.365013404491, -26632.50584989856, 7238.5677383622815, 988.5282502804101, -7910.66234238891, 388.11569072195186, 0.228, 0.932, 0.214, 192.0, 0.0, 0.0, 0.0, 0.0, 0.0, 0.0, 0.0, 0.0, 0.0, 1.6626773117352011E9, 0.0, 2022-09-08 18:48:31.735
26.0, 11345.276098880304, 720.1955580944489, -33575.00238120584, -14228.874651059468, 3436.513654770095, 23797.879969820973, 34762.21528794948, 26980.52251106769, 6316.20065166958, 6161.526580038855, -13200.984978793262, -26659.23853626711, 7214.964296217478, 963.5613517238322, -7926.152101296438, 371.73186203621174, 0.228, 0.932, 0.214, 192.0, 0.0, 0.0, 0.0, 0.0, 0.0, 0.0, 0.0, 0.0, 0.0, 1.662677311735206E9, 0.0, 2022-09-08 18:48:31.735
28.0, 11341.319840111713, 719.7485232053427, -33584.03248596579, -14240.072875031576, 3428.1541023438103, 23793.476676163278, 34806.58350069326, 27001.421392133405, 6327.600041341787, 6173.8870947226405, -13180.331966916558, -26652.13068153032, 7224.217918421975, 973.3067123063461, -7930.287174020669, 372.3353591365051, 0.244, 0.916, 0.224, 192.0, 3.5, 80.0, 14.0, 80.0, 3.5, 0.0, 0.0, 0.0, 0.0, 1.6626773117352104E9, 0.0, 2022-09-08 18:48:31.735
30.0, 11326.746502726854, 713.288869057759, -33604.30551818675, -14265.620918943992, 3405.869413121869, 23783.597205114034, 35004.12821818927, 27061.05584634016, 6312.087930689804, 6146.349745553702, -13214.32897023308, -26679.288051043517, 7191.919647684056, 946.0375840708714, -7956.3940115444675, 349.44717281427063, 0.244, 0.916, 0.224, 192.0, 0.0, 0.0, 0.0, 0.0, 0.0, 0.0, 0.0, 0.0, 0.0, 1.6626773117352147E9, 0.0, 2022-09-08 18:48:31.735
32.0, 11318.968095656408, 701.2636305408038, -33608.59705312217, -14280.104849351032, 3390.804337358992, 23774.79061779864, 35035.085384259866, 27042.123918786518, 6311.350323122779, 6146.282690320336, -13208.85279284153, -26676.292917286508, 7202.067339666765, 943.601243925243, -7963.077183136605, 350.16242863684045, 0.244, 0.916, 0.224, 192.0, 0.0, 0.0, 0.0, 0.0, 0.0, 0.0, 0.0, 0.0, 0.0, 1.6626773117352192E9, 0.0, 2022-09-08 18:48:31.735
34.0, 11309.446252518446, 686.9585140894072, -33609.1334949891, -14286.430393031884, 3374.8451918179026, 23768.107446206504, 35188.99949657911, 27022.29792145466, 6292.731319991508, 6120.645239430099, -13231.584516952576, -26697.750591963602, 7174.194714330997, 926.2562902279246, -7974.253055364258, 329.4647132712261, 0.244, 0.916, 0.224, 192.0, 0.0, 0.0, 0.0, 0.0, 0.0, 0.0, 0.0, 0.0, 0.0, 1.6626773117352235E9, 0.0, 2022-09-08 18:48:31.735
36.0, 11314.85537467663, 694.513403715301, -33603.053820497254, -14267.677279433881, 3380.0531482759893, 23770.27556541867, 35163.42910092224, 27003.7236218123, 6276.928636661606, 6113.224460270937, -13232.322124519602, -26690.307461059983, 7170.5960834736925, 927.1503600061369, -7975.325939098113, 338.2489488421618, 0.244, 0.916, 0.224, 192.0, 0.0, 0.0, 0.0, 0.0, 0.0, 0.0, 0.0, 0.0, 0.0, 1.6626773117352293E9, 0.0, 2022-09-08 18:48:31.735
38.0, 11279.338452737147, 658.1471154865164, -33644.85158262868, -14306.055224663643, 3337.6295372998165, 23739.27369585916, 35249.908000219824, 26969.547804540136, 6271.497162758967, 6106.965971823451, -13242.827444413597, -26691.782676194034, 7158.526141467827, 912.3982086656343, -7983.774898502219, 333.5550825065473, 0.244, 0.89, 0.22, 192.0, 3.5, 80.0, 13.5, 104.0, 3.0, 112.0, 0.0, 0.0, 0.0, 1.6626773117352335E9, 0.0, 2022-09-08 18:48:31.735
40.0, 11281.70773764941, 662.9080370554968, -33627.28311148681, -14302.9259804399, 3347.5313600935174, 23756.037504200638, 35202.34348801893, 26993.19595017385, 6230.146435516648, 6079.898009288074, -13266.855569703052, -26713.843847971424, 7127.8595480751455, 873.6626355245871, -8005.187869690403, 303.5366897030699, 0.244, 0.89, 0.22, 192.0, 0.0, 0.0, 0.0, 0.0, 0.0, 0.0, 0.0, 0.0, 0.0, 1.6626773117352588E9, 0.0, 2022-09-08 18:48:31.735
42.0, 11274.912807334997, 661.2540079658041, -33636.55908543576, -14313.140727655975, 3338.456551844663, 23750.94130646483, 35273.60084934245, 27004.662395079424, 6245.636194424176, 6086.178849480016, -13258.183092854393, -26701.282167587542, 7135.906176079056, 900.4176736375897, -7987.4405845928895, 321.2616230561284, 0.244, 0.89, 0.22, 192.0, 0.0, 0.0, 0.0, 0.0, 0.0, 0.0, 0.0, 0.0, 0.0, 1.662677311735263E9, 0.0, 2022-09-08 18:48:31.735
44.0, 11274.845752101632, 654.4590776513908, -33636.87200985813, -14314.906515467945, 3343.396287369286, 23745.487480817734, 35170.82752833695, 26981.371877356993, 6228.291240726858, 6072.365471406636, -13274.276348862213, -26712.033356670545, 7118.114187492632, 885.3973013636233, -8008.9876662478055, 302.7990821360448, 0.244, 0.89, 0.22, 192.0, 0.0, 0.0, 0.0, 0.0, 0.0, 0.0, 0.0, 0.0, 0.0, 1.6626773117352676E9, 0.0, 2022-09-08 18:48:31.735
46.0, 11267.648490387022, 649.4299351489467, -33636.44732671348, -14314.146556156464, 3328.2194528841324, 23735.473899301756, 35197.627269938865, 26971.447702818838, 6243.870406612206, 6080.38974766609, -13263.838084201585, -26696.945929163212, 7134.6097749006485, 894.9861997349501, -7994.526087585222, 316.4783497426927, 0.244, 0.89, 0.22, 192.0, 0.0, 0.0, 0.0, 0.0, 0.0, 0.0, 0.0, 0.0, 0.0, 1.6626773117352722E9, 0.0, 2022-09-08 18:48:31.735
48.0, 11281.238351015849, 662.0139672772846, -33611.94981479047, -14291.325425067596, 3347.1513804377773, 23733.529297534144, 35067.92009686471, 26944.245629816727, 6234.840301852263, 6065.995224236873, -13269.3813168265, -26702.8020862105, 7123.925641051012, 880.3011036278134, -8011.625172093532, 305.0566083260308, 0.251, 0.897, 0.21200000000000002, 192.0, 4.0, 8.0, 14.0, 32.0, 3.0, 48.0, 0.0, 0.0, 0.0, 1.6626773117352767E9, 0.0, 2022-09-08 18:48:31.735
50.0, 11275.270435246282, 654.6602433514886, -33612.016870023836, -14294.275855335696, 3327.258327872554, 23722.487535773223, 35072.837480644885, 26936.064891346086, 6253.012270094428, 6091.0068262823615, -13243.38623802498, -26680.740914433114, 7144.55630118326, 897.377836391668, -7995.10723294106, 323.65325971284625, 0.251, 0.897, 0.21200000000000002, 192.0, 0.0, 0.0, 0.0, 0.0, 0.0, 0.0, 0.0, 0.0, 0.0, 1.6626773117352812E9, 0.0, 2022-09-08 18:48:31.735
52.0, 11267.447324686924, 641.8303420341423, -33606.71950658793, -14289.805506444634, 3320.7986737249703, 23707.243646054703, 34940.068118580355, 26913.89196084642, 6229.855862838729, 6066.129334703605, -13259.85947368854, -26703.80791471099, 7130.8546818321565, 878.2000396490145, -8029.439512424411, 304.85544262593305, 0.251, 0.897, 0.21200000000000002, 192.0, 0.0, 0.0, 0.0, 0.0, 0.0, 0.0, 0.0, 0.0, 0.0, 1.6626773117352855E9, 0.0, 2022-09-08 18:48:31.735
54.0, 11275.80687711321, 654.8837607960417, -33603.00911700835, -14278.696689450348, 3316.6636010007387, 23721.97344565075, 34918.43162994762, 26943.686836205346, 6211.482728896467, 6065.972872492418, -13257.646650987464, -26704.165542622275, 7126.876071319112, 880.636379794643, -8026.39967517849, 322.178044578796, 0.251, 0.897, 0.21200000000000002, 192.0, 0.0, 0.0, 0.0, 0.0, 0.0, 0.0, 0.0, 0.0, 0.0, 1.66267731173529E9, 0.0, 2022-09-08 18:48:31.735
56.0, 11278.04205155874, 663.5115341557902, -33589.95569824644, -14268.638404445459, 3323.7044005041603, 23730.02007365466, 34758.28138092534, 26922.31856850607, 6235.4661506970115, 6080.210933710448, -13246.269613059714, -26700.56691176497, 7139.236586002897, 889.9794089769613, -8019.15770997497, 326.6707452143127, 0.251, 0.897, 0.21200000000000002, 192.0, 0.0, 0.0, 0.0, 0.0, 0.0, 0.0, 0.0, 0.0, 0.0, 1.6626773117352943E9, 0.0, 2022-09-08 18:48:31.735
58.0, 11313.290752564759, 691.3394560026475, -33556.67395075249, -14235.088436018043, 3349.610072327861, 23768.80035028462, 34637.04551899976, 26967.424388816882, 6252.229959038492, 6109.759939880364, -13223.917868604407, -26673.99068760761, 7158.280272278818, 919.9530982915281, -8005.947829001883, 347.4802193022036, 0.2595, 0.9135, 0.20900000000000002, 192.0, 4.0, 48.0, 14.5, 8.0, 3.0, 56.0, 0.0, 0.0, 0.0, 1.6626773117352989E9, 0.0, 2022-09-08 18:48:31.735
60.0, 11317.24701133335, 698.2237932948821, -33548.35910181512, -14234.417883684384, 3360.0706887329447, 23770.94611775233, 34564.06707335318, 26970.62068827399, 6281.086061130293, 6126.5460999663, -13205.209458495316, -26654.49996644258, 7177.1674963435535, 937.5215694333995, -7981.450317078868, 372.96120798125366, 0.2595, 0.9135, 0.20900000000000002, 192.0, 0.0, 0.0, 0.0, 0.0, 0.0, 0.0, 0.0, 0.0, 0.0, 1.6626773117353032E9, 0.0, 2022-09-08 18:48:31.735
62.0, 11295.901095378531, 675.2685517392816, -33574.06360793872, -14264.570386954592, 3341.094057690389, 23755.255193144705, 34572.04664612373, 26978.019115688698, 6271.5642179923325, 6111.749245136887, -13213.300789988136, -26662.054856068477, 7172.719499196947, 927.7091536175196, -7980.757413000752, 372.7376905367006, 0.2595, 0.9135, 0.20900000000000002, 192.0, 0.0, 0.0, 0.0, 0.0, 0.0, 0.0, 0.0, 0.0, 0.0, 1.6626773117353077E9, 0.0, 2022-09-08 18:48:31.735
64.0, 11298.270380290793, 673.9497988164186, -33573.16953816051, -14271.521779480194, 3349.878293261325, 23753.779978010654, 34605.23898663986, 26969.033714417663, 6262.355299276745, 6089.755128592865, -13230.131653562983, -26683.490179001117, 7160.403688002073, 903.7927870503411, -7992.0226922062275, 352.4646583157371, 0.2595, 0.9135, 0.20900000000000002, 192.0, 0.0, 0.0, 0.0, 0.0, 0.0, 0.0, 0.0, 0.0, 0.0, 1.662677311735312E9, 0.0, 2022-09-08 18:48:31.735
66.0, 11287.787412141253, 672.0946040266281, -33589.575718590706, -14287.16800059891, 3338.411848355752, 23745.26396337318, 34695.83060691722, 26981.617746546002, 6265.551598733855, 6093.666683872543, -13228.969362851307, -26677.432856253727, 7168.785592172813, 914.8121970668075, -7985.048947936171, 357.2702833736281, 0.2595, 0.9135, 0.20900000000000002, 192.0, 0.0, 0.0, 0.0, 0.0, 0.0, 0.0, 0.0, 0.0, 0.0, 1.6626773117353165E9, 0.0, 2022-09-08 18:48:31.735
68.0, 11279.025528314773, 668.0042347913069, -33597.55529136125, -14297.069823392609, 3341.5410925794954, 23743.073492416563, 34847.71071049103, 26970.508929551714, 6241.389362977668, 6070.353814405658, -13263.122828379015, -26706.490124045627, 7137.090818535187, 886.0678536972825, -8005.813718535152, 327.81068418153336, 0.26475000000000004, 0.9117500000000001, 0.21250000000000002, 192.0, 4.0, 56.0, 14.0, 56.0, 3.0, 96.0, 0.0, 0.0, 0.0, 1.6626773117353227E9, 0.0, 2022-09-08 18:48:31.735
70.0, 11266.329737464159, 657.968301530874, -33613.84971306917, -14317.253448635753, 3322.586813281395, 23732.992855667217, 34933.25083652149, 26939.775280925667, 6247.156113047137, 6071.449049883968, -13254.405648041446, -26701.32687107645, 7151.418286731039, 899.8365282817517, -8002.259791166758, 331.20814933874004, 0.26475000000000004, 0.9117500000000001, 0.21250000000000002, 192.0, 0.0, 0.0, 0.0, 0.0, 0.0, 0.0, 0.0, 0.0, 0.0, 1.6626773117353272E9, 0.0, 2022-09-08 18:48:31.735
72.0, 11254.438609413935, 633.1355134410279, -33637.319044747244, -14334.419588377428, 3298.290467058476, 23723.560419507077, 35052.38563446828, 26984.05408669163, 6223.396208691145, 6047.778552505798, -13283.10528792206, -26732.66401680279, 7122.204556727953, 854.6413009931208, -8038.000230550794, 298.95458208973196, 0.26475000000000004, 0.9117500000000001, 0.21250000000000002, 192.0, 0.0, 0.0, 0.0, 0.0, 0.0, 0.0, 0.0, 0.0, 0.0, 1.6626773117353315E9, 0.0, 2022-09-08 18:48:31.735
74.0, 11253.477484402358, 636.9353099984301, -33648.07023383024, -14341.750960558767, 3297.8881356582806, 23716.676082214843, 35049.25639024453, 26985.305784381126, 6213.94142078655, 6038.971965190407, -13281.406555343458, -26731.255856902106, 7117.622449114615, 870.8016122343079, -8059.0555738276935, 295.75828263262304, 0.26475000000000004, 0.9117500000000001, 0.21250000000000002, 192.0, 0.0, 0.0, 0.0, 0.0, 0.0, 0.0, 0.0, 0.0, 0.0, 1.6626773117353363E9, 0.0, 2022-09-08 18:48:31.735
76.0, 11231.03633296923, 615.5446905547012, -33670.91371666357, -14367.03078353772, 3266.461582954119, 23685.696564399786, 35117.96565270015, 26937.495402991226, 6187.029920462361, 6012.216927077405, -13308.921552767939, -26745.20334544222, 7083.893666731557, 836.9387193845176, -8087.039957885738, 255.70395656871278, 0.26475000000000004, 0.9117500000000001, 0.21250000000000002, 192.0, 0.0, 0.0, 0.0, 0.0, 0.0, 0.0, 0.0, 0.0, 0.0, 1.6626773117353406E9, 0.0, 2022-09-08 18:48:31.735
78.0, 11245.542615120723, 632.5543680851898, -33647.53379196332, -14353.999716520277, 3275.4469842251524, 23694.324337759535, 35087.99196338558, 26949.565344997092, 6177.351615113213, 6024.845662694653, -13301.925456753428, -26729.244199901128, 7092.610847069126, 843.9795188879394, -8080.759117693797, 257.76031705860106, 0.26837500000000003, 0.9088750000000001, 0.21525, 192.0, 4.0, 64.0, 14.0, 40.0, 3.0, 104.0, 0.0, 0.0, 0.0, 1.6626773117353451E9, 0.0, 2022-09-08 18:48:31.735
80.0, 11223.41438810997, 611.8566527195755, -33663.78351018232, -14367.880149827022, 3249.362498445809, 23680.041573052597, 35154.1978304622, 26996.548711842148, 6184.995911716928, 6013.535680000267, -13314.375378415034, -26733.28986564754, 7088.654588300537, 825.6510884345876, -8079.596826982121, 257.1568199583078, 0.26837500000000003, 0.9088750000000001, 0.21525, 192.0, 0.0, 0.0, 0.0, 0.0, 0.0, 0.0, 0.0, 0.0, 0.0, 1.6626773117353497E9, 0.0, 2022-09-08 18:48:31.735
82.0, 11254.952699536409, 646.0548217361953, -33635.46384995745, -14327.825823763113, 3275.0446528249568, 23705.321396031548, 35052.56444842392, 27031.328026214604, 6179.072699436271, 6030.344191830658, -13307.11106146706, -26710.178161880754, 7091.895591246556, 835.5976147171992, -8079.842696171128, 278.1674597462964, 0.26837500000000003, 0.9088750000000001, 0.21525, 192.0, 0.0, 0.0, 0.0, 0.0, 0.0, 0.0, 0.0, 0.0, 0.0, 1.662677311735354E9, 0.0, 2022-09-08 18:48:31.735
84.0, 11238.300649917204, 625.3794581150363, -33651.154774565075, -14340.655725080458, 3255.6433386377503, 23689.697526657288, 35129.70031853918, 27005.15413345744, 6185.487650094945, 6035.663907011021, -13307.133413211515, -26704.72433623366, 7106.73714956488, 835.2846902948249, -8061.134286062037, 282.6825121262684, 0.26837500000000003, 0.9088750000000001, 0.21525, 192.0, 0.0, 0.0, 0.0, 0.0, 0.0, 0.0, 0.0, 0.0, 0.0, 1.6626773117353585E9, 0.0, 2022-09-08 18:48:31.735
86.0, 11254.12568499156, 634.2531006637932, -33631.0382045553, -14327.35643712955, 3274.307045257932, 23689.138733045904, 34988.77256974847, 26995.76640078621, 6167.360385341691, 6029.181901118983, -13313.34719817009, -26706.37836532335, 7092.432033113484, 835.0835245947271, -8076.333472291645, 270.2996456980283, 0.26837500000000003, 0.9088750000000001, 0.21525, 192.0, 0.0, 0.0, 0.0, 0.0, 0.0, 0.0, 0.0, 0.0, 0.0, 1.6626773117353628E9, 0.0, 2022-09-08 18:48:31.735
88.0, 11233.427969625947, 606.6933997503996, -33638.03430056981, -14351.69748684138, 3259.554893917429, 23671.167930503838, 34993.17586340617, 26979.42727558938, 6164.387603329134, 6015.502633512335, -13318.532802883721, -26711.80983922599, 7091.202687168442, 827.1933588020038, -8082.681367716953, 258.2073519477072, 0.2691875, 0.9164375, 0.217625, 192.0, 4.0, 56.0, 14.0, 112.0, 3.0, 112.0, 0.0, 0.0, 0.0, 1.6626773117353673E9, 0.0, 2022-09-08 18:48:31.735
90.0, 11236.378399894047, 614.807082987676, -33612.016870023836, -14336.78887328969, 3261.8571235963254, 23659.522671642622, 34842.16747786611, 26983.651755291434, 6147.847312432207, 6012.842775922153, -13323.941925041907, -26717.017795684078, 7091.515611590817, 812.7094283949648, -8081.809649683196, 246.45033436421568, 0.2691875, 0.9164375, 0.217625, 192.0, 0.0, 0.0, 0.0, 0.0, 0.0, 0.0, 0.0, 0.0, 0.0, 1.6626773117353716E9, 0.0, 2022-09-08 18:48:31.735
92.0, 11250.169426222972, 632.5990715741004, -33599.45518963995, -14310.570277043615, 3265.7016236426384, 23675.235947994704, 34856.07026291732, 27008.082211981084, 6152.608234001188, 6022.878709182586, -13320.544459884699, -26701.37157456536, 7112.213326956431, 812.217690016948, -8064.196475052414, 266.8351253074557, 0.2691875, 0.9164375, 0.217625, 192.0, 0.0, 0.0, 0.0, 0.0, 0.0, 0.0, 0.0, 0.0, 0.0, 1.662677311735376E9, 0.0, 2022-09-08 18:48:31.735
94.0, 11275.292786990738, 657.1412869860277, -33580.29974464175, -14266.090305577554, 3290.8920396437693, 23695.777201149132, 34716.55067402729, 27003.880084023487, 6183.721862282975, 6051.19836940746, -13294.504677594266, -26665.072341569943, 7132.821635344224, 856.0494608938052, -8052.461809213378, 293.0537215535309, 0.2691875, 0.9164375, 0.217625, 192.0, 0.0, 0.0, 0.0, 0.0, 0.0, 0.0, 0.0, 0.0, 0.0, 1.6626773117353804E9, 0.0, 2022-09-08 18:48:31.735
96.0, 11264.005156040806, 647.8429612926199, -33595.83420703819, -14283.59172148606, 3275.357577247331, 23683.14846553188, 34710.694516979995, 27002.15899970043, 6187.8569350072075, 6050.371354862614, -13294.504677594266, -26657.78567287751, 7146.903234351067, 866.2418563654252, -8056.619233682065, 299.468672212204, 0.2691875, 0.9164375, 0.217625, 192.0, 0.0, 0.0, 0.0, 0.0, 0.0, 0.0, 0.0, 0.0, 0.0, 1.6626773117353847E9, 0.0, 2022-09-08 18:48:31.735
98.0, 11277.907941092008, 675.7155866283878, -33580.16563417502, -14269.510122479216, 3295.9211821462136, 23697.475933727736, 34567.3080762992, 27008.35043291455, 6178.178629658059, 6037.4743983119015, -13300.494945108288, -26665.206452036677, 7117.868318303624, 847.1311148561376, -8082.167277594481, 281.72138711469023, 0.27359375, 0.9182187500000001, 0.22281250000000002, 192.0, 4.0, 88.0, 14.0, 96.0, 3.5, 16.0, 0.0, 0.0, 0.0, 1.6626773117353895E9, 0.0, 2022-09-08 18:48:31.735
100.0, 11291.43074648747, 681.8176128646867, -33561.747796743846, -14262.648136931437, 3309.0863596303893, 23714.083279858027, 34590.665649254996, 27037.69827338437, 6212.265039952403, 6082.982550022906, -13260.351212066558, -26606.04138446348, 7185.258827836375, 888.3253798872686, -8043.632870153531, 323.69796320175686, 0.27359375, 0.9182187500000001, 0.22281250000000002, 192.0, 0.0, 0.0, 0.0, 0.0, 0.0, 0.0, 0.0, 0.0, 0.0, 1.6626773117353947E9, 0.0, 2022-09-08 18:48:31.735
102.0, 11275.113973035095, 667.8254208356644, -33554.39407281805, -14268.079610834076, 3306.359446806842, 23700.82869539603, 34562.6589134525, 27034.457270438346, 6195.255362421914, 6044.895177471063, -13285.474572834322, -26632.595256876382, 7151.686507664503, 861.0338999073387, -8062.9894808518275, 295.13243378787445, 0.27359375, 0.9182187500000001, 0.22281250000000002, 192.0, 0.0, 0.0, 0.0, 0.0, 0.0, 0.0, 0.0, 0.0, 0.0, 1.6626773117353992E9, 0.0, 2022-09-08 18:48:31.735
104.0, 11269.950720065919, 666.3502057016142, -33559.11029089812, -14275.276872548686, 3307.6334962407946, 23717.570151993055, 34651.14946975106, 27086.827407697132, 6205.425406149078, 6059.669680556021, -13278.701994264364, -26621.59819860437, 7168.427964261528, 882.7374437734418, -8037.597899150598, 325.10612310244125, 0.27359375, 0.9182187500000001, 0.22281250000000002, 192.0, 0.0, 0.0, 0.0, 0.0, 0.0, 0.0, 0.0, 0.0, 0.0, 1.6626773117354035E9, 0.0, 2022-09-08 18:48:31.735
106.0, 11249.789446567233, 647.3959264035137, -33595.297765171264, -14300.914323438923, 3285.974655863602, 23694.92783485983, 34694.265984805344, 27036.02189255022, 6177.7092430244975, 6031.752351731343, -13315.291799937702, -26649.85080359588, 7143.729286638414, 846.281748566836, -8058.496780216311, 298.90987860082134, 0.27359375, 0.9182187500000001, 0.22281250000000002, 192.0, 0.0, 0.0, 0.0, 0.0, 0.0, 0.0, 0.0, 0.0, 0.0, 1.6626773117354083E9, 0.0, 2022-09-08 18:48:31.735
108.0, 11249.94590877842, 645.2725106802596, -33607.61357636614, -14303.194201373364, 3276.251647025543, 23699.465238984256, 34799.25212851192, 27065.21327080885, 6181.151411670615, 6027.952555173941, -13320.656218606975, -26655.79636762099, 7151.418286731039, 842.347841542702, -8060.039050583727, 296.98762857766496, 0.27359375, 0.9182187500000001, 0.22281250000000002, 192.0, 0.0, 0.0, 0.0, 0.0, 0.0, 0.0, 0.0, 0.0, 0.0, 1.6626773117354126E9, 0.0, 2022-09-08 18:48:31.735
110.0, 11239.999382495807, 637.0917722096173, -33620.13055326111, -14325.925925484411, 3272.4965539570517, 23680.35449747497, 34870.509489835444, 27064.296849286184, 6164.879341707152, 6006.964267130407, -13336.011867047771, -26673.096617829397, 7150.121885552631, 829.540291969811, -8071.192571066925, 289.5221459295924, 0.274, 0.882, 0.24, 192.0, 4.0, 72.0, 13.5, 72.0, 3.5, 64.0, 0.0, 0.0, 0.0, 1.662677311735417E9, 0.0, 2022-09-08 18:48:31.735
112.0, 11235.84195802712, 640.7798100447428, -33628.35599522066, -14350.98223101881, 3250.6365478797616, 23684.243701010193, 34934.45783072207, 27072.857567412564, 6140.426533273046, 5998.962342615408, -13337.151806014992, -26678.170463820752, 7147.08204830671, 822.2983267662916, -8077.763983936786, 280.9837795476651, 0.274, 0.882, 0.24, 192.0, 0.0, 0.0, 0.0, 0.0, 0.0, 0.0, 0.0, 0.0, 0.0, 1.6626773117354217E9, 0.0, 2022-09-08 18:48:31.735
114.0, 11229.225841668349, 629.5145308392681, -33621.9857480509, -14353.55268163117, 3256.6715188826943, 23686.25535801117, 35014.1641514497, 27071.60586972307, 6121.874585375141, 5981.796202873731, -13352.708620155887, -26688.13934184782, 7107.541812365272, 806.2721259918363, -8087.397585797023, 276.69224461224616, 0.274, 0.882, 0.24, 192.0, 0.0, 0.0, 0.0, 0.0, 0.0, 0.0, 0.0, 0.0, 0.0, 1.662677311735426E9, 0.0, 2022-09-08 18:48:31.735
116.0, 11217.178251406938, 619.8138737456649, -33609.44641941147, -14352.770370575236, 3253.4752194255852, 23673.850139838476, 35048.4740791886, 27061.88286088501, 6116.756035894876, 5993.061482079206, -13354.519111456766, -26681.52322548905, 7116.728379336403, 807.5014719368783, -8080.759117693797, 274.88175331136625, 0.274, 0.882, 0.24, 192.0, 0.0, 0.0, 0.0, 0.0, 0.0, 0.0, 0.0, 0.0, 0.0, 1.6626773117354312E9, 0.0, 2022-09-08 18:48:31.735
118.0, 11202.515507044258, 603.8547282045756, -33624.310329474254, -14358.201844477875, 3234.1409604717446, 23662.718971099734, 35092.0823326209, 27060.385294006504, 6107.189489268004, 5981.975016829374, -13366.901977885007, -26688.698135459203, 7123.053923017254, 791.832899073708, -8078.009853125794, 271.68545385425733, 0.274, 0.882, 0.24, 192.0, 0.0, 0.0, 0.0, 0.0, 0.0, 0.0, 0.0, 0.0, 0.0, 1.6626773117354355E9, 0.0, 2022-09-08 18:48:31.735
120.0, 11200.637960510012, 594.712864722355, -33639.91184710406, -14356.883091555012, 3223.3897713887422, 23651.073712238518, 35008.866788013795, 27057.077235827117, 6090.045701270784, 5967.51343816679, -13379.307196057702, -26698.51055127508, 7102.244448929364, 782.6463321025768, -8110.4645860749, 250.2948344105285, 0.266, 0.888, 0.24, 192.0, 4.0, 40.0, 13.5, 96.0, 3.5, 64.0, 0.0, 0.0, 0.0, 1.6626773122145684E9, 0.0, 2022-09-08 18:48:32.214
122.0, 11199.878001198531, 592.1871175989053, -33626.612559153145, -14345.997792005277, 3216.8854137522476, 23643.67528482381, 35006.206930423614, 27040.9839798193, 6086.134145991105, 5958.8186095736755, -13380.715355958386, -26698.555254763993, 7079.713890518415, 771.2245906859149, -8115.784301255263, 246.67385180876875, 0.266, 0.888, 0.24, 192.0, 0.0, 0.0, 0.0, 0.0, 0.0, 0.0, 0.0, 0.0, 0.0, 1.6626773122147362E9, 0.0, 2022-09-08 18:48:32.214
124.0, 11198.872172698042, 595.9422106673969, -33608.731163588905, -14331.849137765068, 3213.39854161722, 23660.997886776673, 34897.37628667072, 27053.791529392187, 6091.610323382655, 5967.647548633522, -13357.4024864915, -26680.830321410933, 7114.180280468498, 784.6132856146438, -8095.958303923405, 267.57273287448083, 0.266, 0.888, 0.24, 192.0, 0.0, 0.0, 0.0, 0.0, 0.0, 0.0, 0.0, 0.0, 0.0, 1.6626773122147455E9, 0.0, 2022-09-08 18:48:32.214
126.0, 11194.781803462722, 602.8041962151761, -33606.183064721, -14328.094044696576, 3207.609439803295, 23666.205843234762, 34896.70573433706, 27046.013122321743, 6076.657006342055, 5956.315214194681, -13373.49574249932, -26695.71658321817, 7091.135631935076, 769.9281895075071, -8098.215830113391, 270.0090730201093, 0.266, 0.888, 0.24, 192.0, 0.0, 0.0, 0.0, 0.0, 0.0, 0.0, 0.0, 0.0, 0.0, 1.6626773122147534E9, 0.0, 2022-09-08 18:48:32.214
128.0, 11194.290065084704, 592.3212280656371, -33598.874044284115, -14334.64310582198, 3208.0788264368566, 23655.946392529775, 34770.97717177596, 27024.622502878014, 6093.376111194624, 5968.809839345198, -13361.626966193553, -26687.446437769704, 7076.472887572395, 770.799907541264, -8093.4549085444105, 276.66989286779085, 0.266, 0.888, 0.24, 192.0, 0.0, 0.0, 0.0, 0.0, 0.0, 0.0, 0.0, 0.0, 0.0, 1.6626773122147636E9, 0.0, 2022-09-08 18:48:32.214
130.0, 11195.318245329649, 591.2036408428718, -33599.38813440659, -14338.532309357204, 3203.1837944011445, 23654.44882565127, 34759.48837512593, 27007.81399104762, 6084.4354134125015, 5962.5737026421675, -13367.192550562926, -26692.587338994424, 7068.538018290761, 759.0875934466832, -8101.054501659215, 266.1869247182518, 0.264, 0.92, 0.23600000000000002, 192.0, 4.0, 32.0, 14.0, 96.0, 3.5, 48.0, 0.0, 0.0, 0.0, 1.662677312214769E9, 0.0, 2022-09-08 18:48:32.214
132.0, 11230.499891102301, 622.0937516801062, -33571.0237706928, -14309.07271016511, 3223.8591580223037, 23674.96772706124, 34593.19139637845, 27043.889706598486, 6098.226439741426, 5976.811763860198, -13348.998230576306, -26673.342487018406, 7103.742015807869, 782.2887041912919, -8102.686179004452, 279.8438405804444, 0.264, 0.92, 0.23600000000000002, 192.0, 0.0, 0.0, 0.0, 0.0, 0.0, 0.0, 0.0, 0.0, 0.0, 1.662677312214779E9, 0.0, 2022-09-08 18:48:32.214
134.0, 11204.92949544543, 601.9995334147851, -33592.88377677009, -14325.523594084216, 3203.1837944011445, 23657.19809021927, 34613.106800688125, 27024.376633689004, 6106.362474723158, 5978.644606905533, -13341.711561883874, -26672.13549281782, 7117.734207836892, 785.4403001594902, -8096.360635323601, 294.5736401764918, 0.264, 0.92, 0.23600000000000002, 192.0, 0.0, 0.0, 0.0, 0.0, 0.0, 0.0, 0.0, 0.0, 0.0, 1.6626773122147844E9, 0.0, 2022-09-08 18:48:32.214
136.0, 11221.045103197706, 617.2434231333045, -33574.42123585001, -14297.807430959634, 3234.945623272136, 23680.913291086352, 34451.45898478734, 27050.461119468346, 6098.517012419345, 5971.581455657656, -13344.796102618708, -26676.985821364622, 7113.353265923652, 782.6686838470321, -8111.3586558531115, 296.339427988461, 0.264, 0.92, 0.23600000000000002, 192.0, 0.0, 0.0, 0.0, 0.0, 0.0, 0.0, 0.0, 0.0, 0.0, 1.6626773122148006E9, 0.0, 2022-09-08 18:48:32.214
138.0, 11229.583469579635, 624.5077400812793, -33556.58454377467, -14288.35264305504, 3240.421800663686, 23684.042535310095, 34464.51240354925, 27060.944087617885, 6125.227347043437, 5991.832136134164, -13321.438529662912, -26654.052931553477, 7137.1355220240985, 808.4178934595459, -8088.671635230975, 321.2169195672178, 0.264, 0.92, 0.23600000000000002, 192.0, 0.0, 0.0, 0.0, 0.0, 0.0, 0.0, 0.0, 0.0, 0.0, 1.6626773122148056E9, 0.0, 2022-09-08 18:48:32.214
140.0, 11232.93623124793, 634.2083971748826, -33551.68951173896, -14282.608244730025, 3244.914501299203, 23697.654747683377, 34389.83522532407, 27056.429035237914, 6129.317716278758, 5984.120784297083, -13315.850593549085, -26649.828451851423, 7144.17632152752, 814.5646231847553, -8084.245989828824, 324.5696812355139, 0.272, 0.922, 0.234, 192.0, 4.0, 64.0, 14.0, 104.0, 3.5, 40.0, 0.0, 0.0, 0.0, 1.662677312214811E9, 0.0, 2022-09-08 18:48:32.214
142.0, 11246.436684898936, 644.8478275356088, -33545.229857591374, -14277.78026792768, 3257.431478194175, 23704.963768120262, 34513.552130884185, 27056.317276515638, 6138.861911161174, 5997.464775736902, -13314.82241330414, -26641.37949244732, 7145.942109339489, 825.4275709900345, -8073.0254141122605, 339.09831513146344, 0.272, 0.922, 0.234, 192.0, 0.0, 0.0, 0.0, 0.0, 0.0, 0.0, 0.0, 0.0, 0.0, 1.662677312214816E9, 0.0, 2022-09-08 18:48:32.214
144.0, 11222.810891009676, 618.1598446559722, -33563.155956644536, -14310.123242154508, 3237.940757029147, 23685.249529510682, 34546.87858186705, 27030.97039830332, 6134.905652392585, 5984.053729063718, -13323.360779686069, -26653.963524575654, 7146.210330272953, 808.7755213708308, -8071.21492281138, 327.3189458035166, 0.272, 0.922, 0.234, 192.0, 0.0, 0.0, 0.0, 0.0, 0.0, 0.0, 0.0, 0.0, 0.0, 1.662677312214821E9, 0.0, 2022-09-08 18:48:32.214
146.0, 11194.826506951631, 593.8634984330533, -33595.54363436027, -14339.31462041314, 3216.617192818784, 23672.419628193336, 34702.55848199827, 27064.96740161984, 6107.860041601663, 5968.072231778173, -13350.629907921542, -26678.773960921048, 7131.234661487897, 780.2323437014037, -8098.104071391114, 304.4531112257375, 0.272, 0.922, 0.234, 192.0, 0.0, 0.0, 0.0, 0.0, 0.0, 0.0, 0.0, 0.0, 0.0, 1.6626773122148263E9, 0.0, 2022-09-08 18:48:32.214
148.0, 11207.589353035612, 606.9616206838633, -33593.01788723682, -14320.382692859495, 3229.2459284360325, 23683.14846553188, 34728.64296777761, 27055.17733754842, 6118.410064984569, 5951.643699603522, -13358.765942903274, -26688.765190692568, 7122.182204983498, 767.8718290176188, -8110.174013396981, 292.40552096432697, 0.272, 0.922, 0.234, 192.0, 0.0, 0.0, 0.0, 0.0, 0.0, 0.0, 0.0, 0.0, 0.0, 1.662677312214832E9, 0.0, 2022-09-08 18:48:32.214
150.0, 11191.876076683531, 591.4048065429696, -33616.956605548454, -14343.092065226087, 3201.462710078086, 23671.369096203936, 34839.70878597603, 27054.842061381587, 6097.600590896677, 5948.93913852443, -13363.616271450075, -26688.742838948114, 7107.184184453987, 767.2236284284149, -8114.063216932204, 295.0206750655979, 0.27, 0.894, 0.244, 192.0, 4.0, 56.0, 13.5, 120.0, 3.5, 80.0, 0.0, 0.0, 0.0, 1.6626773122148373E9, 0.0, 2022-09-08 18:48:32.214
152.0, 11178.822657921632, 581.9947221272853, -33626.903131831066, -14357.821864822134, 3193.460785563086, 23653.10772098395, 34860.33944610828, 27035.01606404973, 6087.765823336342, 5939.439647130925, -13373.249873310313, -26690.307461059983, 7093.661379058526, 757.545323079267, -8135.23031893138, 274.56882888899196, 0.27, 0.894, 0.244, 192.0, 0.0, 0.0, 0.0, 0.0, 0.0, 0.0, 0.0, 0.0, 0.0, 1.6626773122148428E9, 0.0, 2022-09-08 18:48:32.214
154.0, 11179.06852711064, 581.6147424715451, -33633.385137723104, -14366.22612073733, 3182.5754860133516, 23656.01344776314, 34945.2984267829, 27066.152044075974, 6074.6900528299875, 5920.93240272193, -13388.69492872893, -26697.86235068588, 7073.969492193401, 739.7309827483872, -8143.880444035583, 268.24328520814004, 0.27, 0.894, 0.244, 192.0, 0.0, 0.0, 0.0, 0.0, 0.0, 0.0, 0.0, 0.0, 0.0, 1.6626773122148485E9, 0.0, 2022-09-08 18:48:32.214
156.0, 11182.756564945767, 584.8557454175645, -33627.75249812037, -14362.135751502008, 3171.8242969303487, 23648.793834304077, 34946.59482796131, 27045.45432871036, 6068.319805660225, 5913.1539956514835, -13390.79599270773, -26693.280243072542, 7071.421393325495, 741.094439160161, -8139.924185266994, 273.3171311994948, 0.27, 0.894, 0.244, 192.0, 0.0, 0.0, 0.0, 0.0, 0.0, 0.0, 0.0, 0.0, 0.0, 1.6626773122148538E9, 0.0, 2022-09-08 18:48:32.214
158.0, 11176.274559053727, 566.0132248417408, -33643.44342272799, -14376.08324004212, 3156.066317089357, 23649.01735174863, 34944.87374363825, 27038.12295652902, 6071.136125461594, 5913.131643907028, -13382.235274581346, -26684.831283668434, 7077.121088161599, 737.5628635362225, -8142.651098090541, 275.664064367302, 0.27, 0.894, 0.244, 192.0, 0.0, 0.0, 0.0, 0.0, 0.0, 0.0, 0.0, 0.0, 0.0, 1.6626773122148592E9, 0.0, 2022-09-08 18:48:32.214
160.0, 11179.381451533014, 567.5331434647017, -33635.26268425735, -14373.155161518474, 3156.558055467374, 23632.789985274077, 34931.32858649833, 27017.67111035241, 6055.892235743075, 5905.554402536679, -13397.568571277687, -26698.801123953002, 7055.797523951236, 721.7825319507757, -8157.85028432015, 256.0168809910871, 0.27, 0.896, 0.23, 192.0, 4.0, 56.0, 14.0, 0.0, 3.5, 24.0, 0.0, 0.0, 0.0, 1.6626773122148645E9, 0.0, 2022-09-08 18:48:32.214
162.0, 11198.514544786758, 588.5437832526902, -33609.80404732276, -14345.729571071814, 3166.146953838701, 23666.45171242377, 34872.29762939187, 27054.59619219258, 6069.705613816454, 5920.641830044011, -13368.734820930342, -26671.33083001743, 7070.773192736291, 734.2101018679264, -8140.661792834019, 267.28216019656185, 0.27, 0.896, 0.23, 192.0, 0.0, 0.0, 0.0, 0.0, 0.0, 0.0, 0.0, 0.0, 0.0, 1.6626773122148695E9, 0.0, 2022-09-08 18:48:32.214
164.0, 11187.271617325738, 576.809117413654, -33612.32979444621, -14348.054152495164, 3151.327747264832, 23634.91340099733, 34802.627241924674, 27012.373746916503, 6068.990357993885, 5911.857594473076, -13370.41120176449, -26667.262812526562, 7065.274663600286, 729.0468488987505, -8143.478112635388, 264.3540816729166, 0.27, 0.896, 0.23, 192.0, 0.0, 0.0, 0.0, 0.0, 0.0, 0.0, 0.0, 0.0, 0.0, 1.6626773122148764E9, 0.0, 2022-09-08 18:48:32.214
166.0, 11190.445565038392, 577.9267046364195, -33599.05285823975, -14340.119283213531, 3151.3724507537427, 23640.21076443324, 34723.68088050853, 27015.793563818166, 6061.1895991789825, 5916.752626508788, -13360.308213270691, -26658.746797889093, 7050.276643070775, 731.3490785776471, -8140.907662023028, 272.8030410770227, 0.27, 0.896, 0.23, 192.0, 0.0, 0.0, 0.0, 0.0, 0.0, 0.0, 0.0, 0.0, 0.0, 1.6626773122148817E9, 0.0, 2022-09-08 18:48:32.214
168.0, 11180.610797478057, 573.8139836566429, -33598.024677994814, -14346.467178638839, 3145.650404173184, 23631.001845717652, 34694.60126097217, 26981.707153523825, 6042.682354769988, 5903.274524602238, -13372.64637621002, -26673.27543178504, 7038.63138420956, 705.2422410538485, -8144.1710167135025, 262.3871281608496, 0.27, 0.896, 0.23, 192.0, 0.0, 0.0, 0.0, 0.0, 0.0, 0.0, 0.0, 0.0, 0.0, 1.662677312214887E9, 0.0, 2022-09-08 18:48:32.214
170.0, 11191.02671039423, 589.326094308626, -33580.65737255304, -14326.618829562525, 3162.4589160035753, 23654.471177395724, 34585.25652709681, 26993.06183970712, 6055.713421787432, 5920.686533532922, -13353.848559123107, -26658.344466488896, 7053.294128572242, 743.351965350147, -8134.604470086631, 280.2014684917293, 0.262, 0.924, 0.226, 192.0, 4.0, 24.0, 14.0, 112.0, 3.5, 8.0, 0.0, 0.0, 0.0, 1.6626773122148921E9, 0.0, 2022-09-08 18:48:32.214
172.0, 11191.473745283336, 581.0559488601624, -33578.71277078542, -14326.685884795892, 3162.302453792388, 23651.654857594356, 34593.70548650092, 27002.047240978154, 6063.871808513619, 5917.937268964919, -13352.529806200244, -26653.784710620013, 7061.072535642688, 736.7805524802867, -8124.590888570654, 289.7903668630561, 0.262, 0.924, 0.226, 192.0, 0.0, 0.0, 0.0, 0.0, 0.0, 0.0, 0.0, 0.0, 0.0, 1.6626773122148976E9, 0.0, 2022-09-08 18:48:32.214
174.0, 11202.940190188909, 591.3377513096036, -33559.35616008713, -14314.16890790092, 3181.6814162351393, 23656.505186141156, 34481.94676422438, 26988.72560128279, 6066.464610870435, 5929.895452248508, -13347.299497997701, -26642.765300603547, 7069.096811902144, 747.9787764523956, -8119.427635601478, 295.7135791437124, 0.262, 0.924, 0.226, 192.0, 0.0, 0.0, 0.0, 0.0, 0.0, 0.0, 0.0, 0.0, 0.0, 1.6626773122149036E9, 0.0, 2022-09-08 18:48:32.214
176.0, 11209.064568169662, 599.2949723356929, -33564.43000607849, -14306.301093852651, 3177.5463435109073, 23671.704372370765, 34472.20140364187, 27046.214288021838, 6089.531611148312, 5936.153940695995, -13333.106140268583, -26635.433928422204, 7084.2512946428415, 759.6910905469764, -8101.523888292777, 313.75143691914525, 0.262, 0.924, 0.226, 192.0, 0.0, 0.0, 0.0, 0.0, 0.0, 0.0, 0.0, 0.0, 0.0, 1.6626773122149093E9, 0.0, 2022-09-08 18:48:32.214
178.0, 11201.844954710597, 595.4951757782908, -33566.35225610164, -14311.062015421632, 3186.2858755929324, 23669.804474092063, 34365.94121050134, 27019.258084208737, 6081.149706977571, 5932.041219716218, -13341.845672350606, -26638.764338346045, 7077.188143394965, 759.2664074023256, -8122.780397269774, 311.29274502906145, 0.262, 0.924, 0.226, 192.0, 0.0, 0.0, 0.0, 0.0, 0.0, 0.0, 0.0, 0.0, 0.0, 1.6626773122149143E9, 0.0, 2022-09-08 18:48:32.214
180.0, 11208.662236769467, 603.7653212267544, -33546.012168647314, -14299.237942604774, 3190.1527273837005, 23676.554700917568, 34463.6853890044, 27046.326046744114, 6096.505355418367, 5937.316231407671, -13333.01673329076, -26626.962617273646, 7087.5370010777715, 769.414099385035, -8094.483088789355, 322.5580242345362, 0.267, 0.922, 0.23, 192.0, 4.0, 64.0, 14.0, 96.0, 3.5, 40.0, 0.0, 0.0, 0.0, 1.6626773122149193E9, 0.0, 2022-09-08 18:48:32.214
182.0, 11209.332789103126, 606.5145857947572, -33554.952866429434, -14307.530439797692, 3188.051663404902, 23671.05617178156, 34467.976923939816, 27045.566087432635, 6080.076823243717, 5929.113141192573, -13331.87679432354, -26630.963579531144, 7091.672073802004, 761.993320225873, -8092.918466677484, 317.0594950985307, 0.267, 0.922, 0.23, 192.0, 0.0, 0.0, 0.0, 0.0, 0.0, 0.0, 0.0, 0.0, 0.0, 1.6626773122149243E9, 0.0, 2022-09-08 18:48:32.214
184.0, 11198.536896531212, 594.9140304224528, -33573.63892479407, -14331.26799240923, 3176.272294076955, 23658.695657097778, 34652.28940871828, 27033.518497171226, 6079.696843587976, 5921.3123823776705, -13338.381151960035, -26638.585524390404, 7111.632181600593, 755.3325003781915, -8079.820344426674, 311.8515386404441, 0.267, 0.922, 0.23, 192.0, 0.0, 0.0, 0.0, 0.0, 0.0, 0.0, 0.0, 0.0, 0.0, 1.6626773122149296E9, 0.0, 2022-09-08 18:48:32.214
186.0, 11193.68656798441, 587.3814925410143, -33590.53684360228, -14344.187300704396, 3167.622168972751, 23648.905593026353, 34696.90349065107, 27022.20851447684, 6068.208046937949, 5904.705036247377, -13356.933099857939, -26655.975181576632, 7102.602076840649, 744.6260147840995, -8094.058405644704, 287.4881371841594, 0.267, 0.922, 0.23, 192.0, 0.0, 0.0, 0.0, 0.0, 0.0, 0.0, 0.0, 0.0, 0.0, 1.6626773122149346E9, 0.0, 2022-09-08 18:48:32.214
188.0, 11176.699242198378, 575.1327365795061, -33620.7340503614, -14371.679946384425, 3147.080915818324, 23642.848270278966, 34876.455053860554, 27020.21920922032, 6057.121581688116, 5896.077262887628, -13382.950530403916, -26670.034428839022, 7081.122050419099, 723.3248023181918, -8107.2459348733355, 272.3113026990059, 0.267, 0.922, 0.23, 192.0, 0.0, 0.0, 0.0, 0.0, 0.0, 0.0, 0.0, 0.0, 0.0, 1.66267731221494E9, 0.0, 2022-09-08 18:48:32.214
190.0, 11184.611759735557, 580.3853965265032, -33612.88858805759, -14363.119228258041, 3145.069258817346, 23637.752072543153, 34882.91470800814, 27020.64389236497, 6048.046773439261, 5887.293027316693, -13382.391736792533, -26663.775940391537, 7071.197875880943, 720.4414272834572, -8122.601583314131, 261.0013200046206, 0.2685, 0.907, 0.233, 192.0, 4.0, 56.0, 13.5, 112.0, 3.5, 48.0, 0.0, 0.0, 0.0, 1.662677312214945E9, 0.0, 2022-09-08 18:48:32.214
192.0, 11154.526311698713, 541.2921954741711, -33633.832172612216, -14392.824696639145, 3107.4512728990644, 23629.34781662796, 34987.49852031452, 27039.575819918613, 6032.6240697651, 5866.617663695534, -13392.561780519698, -26676.225862053143, 7059.463210041906, 701.5094997298122, -8129.351810139634, 253.62524433436923, 0.2685, 0.907, 0.233, 192.0, 0.0, 0.0, 0.0, 0.0, 0.0, 0.0, 0.0, 0.0, 0.0, 1.66267731221495E9, 0.0, 2022-09-08 18:48:32.214
194.0, 11143.529253426703, 534.3855064374812, -33632.40166096707, -14397.272693785751, 3097.795319294372, 23606.23611286117, 34907.68044086462, 27000.25910142173, 6025.940898172963, 5836.576919147601, -13409.347940605634, -26697.86235068588, 7041.850035411124, 667.6913103689326, -8150.608319116631, 236.3473458704169, 0.2685, 0.907, 0.233, 192.0, 0.0, 0.0, 0.0, 0.0, 0.0, 0.0, 0.0, 0.0, 0.0, 1.6626773122149549E9, 0.0, 2022-09-08 18:48:32.214
196.0, 11121.713950838322, 520.8403492975651, -33642.92933260553, -14413.075377115652, 3077.1423074176682, 23591.372202798393, 34977.79786322092, 27008.193970703363, 6009.914697398508, 5829.491416155269, -13418.892135488051, -26696.409487296285, 7037.53614873125, 668.1383452580387, -8153.446990662455, 234.62626154735824, 0.2685, 0.907, 0.233, 192.0, 0.0, 0.0, 0.0, 0.0, 0.0, 0.0, 0.0, 0.0, 0.0, 1.662677312214961E9, 0.0, 2022-09-08 18:48:32.214
198.0, 11135.795549845167, 531.3233174471042, -33625.58437890821, -14398.479687986337, 3094.0625779703355, 23590.075801619983, 34930.61333067576, 26993.978261229786, 5984.6125226751, 5816.661514837923, -13431.967905994405, -26702.556217021494, 7015.564383931683, 657.0071765192959, -8159.414906432022, 225.12677015385273, 0.2685, 0.907, 0.233, 192.0, 0.0, 0.0, 0.0, 0.0, 0.0, 0.0, 0.0, 0.0, 0.0, 1.662677312214966E9, 0.0, 2022-09-08 18:48:32.214
200.0, 11139.327125469104, 532.3738494365036, -33624.64560564108, -14397.831487397134, 3071.46496432602, 23599.932920924773, 34928.758135885975, 26974.62165053149, 6006.5395839857565, 5837.001602292252, -13403.648245769531, -26672.738989918114, 7026.337924759141, 674.2403714943375, -8146.786170814774, 243.45520060720452, 0.27125, 0.9025000000000001, 0.2315, 192.0, 4.0, 72.0, 14.0, 8.0, 3.5, 24.0, 0.0, 0.0, 0.0, 1.6626773122149713E9, 0.0, 2022-09-08 18:48:32.214
202.0, 11143.395142959971, 536.5983291385567, -33616.7330881039, -14381.917045344955, 3065.921731701104, 23595.104944122428, 34843.262713344426, 26969.10076965103, 5995.967208858396, 5827.882090554487, -13404.31879810319, -26668.08982707141, 7017.196061276921, 661.9916155328293, -8158.52083665381, 236.88378773734425, 0.27125, 0.9025000000000001, 0.2315, 192.0, 0.0, 0.0, 0.0, 0.0, 0.0, 0.0, 0.0, 0.0, 0.0, 1.6626773122149765E9, 0.0, 2022-09-08 18:48:32.214
204.0, 11138.701276624355, 525.9365470333752, -33629.16065802106, -14385.828600624634, 3043.167655845601, 23583.370278283393, 34808.6175094387, 26962.261135847704, 5994.179069301971, 5842.880111083998, -13394.774603220774, -26652.734178630613, 7018.872442111068, 669.7253191143656, -8151.27887145029, 242.53877908453694, 0.27125, 0.9025000000000001, 0.2315, 192.0, 0.0, 0.0, 0.0, 0.0, 0.0, 0.0, 0.0, 0.0, 0.0, 1.6626773122149813E9, 0.0, 2022-09-08 18:48:32.214
206.0, 11150.30183199666, 539.168779750917, -33608.32883218871, -14365.667327125946, 3062.144286888157, 23594.456743533225, 34732.91215096857, 26947.352522296016, 5978.532848183257, 5828.709105099333, -13396.339225332646, -26652.26479199705, 7011.764587374281, 660.9857870323405, -8159.638423876575, 236.63791854833588, 0.27125, 0.9025000000000001, 0.2315, 192.0, 0.0, 0.0, 0.0, 0.0, 0.0, 0.0, 0.0, 0.0, 0.0, 1.662677312214986E9, 0.0, 2022-09-08 18:48:32.214
208.0, 11127.145424740962, 519.0298579966853, -33627.104297531165, -14391.394184994006, 3042.2959378118444, 23590.567539998003, 34687.225185301926, 26937.249533802216, 5981.907961596008, 5834.453503424347, -13377.228483823357, -26640.79834709148, 7022.359314246097, 670.2170574923823, -8155.458647663432, 252.68647106724634, 0.27125, 0.9025000000000001, 0.2315, 192.0, 0.0, 0.0, 0.0, 0.0, 0.0, 0.0, 0.0, 0.0, 0.0, 1.662677312214991E9, 0.0, 2022-09-08 18:48:32.214
210.0, 11139.751808613755, 539.2805384731935, -33610.07226825622, -14383.839295368112, 3046.788638447361, 23588.95821439722, 34618.627681568585, 26945.072644361575, 5956.874007806064, 5810.29126766816, -13406.4645655709, -26670.61557419486, 7003.0697587811665, 646.7700775587651, -8179.956159586449, 223.62920327534715, 0.267625, 0.9172500000000001, 0.23175, 192.0, 4.0, 32.0, 14.5, 16.0, 3.5, 32.0, 0.0, 0.0, 0.0, 1.662677312214996E9, 0.0, 2022-09-08 18:48:32.214
212.0, 11140.668230136424, 539.6158146400231, -33606.80891356575, -14383.481667456826, 3043.5699872457967, 23586.18659808476, 34536.909703839985, 26956.606144500514, 5985.014854075295, 5843.148332017462, -13375.753268689308, -26643.525259915026, 7032.931689373457, 674.6203511500778, -8156.822104075206, 252.61941583388042, 0.267625, 0.9172500000000001, 0.23175, 192.0, 0.0, 0.0, 0.0, 0.0, 0.0, 0.0, 0.0, 0.0, 0.0, 1.662677312215001E9, 0.0, 2022-09-08 18:48:32.215
214.0, 11133.403913188447, 532.329145947593, -33611.301614201264, -14380.240664510808, 3041.692440711551, 23579.972813126187, 34510.467590149354, 26900.503265917694, 5976.521191182279, 5829.491416155269, -13391.69006248594, -26655.50579494307, 7021.91227935699, 657.9459497864187, -8165.986319301882, 240.5494738280146, 0.267625, 0.9172500000000001, 0.23175, 192.0, 0.0, 0.0, 0.0, 0.0, 0.0, 0.0, 0.0, 0.0, 0.0, 1.6626773122150056E9, 0.0, 2022-09-08 18:48:32.215
216.0, 11142.881052837498, 550.4340589563917, -33596.23653843839, -14349.775236818223, 3060.9596444320255, 23614.752127498643, 34385.364876433, 26968.38551382846, 5979.605731917111, 5846.344631474571, -13388.002024650816, -26641.84887908088, 7028.684857926948, 681.9964268203291, -8162.8347233336835, 260.9789682601653, 0.267625, 0.9172500000000001, 0.23175, 192.0, 0.0, 0.0, 0.0, 0.0, 0.0, 0.0, 0.0, 0.0, 0.0, 1.6626773122150104E9, 0.0, 2022-09-08 18:48:32.215
218.0, 11138.120131268517, 550.5905211675789, -33602.137398974584, -14361.12992300152, 3066.793449734861, 23615.512086810126, 34380.42514090838, 26964.25044110423, 5989.351092499625, 5849.607986165045, -13384.001062393316, -26627.297893440475, 7033.177558562465, 699.3637322621026, -8157.224435475402, 273.80886957751153, 0.267625, 0.9172500000000001, 0.23175, 192.0, 0.0, 0.0, 0.0, 0.0, 0.0, 0.0, 0.0, 0.0, 0.0, 1.6626773122150156E9, 0.0, 2022-09-08 18:48:32.215
220.0, 11155.509788454747, 571.3552917665592, -33599.72341057342, -14359.900577056478, 3078.6398742961737, 23625.413909603823, 34327.384451315935, 26994.268833907707, 5991.675673922977, 5857.296986257671, -13377.74257394583, -26620.525314870516, 7037.424390008973, 699.5201944732898, -8159.884293065584, 269.80790732001157, 0.2668125, 0.916625, 0.235875, 192.0, 4.0, 40.0, 14.0, 80.0, 3.5, 64.0, 0.0, 0.0, 0.0, 1.6626773122150204E9, 0.0, 2022-09-08 18:48:32.215
222.0, 11146.703201139355, 556.6478439149671, -33624.77971610781, -14388.46610647036, 3063.08306015528, 23615.71325251022, 34447.59213299658, 26975.15809239842, 5995.743691413843, 5851.485532699291, -13381.162390847492, -26627.02967250701, 7041.53711098875, 688.9254676014743, -8155.480999407888, 269.6067416199138, 0.2668125, 0.916625, 0.235875, 192.0, 0.0, 0.0, 0.0, 0.0, 0.0, 0.0, 0.0, 0.0, 0.0, 1.6626773122150257E9, 0.0, 2022-09-08 18:48:32.215
224.0, 11152.849930864564, 563.5768846961123, -33625.33850971919, -14391.975330349844, 3071.46496432602, 23625.21274390373, 34452.889496432486, 26970.866557463, 5991.586266945156, 5829.6255266220005, -13389.700757229419, -26645.26869598254, 7037.357334775607, 677.32491222917, -8166.656871635541, 256.0168809910871, 0.2668125, 0.916625, 0.235875, 192.0, 0.0, 0.0, 0.0, 0.0, 0.0, 0.0, 0.0, 0.0, 0.0, 1.6626773122150307E9, 0.0, 2022-09-08 18:48:32.215
226.0, 11123.993828772764, 528.1270179899952, -33652.89821063259, -14420.809080697189, 3045.380478546677, 23599.53058952458, 34637.17962946649, 26955.645019488937, 5991.362749500603, 5819.053151494641, -13405.011702181304, -26657.517451944048, 7031.38941900604, 659.9576067873963, -8164.779325101295, 253.58054084545861, 0.2668125, 0.916625, 0.235875, 192.0, 0.0, 0.0, 0.0, 0.0, 0.0, 0.0, 0.0, 0.0, 0.0, 1.662677312215036E9, 0.0, 2022-09-08 18:48:32.215
228.0, 11115.947200768853, 519.7674655637104, -33657.81559441276, -14425.61470575508, 3030.985955117459, 23593.495618521647, 34656.04450178677, 26977.19210114385, 5967.982824800351, 5797.52842158418, -13425.351789635633, -26679.086885343422, 7009.015322806278, 657.4318596639466, -8190.7744039028175, 227.76427599957896, 0.2668125, 0.916625, 0.235875, 192.0, 0.0, 0.0, 0.0, 0.0, 0.0, 0.0, 0.0, 0.0, 0.0, 1.662677312215042E9, 0.0, 2022-09-08 18:48:32.215
230.0, 11117.377712413992, 522.1591022204283, -33647.109108818666, -14422.016074897776, 3025.174501559079, 23596.088420878463, 34785.59521264973, 26970.218356873796, 5963.89245556503, 5785.369072600493, -13435.432426384978, -26686.507664502584, 6996.543049400217, 635.325984397648, -8200.743281929885, 220.2764416070511, 0.26540625, 0.8993125, 0.2419375, 192.0, 4.0, 32.0, 13.5, 72.0, 3.5, 96.0, 0.0, 0.0, 0.0, 1.6626773122150471E9, 0.0, 2022-09-08 18:48:32.215
232.0, 11114.136709467974, 514.8724335279982, -33631.19466676649, -14413.321246304662, 3032.8635016517046, 23590.43342953127, 34749.720662798965, 26969.43604581786, 5959.936196796441, 5790.487622080758, -13423.407187868022, -26671.12966431733, 7010.177613517954, 650.2569496937931, -8190.237962035891, 221.81871197446728, 0.26540625, 0.8993125, 0.2419375, 192.0, 0.0, 0.0, 0.0, 0.0, 0.0, 0.0, 0.0, 0.0, 0.0, 1.662677312215052E9, 0.0, 2022-09-08 18:48:32.215
234.0, 11084.699462020333, 485.7481105027331, -33648.919600119545, -14436.254136115807, 3007.0919402947357, 23575.256595046118, 34917.96224331406, 27010.764421315722, 5937.718562807866, 5769.879313692965, -13442.4732258884, -26681.456170255682, 6997.124194756055, 622.7419522693101, -8172.870656594117, 223.87507246435553, 0.26540625, 0.8993125, 0.2419375, 192.0, 0.0, 0.0, 0.0, 0.0, 0.0, 0.0, 0.0, 0.0, 0.0, 1.6626773122150571E9, 0.0, 2022-09-08 18:48:32.215
236.0, 11087.985168455263, 489.9055349714202, -33646.527963462824, -14429.146281379019, 3008.8353763622495, 23576.932975880263, 34865.01096069944, 26997.44278162036, 5927.526167336246, 5752.534359995647, -13455.057258016737, -26694.151961106298, 6982.483802137828, 604.0558939046733, -8194.037758593293, 216.119017138364, 0.26540625, 0.8993125, 0.2419375, 192.0, 0.0, 0.0, 0.0, 0.0, 0.0, 0.0, 0.0, 0.0, 0.0, 1.6626773122150624E9, 0.0, 2022-09-08 18:48:32.215
238.0, 11086.24173238775, 490.8666599829984, -33658.933181635526, -14442.713790263391, 2992.6750651210627, 23568.975754854175, 34940.425746491645, 26983.450589591335, 5936.489216862824, 5753.6072437295015, -13439.99218225386, -26672.962507362667, 6980.203924203387, 608.9956294292962, -8186.169944545025, 221.34932534090584, 0.26540625, 0.8993125, 0.2419375, 192.0, 0.0, 0.0, 0.0, 0.0, 0.0, 0.0, 0.0, 0.0, 0.0, 1.6626773122150671E9, 0.0, 2022-09-08 18:48:32.215
240.0, 11095.33889238106, 498.28743914216034, -33664.76698693836, -14440.165691395485, 2993.9714662994706, 23558.962173338197, 34862.37345485371, 26946.57021124008, 5920.12773992154, 5744.3312697805495, -13448.888176547072, -26671.688457928714, 6956.712240780859, 589.4155012864472, -8210.53334600131, 195.17543258374127, 0.26540625, 0.8993125, 0.2419375, 192.0, 0.0, 0.0, 0.0, 0.0, 0.0, 0.0, 0.0, 0.0, 0.0, 1.6626773126945386E9, 0.0, 2022-09-08 18:48:32.694
242.0, 11098.24461916025, 496.4992995857358, -33670.55608875228, -14442.534976307748, 2992.7868238433393, 23555.47530120317, 34879.114911450735, 26946.100824606518, 5933.471731361357, 5765.967758413286, -13427.743426292353, -26643.41350119275, 6965.965862985357, 597.8644606905533, -8195.960008616448, 210.3969705578054, 0.268, 0.888, 0.242, 192.0, 4.0, 48.0, 13.5, 96.0, 3.5, 72.0, 0.0, 0.0, 0.0, 1.6626773126945903E9, 0.0, 2022-09-08 18:48:32.694
244.0, 11108.124090209496, 506.55758459062395, -33650.66303618706, -14434.220127370374, 2975.084242234736, 23544.969981309176, 34770.84306130923, 26919.166972537874, 5918.898393976498, 5745.404153514404, -13437.980525252882, -26656.779844377023, 6954.7005837798815, 579.1560505814613, -8203.00080811987, 194.5942872279033, 0.268, 0.888, 0.242, 192.0, 0.0, 0.0, 0.0, 0.0, 0.0, 0.0, 0.0, 0.0, 0.0, 1.662677312694596E9, 0.0, 2022-09-08 18:48:32.694
246.0, 11119.612886859524, 518.1134364740177, -33643.957512850466, -14422.61957199807, 2977.609989358186, 23551.072007545474, 34762.505860627396, 26944.603257728013, 5939.238481430827, 5773.85792420601, -13413.617123796597, -26632.192925476185, 6974.057194478178, 598.9596961688634, -8188.963912601938, 216.1637206272746, 0.268, 0.888, 0.242, 192.0, 0.0, 0.0, 0.0, 0.0, 0.0, 0.0, 0.0, 0.0, 0.0, 1.6626773126946003E9, 0.0, 2022-09-08 18:48:32.694
248.0, 11115.500165879746, 512.7266660602887, -33638.07900405872, -14414.125909105052, 2977.6770445915517, 23549.641495900334, 34665.745158880374, 26913.04259455712, 5936.5115686072795, 5772.248598605228, -13415.293504630747, -26636.864440067344, 6980.181572458932, 592.3212280656371, -8190.282665524801, 224.09858990890862, 0.268, 0.888, 0.242, 192.0, 0.0, 0.0, 0.0, 0.0, 0.0, 0.0, 0.0, 0.0, 0.0, 1.662677312694605E9, 0.0, 2022-09-08 18:48:32.694
250.0, 11110.33691291057, 504.7470932897441, -33629.004195809866, -14408.605028224592, 2974.1901724565237, 23556.883461103855, 34621.846332770154, 26928.88998137593, 5924.821606257154, 5768.873485192476, -13422.334304134167, -26645.71573087165, 6972.224351432843, 596.7692252122432, -8195.781194660807, 227.94308995522144, 0.268, 0.888, 0.242, 192.0, 0.0, 0.0, 0.0, 0.0, 0.0, 0.0, 0.0, 0.0, 0.0, 1.6626773126946096E9, 0.0, 2022-09-08 18:48:32.694
252.0, 11099.295151149649, 504.4118171229145, -33621.31519571724, -14408.8508974136, 2971.753832310895, 23558.336324493448, 34527.56667465767, 26901.17381825135, 5919.054856187685, 5766.772421213677, -13418.914487232505, -26650.096672784886, 6969.184514186921, 599.7420072247991, -8203.783119175807, 229.4853603226376, 0.268, 0.928, 0.234, 192.0, 4.0, 48.0, 14.5, 0.0, 3.5, 40.0, 0.0, 0.0, 0.0, 1.662677312694614E9, 0.0, 2022-09-08 18:48:32.694
254.0, 11106.000674486242, 510.1785671923837, -33597.68940182798, -14389.628397182036, 2984.270809205867, 23578.72111543669, 34471.06146467465, 26925.47016447427, 5915.836204986121, 5771.622749760479, -13412.678350529475, -26645.983951805112, 6974.347767156097, 612.616612031056, -8203.850174409172, 240.30360463900624, 0.268, 0.928, 0.234, 192.0, 0.0, 0.0, 0.0, 0.0, 0.0, 0.0, 0.0, 0.0, 0.0, 1.6626773126946185E9, 0.0, 2022-09-08 18:48:32.694
0.0, 11101.753843039733, 512.7043143158334, -33582.870195254116, -14372.46225744036, 2985.7460243399173, 23569.020458343086, 34366.90233551292, 26885.527597132637, 5920.150091665994, 5782.306883610116, -13405.36933009259, -26624.8839050393, 6987.691758595915, 620.9985162017962, -8178.23507526339, 248.57375008746985, 0.268, 0.928, 0.234, 192.0, 0.0, 0.0, 0.0, 0.0, 0.0, 0.0, 0.0, 0.0, 0.0, 1.6626773126946228E9, 0.0, 2022-09-08 18:48:32.694
2.0, 11112.81795654511, 523.7013725878445, -33565.30172411224, -14354.960841531854, 3000.2523064914117, 23598.23418834617, 34343.99179744623, 26949.386531041448, 5926.3638766245695, 5792.767500015199, -13389.65605374051, -26614.736213056593, 6998.510002912284, 631.9955744738072, -8150.161284227524, 274.4347184222601, 0.268, 0.928, 0.234, 192.0, 0.0, 0.0, 0.0, 0.0, 0.0, 0.0, 0.0, 0.0, 0.0, 1.6626773126946275E9, 0.0, 2022-09-08 18:48:32.694
4.0, 11118.025913003197, 526.2494714557495, -33572.74485501586, -14353.195053719886, 3006.4660914499873, 23606.705499494732, 34360.35327438751, 26972.073551663587, 5912.952829951386, 5777.881238207965, -13405.36933009259, -26625.30858818395, 6991.312741197675, 634.1413419415167, -8151.636499361575, 269.13735498635236, 0.268, 0.928, 0.234, 192.0, 0.0, 0.0, 0.0, 0.0, 0.0, 0.0, 0.0, 0.0, 0.0, 1.6626773126946383E9, 0.0, 2022-09-08 18:48:32.694
6.0, 11148.916023840431, 554.6585386584447, -33567.045160179754, -14350.937527529899, 3027.722600426984, 23631.113604439928, 34390.2152049798, 27015.25712195124, 5964.6077113876, 5807.00556123323, -13373.875722155062, -26589.9257767112, 7021.308782256697, 663.1315545000499, -8132.525757852288, 300.8768321128884, 0.272, 0.908, 0.232, 192.0, 4.0, 64.0, 14.0, 48.0, 3.5, 32.0, 0.0, 0.0, 0.0, 1.6626773126946425E9, 0.0, 2022-09-08 18:48:32.694
8.0, 11124.44086366187, 530.6304133689897, -33608.97703277791, -14397.049176341197, 2990.998684286915, 23598.72592672419, 34538.56373292968, 26989.15028442744, 5944.580548355645, 5778.752956241722, -13407.22452488238, -26614.244474678573, 6997.392415689518, 633.8954727525083, -8156.106848252636, 260.35311941541664, 0.272, 0.908, 0.232, 192.0, 0.0, 0.0, 0.0, 0.0, 0.0, 0.0, 0.0, 0.0, 0.0, 1.6626773126946473E9, 0.0, 2022-09-08 18:48:32.694
10.0, 11135.81790158962, 553.4291927134029, -33597.28707042779, -14396.579789707637, 3006.980181572459, 23620.787098501576, 34590.17391087698, 27061.97226786283, 5944.513493122279, 5788.230095890773, -13399.535524789755, -26602.398050117263, 7000.387549446529, 648.1782374594495, -8153.782266829285, 273.3394829439501, 0.272, 0.908, 0.232, 192.0, 0.0, 0.0, 0.0, 0.0, 0.0, 0.0, 0.0, 0.0, 0.0, 1.6626773126946516E9, 0.0, 2022-09-08 18:48:32.694
12.0, 11100.122165694496, 514.9618405058194, -33625.47262018593, -14437.483482060848, 2971.5750183552527, 23589.7181737087, 34749.83242152124, 27030.366901203026, 5928.666106303466, 5752.04262161763, -13439.18751945347, -26637.244419723087, 6983.869610294058, 614.2482893762934, -8181.006691575849, 240.8400465059336, 0.272, 0.908, 0.232, 192.0, 0.0, 0.0, 0.0, 0.0, 0.0, 0.0, 0.0, 0.0, 0.0, 1.662677312694656E9, 0.0, 2022-09-08 18:48:32.694
14.0, 11087.314616121605, 497.8627559975095, -33632.982806322914, -14449.776941511267, 2961.695547306007, 23576.262423546606, 34753.207534933994, 27022.163810987928, 5913.176347395939, 5737.2904702771275, -13452.844435315661, -26651.258963496563, 6981.4109184039735, 607.8333387176202, -8195.848249894172, 217.4377700612271, 0.272, 0.908, 0.232, 192.0, 0.0, 0.0, 0.0, 0.0, 0.0, 0.0, 0.0, 0.0, 0.0, 1.6626773126946607E9, 0.0, 2022-09-08 18:48:32.694
16.0, 11061.408944297904, 469.2748748391718, -33657.05563510128, -14463.657374818013, 2938.0026981833817, 23551.42963545676, 34839.328806320285, 27003.008365989732, 5887.874172672531, 5703.114653004963, -13486.640272932085, -26673.923632374244, 6956.064040191655, 570.8635533885424, -8210.265125067846, 196.65064771779154, 0.274, 0.882, 0.23800000000000002, 192.0, 4.0, 72.0, 13.5, 72.0, 3.5, 56.0, 0.0, 0.0, 0.0, 1.6626773126946652E9, 0.0, 2022-09-08 18:48:32.694
18.0, 11060.246653586228, 472.1358981294511, -33651.937085621015, -14455.253118902818, 2936.6168900271523, 23539.739673106633, 34784.54468066033, 27006.227017191293, 5879.7381376908, 5717.553879923092, -13486.796735143273, -26665.139396803308, 6963.976557728834, 573.5904662120898, -8211.472119268432, 196.829461673434, 0.274, 0.882, 0.23800000000000002, 192.0, 0.0, 0.0, 0.0, 0.0, 0.0, 0.0, 0.0, 0.0, 0.0, 1.6626773126946695E9, 0.0, 2022-09-08 18:48:32.694
20.0, 11047.014420868687, 462.0552613801076, -33654.06050134427, -14460.796351527733, 2918.109645618158, 23532.788280581033, 34891.140149967694, 26996.369897886503, 5850.613814665534, 5707.540298407113, -13504.43226151851, -26676.76230392007, 6951.124304667032, 548.0871257885844, -8211.226250079424, 190.8391941594117, 0.274, 0.882, 0.23800000000000002, 192.0, 0.0, 0.0, 0.0, 0.0, 0.0, 0.0, 0.0, 0.0, 0.0, 1.662677312694674E9, 0.0, 2022-09-08 18:48:32.694
22.0, 11051.395362781926, 463.9104561698981, -33641.36471049365, -14456.8624445036, 2902.217555310435, 23535.00110328211, 34768.83140430825, 26981.72950526828, 5843.617718651023, 5715.542222922114, -13502.57706672872, -26667.70984741567, 6941.647165017983, 547.3495182215594, -8224.234965352412, 183.77604291153466, 0.274, 0.882, 0.23800000000000002, 192.0, 0.0, 0.0, 0.0, 0.0, 0.0, 0.0, 0.0, 0.0, 0.0, 1.6626773126946788E9, 0.0, 2022-09-08 18:48:32.694
24.0, 11063.487656532247, 474.54988653062424, -33629.339471976695, -14447.76528451029, 2904.6538954560633, 23538.756196350598, 34830.23164632698, 27050.304657257162, 5848.065715797629, 5713.307048476583, -13491.401194501066, -26655.595201920893, 6934.360496325553, 545.3155094761264, -8221.798625206784, 191.86737440435581, 0.274, 0.882, 0.23800000000000002, 192.0, 0.0, 0.0, 0.0, 0.0, 0.0, 0.0, 0.0, 0.0, 0.0, 1.6626773126946833E9, 0.0, 2022-09-08 18:48:32.694
26.0, 11071.556636280613, 487.22332563678333, -33624.578550407714, -14428.632191256547, 2911.6723432150297, 23552.83779535744, 34757.49906986941, 27050.01408457924, 5843.885939584487, 5710.244859486206, -13482.751069396863, -26639.636056379804, 6932.70646723586, 532.8208843256098, -8211.025084379326, 197.76823494055688, 0.272, 0.896, 0.24, 192.0, 4.0, 64.0, 14.0, 0.0, 3.5, 64.0, 0.0, 0.0, 0.0, 1.6626773126946876E9, 0.0, 2022-09-08 18:48:32.694
28.0, 11070.416697313392, 481.0318924226633, -33628.22188475393, -14422.351351064606, 2902.798700666273, 23550.826138356464, 34760.56125885979, 27053.74682590328, 5850.546759432168, 5718.358542723482, -13477.386650727589, -26628.817812063437, 6934.18168236991, 550.9705008233191, -8204.252505809369, 208.94410716821042, 0.272, 0.896, 0.24, 192.0, 0.0, 0.0, 0.0, 0.0, 0.0, 0.0, 0.0, 0.0, 0.0, 1.6626773126946921E9, 0.0, 2022-09-08 18:48:32.694
30.0, 11073.322424092583, 485.25637212471634, -33611.36866943463, -14415.33290330564, 2914.6227734831305, 23551.764911623588, 34620.90755950303, 27031.05980528114, 5840.041439538174, 5706.378007695438, -13481.320557751724, -26636.64092262279, 6934.069923647634, 547.0365937991851, -8207.806433177762, 213.16858687026345, 0.272, 0.896, 0.24, 192.0, 0.0, 0.0, 0.0, 0.0, 0.0, 0.0, 0.0, 0.0, 0.0, 1.662677312694697E9, 0.0, 2022-09-08 18:48:32.694
32.0, 11068.71796473479, 477.3215028430823, -33612.39684967957, -14427.514604033782, 2897.791909908284, 23553.37423722437, 34613.0173937103, 27055.669075926435, 5846.434038452392, 5709.976638552742, -13472.782191369795, -26631.723538842623, 6940.596633028583, 550.3446519785705, -8197.122299328124, 227.5407585550259, 0.272, 0.896, 0.24, 192.0, 0.0, 0.0, 0.0, 0.0, 0.0, 0.0, 0.0, 0.0, 0.0, 1.6626773126947012E9, 0.0, 2022-09-08 18:48:32.694
34.0, 11073.612996770502, 485.25637212471634, -33596.10242797166, -14428.18515636744, 2909.0348373693037, 23548.27803948856, 34466.59111578359, 27028.757575602245, 5835.839311580577, 5719.878461346443, -13474.682089648497, -26631.164745231243, 6934.718124236838, 542.4768379303024, -8210.488642512399, 217.88480495033323, 0.272, 0.896, 0.24, 192.0, 0.0, 0.0, 0.0, 0.0, 0.0, 0.0, 0.0, 0.0, 0.0, 1.6626773126947055E9, 0.0, 2022-09-08 18:48:32.694
36.0, 11087.761651010711, 501.48373859926926, -33575.382360861586, -14409.901429403, 2921.2612415863564, 23572.95436536722, 34424.838057141074, 27056.02670383772, 5852.267843755227, 5726.807502127588, -13460.153455752547, -26618.11132646934, 6958.701546037382, 557.0725270596179, -8192.182563803502, 222.57867128594773, 0.266, 0.922, 0.24, 192.0, 4.0, 40.0, 14.0, 104.0, 3.5, 64.0, 0.0, 0.0, 0.0, 1.6626773126947112E9, 0.0, 2022-09-08 18:48:32.694
38.0, 11073.322424092583, 491.2689913831939, -33569.012113691824, -14407.666254957468, 2920.702447974974, 23567.321725764483, 34309.32424179605, 27030.657473880947, 5853.944224589375, 5728.729752150745, -13456.443066172966, -26610.534085098992, 6958.835656504114, 566.1920387973832, -8185.186467788991, 227.67486902175773, 0.266, 0.922, 0.24, 192.0, 0.0, 0.0, 0.0, 0.0, 0.0, 0.0, 0.0, 0.0, 0.0, 1.6626773126947155E9, 0.0, 2022-09-08 18:48:32.694
40.0, 11077.189275883351, 504.3447618895486, -33561.92661069949, -14398.36792926406, 2931.3418783357, 23577.04473460254, 34242.7830985526, 27017.87227605251, 5852.558416433146, 5731.27785101865, -13458.074743518204, -26605.683756552193, 6965.563531585161, 573.0316726007071, -8182.079575309704, 233.08399117994205, 0.266, 0.922, 0.24, 192.0, 0.0, 0.0, 0.0, 0.0, 0.0, 0.0, 0.0, 0.0, 0.0, 1.66267731269472E9, 0.0, 2022-09-08 18:48:32.694
42.0, 11087.404023099425, 519.2533754412384, -33545.9674651584, -14387.773202392245, 2939.209692383968, 23594.99318540015, 34104.89518700781, 27028.131726757496, 5862.951977604864, 5737.13400806594, -13455.101961505648, -26596.228968647596, 6971.844371777102, 586.2192018293383, -8176.469287451421, 240.41536336128277, 0.266, 0.922, 0.24, 192.0, 0.0, 0.0, 0.0, 0.0, 0.0, 0.0, 0.0, 0.0, 0.0, 1.6626773126947246E9, 0.0, 2022-09-08 18:48:32.694
44.0, 11094.333063880571, 517.1523114624395, -33544.67106397999, -14391.193019293907, 2936.4157243270547, 23600.826990702986, 34112.964166756174, 27057.501918971768, 5865.097745072573, 5747.61697621548, -13450.944537036961, -26588.338802854872, 6979.1757439584435, 593.8411466885981, -8174.636444406086, 257.8720757808776, 0.266, 0.922, 0.24, 192.0, 0.0, 0.0, 0.0, 0.0, 0.0, 0.0, 0.0, 0.0, 0.0, 1.662677312694729E9, 0.0, 2022-09-08 18:48:32.694
46.0, 11105.397177385948, 529.4681226573138, -33530.6118167176, -14383.414612223462, 2955.0794309472362, 23611.131144896885, 34137.796954846024, 27090.761314721265, 5896.926629176931, 5751.059144861597, -13442.495577632855, -26580.31452659542, 6978.371081158052, 594.4446437888913, -8170.18844725948, 266.1422212293412, 0.268, 0.914, 0.24, 192.0, 4.0, 56.0, 14.0, 40.0, 3.5, 64.0, 0.0, 0.0, 0.0, 1.6626773126947336E9, 0.0, 2022-09-08 18:48:32.694
48.0, 11106.559468097625, 527.232948211783, -33538.63609297706, -14392.020033838753, 2948.753887266384, 23613.38867108687, 34234.44589787077, 27096.617471768557, 5902.380454824025, 5758.994014143231, -13439.791016553763, -26574.748942226048, 6988.4517179073955, 606.3357718391147, -8162.052412277748, 261.13543047135244, 0.268, 0.914, 0.24, 192.0, 0.0, 0.0, 0.0, 0.0, 0.0, 0.0, 0.0, 0.0, 0.0, 1.662677312694738E9, 0.0, 2022-09-08 18:48:32.694
50.0, 11092.567276068601, 512.81607303811, -33559.24440136486, -14410.013188125276, 2937.5109598053646, 23609.991205929662, 34348.909181226394, 27097.51154154677, 5893.506812275268, 5742.99016511323, -13460.935766808483, -26594.373773857806, 6978.393432902508, 590.2648675757489, -8181.610188676142, 240.41536336128277, 0.268, 0.914, 0.24, 192.0, 0.0, 0.0, 0.0, 0.0, 0.0, 0.0, 0.0, 0.0, 0.0, 1.6626773126947427E9, 0.0, 2022-09-08 18:48:32.694
52.0, 11086.599360299035, 497.5051280862246, -33574.84591899466, -14430.979124424353, 2924.0105061543595, 23598.43535404627, 34439.21022882584, 27103.21123638287, 5889.841126184599, 5734.228281286751, -13466.121371522115, -26604.767335029526, 6975.197133445398, 582.6876262053999, -8192.495488225877, 232.05581093499794, 0.268, 0.914, 0.24, 192.0, 0.0, 0.0, 0.0, 0.0, 0.0, 0.0, 0.0, 0.0, 0.0, 1.662677312694747E9, 0.0, 2022-09-08 18:48:32.694
54.0, 11067.488618789748, 482.46240406780294, -33594.49310237087, -14456.214243914395, 2897.7472064193735, 23567.05350483102, 34569.6103059781, 27085.106323374075, 5879.5146202462465, 5701.348865192994, -13490.395366000577, -26632.37173943183, 6956.1087436805665, 560.0453090721737, -8214.936639659005, 208.11709262336407, 0.268, 0.914, 0.24, 192.0, 0.0, 0.0, 0.0, 0.0, 0.0, 0.0, 0.0, 0.0, 0.0, 1.6626773126947515E9, 0.0, 2022-09-08 18:48:32.694
56.0, 11081.369052096494, 493.54886931763525, -33583.54074758777, -14453.129703179564, 2895.869659885128, 23580.397496270838, 34607.54121631876, 27073.59517497959, 5874.396070765981, 5703.293466960606, -13494.105755580158, -26632.46114640965, 6949.045592432689, 556.7819543816989, -8217.52944201582, 196.69535120670216, 0.27, 0.898, 0.243, 192.0, 4.0, 64.0, 13.5, 72.0, 3.5, 88.0, 0.0, 0.0, 0.0, 1.662677312694756E9, 0.0, 2022-09-08 18:48:32.694
58.0, 11063.398249554426, 474.21461036379463, -33593.28610817029, -14454.537863080248, 2887.3312935032004, 23574.22841480117, 34700.54682499729, 27068.476625499326, 5874.731346932811, 5693.391644166904, -13502.57706672872, -26631.723538842623, 6940.2613568617535, 532.1726837364058, -8220.591631006197, 191.7779674265346, 0.27, 0.898, 0.243, 192.0, 0.0, 0.0, 0.0, 0.0, 0.0, 0.0, 0.0, 0.0, 0.0, 1.6626773126947603E9, 0.0, 2022-09-08 18:48:32.694
60.0, 11041.650002199412, 450.4100025188926, -33614.36380319164, -14464.417334129494, 2856.6199966216086, 23550.04382730053, 34656.71505412043, 27053.769177647733, 5854.681832156401, 5692.430519155326, -13510.154308099069, -26631.567076631436, 6930.270127090232, 532.5526633921461, -8224.458482796965, 194.75074943909044, 0.27, 0.898, 0.243, 192.0, 0.0, 0.0, 0.0, 0.0, 0.0, 0.0, 0.0, 0.0, 0.0, 1.662677312694765E9, 0.0, 2022-09-08 18:48:32.694
62.0, 11037.939612619832, 446.2972815391161, -33607.121837988125, -14463.992650984843, 2860.464496667921, 23542.243068485626, 34722.943272941506, 27046.92954384441, 5841.740172116777, 5672.515114845648, -13524.794700717295, -26642.631190136814, 6918.714275206838, 514.6265643389899, -8230.381695077622, 186.3911970128056, 0.27, 0.898, 0.243, 192.0, 0.0, 0.0, 0.0, 0.0, 0.0, 0.0, 0.0, 0.0, 0.0, 1.6626773126947696E9, 0.0, 2022-09-08 18:48:32.694
64.0, 11032.642249183924, 436.0154790896749, -33601.444494896474, -14470.832284788166, 2849.646252351553, 23531.246010213617, 34635.10091723215, 27026.142421500972, 5815.610982848523, 5657.114762915941, -13527.3427995852, -26649.18025126222, 6914.668609460427, 500.6120205655123, -8242.384581850121, 176.9140573637554, 0.27, 0.898, 0.243, 192.0, 0.0, 0.0, 0.0, 0.0, 0.0, 0.0, 0.0, 0.0, 0.0, 1.6626773126947742E9, 0.0, 2022-09-08 18:48:32.694
66.0, 11030.138853804929, 437.15541805689554, -33592.302631414255, -14474.676784834479, 2843.0524877372372, 23525.725129333154, 34674.10471130666, 27012.843133550065, 5825.289288197671, 5654.544312303581, -13524.280610594824, -26648.75556811757, 6916.5461559946725, 493.19124140635034, -8232.05807591177, 177.76342365305706, 0.271, 0.899, 0.2385, 192.0, 4.0, 64.0, 14.0, 16.0, 3.5, 40.0, 0.0, 0.0, 0.0, 1.6626773126947787E9, 0.0, 2022-09-08 18:48:32.694
68.0, 11055.128104105963, 462.56935150257965, -33571.806081748735, -14458.00238347082, 2858.6093018781307, 23539.829080084455, 34531.58998865962, 26996.615767075513, 5826.384523675982, 5676.3596148919605, -13507.3379882977, -26630.65065510877, 6925.911536921446, 497.750997275233, -8226.24662235339, 177.67401667523583, 0.271, 0.899, 0.2385, 192.0, 0.0, 0.0, 0.0, 0.0, 0.0, 0.0, 0.0, 0.0, 0.0, 1.662677312694785E9, 0.0, 2022-09-08 18:48:32.694
70.0, 11028.060141570586, 428.7511621417001, -33596.638869838585, -14478.118953480596, 2830.5802143311757, 23529.86020205739, 34563.73179718635, 27023.68372961089, 5822.62943060749, 5664.714356030746, -13508.992017387392, -26632.595256876382, 6924.078693876111, 497.59453506404583, -8224.413779308055, 184.1113190783643, 0.271, 0.899, 0.2385, 192.0, 0.0, 0.0, 0.0, 0.0, 0.0, 0.0, 0.0, 0.0, 0.0, 1.6626773126947896E9, 0.0, 2022-09-08 18:48:32.694
72.0, 11027.724865403756, 428.90762435288724, -33588.167558690024, -14465.445514374438, 2831.183711431469, 23523.154678720795, 34427.564969964624, 26986.780999515177, 5783.37976734397, 5655.080754170508, -13529.041532163803, -26650.320190229442, 6898.910629619436, 477.4779650542695, -8247.369020863654, 166.475792703127, 0.271, 0.899, 0.2385, 192.0, 0.0, 0.0, 0.0, 0.0, 0.0, 0.0, 0.0, 0.0, 0.0, 1.662677312694794E9, 0.0, 2022-09-08 18:48:32.694
74.0, 11044.734542934244, 443.4809617377474, -33562.28423861077, -14445.686572275947, 2840.6832028249746, 23537.437443427738, 34470.77089199673, 27000.214397932818, 5807.7878722891655, 5674.057385213064, -13506.086290608204, -26622.112288726843, 6916.300286805665, 493.6382762954565, -8231.320468344746, 180.91501962125537, 0.271, 0.899, 0.2385, 192.0, 0.0, 0.0, 0.0, 0.0, 0.0, 0.0, 0.0, 0.0, 0.0, 1.6626773126947987E9, 0.0, 2022-09-08 18:48:32.694
76.0, 11051.618880226479, 450.0300228631524, -33548.98495065987, -14428.520432534271, 2846.159380216525, 23534.442309670725, 34357.26873365268, 27022.230866221296, 5819.276668939194, 5687.893115030899, -13486.595569443176, -26603.06860245092, 6933.891109691991, 504.63533456746757, -8218.758787960862, 206.15013911129705, 0.2745, 0.9135, 0.23425, 192.0, 4.0, 88.0, 14.5, 0.0, 3.5, 24.0, 0.0, 0.0, 0.0, 1.6626773126948032E9, 0.0, 2022-09-08 18:48:32.694
78.0, 11022.852185112499, 422.5150254386694, -33580.85853825314, -14456.281299147762, 2822.980621216371, 23521.880629286843, 34433.13055433399, 26997.35337464254, 5811.811186291121, 5680.673501571835, -13503.962874884948, -26609.528256598504, 6928.750208467271, 495.7616920187107, -8228.48179679892, 200.07046461945353, 0.2745, 0.9135, 0.23425, 192.0, 0.0, 0.0, 0.0, 0.0, 0.0, 0.0, 0.0, 0.0, 0.0, 1.6626773126948075E9, 0.0, 2022-09-08 18:48:32.694
80.0, 11018.538298432624, 417.19531025830634, -33580.56796557522, -14455.230767158362, 2831.787208531762, 23522.260608942583, 34395.557271904625, 26986.088095437062, 5793.214534904306, 5663.5073618301585, -13523.207726860968, -26622.000530004567, 6920.9494496523685, 494.53234607366875, -8244.955032462482, 187.46408074666033, 0.2745, 0.9135, 0.23425, 192.0, 0.0, 0.0, 0.0, 0.0, 0.0, 0.0, 0.0, 0.0, 0.0, 1.662677312694812E9, 0.0, 2022-09-08 18:48:32.694
82.0, 11003.048539525098, 409.05927527657457, -33598.31525067273, -14469.24531093184, 2830.222586419891, 23532.4530044142, 34472.82725248662, 27046.281343255207, 5796.008502961219, 5653.493780314181, -13536.350552600688, -26632.014111520544, 6923.631658987005, 486.93275295886434, -8252.733439532929, 187.732301680124, 0.2745, 0.9135, 0.23425, 192.0, 0.0, 0.0, 0.0, 0.0, 0.0, 0.0, 0.0, 0.0, 0.0, 1.6626773126948164E9, 0.0, 2022-09-08 18:48:32.694
84.0, 11008.100033771996, 405.17007174135114, -33592.12381745861, -14464.082057962663, 2839.029173735282, 23537.348036449916, 34427.94494962036, 27027.908209312944, 5790.308808125116, 5639.166312118329, -13549.985116718426, -26641.7371203586, 6908.633638457494, 481.88125871196496, -8248.576015064242, 192.04618835999827, 0.2745, 0.9135, 0.23425, 192.0, 0.0, 0.0, 0.0, 0.0, 0.0, 0.0, 0.0, 0.0, 0.0, 1.662677312694821E9, 0.0, 2022-09-08 18:48:32.694
86.0, 11009.93287681733, 408.94751655429803, -33588.97222149041, -14458.739991037846, 2826.936879984961, 23546.825176098966, 34501.70570632288, 27033.36203496004, 5802.669322808901, 5647.771733733623, -13547.526424828342, -26636.529163900515, 6915.070940860623, 478.99788367723033, -8243.949203961993, 187.3523220243838, 0.27725, 0.91075, 0.23412500000000003, 192.0, 4.0, 96.0, 14.0, 48.0, 3.5, 40.0, 0.0, 0.0, 0.0, 1.6626773126948254E9, 0.0, 2022-09-08 18:48:32.694
88.0, 11027.27783051465, 430.98633658723077, -33574.98002946139, -14441.104464662609, 2837.017516734304, 23558.492786704635, 34492.00504922927, 27033.16086925994, 5784.05031967763, 5657.137114660396, -13542.832558492728, -26622.961655016145, 6912.902821648458, 487.8938779704426, -8242.541044061309, 194.68369420572452, 0.27725, 0.91075, 0.23412500000000003, 192.0, 0.0, 0.0, 0.0, 0.0, 0.0, 0.0, 0.0, 0.0, 0.0, 1.66267731269483E9, 0.0, 2022-09-08 18:48:32.694
90.0, 11002.333283702528, 401.14675773939587, -33609.53582638929, -14478.923616280988, 2797.1420046260364, 23539.69496961772, 34546.4538987224, 27034.189049504883, 5792.923962226387, 5659.171123405829, -13533.131901399125, -26615.585579345894, 6912.724007692816, 491.2913431276492, -8235.477892813431, 205.054903632987, 0.27725, 0.91075, 0.23412500000000003, 192.0, 0.0, 0.0, 0.0, 0.0, 0.0, 0.0, 0.0, 0.0, 0.0, 1.6626773126948345E9, 0.0, 2022-09-08 18:48:32.694
92.0, 11004.881382570433, 404.23129847422825, -33607.77003857733, -14479.750630825834, 2800.5841732721537, 23545.059388286994, 34533.467535193864, 27051.489299713292, 5767.487677036247, 5618.289782797073, -13567.285366926833, -26653.672951897737, 6874.860152585525, 451.57229323056856, -8272.78295430934, 173.53894395100403, 0.27725, 0.91075, 0.23412500000000003, 192.0, 0.0, 0.0, 0.0, 0.0, 0.0, 0.0, 0.0, 0.0, 0.0, 1.6626773126948388E9, 0.0, 2022-09-08 18:48:32.694
94.0, 11010.290504728617, 405.52769965263604, -33609.64758511157, -14486.612616373613, 2797.1420046260364, 23538.979713795154, 34526.73966011282, 27045.58843917709, 5781.792793487643, 5645.178931376807, -13544.665401538063, -26630.963579531144, 6893.434452227885, 472.98526441875276, -8262.322337904256, 186.19003131270784, 0.27725, 0.91075, 0.23412500000000003, 192.0, 0.0, 0.0, 0.0, 0.0, 0.0, 0.0, 0.0, 0.0, 0.0, 1.6626773126948433E9, 0.0, 2022-09-08 18:48:32.694
96.0, 11002.199173235795, 393.21188845776186, -33605.5348641318, -14494.949817055443, 2802.5511267842207, 23519.287826930027, 34544.799869632705, 26998.515665354214, 5766.99593865823, 5624.30240205555, -13562.524445357854, -26651.728350130124, 6877.832934598081, 450.4547060078032, -8267.239721684424, 154.96464430864387, 0.273625, 0.9003749999999999, 0.2370625, 192.0, 4.0, 56.0, 13.5, 104.0, 3.5, 64.0, 0.0, 0.0, 0.0, 1.662677312694848E9, 0.0, 2022-09-08 18:48:32.694
98.0, 11003.294408714106, 394.15066172488474, -33605.423105409514, -14497.788488601267, 2797.834908704151, 23540.23141148465, 34563.195355319425, 27070.287116800206, 5778.4400318193475, 5638.473408040215, -13546.341782372212, -26631.88000105381, 6903.64919944396, 453.31572929808254, -8247.972517963948, 170.45440321617167, 0.273625, 0.9003749999999999, 0.2370625, 192.0, 0.0, 0.0, 0.0, 0.0, 0.0, 0.0, 0.0, 0.0, 0.0, 1.6626773126948524E9, 0.0, 2022-09-08 18:48:32.694
100.0, 10985.88239978342, 380.47139411823684, -33618.81180033825, -14509.813727118222, 2786.5249260097657, 23521.210076953183, 34567.799814677215, 27036.62538965051, 5762.4138310448925, 5607.58329720298, -13567.911215771583, -26647.50387042807, 6881.230399755287, 434.98729884473073, -8261.517675103865, 160.1502490222751, 0.273625, 0.9003749999999999, 0.2370625, 192.0, 0.0, 0.0, 0.0, 0.0, 0.0, 0.0, 0.0, 0.0, 0.0, 1.662677312694858E9, 0.0, 2022-09-08 18:48:32.694
102.0, 10981.926141014832, 378.1021092059743, -33627.57368416473, -14509.389043973571, 2773.2703415477686, 23521.56770486447, 34490.75335153977, 27032.423261692915, 5749.47217100527, 5615.987553118176, -13569.095858227714, -26635.210410977652, 6873.966082807313, 434.07087732206315, -8274.54874212131, 161.80427811196782, 0.273625, 0.9003749999999999, 0.2370625, 192.0, 0.0, 0.0, 0.0, 0.0, 0.0, 0.0, 0.0, 0.0, 0.0, 1.6626773126948628E9, 0.0, 2022-09-08 18:48:32.694
104.0, 10987.089393984008, 387.60160059947975, -33624.01975679633, -14500.984788058377, 2775.2372950598356, 23522.551181620503, 34497.548281854186, 27007.031679991687, 5735.927013865354, 5590.215991761207, -13587.893675314626, -26652.8906408418, 6858.1186959885, 409.34984795449355, -8286.194000982523, 147.29799596047354, 0.273625, 0.9003749999999999, 0.2370625, 192.0, 0.0, 0.0, 0.0, 0.0, 0.0, 0.0, 0.0, 0.0, 0.0, 1.6626773131749203E9, 0.0, 2022-09-08 18:48:33.174
106.0, 11005.239010481717, 397.01168501516406, -33596.66122158304, -14489.361880941617, 2784.446213775422, 23529.16729797927, 34404.207397008824, 27025.695386611867, 5757.608205987001, 5606.77863440259, -13560.892768012616, -26624.392166661284, 6873.78726885167, 438.85415063549885, -8266.815038539773, 165.69348164719125, 0.2678125, 0.9011875, 0.24053125, 192.0, 4.0, 24.0, 14.0, 24.0, 3.5, 80.0, 0.0, 0.0, 0.0, 1.6626773131749928E9, 0.0, 2022-09-08 18:48:33.174
108.0, 11022.025170567653, 409.0816270210299, -33571.962543959926, -14474.922654023489, 2799.2654203492907, 23547.026341799065, 34410.935272089875, 27037.228886750807, 5770.907493937909, 5623.855367166444, -13540.798549747295, -26603.73915478458, 6889.433489970385, 443.9727001157642, -8243.457465583977, 188.78283366952346, 0.2678125, 0.9011875, 0.24053125, 192.0, 0.0, 0.0, 0.0, 0.0, 0.0, 0.0, 0.0, 0.0, 0.0, 1.662677313175048E9, 0.0, 2022-09-08 18:48:33.175
110.0, 11012.033940796131, 404.9689060412534, -33565.92757295699, -14477.023718002287, 2789.5200597667767, 23537.146870749817, 34321.90827392438, 27022.722604599312, 5770.169886370884, 5616.389884518371, -13530.33793334221, -26602.018070461523, 6896.764862151726, 441.35754601449327, -8238.696544014996, 185.89945863478883, 0.2678125, 0.9011875, 0.24053125, 192.0, 0.0, 0.0, 0.0, 0.0, 0.0, 0.0, 0.0, 0.0, 0.0, 1.6626773131750803E9, 0.0, 2022-09-08 18:48:33.175
112.0, 10989.36927191845, 386.28284767661665, -33586.51352960033, -14500.269532235807, 2782.322798052168, 23524.741652577122, 34352.99955046172, 26994.04531646315, 5763.218493845284, 5606.3315995134835, -13548.129921928636, -26613.84214327838, 6883.152649778444, 431.947461598809, -8248.330145875234, 177.249333530585, 0.2678125, 0.9011875, 0.24053125, 192.0, 0.0, 0.0, 0.0, 0.0, 0.0, 0.0, 0.0, 0.0, 0.0, 1.6626773131750844E9, 0.0, 2022-09-08 18:48:33.175
114.0, 10990.732728330224, 384.4947081201921, -33591.0285819803, -14506.080985794186, 2779.618236973076, 23521.858277542386, 34240.01148224014, 26998.24744442075, 5748.980432627253, 5595.491003452659, -13566.525407615354, -26628.616646363338, 6871.485039172774, 422.29150799411633, -8261.361212892678, 156.84219084288966, 0.2678125, 0.9011875, 0.24053125, 192.0, 0.0, 0.0, 0.0, 0.0, 0.0, 0.0, 0.0, 0.0, 0.0, 1.6626773131750884E9, 0.0, 2022-09-08 18:48:33.175
116.0, 10996.030091766132, 397.07874024853, -33592.83907328118, -14496.134459511573, 2776.421937515967, 23536.36455969388, 34226.98041522269, 27019.660415608934, 5761.497409522225, 5597.8826401093775, -13558.389372633621, -26618.69247182518, 6884.292588745665, 429.4887697087252, -8263.954015249494, 166.85577235886723, 0.2678125, 0.9011875, 0.24053125, 192.0, 0.0, 0.0, 0.0, 0.0, 0.0, 0.0, 0.0, 0.0, 0.0, 1.6626773131750932E9, 0.0, 2022-09-08 18:48:33.175
118.0, 11013.956190819286, 414.37899045693763, -33564.050026422745, -14478.118953480596, 2791.4646615343886, 23537.482146916645, 34086.14207340981, 26978.175577899885, 5769.320520081583, 5611.114872826919, -13539.435093335522, -26600.989890216577, 6894.082652817089, 449.1136013404848, -8262.72466930445, 177.45049923068277, 0.266, 0.916, 0.24, 192.0, 4.0, 40.0, 14.0, 80.0, 3.5, 64.0, 0.0, 0.0, 0.0, 1.6626773131750975E9, 0.0, 2022-09-08 18:48:33.175
120.0, 11011.296333229106, 406.7570455976779, -33565.860517723624, -14475.973186012887, 2782.903943408006, 23549.641495900334, 34158.15939404481, 27049.075311312117, 5782.083366165562, 5616.099311840452, -13528.974476930438, -26595.223140147107, 6896.966027851824, 445.9396536278312, -8252.15229417709, 183.17254581124138, 0.266, 0.916, 0.24, 192.0, 0.0, 0.0, 0.0, 0.0, 0.0, 0.0, 0.0, 0.0, 0.0, 1.6626773131751015E9, 0.0, 2022-09-08 18:48:33.175
122.0, 11007.36242620497, 410.4674351772589, -33562.12777639959, -14473.648604589536, 2786.703739965408, 23545.506423176103, 34129.01271927509, 27040.939276330388, 5778.596494030535, 5607.248021036151, -13534.897689211093, -26602.912140239736, 6894.283818517187, 442.430429748348, -8249.134808675624, 190.8168424149564, 0.266, 0.916, 0.24, 192.0, 0.0, 0.0, 0.0, 0.0, 0.0, 0.0, 0.0, 0.0, 0.0, 1.6626773131751053E9, 0.0, 2022-09-08 18:48:33.175
124.0, 11001.282751713128, 403.02430427364163, -33566.39695959055, -14482.544598882747, 2778.83592591714, 23548.814481355486, 34281.49631994919, 27054.864413126044, 5780.7646132427, 5605.951619857743, -13537.53519505682, -26603.582692573393, 6896.071958073611, 443.68212743784517, -8238.115398659158, 190.39215927030557, 0.266, 0.916, 0.24, 192.0, 0.0, 0.0, 0.0, 0.0, 0.0, 0.0, 0.0, 0.0, 0.0, 1.6626773131751096E9, 0.0, 2022-09-08 18:48:33.175
126.0, 10996.186553977317, 400.6103158724685, -33570.08499742568, -14473.469790633893, 2790.637646989542, 23547.808652854997, 34290.66053517587, 27032.020930292718, 5769.476982292769, 5605.884564624377, -13543.30194512629, -26601.861608250336, 6890.528725448696, 444.71030768278933, -8240.976421949437, 187.24056330210726, 0.266, 0.916, 0.24, 192.0, 0.0, 0.0, 0.0, 0.0, 0.0, 0.0, 0.0, 0.0, 0.0, 1.6626773131751134E9, 0.0, 2022-09-08 18:48:33.175
128.0, 11003.27205696965, 413.239051489717, -33572.722503271405, -14472.709831322412, 2790.9282196674612, 23555.877632603366, 34440.17135383742, 27046.236639766295, 5774.841400962044, 5600.274276766095, -13551.840311508216, -26605.057907707444, 6889.277027759198, 437.82597039055474, -8233.265070112357, 187.6875981912134, 0.27, 0.9, 0.232, 192.0, 4.0, 56.0, 14.0, 16.0, 3.5, 32.0, 0.0, 0.0, 0.0, 1.6626773131751175E9, 0.0, 2022-09-08 18:48:33.175
130.0, 10993.70551034278, 398.8445280604992, -33586.46882611142, -14490.43476467547, 2772.420975258467, 23544.455891186703, 34433.28701654518, 27044.336741487594, 5772.7626887277, 5602.800023889545, -13551.527387085842, -26598.441791348672, 6883.93496083438, 432.79682788811067, -8237.802474236783, 179.99859809858776, 0.27, 0.9, 0.232, 192.0, 0.0, 0.0, 0.0, 0.0, 0.0, 0.0, 0.0, 0.0, 0.0, 1.6626773131751213E9, 0.0, 2022-09-08 18:48:33.175
132.0, 10960.893149482388, 360.3101206195499, -33621.67282362853, -14530.712608183934, 2724.4317799129226, 23504.17804767824, 34476.7388077663, 26997.800409531643, 5751.059144861597, 5565.450258904727, -13577.947149032016, -26626.113250984345, 6858.49867564424, 402.1972897287953, -8265.853913528194, 158.8538478438673, 0.27, 0.9, 0.232, 192.0, 0.0, 0.0, 0.0, 0.0, 0.0, 0.0, 0.0, 0.0, 0.0, 1.66267731317513E9, 0.0, 2022-09-08 18:48:33.175
134.0, 10958.389754103393, 361.3830043534046, -33619.2364834829, -14527.091625582174, 2721.9283845339282, 23497.964262719663, 34414.55625469163, 26985.953984970332, 5731.9484033523095, 5552.642709331836, -13591.849934083217, -26637.69145461219, 6843.031268481168, 381.0525394740748, -8296.051120287315, 141.4641906576384, 0.27, 0.9, 0.232, 192.0, 0.0, 0.0, 0.0, 0.0, 0.0, 0.0, 0.0, 0.0, 0.0, 1.662677313175134E9, 0.0, 2022-09-08 18:48:33.175
136.0, 10962.79304776109, 367.4850305897034, -33607.36770717713, -14525.504651725847, 2721.190776966903, 23511.93410300423, 34470.569726296635, 27001.555502600135, 5734.161226053385, 5563.371546670383, -13582.126925245158, -26627.633169607303, 6840.572576591084, 389.03211224461944, -8286.126945749158, 149.55552215045955, 0.27, 0.9, 0.232, 192.0, 0.0, 0.0, 0.0, 0.0, 0.0, 0.0, 0.0, 0.0, 0.0, 1.662677313175138E9, 0.0, 2022-09-08 18:48:33.175
138.0, 10987.402318406383, 397.65988560436796, -33583.31723014322, -14502.728224125889, 2742.7602103662744, 23526.03805375553, 34442.67474921641, 27010.786773060176, 5725.354638737994, 5562.164552469797, -13571.822771051262, -26612.83631477789, 6848.730963317271, 389.79207155609987, -8270.72659381945, 160.50787693356003, 0.274, 0.898, 0.228, 192.0, 4.0, 72.0, 14.0, 8.0, 3.5, 16.0, 0.0, 0.0, 0.0, 1.662677313175142E9, 0.0, 2022-09-08 18:48:33.175
140.0, 10990.084527741019, 399.8727083054433, -33591.27445116931, -14508.606732917635, 2730.6679166159533, 23531.491879402623, 34429.42016475441, 27000.25910142173, 5739.436237744837, 5591.735910384168, -13551.594442319209, -26582.79557022996, 6873.809620596126, 412.72496136724493, -8257.449657612999, 162.92186533473318, 0.274, 0.898, 0.228, 192.0, 0.0, 0.0, 0.0, 0.0, 0.0, 0.0, 0.0, 0.0, 0.0, 1.662677313175146E9, 0.0, 2022-09-08 18:48:33.175
142.0, 10974.974748489232, 373.52000159263633, -33608.21707346643, -14517.994465588865, 2715.781654808719, 23514.571608849958, 34424.838057141074, 26988.367973371503, 5716.257478744684, 5565.405555415816, -13578.505942643398, -26608.12009669782, 6845.5793673490725, 384.2041354422731, -8281.656596858096, 139.09490574537585, 0.274, 0.898, 0.228, 192.0, 0.0, 0.0, 0.0, 0.0, 0.0, 0.0, 0.0, 0.0, 0.0, 1.66267731317515E9, 0.0, 2022-09-08 18:48:33.175
144.0, 10983.669577082346, 375.50930684915863, -33602.47267514142, -14512.607695175135, 2718.0838844876153, 23524.920466532763, 34449.40262429746, 27017.648758607957, 5729.757932395689, 5571.440526418749, -13565.631337837141, -26599.31350938243, 6862.410230923919, 392.54133612410266, -8271.866532786671, 144.36991743682833, 0.274, 0.898, 0.228, 192.0, 0.0, 0.0, 0.0, 0.0, 0.0, 0.0, 0.0, 0.0, 0.0, 1.662677313175154E9, 0.0, 2022-09-08 18:48:33.175
