%OpenBCI Raw EEG Data
%Number of channels = 16
%Sample Rate = 125 Hz
%Board = OpenBCI_GUI$BoardCytonSerialDaisy
Sample Index, EXG Channel 0, EXG Channel 1, EXG Channel 2, EXG Channel 3, EXG Channel 4, EXG Channel 5, EXG Channel 6, EXG Channel 7, EXG Channel 8, EXG Channel 9, EXG Channel 10, EXG Channel 11, EXG Channel 12, EXG Channel 13, EXG Channel 14, EXG Channel 15, Accel Channel 0, Accel Channel 1, Accel Channel 2, Other, Other, Other, Other, Other, Other, Other, Analog Channel 0, Analog Channel 1, Analog Channel 2, Timestamp, Other, Timestamp (Formatted)
0.0, -6348.454218918589, -9745.427637747245, -30605.595482062756, -27287.21079673896, -17010.12456537778, 6776.646587448906, 20065.675087651623, 15272.477599677755, 0.0, 0.0, 0.0, 0.0, 0.0, 0.0, 0.0, 0.0, 0.0, 0.0, 0.0, 192.0, 0.0, 0.0, 0.0, 0.0, 0.0, 0.0, 0.0, 0.0, 0.0, 1.6626777022713363E9, 0.0, 2022-09-08 18:55:02.271
62.0, -6342.7098205935745, -9740.443198733712, -30600.879263982686, -27279.454741412967, -17012.00211191203, 6797.411358047886, 20035.813157059332, 15304.999387860225, -18273.020478847084, -10344.700258338484, -20449.789816116074, -31890.26199463153, 2821.863033993606, -12789.422308137693, -9013.653876024948, -11651.182073495636, 0.0, 0.0, 0.0, 192.0, 0.0, 0.0, 0.0, 0.0, 0.0, 0.0, 0.0, 0.0, 0.0, 1.6626777022713444E9, 0.0, 2022-09-08 18:55:02.271
64.0, -6323.2190994285465, -9722.40534095828, -30591.11155165572, -27276.459607655957, -17018.148841637238, 6799.3783115599535, 20066.144474285185, 15300.126707568968, -18251.00401055861, -10328.025856974824, -20435.5741066425, -31870.771273466504, 2833.6200515770975, -12770.557435817414, -9004.064977653621, -11633.278326186935, 0.0, 0.0, 0.0, 192.0, 0.0, 0.0, 0.0, 0.0, 0.0, 0.0, 0.0, 0.0, 0.0, 1.6626777022713487E9, 0.0, 2022-09-08 18:55:02.271
66.0, -6341.189901970613, -9740.219681289158, -30609.596444320257, -27305.181599281026, -17017.65710325922, 6772.0868315800235, 20037.333075682294, 15254.618555857964, -18273.80278990302, -10351.182264230521, -20444.850080591452, -31884.115264906322, 2827.026286962782, -12788.8188110374, -9020.73937901728, -11642.196672224603, 0.0, 0.0, 0.0, 192.0, 0.0, 0.0, 0.0, 0.0, 0.0, 0.0, 0.0, 0.0, 0.0, 1.662677702271354E9, 0.0, 2022-09-08 18:55:02.271
68.0, -6344.855588061284, -9748.4004197598, -30609.730554786987, -27306.5450556928, -17038.93596398067, 6780.066404350568, 20037.735407082488, 15246.281355176134, -18267.67841192227, -10365.710898126472, -20448.404007959845, -31897.325145879408, 2816.2303943908687, -12799.838221053866, -9029.098931443565, -11665.64365215822, 0.0, 0.0, 0.0, 192.0, 0.0, 0.0, 0.0, 0.0, 0.0, 0.0, 0.0, 0.0, 0.0, 1.6626777022713585E9, 0.0, 2022-09-08 18:55:02.271
70.0, -6348.901253807695, -9746.992259859117, -30613.239778666473, -27294.989203809408, -17023.51326030651, 6780.915770639869, 20043.09982575176, 15272.946986311315, -18286.453877264725, -10354.177397987532, -20458.90932785384, -31895.13467492279, 2812.3858943445557, -12799.10061348684, -9023.421588351917, -11655.004221797493, 0.23600000000000002, 0.91, 0.262, 192.0, 3.5, 48.0, 14.0, 56.0, 4.0, 24.0, 0.0, 0.0, 0.0, 1.6626777022713625E9, 0.0, 2022-09-08 18:55:02.271
72.0, -6337.278346690935, -9738.520948710555, -30600.38752560467, -27283.768628092843, -17020.719292249596, 6792.896305667914, 20026.91716276612, 15269.795390343117, -18282.072935351483, -10346.868377550647, -20461.09979881046, -31891.468988832115, 2823.7182287833966, -12788.975273248587, -9023.846271496568, -11653.081971774338, 0.23600000000000002, 0.91, 0.262, 192.0, 0.0, 0.0, 0.0, 0.0, 0.0, 0.0, 0.0, 0.0, 0.0, 1.6626777022713668E9, 0.0, 2022-09-08 18:55:02.271
74.0, -6345.660250861675, -9741.426675489745, -30600.543987815858, -27287.143741505595, -17006.347120564835, 6792.471622523263, 20036.81898555982, 15264.587433885032, -18278.876635894376, -10347.203653717477, -20443.62073464641, -31887.758599252535, 2818.756141514318, -12783.05206096793, -9014.033855680687, -11640.855567557284, 0.23600000000000002, 0.91, 0.262, 192.0, 0.0, 0.0, 0.0, 0.0, 0.0, 0.0, 0.0, 0.0, 0.0, 1.662677702271371E9, 0.0, 2022-09-08 18:55:02.271
76.0, -6349.527102652443, -9738.87857662184, -30599.96284246002, -27292.575215408233, -17007.576466509876, 6765.5154187101625, 20006.666482289613, 15205.15414537837, -18282.89994989633, -10349.327069440731, -20450.080388793995, -31885.769293996014, 2821.728923526874, -12781.91212200071, -9011.910439957433, -11649.617451383765, 0.23600000000000002, 0.91, 0.262, 192.0, 0.0, 0.0, 0.0, 0.0, 0.0, 0.0, 0.0, 0.0, 0.0, 1.6626777022713752E9, 0.0, 2022-09-08 18:55:02.271
78.0, -6354.466838177066, -9744.69003018022, -30608.165932675118, -27294.96685206495, -17026.93307720817, 6765.381308243431, 19996.742307751454, 15227.170613666847, -18295.841609935953, -10360.502941668385, -20459.445769720765, -31896.140503423278, 2825.349906128634, -12795.032595995975, -9012.648047524459, -11663.49788469051, 0.23600000000000002, 0.91, 0.262, 192.0, 0.0, 0.0, 0.0, 0.0, 0.0, 0.0, 0.0, 0.0, 0.0, 1.6626777022713797E9, 0.0, 2022-09-08 18:55:02.271
80.0, -6345.950823539594, -9741.493730723112, -30590.508054555426, -27275.520834388833, -17027.290705119456, 6785.252009064199, 20010.68979629157, 15313.22482981978, -18312.136031643873, -10346.66721185055, -20454.081351051493, -31887.535081807982, 2810.1283681545697, -12785.220180180095, -9010.189355634375, -11640.16266347917, 0.24, 0.91, 0.266, 192.0, 3.5, 64.0, 14.0, 56.0, 4.0, 40.0, 0.0, 0.0, 0.0, 1.6626777022713835E9, 0.0, 2022-09-08 18:55:02.271
82.0, -6348.5212741519545, -9744.019477846561, -30598.979365703985, -27277.599546623176, -17018.238248615056, 6791.175221344855, 20058.96956431503, 15286.536846940142, -18297.29447332555, -10346.913081039558, -20448.404007959845, -31883.243546872563, 2813.3023158672236, -12788.975273248587, -9002.768576475213, -11635.11116923227, 0.24, 0.91, 0.266, 192.0, 0.0, 0.0, 0.0, 0.0, 0.0, 0.0, 0.0, 0.0, 0.0, 1.662677702271388E9, 0.0, 2022-09-08 18:55:02.271
84.0, -6345.8167130728625, -9740.666716178264, -30600.119304671207, -27272.190424464992, -17023.401501584234, 6786.749575942705, 20038.182441971596, 15256.004364014194, -18306.27987459658, -10347.829502562226, -20451.086217294484, -31886.953936452144, 2812.3858943445557, -12789.310549415417, -9013.11743415802, -11649.59509963931, 0.24, 0.91, 0.266, 192.0, 0.0, 0.0, 0.0, 0.0, 0.0, 0.0, 0.0, 0.0, 0.0, 1.6626777022713923E9, 0.0, 2022-09-08 18:55:02.271
86.0, -6352.991623043016, -9749.763876171575, -30616.59254033477, -27298.69959338899, -17024.720254507098, 6774.880799636937, 20040.037636761386, 15223.3931688539, -18310.63846476537, -10339.67111583604, -20455.71302839673, -31890.79843649846, 2813.5928885451426, -12780.72747954458, -9014.391483591973, -11647.650497871697, 0.24, 0.91, 0.266, 192.0, 0.0, 0.0, 0.0, 0.0, 0.0, 0.0, 0.0, 0.0, 0.0, 1.6626777022713966E9, 0.0, 2022-09-08 18:55:02.271
88.0, -6356.724364367052, -9752.803713417497, -30626.270845683917, -27317.944445365007, -17032.118681921802, 6764.062555320568, 19935.83380411074, 15221.53797406411, -18304.089403639962, -10370.896502840103, -20473.169740816324, -31921.80030605797, 2805.9262401969722, -12800.508773387524, -9045.683925829402, -11677.110097063793, 0.24, 0.91, 0.266, 192.0, 0.0, 0.0, 0.0, 0.0, 0.0, 0.0, 0.0, 0.0, 0.0, 1.6626777022714016E9, 0.0, 2022-09-08 18:55:02.271
90.0, -6344.8779398057395, -9743.617146446366, -30622.15812470414, -27318.145611065105, -17012.046815400936, 6777.317139782565, 20072.335907499302, 15261.100561750003, -18290.588949988956, -10358.178360245032, -20458.484644709188, -31908.724535551613, 2820.5889845596535, -12792.126869216785, -9020.605268550547, -11657.082934031838, 0.23600000000000002, 0.908, 0.27, 192.0, 3.5, 48.0, 14.0, 48.0, 4.0, 56.0, 0.0, 0.0, 0.0, 1.6626777022714057E9, 0.0, 2022-09-08 18:55:02.271
92.0, -6339.155893225181, -9738.006858588084, -30619.274749669406, -27308.914340605064, -17017.74651023704, 6781.8321921625375, 20031.29810467936, 15255.467922147265, -18288.44318252125, -10359.407706190075, -20465.77131340162, -31908.769239040525, 2811.6482867775308, -12793.557380861925, -9012.178660890897, -11655.004221797493, 0.23600000000000002, 0.908, 0.27, 192.0, 0.0, 0.0, 0.0, 0.0, 0.0, 0.0, 0.0, 0.0, 0.0, 1.6626777022714152E9, 0.0, 2022-09-08 18:55:02.271
94.0, -6338.865320547262, -9740.934937111728, -30616.100801956753, -27301.270044001347, -17011.264504345003, 6782.458041007286, 20079.868445380744, 15248.717695321762, -18306.749261230143, -10347.494226395396, -20457.165891786324, -31891.84896848786, 2805.2556878633127, -12792.305683172428, -9019.755902261246, -11650.288003717424, 0.23600000000000002, 0.908, 0.27, 192.0, 0.0, 0.0, 0.0, 0.0, 0.0, 0.0, 0.0, 0.0, 0.0, 1.6626777022714193E9, 0.0, 2022-09-08 18:55:02.271
96.0, -6344.475608405543, -9737.448064976701, -30608.367098375216, -27284.90856706006, -17008.89521943274, 6780.558142728584, 20014.95897948253, 15225.002494454682, -18300.870752438397, -10350.310546196764, -20458.14936854236, -31889.59144229787, 2799.7571587273073, -12788.215313937106, -9019.398274349962, -11656.725306120552, 0.23600000000000002, 0.908, 0.27, 192.0, 0.0, 0.0, 0.0, 0.0, 0.0, 0.0, 0.0, 0.0, 0.0, 1.6626777022714236E9, 0.0, 2022-09-08 18:55:02.271
98.0, -6349.97413754155, -9744.153588313293, -30627.947226518063, -27303.348756235693, -17044.99328672806, 6771.930369368836, 20011.4721073475, 15192.614816738942, -18296.489810525156, -10356.166703244055, -20459.937508098785, -31893.68181153319, 2809.8824989655614, -12787.790630792455, -9023.64510579647, -11661.441524200622, 0.23600000000000002, 0.908, 0.27, 192.0, 0.0, 0.0, 0.0, 0.0, 0.0, 0.0, 0.0, 0.0, 0.0, 1.662677702271428E9, 0.0, 2022-09-08 18:55:02.271
100.0, -6350.823503830851, -9744.153588313293, -30623.901560771654, -27301.58296842372, -17034.93500172317, 6773.249122291699, 19992.875455960686, 15257.859558803984, -18306.23517110767, -10369.622453406151, -20470.889862881882, -31910.087991963388, 2806.9767721863714, -12785.466049369103, -9041.92883276091, -11673.01972782847, 0.23600000000000002, 0.908, 0.268, 192.0, 3.5, 48.0, 14.0, 48.0, 4.0, 48.0, 0.0, 0.0, 0.0, 1.6626777022714324E9, 0.0, 2022-09-08 18:55:02.271
102.0, -6355.718535866563, -9754.904777396296, -30643.12406100322, -27319.665529688067, -17037.639562802266, 6769.650491434395, 20035.567287870323, 15252.316326179067, -18312.091328154962, -10363.252206236388, -20471.627470448908, -31909.663308818737, 2804.2051558739136, -12787.857686025822, -9032.988134978788, -11671.83508537234, 0.23600000000000002, 0.908, 0.268, 192.0, 0.0, 0.0, 0.0, 0.0, 0.0, 0.0, 0.0, 0.0, 0.0, 1.6626777022714367E9, 0.0, 2022-09-08 18:55:02.271
104.0, -6353.885692821228, -9747.483998237134, -30637.424366167113, -27313.563503451765, -17021.188678883158, 6763.302596009087, 19994.68594726157, 15230.121043934947, -18316.606380534933, -10362.447543435997, -20472.81211290504, -31911.272634419518, 2802.5958302731315, -12794.093822728852, -9045.415704895939, -11683.636806444742, 0.23600000000000002, 0.908, 0.268, 192.0, 0.0, 0.0, 0.0, 0.0, 0.0, 0.0, 0.0, 0.0, 0.0, 1.6626777022714407E9, 0.0, 2022-09-08 18:55:02.271
106.0, -6355.293852721912, -9750.009745360583, -30640.195982479574, -27312.87059937365, -17022.753300995028, 6753.736049382216, 20030.91812502362, 15230.031636957126, -18326.26233413963, -10365.554435915285, -20472.655650693854, -31913.708974565146, 2798.259591848802, -12791.076337227385, -9047.919100274934, -11689.939998381138, 0.23600000000000002, 0.908, 0.268, 192.0, 0.0, 0.0, 0.0, 0.0, 0.0, 0.0, 0.0, 0.0, 0.0, 1.6626777022714453E9, 0.0, 2022-09-08 18:55:02.271
108.0, -6359.563035912876, -9755.351812285402, -30640.173630735117, -27307.997919082394, -17026.75426325253, 6759.838075618515, 19975.374040052182, 15220.10746241897, -18333.169023176317, -10370.583578417729, -20477.6847931963, -31915.22889318811, 2798.9524959269165, -12791.590427349858, -9042.398219394472, -11686.855457646307, 0.23600000000000002, 0.908, 0.268, 192.0, 0.0, 0.0, 0.0, 0.0, 0.0, 0.0, 0.0, 0.0, 0.0, 1.6626777022714496E9, 0.0, 2022-09-08 18:55:02.271
110.0, -6358.646614390209, -9757.74344894212, -30647.05796802735, -27316.692747675508, -17057.487911878576, 6761.469752963752, 19990.170894881594, 15227.505889833677, -18338.689904056777, -10379.0995930552, -20476.67896469581, -31924.437811903696, 2810.1507198990253, -12787.365947647804, -9052.568263121637, -11685.581408212354, 0.23600000000000002, 0.904, 0.264, 192.0, 3.5, 48.0, 14.0, 32.0, 4.0, 32.0, 0.0, 0.0, 0.0, 1.6626777022714536E9, 0.0, 2022-09-08 18:55:02.271
112.0, -6359.563035912876, -9757.02819311955, -30635.479764399504, -27318.88321863213, -17044.881528005782, 6757.0664593060565, 20027.878287777698, 15206.830526212518, -18350.558680362545, -10367.521389427351, -20473.974403616718, -31919.520428123527, 2797.2090598594023, -12791.38926164976, -9040.230100182307, -11680.97694885456, 0.23600000000000002, 0.904, 0.264, 192.0, 0.0, 0.0, 0.0, 0.0, 0.0, 0.0, 0.0, 0.0, 0.0, 1.662677702271458E9, 0.0, 2022-09-08 18:55:02.271
114.0, -6355.15974225518, -9750.590890716421, -30637.20084872256, -27319.039680843318, -17026.888373719263, 6766.029508832635, 20051.81700608933, 15204.952979678272, -18369.58001489401, -10369.264825494865, -20477.885958896393, -31921.59914035787, 2797.1643563704915, -12786.24836042504, -9041.414742638439, -11684.419117500678, 0.23600000000000002, 0.904, 0.264, 192.0, 0.0, 0.0, 0.0, 0.0, 0.0, 0.0, 0.0, 0.0, 0.0, 1.662677702271462E9, 0.0, 2022-09-08 18:55:02.271
116.0, -6359.630091146242, -9752.803713417497, -30637.066738255828, -27315.30693951928, -17025.5696207964, 6774.791392659115, 20028.839412789275, 15267.671974619863, -18375.369116707938, -10377.49026745442, -20479.025897863616, -31920.883884535302, 2806.708551252908, -12792.260979683517, -9041.280632171707, -11677.177152297158, 0.23600000000000002, 0.904, 0.264, 192.0, 0.0, 0.0, 0.0, 0.0, 0.0, 0.0, 0.0, 0.0, 0.0, 1.6626777022714665E9, 0.0, 2022-09-08 18:55:02.271
118.0, -6355.83029458884, -9748.243957548613, -30633.423403909615, -27309.83076212773, -17012.672664245685, 6788.895343410414, 20028.928819767098, 15289.68844290834, -18385.002718568172, -10372.215255762965, -20469.86168263694, -31916.234721688597, 2799.0195511602824, -12784.86255226881, -9038.084332714598, -11664.369602724268, 0.23600000000000002, 0.904, 0.264, 192.0, 0.0, 0.0, 0.0, 0.0, 0.0, 0.0, 0.0, 0.0, 0.0, 1.6626777022714708E9, 0.0, 2022-09-08 18:55:02.271
120.0, -6355.986756800027, -9749.36154477138, -30633.132831231695, -27307.5955876822, -17003.106117618816, 6784.0673666080675, 20007.493496834457, 15266.755553097197, -18394.770430895143, -10370.628281906638, -20481.417534520333, -31912.949015253667, 2810.284830365757, -12794.38439540677, -9031.624678567014, -11659.206349755092, 0.24, 0.902, 0.26, 192.0, 3.5, 64.0, 14.0, 24.0, 4.0, 16.0, 0.0, 0.0, 0.0, 1.6626777022714753E9, 0.0, 2022-09-08 18:55:02.271
122.0, -6348.230701474035, -9749.965041871672, -30626.67317708411, -27305.338061492213, -17003.016710640994, 6774.634930447928, 20007.225275900993, 15262.821646073062, -18403.956997866273, -10372.975215074446, -20466.888900624384, -31912.054945475455, 2806.2615163638015, -12784.616683079801, -9036.653821069458, -11664.794285868918, 0.24, 0.902, 0.26, 192.0, 0.0, 0.0, 0.0, 0.0, 0.0, 0.0, 0.0, 0.0, 0.0, 1.6626777022714803E9, 0.0, 2022-09-08 18:55:02.271
124.0, -6335.333744923323, -9732.642439918809, -30609.797610020356, -27289.043639784297, -17018.595876526342, 6786.414299775875, 20046.20671823105, 15273.483428178244, -18386.5896924245, -10366.962595815969, -20457.411760975334, -31902.398991870763, 2820.186653159458, -12778.380546376771, -9009.742320745268, -11654.512483419478, 0.24, 0.902, 0.26, 192.0, 0.0, 0.0, 0.0, 0.0, 0.0, 0.0, 0.0, 0.0, 0.0, 1.6626777022714992E9, 0.0, 2022-09-08 18:55:02.271
126.0, -6340.027611258938, -9733.223585274647, -30615.25143566745, -27299.705421889477, -17026.240173130056, 6784.112070096979, 20005.86181948922, 15267.448457175311, -18396.424459984835, -10348.164778729055, -20447.778159115096, -31890.887843476277, 2823.94174622795, -12775.72068878659, -9016.336085359584, -11661.039192800426, 0.24, 0.902, 0.26, 192.0, 0.0, 0.0, 0.0, 0.0, 0.0, 0.0, 0.0, 0.0, 0.0, 1.662677702271505E9, 0.0, 2022-09-08 18:55:02.271
128.0, -6346.196692728602, -9737.157492298782, -30625.68970032808, -27307.461477215467, -17033.50449007803, 6786.302541053598, 20020.613970829723, 15259.357125682489, -18418.150355595393, -10370.024784806346, -20458.99873483166, -31902.51075059304, 2817.5938508026425, -12788.036499981465, -9024.114492430032, -11663.207312012592, 0.24, 0.902, 0.26, 192.0, 0.0, 0.0, 0.0, 0.0, 0.0, 0.0, 0.0, 0.0, 0.0, 1.6626777022715108E9, 0.0, 2022-09-08 18:55:02.271
130.0, -6341.212253715069, -9741.359620256379, -30614.178551933594, -27303.773439380344, -17014.08082414637, 6774.165543814367, 20032.415691902126, 15253.724486079753, -18398.145544307896, -10362.514598669362, -20454.081351051493, -31904.58946282738, 2808.7202082538856, -12776.793572520444, -9022.952201718355, -11656.233567742536, 0.238, 0.902, 0.264, 192.0, 3.5, 48.0, 14.0, 24.0, 4.0, 48.0, 0.0, 0.0, 0.0, 1.6626777022715254E9, 0.0, 2022-09-08 18:55:02.271
132.0, -6349.370640441256, -9750.07680059395, -30625.376775905705, -27315.26223603037, -17014.527859035476, 6766.4541919772855, 20054.856843335252, 15256.183177969835, -18424.45354753179, -10365.308566726277, -20465.458388979245, -31914.245416432073, 2806.8426617196396, -12791.903351772233, -9022.30400112915, -11656.747657865008, 0.238, 0.902, 0.264, 192.0, 0.0, 0.0, 0.0, 0.0, 0.0, 0.0, 0.0, 0.0, 0.0, 1.662677702271531E9, 0.0, 2022-09-08 18:55:02.271
134.0, -6345.324974694846, -9738.610355688377, -30622.38164214869, -27306.768573137353, -17028.140071408758, 6776.065442093068, 19990.394412326146, 15250.63994534492, -18423.26890507566, -10369.488342939418, -20470.174607059314, -31914.714803065635, 2812.4976530668323, -12786.471877869591, -9028.003695965255, -11663.810809112885, 0.238, 0.902, 0.264, 192.0, 0.0, 0.0, 0.0, 0.0, 0.0, 0.0, 0.0, 0.0, 0.0, 1.6626777022715368E9, 0.0, 2022-09-08 18:55:02.271
136.0, -6353.617471887765, -9747.305184281491, -30639.324264445815, -27314.032890085327, -17039.51710933651, 6763.392002986909, 19962.275917801373, 15253.813893057573, -18420.273771318647, -10370.494171439906, -20459.043438320572, -31910.64678557477, 2790.6599987339973, -12797.066604741407, -9041.571204849626, -11668.459971959588, 0.238, 0.902, 0.264, 192.0, 0.0, 0.0, 0.0, 0.0, 0.0, 0.0, 0.0, 0.0, 0.0, 1.6626777022715428E9, 0.0, 2022-09-08 18:55:02.271
138.0, -6346.6437276177085, -9742.678373179242, -30627.4778398845, -27301.314747490258, -17030.84463248785, 6766.320081510554, 19993.344842594248, 15222.186174653314, -18433.88598369193, -10379.971311088957, -20464.81018839004, -31912.07729721991, 2803.512251795799, -12795.569037862902, -9041.347687405072, -11671.991547583528, 0.238, 0.902, 0.264, 192.0, 0.0, 0.0, 0.0, 0.0, 0.0, 0.0, 0.0, 0.0, 0.0, 1.662677702271562E9, 0.0, 2022-09-08 18:55:02.271
140.0, -6348.498922407499, -9751.663774450275, -30629.467145141025, -27311.46243947297, -17031.805757499427, 6774.992558359213, 20027.498308121958, 15209.892715202895, -18426.35344581049, -10372.103497040689, -20461.792702888575, -31910.669137319226, 2789.385949300045, -12790.808116293922, -9038.21844318133, -11675.210198785091, 0.239, 0.903, 0.264, 192.0, 3.5, 64.0, 14.0, 32.0, 4.0, 32.0, 0.0, 0.0, 0.0, 1.6626777022715676E9, 0.0, 2022-09-08 18:55:02.271
142.0, -6353.662175376675, -9749.070972093461, -30627.321377673314, -27314.569331952254, -17033.61624880031, 6768.219979789255, 19984.38179306767, 15262.754590839695, -18433.68481799183, -10379.233703521932, -20470.509883226143, -31923.342576425384, 2795.93501042545, -12800.53112513198, -9033.368114634528, -11678.741774409029, 0.239, 0.903, 0.264, 192.0, 0.0, 0.0, 0.0, 0.0, 0.0, 0.0, 0.0, 0.0, 0.0, 1.6626777022715728E9, 0.0, 2022-09-08 18:55:02.271
144.0, -6342.128675237736, -9742.030172590039, -30626.96374976203, -27316.31276801977, -17016.964199181104, 6775.327834526042, 20009.86278174672, 15286.69330915133, -18421.905448663885, -10375.612720920173, -20470.152255314857, -31918.067564733934, 2805.1662808854917, -12801.715767588112, -9032.585803578593, -11667.990585326026, 0.239, 0.903, 0.264, 192.0, 0.0, 0.0, 0.0, 0.0, 0.0, 0.0, 0.0, 0.0, 0.0, 1.6626777022715778E9, 0.0, 2022-09-08 18:55:02.271
146.0, -6355.070335277359, -9753.004879117594, -30630.78589806389, -27311.64125342861, -17021.970989939095, 6760.732145396727, 19960.53248173386, 15265.928538552349, -18418.105652106482, -10370.762392373372, -20458.797569131562, -31909.484494863096, 2810.8436239771395, -12787.611816836814, -9032.675210556414, -11661.955614323095, 0.239, 0.903, 0.264, 192.0, 0.0, 0.0, 0.0, 0.0, 0.0, 0.0, 0.0, 0.0, 0.0, 1.6626777022715833E9, 0.0, 2022-09-08 18:55:02.271
148.0, -6364.92745458215, -9762.660832722288, -30638.340787689784, -27310.188390039017, -17037.75132152454, 6755.457133705275, 20029.800537800853, 15253.188044212824, -18443.720751252265, -10388.822601893258, -20477.4836274962, -31925.30952993745, 2793.2751528352683, -12802.967465277608, -9034.061018712642, -11675.657233674197, 0.239, 0.903, 0.264, 192.0, 0.0, 0.0, 0.0, 0.0, 0.0, 0.0, 0.0, 0.0, 0.0, 1.6626777022715888E9, 0.0, 2022-09-08 18:55:02.271
150.0, -6352.455181176088, -9748.534530226532, -30620.839371781276, -27298.49842768889, -17030.777577254485, 6768.91288386737, 19996.608197284724, 15245.521395864655, -18429.572097012056, -10379.591331433217, -20473.415610005333, -31918.492247878585, 2797.276115092768, -12796.194886707652, -9026.528480831204, -11664.727230635552, 0.2405, 0.9045000000000001, 0.262, 192.0, 3.5, 72.0, 14.0, 40.0, 4.0, 16.0, 0.0, 0.0, 0.0, 1.6626777022715943E9, 0.0, 2022-09-08 18:55:02.271
152.0, -6351.4493526756, -9749.6521174493, -30633.87043879872, -27311.551846450788, -17007.196486854136, 6772.019776346658, 19992.651938516134, 15241.855709773983, -18424.788823698622, -10370.985909817924, -20459.155197042848, -31911.160875697242, 2800.6288767610645, -12791.7692413055, -9025.388541863984, -11658.759314865985, 0.2405, 0.9045000000000001, 0.262, 192.0, 0.0, 0.0, 0.0, 0.0, 0.0, 0.0, 0.0, 0.0, 0.0, 1.6626777022716E9, 0.0, 2022-09-08 18:55:02.271
154.0, -6348.454218918589, -9752.155512828293, -30628.640130596177, -27313.27293077385, -17025.346103351843, 6764.15196229839, 20003.33607236577, 15252.49514013471, -18437.97635292725, -10382.586465190228, -20471.180435559803, -31925.354233426362, 2808.8096152317066, -12804.509735645026, -9036.49735885827, -11668.5046754485, 0.2405, 0.9045000000000001, 0.262, 192.0, 0.0, 0.0, 0.0, 0.0, 0.0, 0.0, 0.0, 0.0, 0.0, 1.6626777022716072E9, 0.0, 2022-09-08 18:55:02.271
156.0, -6349.616509630265, -9754.033059362539, -30632.462278898038, -27316.871561631153, -17016.204239869625, 6775.48429673723, 20025.374892398704, 15248.360067410478, -18435.472957548256, -10378.429040721541, -20462.463255222232, -31919.006338001054, 2798.4384058044443, -12803.235686211072, -9013.586820791581, -11658.82637009935, 0.2405, 0.9045000000000001, 0.262, 192.0, 0.0, 0.0, 0.0, 0.0, 0.0, 0.0, 0.0, 0.0, 0.0, 1.6626777022716208E9, 0.0, 2022-09-08 18:55:02.271
158.0, -6342.575710126843, -9744.019477846561, -30620.705261314546, -27305.561578936766, -17026.664856274707, 6770.522209468152, 20027.72182556651, 15255.356163424989, -18420.676102718844, -10386.252151280898, -20461.971516844216, -31919.252207190064, 2810.955382699416, -12804.554439133935, -9013.698579513857, -11658.468742188066, 0.2405, 0.9045000000000001, 0.262, 192.0, 0.0, 0.0, 0.0, 0.0, 0.0, 0.0, 0.0, 0.0, 0.0, 1.6626777022716265E9, 0.0, 2022-09-08 18:55:02.271
160.0, -6339.737038581019, -9741.359620256379, -30621.644034581666, -27300.55478817878, -17020.80869922742, 6786.2354858202325, 20046.273773464414, 15263.693364106819, -18412.450660759292, -10373.57871217474, -20451.913231839328, -31911.54085535298, 2811.9835629443605, -12793.490325628558, -9012.245716124264, -11650.131541506236, 0.24025, 0.9072500000000001, 0.262, 192.0, 3.5, 64.0, 14.0, 56.0, 4.0, 24.0, 0.0, 0.0, 0.0, 1.662677702271633E9, 0.0, 2022-09-08 18:55:02.271
162.0, -6344.252090960991, -9743.281870279536, -30622.605159593244, -27305.427468470036, -17014.952542180126, 6768.734069911728, 20024.525526109403, 15225.471881088244, -18418.73150095123, -10369.533046428329, -20451.421493461312, -31910.64678557477, 2810.4636443213994, -12786.740098803057, -9015.799643492657, -11646.711724604575, 0.24025, 0.9072500000000001, 0.262, 192.0, 0.0, 0.0, 0.0, 0.0, 0.0, 0.0, 0.0, 0.0, 0.0, 1.6626777022716384E9, 0.0, 2022-09-08 18:55:02.271
164.0, -6342.620413615753, -9745.695858680709, -30620.213522936527, -27308.40025048259, -17004.693091475143, 6767.124744310945, 20016.970636483507, 15232.020942213649, -18425.88405917693, -10379.568979688762, -20456.607098174944, -31918.291082178486, 2811.804748988718, -12793.199752950639, -9024.583879063592, -11662.313242234379, 0.24025, 0.9072500000000001, 0.262, 192.0, 0.0, 0.0, 0.0, 0.0, 0.0, 0.0, 0.0, 0.0, 0.0, 1.6626777022716444E9, 0.0, 2022-09-08 18:55:02.271
166.0, -6344.252090960991, -9746.724038925653, -30623.186304949082, -27305.673337659042, -17021.70276900563, 6772.936197869325, 20022.15624119714, 15283.295843994123, -18424.431195787336, -10385.603950691695, -20460.98804008818, -31920.21333220164, 2817.772664758285, -12793.691491328656, -9020.649972039459, -11652.992564796516, 0.24025, 0.9072500000000001, 0.262, 192.0, 0.0, 0.0, 0.0, 0.0, 0.0, 0.0, 0.0, 0.0, 0.0, 1.6626777022716577E9, 0.0, 2022-09-08 18:55:02.271
168.0, -6329.0305529869265, -9731.63661141832, -30613.239778666473, -27293.98337530892, -17020.629885271774, 6779.619369461462, 20040.05998850584, 15279.876027092461, -18426.062873132574, -10370.024784806346, -20448.649877148855, -31906.82463727291, 2818.286754880757, -12791.72453781659, -9022.661629040436, -11651.763218851474, 0.24025, 0.9072500000000001, 0.262, 192.0, 0.0, 0.0, 0.0, 0.0, 0.0, 0.0, 0.0, 0.0, 0.0, 1.6626777022716627E9, 0.0, 2022-09-08 18:55:02.271
170.0, -6334.5514338673875, -9731.457797462679, -30625.30972067234, -27293.625747397633, -17003.955483908117, 6786.168430586867, 20031.43221514609, 15274.846884590017, -18404.73930892221, -10364.459200436975, -20438.166908999316, -31890.127884164798, 2811.871804222084, -12776.8159242649, -9014.570297547614, -11634.507672131977, 0.239125, 0.9036250000000001, 0.263, 192.0, 3.5, 56.0, 14.0, 16.0, 4.0, 32.0, 0.0, 0.0, 0.0, 1.662677702271668E9, 0.0, 2022-09-08 18:55:02.271
172.0, -6336.585442612821, -9732.933012596728, -30626.20379045055, -27297.06791604375, -17019.467594560097, 6798.193669103822, 20013.282598648384, 15257.658393103886, -18427.56044001108, -10371.455296451486, -20456.025952819105, -31902.846026759868, 2803.422844817978, -12786.494229614047, -9032.049361711664, -11652.120846762758, 0.239125, 0.9036250000000001, 0.263, 192.0, 0.0, 0.0, 0.0, 0.0, 0.0, 0.0, 0.0, 0.0, 0.0, 1.662677702271673E9, 0.0, 2022-09-08 18:55:02.271
174.0, -6342.933338038128, -9737.090437065415, -30636.127964988707, -27308.199084782493, -17030.487004576564, 6786.548410242607, 20046.02790427541, 15224.667218287852, -18426.196983599304, -10371.678813896038, -20457.031781319594, -31901.817846514925, 2800.0030279163157, -12788.595293592847, -9030.797664022168, -11651.718515362563, 0.239125, 0.9036250000000001, 0.263, 192.0, 0.0, 0.0, 0.0, 0.0, 0.0, 0.0, 0.0, 0.0, 0.0, 1.662677702271678E9, 0.0, 2022-09-08 18:55:02.271
176.0, -6321.743884294497, -9719.253744990081, -30612.882150755187, -27281.108770502662, -17015.958370680615, 6788.068328865568, 20054.20864274605, 15283.474657949766, -18422.799518442098, -10362.71576436946, -20446.302943981045, -31894.955860967144, 2820.052542692726, -12780.794534777944, -9030.574146577615, -11646.711724604575, 0.239125, 0.9036250000000001, 0.263, 192.0, 0.0, 0.0, 0.0, 0.0, 0.0, 0.0, 0.0, 0.0, 0.0, 1.6626777022716832E9, 0.0, 2022-09-08 18:55:02.271
178.0, -6319.374599382234, -9717.800881600486, -30614.96086298953, -27283.612165881656, -17019.691112004653, 6782.167468329367, 20068.960794086554, 15292.236541776247, -18420.40788178538, -10349.192958974, -20431.84136531846, -31882.9753259391, 2819.5608043147095, -12764.433057836659, -9014.883221969989, -11624.583497593821, 0.239125, 0.9036250000000001, 0.263, 192.0, 0.0, 0.0, 0.0, 0.0, 0.0, 0.0, 0.0, 0.0, 0.0, 1.6626777022716885E9, 0.0, 2022-09-08 18:55:02.271
180.0, -6328.672925075642, -9725.869861348852, -30621.599331092755, -27289.31186071776, -17018.75233873753, 6777.965340371769, 20036.036674503885, 15267.895492064417, -18410.818983414054, -10353.305679953775, -20432.109586251925, -31888.093875419367, 2813.548185056232, -12772.278520140473, -9026.282611642197, -11638.441579156111, 0.2385625, 0.9058125000000001, 0.2605, 192.0, 3.5, 56.0, 14.0, 48.0, 4.0, 8.0, 0.0, 0.0, 0.0, 1.6626777022716937E9, 0.0, 2022-09-08 18:55:02.271
182.0, -6338.664154847164, -9730.02728581754, -30636.440889411082, -27301.918244590554, -17024.98847544056, 6776.356014770987, 20041.714017595532, 15252.316326179067, -18429.79561445661, -10365.822656848748, -20449.186319015782, -31899.627375558302, 2803.2440308623354, -12781.286273155962, -9036.922042002921, -11644.007163525483, 0.2385625, 0.9058125000000001, 0.2605, 192.0, 0.0, 0.0, 0.0, 0.0, 0.0, 0.0, 0.0, 0.0, 0.0, 1.6626777022716987E9, 0.0, 2022-09-08 18:55:02.271
184.0, -3162.1906950701114, -4855.000061392791, -15335.263649852712, -13652.065533645813, -8507.051587945412, 3371.291264449509, 10026.50082427273, 7595.994483947097, -18437.238745360228, -10364.325089970242, -20449.655705649344, -31905.282366905496, 2813.79405424524, -12781.509790600514, -9040.252451926763, -11656.747657865008, 0.24428125, 0.9059062500000001, 0.26425, 192.0, 3.5, 104.0, 14.0, 40.0, 4.0, 48.0, 0.0, 0.0, 0.0, 1.6626777028252256E9, 0.0, 2022-09-08 18:55:02.825
2.0, -6351.359945697778, -9736.151663798293, -30686.73231443552, -27317.40800349808, -17035.762016268018, 6729.573813626029, 20043.882136807697, 15171.268900784124, -18375.279709730115, -10719.293143664974, -20458.730513898197, -31867.418511798205, 2753.4219924714557, -12723.66347595018, -9082.206676269374, -11682.586274455343, 0.24428125, 0.9059062500000001, 0.26425, 192.0, 0.0, 0.0, 0.0, 0.0, 0.0, 0.0, 0.0, 0.0, 0.0, 1.662677702825268E9, 0.0, 2022-09-08 18:55:02.825
4.0, -6337.59127111331, -9711.140061752803, -30679.289183531906, -27300.10775328967, -17015.958370680615, 6741.755514354171, 20003.581941554778, 15185.350499790968, -18388.86957035894, -10724.702265823158, -20464.005525589648, -31873.0735031454, 2739.2062829978804, -12726.435092262638, -9104.647827702502, -11688.531838480454, 0.24428125, 0.9059062500000001, 0.26425, 192.0, 0.0, 0.0, 0.0, 0.0, 0.0, 0.0, 0.0, 0.0, 0.0, 1.6626777028253117E9, 0.0, 2022-09-08 18:55:02.825
6.0, -6336.54073912391, -9704.613352371854, -30682.150206822185, -27296.665584643553, -17040.165309925713, 6741.889624820903, 20026.827755788298, 15181.505999744655, -18376.665517886344, -10695.376777097796, -20450.929755083296, -31852.621656968793, 2749.73395463633, -12708.598400187302, -9091.03561532922, -11667.632957414742, 0.24428125, 0.9059062500000001, 0.26425, 192.0, 0.0, 0.0, 0.0, 0.0, 0.0, 0.0, 0.0, 0.0, 0.0, 1.6626777028253455E9, 0.0, 2022-09-08 18:55:02.825
8.0, -6341.078143248337, -9702.199363970682, -30687.06759060235, -27292.53051191932, -17021.79217598345, 6738.38040094142, 19993.300139105337, 15166.373868748411, -18390.702413404277, -10700.271809133508, -20462.820883133518, -31864.11045361882, 2719.089712988104, -12712.42054848916, -9094.99187409781, -11678.607663942297, 0.276, 0.9, 0.272, 192.0, 4.0, 80.0, 14.0, 16.0, 4.0, 64.0, 0.0, 0.0, 0.0, 1.6626777028253508E9, 0.0, 2022-09-08 18:55:02.825
10.0, -6315.239526658002, -9675.10904969085, -30671.488424717, -27273.21860470994, -16994.70186170362, 6766.856523377482, 20040.43996816158, 15236.133663193425, -18380.6888318883, -10678.098878633844, -20456.13771154138, -31852.040511612955, 2719.782617066219, -12698.406004715682, -9080.642054157503, -11662.313242234379, 0.276, 0.9, 0.272, 192.0, 0.0, 0.0, 0.0, 0.0, 0.0, 0.0, 0.0, 0.0, 0.0, 1.6626777028253553E9, 0.0, 2022-09-08 18:55:02.825
12.0, -6301.068520673338, -9661.630947784299, -30653.11529077474, -27261.752159804364, -17014.70667299112, 6771.393927501908, 19988.405107069626, 15237.944154494306, -18364.573224136024, -10664.553721493927, -20438.882164821884, -31842.63042719727, 2742.4249341994446, -12689.197086000097, -9045.16983570693, -11649.393933939211, 0.276, 0.9, 0.272, 192.0, 0.0, 0.0, 0.0, 0.0, 0.0, 0.0, 0.0, 0.0, 0.0, 1.66267770282536E9, 0.0, 2022-09-08 18:55:02.825
14.0, -6282.471869286522, -9642.274337086003, -30639.100747001263, -27248.475223597914, -16995.953559393118, 6787.375424787453, 20014.78016552689, 15248.605936599486, -18354.649049597865, -10651.924985876678, -20423.504164636634, -31829.867581113293, 2749.8904168475174, -12681.150457996186, -9034.843329768579, -11640.45323615709, 0.276, 0.9, 0.272, 192.0, 0.0, 0.0, 0.0, 0.0, 0.0, 0.0, 0.0, 0.0, 0.0, 1.6626777028253644E9, 0.0, 2022-09-08 18:55:02.825
16.0, -6278.895590173673, -9631.43374102518, -30630.070642241317, -27235.086528669184, -16988.97981512306, 6798.484241781741, 20031.521622123913, 15257.703096592797, -18353.844386797475, -10641.553776449417, -20414.541115110056, -31820.211627508597, 2754.7854488832295, -12670.600434613281, -9020.292344128173, -11627.153948206182, 0.276, 0.9, 0.272, 192.0, 0.0, 0.0, 0.0, 0.0, 0.0, 0.0, 0.0, 0.0, 0.0, 1.6626777028253694E9, 0.0, 2022-09-08 18:55:02.825
18.0, -6262.176485321103, -9617.307438529426, -30631.43409865309, -27231.823173978708, -16967.075105556858, 6812.141157643933, 20027.610066844234, 15264.721544351763, -18340.276877913104, -10621.705427373103, -20403.07467020448, -31804.766572089982, 2760.0157570857714, -12658.865768774245, -9019.957067961344, -11620.940163247606, 0.29, 0.904, 0.27, 192.0, 4.5, 8.0, 14.0, 32.0, 4.0, 56.0, 0.0, 0.0, 0.0, 1.6626777028253748E9, 0.0, 2022-09-08 18:55:02.825
20.0, -6271.675976714609, -9632.5736799924, -30636.10561324425, -27241.367368861123, -16982.766030164486, 6787.084852109534, 20060.668296893633, 15250.930518022838, -18343.67434307031, -10629.260316998998, -20405.846286516942, -31807.560540146893, 2759.3228530076567, -12667.046507244886, -9021.253469139752, -11622.415378381656, 0.29, 0.904, 0.27, 192.0, 0.0, 0.0, 0.0, 0.0, 0.0, 0.0, 0.0, 0.0, 0.0, 1.662677702825379E9, 0.0, 2022-09-08 18:55:02.825
22.0, -6272.190066837081, -9627.47748225659, -30640.44185166858, -27243.91546772903, -16952.41236119418, 6787.978921887747, 20050.386494444192, 15263.916881551371, -18350.11164547344, -10642.581956694361, -20410.629559830377, -31814.891912328236, 2759.6357774300313, -12675.562521882359, -9025.477948841804, -11629.63499184072, 0.29, 0.904, 0.27, 192.0, 0.0, 0.0, 0.0, 0.0, 0.0, 0.0, 0.0, 0.0, 0.0, 1.6626777028253827E9, 0.0, 2022-09-08 18:55:02.825
24.0, -6285.936389677095, -9639.346258562358, -30640.195982479574, -27248.20700266445, -16971.54545444792, 6786.190782331322, 20039.791767572377, 15252.383381412434, -18348.524671617113, -10638.089256058844, -20413.93761800976, -31810.466266926083, 2744.481294689333, -12673.03677475891, -9019.621791794514, -11623.77883479343, 0.29, 0.904, 0.27, 192.0, 0.0, 0.0, 0.0, 0.0, 0.0, 0.0, 0.0, 0.0, 0.0, 1.6626777028253863E9, 0.0, 2022-09-08 18:55:02.825
26.0, -6274.626406982709, -9628.080979356882, -30631.83643005329, -27245.72595902991, -16996.668815215686, 6792.158698100889, 20039.791767572377, 15253.948003524305, -18350.648087340367, -10646.717029418593, -20418.989112256662, -31817.39530770723, 2747.834056357629, -12683.31857720835, -9026.081445942098, -11636.318163432858, 0.29, 0.904, 0.27, 192.0, 0.0, 0.0, 0.0, 0.0, 0.0, 0.0, 0.0, 0.0, 0.0, 1.6626777028253903E9, 0.0, 2022-09-08 18:55:02.825
28.0, -6291.501974046466, -9648.152845877748, -30651.483613429504, -27263.272078427326, -16998.725175705575, 6766.00715708818, 20016.165973683117, 15246.057837731581, -18351.408046651846, -10656.015355112, -20422.43128090278, -31818.66935714118, 2747.901111590995, -12685.263178975962, -9028.920117487922, -11641.324954190846, 0.292, 0.904, 0.272, 192.0, 4.5, 16.0, 14.0, 32.0, 4.0, 64.0, 0.0, 0.0, 0.0, 1.6626777028253944E9, 0.0, 2022-09-08 18:55:02.825
30.0, -6294.228886870013, -9653.494912802567, -30661.363084478748, -27266.64719184008, -17000.669777473187, 6759.86042736297, 19994.52948505038, 15215.123023405436, -18360.72872408971, -10669.940491907655, -20430.120280995405, -31824.503162444016, 2740.8156085986625, -12693.287455235417, -9045.236890940296, -11659.228701499547, 0.292, 0.904, 0.272, 192.0, 0.0, 0.0, 0.0, 0.0, 0.0, 0.0, 0.0, 0.0, 0.0, 1.6626777028253982E9, 0.0, 2022-09-08 18:55:02.825
32.0, -6284.416471054134, -9642.721371975109, -30660.737235634, -27260.768683048333, -16993.27135005848, 6771.349224012998, 19987.645147758147, 15259.446532660311, -18364.39441018038, -10675.215503599109, -20438.18926074377, -31823.20676126561, 2730.4667509158553, -12707.436109475626, -9057.239777712795, -11667.07416380336, 0.292, 0.904, 0.272, 192.0, 0.0, 0.0, 0.0, 0.0, 0.0, 0.0, 0.0, 0.0, 0.0, 1.662677702825402E9, 0.0, 2022-09-08 18:55:02.825
34.0, -6286.316369332835, -9639.748589962554, -30666.392226981192, -27271.609279109154, -17006.28006533147, 6770.075174579046, 19991.511999548915, 15240.447549873299, -18352.324468174516, -10658.854026657824, -20422.81126055852, -31808.72283085857, 2737.641660886009, -12689.510010422471, -9058.469123657838, -11666.045983558415, 0.292, 0.904, 0.272, 192.0, 0.0, 0.0, 0.0, 0.0, 0.0, 0.0, 0.0, 0.0, 0.0, 1.662677702825406E9, 0.0, 2022-09-08 18:55:02.825
36.0, -6298.5651252943435, -9653.450209313656, -30676.62932594172, -27286.36143044966, -17026.821318485894, 6761.201532030289, 19958.073789843773, 15224.331942121024, -18372.552796906566, -10678.344747822852, -20444.648914891353, -31825.799563622426, 2728.768018337252, -12711.884106622232, -9072.774240109235, -11681.044004087926, 0.292, 0.904, 0.272, 192.0, 0.0, 0.0, 0.0, 0.0, 0.0, 0.0, 0.0, 0.0, 0.0, 1.662677702825411E9, 0.0, 2022-09-08 18:55:02.825
38.0, -6288.842116456284, -9643.168406864215, -30658.814985610843, -27278.001878023373, -17021.79217598345, 6755.077154049534, 19981.386659310658, 15231.931535235828, -18370.116456760938, -10671.862741930812, -20440.357379955934, -31825.57604617787, 2735.808817840674, -12707.838440875823, -9078.27276924524, -11686.564884968388, 0.268, 0.904, 0.266, 192.0, 4.0, 48.0, 14.0, 32.0, 4.0, 40.0, 0.0, 0.0, 0.0, 1.662677702825415E9, 0.0, 2022-09-08 18:55:02.825
40.0, -6280.102584374259, -9638.139264361771, -30651.036578540396, -27278.225395467925, -17027.290705119456, 6754.630119160428, 19983.420668056093, 15224.644866543398, -18358.515901388633, -10667.325337806386, -20429.405025172833, -31815.316595472887, 2735.764114351763, -12709.47011822106, -9067.387469695506, -11682.429812244156, 0.268, 0.904, 0.266, 192.0, 0.0, 0.0, 0.0, 0.0, 0.0, 0.0, 0.0, 0.0, 0.0, 1.6626777028254187E9, 0.0, 2022-09-08 18:55:02.825
42.0, -6285.846982699273, -9643.034296397484, -30656.199831509573, -27285.35560194917, -17026.84367023035, 6742.783694599116, 20026.850107532755, 15210.205639625268, -18371.45756142826, -10680.378756568285, -20436.825804331995, -31828.54882819043, 2722.8224543121405, -12723.127034083253, -9077.445754700393, -11703.149879354225, 0.268, 0.904, 0.266, 192.0, 0.0, 0.0, 0.0, 0.0, 0.0, 0.0, 0.0, 0.0, 0.0, 1.6626777028254225E9, 0.0, 2022-09-08 18:55:02.825
44.0, -6293.312465347346, -9647.929328433196, -30669.722636905033, -27297.671413144042, -17040.858214003827, 6738.425104430331, 20007.00175845644, 15215.30183736108, -18370.07175327203, -10674.388489054261, -20437.116377009916, -31827.96768283459, 2717.547442620688, -12729.318467297373, -9090.767394395756, -11699.640655474741, 0.268, 0.904, 0.266, 192.0, 0.0, 0.0, 0.0, 0.0, 0.0, 0.0, 0.0, 0.0, 0.0, 1.6626777028254263E9, 0.0, 2022-09-08 18:55:02.825
46.0, -6311.015046955949, -9666.525979820011, -30681.54670972189, -27314.36816625216, -17061.53357762499, 6727.003363013669, 19932.19046976453, 15201.019072654139, -18382.476971444725, -10688.894771205756, -20446.973496314706, -31845.35734002082, 2710.0819599726156, -12743.444769793126, -9126.306668079695, -11713.632847503764, 0.268, 0.904, 0.266, 192.0, 0.0, 0.0, 0.0, 0.0, 0.0, 0.0, 0.0, 0.0, 0.0, 1.6626777028254304E9, 0.0, 2022-09-08 18:55:02.825
48.0, -6314.144291179692, -9668.403526354257, -30679.06566608735, -27320.537247721822, -17053.933984510182, 6722.845938544981, 20026.6265900882, 15208.663369257853, -18387.617872669445, -10698.595428299359, -20456.85296736395, -31857.270819815498, 2706.5503843486767, -12748.205691362107, -9119.355275554095, -11711.621190502787, 0.248, 0.903, 0.267, 192.0, 3.5, 16.0, 14.0, 24.0, 4.0, 48.0, 0.0, 0.0, 0.0, 1.662677702825434E9, 0.0, 2022-09-08 18:55:02.825
50.0, -6309.830404499818, -9664.022584441016, -30661.430139712113, -27314.30111101879, -17025.524917307488, 6738.514511408152, 19990.461467559515, 15210.920895447838, -18386.746154635686, -10701.322341122906, -20458.77521738711, -31860.333008805876, 2718.419160654445, -12747.80335996191, -9112.001551628298, -11713.185812614658, 0.248, 0.903, 0.267, 192.0, 0.0, 0.0, 0.0, 0.0, 0.0, 0.0, 0.0, 0.0, 0.0, 1.662677702825438E9, 0.0, 2022-09-08 18:55:02.825
52.0, -6321.25214591648, -9673.38796536779, -30672.69541891759, -27330.37201528216, -17040.94762098165, 6732.636002616407, 19986.795781468845, 15201.264941843147, -18382.36521272245, -10697.969579454611, -20458.90932785384, -31856.82378492639, 2727.6280793700316, -12743.981211660053, -9103.217316057362, -11705.563867755398, 0.248, 0.903, 0.267, 192.0, 0.0, 0.0, 0.0, 0.0, 0.0, 0.0, 0.0, 0.0, 0.0, 1.662677702825442E9, 0.0, 2022-09-08 18:55:02.825
54.0, -6317.161776681159, -9672.292729889481, -30672.87423287323, -27331.4001955271, -17025.14493765175, 6726.869252546937, 19971.149560350128, 15166.865607126429, -18383.929834834318, -10714.509870351538, -20466.553624457556, -31862.992866396056, 2725.3929049245007, -12751.983136175053, -9119.064702876176, -11724.339333097856, 0.248, 0.903, 0.267, 192.0, 0.0, 0.0, 0.0, 0.0, 0.0, 0.0, 0.0, 0.0, 0.0, 1.6626777028254457E9, 0.0, 2022-09-08 18:55:02.825
56.0, -6308.511651576955, -9670.839866499886, -30669.432064227112, -27328.963855381473, -17041.75228378204, 6722.33184842251, 19999.849200230743, 15187.026880625115, -18376.64316614189, -10715.40394012975, -20461.278612766102, -31855.415625025707, 2737.619309141554, -12758.7110112561, -9119.958772654387, -11725.456920320621, 0.248, 0.903, 0.267, 192.0, 0.0, 0.0, 0.0, 0.0, 0.0, 0.0, 0.0, 0.0, 0.0, 1.6626777028254497E9, 0.0, 2022-09-08 18:55:02.825
58.0, -6300.040340428393, -9661.742706506575, -30661.899526345675, -27319.754936665886, -17026.08371091887, 6732.077209005023, 19967.729743448468, 15284.88281785045, -18363.723857846722, -10705.569172569416, -20452.941412084274, -31845.714967932105, 2755.7465738948076, -12743.936508171142, -9120.80813894369, -11714.12458588178, 0.227, 0.9055, 0.2645, 192.0, 3.0, 56.0, 14.0, 48.0, 4.0, 24.0, 0.0, 0.0, 0.0, 1.6626777028254533E9, 0.0, 2022-09-08 18:55:02.825
60.0, -6303.080177674316, -9667.509456576045, -30660.044331555884, -27330.059090859784, -17052.27995542049, 6730.981973526714, 19988.449810558537, 15268.744858353719, -18355.34195367598, -10706.239724903075, -20446.638220147877, -31840.68582542966, 2753.3325854936347, -12743.444769793126, -9125.725522723857, -11708.357835812312, 0.227, 0.9055, 0.2645, 192.0, 0.0, 0.0, 0.0, 0.0, 0.0, 0.0, 0.0, 0.0, 0.0, 1.662677702825457E9, 0.0, 2022-09-08 18:55:02.825
62.0, -6309.875107988729, -9666.749497264564, -30645.761566848945, -27320.06786108826, -17046.200280928646, 6738.112180007956, 19941.84642336922, 15282.938216082839, -18362.53921539059, -10718.153204697754, -20447.219365503715, -31844.083290586866, 2757.3335477511346, -12753.503054798015, -9120.763435454779, -11716.829146960872, 0.227, 0.9055, 0.2645, 192.0, 0.0, 0.0, 0.0, 0.0, 0.0, 0.0, 0.0, 0.0, 0.0, 1.6626777028254611E9, 0.0, 2022-09-08 18:55:02.825
64.0, -6302.521384062932, -9657.272357615515, -30630.495325385968, -27318.279721531835, -17026.888373719263, 6761.67091866385, 19985.901711690633, 15289.21905627478, -18349.128168717405, -10696.673178276204, -20432.89189730786, -31822.089174042845, 2772.890361892028, -12739.510862768992, -9109.609914971581, -11703.596914243331, 0.227, 0.9055, 0.2645, 192.0, 0.0, 0.0, 0.0, 0.0, 0.0, 0.0, 0.0, 0.0, 0.0, 1.662677702825465E9, 0.0, 2022-09-08 18:55:02.825
66.0, -6311.797358011885, -9670.258721144048, -30636.59735162227, -27331.958989138486, -17035.22557440109, 6750.1374185249115, 19971.216615583493, 15260.273547205157, -18352.30211643006, -10700.45062308915, -20438.99392354416, -31827.990034579045, 2777.316007294179, -12744.540005271436, -9104.46901374686, -11707.441414289644, 0.227, 0.9055, 0.2645, 192.0, 0.0, 0.0, 0.0, 0.0, 0.0, 0.0, 0.0, 0.0, 0.0, 1.6626777028254688E9, 0.0, 2022-09-08 18:55:02.825
68.0, -6308.556355065865, -9665.989537953084, -30635.837392310787, -27335.289399062327, -17033.3703796113, 6738.425104430331, 19976.178702852572, 15255.847901803007, -18343.808453537044, -10701.098823678354, -20441.877298578896, -31830.91811310269, 2780.6240654735643, -12738.66149647969, -9108.313513793173, -11712.090577136349, 0.1995, 0.9047499999999999, 0.26025, 192.0, 2.5, 48.0, 14.0, 32.0, 4.0, 0.0, 0.0, 0.0, 0.0, 1.6626777028254743E9, 0.0, 2022-09-08 18:55:02.825
70.0, -6327.398875641689, -9679.333529392903, -30640.911238302142, -27347.381692812647, -17024.429681829177, 6721.124854221923, 19952.865833385687, 15239.709942306274, -18354.15731121985, -10716.432120374695, -20455.62362141891, -31846.296113287943, 2778.902981150506, -12753.458351309104, -9118.572964498158, -11714.4151585597, 0.1995, 0.9047499999999999, 0.26025, 192.0, 0.0, 0.0, 0.0, 0.0, 0.0, 0.0, 0.0, 0.0, 0.0, 1.662677702825478E9, 0.0, 2022-09-08 18:55:02.825
72.0, -6327.667096575153, -9681.814573027441, -30636.798517322364, -27353.59547777122, -17026.486042319066, 6718.420293142831, 19972.46831327299, 15245.700209820297, -18351.698619329767, -10719.06962622042, -20458.77521738711, -31856.35439829283, 2783.641550975031, -12756.587595532847, -9121.478691277349, -11720.450129562632, 0.1995, 0.9047499999999999, 0.26025, 192.0, 0.0, 0.0, 0.0, 0.0, 0.0, 0.0, 0.0, 0.0, 0.0, 1.662677702825482E9, 0.0, 2022-09-08 18:55:02.825
74.0, -6341.480474648532, -9693.057500488461, -30642.028825524907, -27361.709161008497, -17036.209051157126, 6714.374627396421, 19948.887222872643, 15232.49032884721, -18350.268107684627, -10727.876213535812, -20459.71399065423, -31858.72368320509, 2785.832021931651, -12759.67213626768, -9118.014170886776, -11716.873850449783, 0.1995, 0.9047499999999999, 0.26025, 192.0, 0.0, 0.0, 0.0, 0.0, 0.0, 0.0, 0.0, 0.0, 0.0, 1.662677702825486E9, 0.0, 2022-09-08 18:55:02.825
76.0, -6335.289041434413, -9686.53079110751, -30637.133793489196, -27355.18245162755, -17019.869925960294, 6736.055819518068, 19970.076676616274, 15245.431988886832, -18358.15827347735, -10736.54869038447, -20471.493359982178, -31872.78293046748, 2774.1420595815252, -12767.294081126938, -9136.14143564003, -11731.335429112367, 0.1995, 0.9047499999999999, 0.26025, 192.0, 0.0, 0.0, 0.0, 0.0, 0.0, 0.0, 0.0, 0.0, 0.0, 1.6626777028254895E9, 0.0, 2022-09-08 18:55:02.825
78.0, -6352.343422453812, -9704.389834927302, -30650.813061095843, -27367.11828316668, -17048.99424898556, 6720.119025721434, 19929.955295318996, 15227.684703789319, -18350.804549551554, -10730.69253333718, -20471.426304748813, -31865.429206541685, 2783.6639027194865, -12754.061848409397, -9127.088979135631, -11721.120681896291, 0.18275000000000002, 0.9143749999999999, 0.256125, 192.0, 2.5, 24.0, 14.0, 112.0, 3.5, 112.0, 0.0, 0.0, 0.0, 1.6626777028254936E9, 0.0, 2022-09-08 18:55:02.825
80.0, -6346.599024128798, -9704.881573305318, -30653.718787875034, -27369.509919823402, -17058.784313056985, 6717.28035417561, 19904.161382217575, 15223.259058387168, -18365.10966600295, -10751.546710913983, -20482.713935698743, -31885.948107951655, 2770.4093182574893, -12761.415572335192, -9157.777924272767, -11740.477292594587, 0.18275000000000002, 0.9143749999999999, 0.256125, 192.0, 0.0, 0.0, 0.0, 0.0, 0.0, 0.0, 0.0, 0.0, 0.0, 1.6626777028254988E9, 0.0, 2022-09-08 18:55:02.825
82.0, -6345.347326439301, -9702.15466048177, -30653.003532052462, -27374.337896625748, -17044.300382649944, 6715.648676830373, 19989.81326697031, 15231.216279413258, -18351.16217746284, -10750.585585902403, -20471.71687742673, -31877.45444505864, 2785.809670187196, -12758.129865900262, -9137.19196762943, -11724.026408675481, 0.18275000000000002, 0.9143749999999999, 0.256125, 192.0, 0.0, 0.0, 0.0, 0.0, 0.0, 0.0, 0.0, 0.0, 0.0, 1.6626777028255036E9, 0.0, 2022-09-08 18:55:02.825
84.0, -6352.723402109552, -9705.283904705513, -30660.290200744894, -27391.32522241178, -17039.33829538087, 6711.357141894954, 19952.88818513014, 15225.15895666587, -18367.858930570954, -10751.770228358535, -20480.94814788677, -31888.295041119465, 2776.444289260422, -12770.356270117316, -9151.00534570281, -11741.28195539498, 0.18275000000000002, 0.9143749999999999, 0.256125, 192.0, 0.0, 0.0, 0.0, 0.0, 0.0, 0.0, 0.0, 0.0, 0.0, 1.6626777028255088E9, 0.0, 2022-09-08 18:55:02.825
86.0, -6356.344384711312, -9713.218773987148, -30673.947116607087, -27415.688623868064, -17044.65801056123, 6694.123946919912, 19926.490774928425, 15210.540915792099, -18378.230139998217, -10753.9383475707, -20494.470953282234, -31901.191997670176, 2776.511344493788, -12780.571017333392, -9160.773058029778, -11758.291632925468, 0.18275000000000002, 0.9143749999999999, 0.256125, 192.0, 0.0, 0.0, 0.0, 0.0, 0.0, 0.0, 0.0, 0.0, 0.0, 1.6626777028255136E9, 0.0, 2022-09-08 18:55:02.825
88.0, -6338.708858336075, -9698.82425055793, -30667.800386881878, -27406.27853945238, -17051.922327509204, 6699.287199889088, 19893.253730923385, 15207.836354713007, -18361.220462467725, -10745.9364230557, -20485.30673805556, -31904.522407594017, 2782.993350385827, -12776.10066844233, -9174.899360525533, -11763.521941128009, 0.153375, 0.9071875, 0.24406250000000002, 192.0, 1.5, 112.0, 14.0, 16.0, 3.5, 32.0, 0.0, 0.0, 0.0, 1.6626777028255177E9, 0.0, 2022-09-08 18:55:02.825
90.0, -6357.841951589818, -9722.584154913922, -30697.081172118327, -27407.32907144178, -17076.57630164341, 6673.3591763209315, 19958.632583455157, 15185.462258513244, -18362.941546790786, -10760.777981374024, -20494.225084093225, -31912.501980364563, 2772.9797688698495, -12786.427174380682, -9186.477564153382, -11767.61231036333, 0.153375, 0.9071875, 0.24406250000000002, 192.0, 0.0, 0.0, 0.0, 0.0, 0.0, 0.0, 0.0, 0.0, 0.0, 1.662677702825522E9, 0.0, 2022-09-08 18:55:02.825
92.0, -6363.921626081661, -9725.02049505955, -30697.237634329515, -27404.982138273972, -17077.313909210436, 6659.232873825178, 19884.290681396804, 15170.061906583538, -18370.25056722767, -10779.262874038563, -20504.506886542666, -31926.74004158259, 2768.26355078978, -12794.049119239942, -9212.53969818827, -11780.039880280481, 0.153375, 0.9071875, 0.24406250000000002, 192.0, 0.0, 0.0, 0.0, 0.0, 0.0, 0.0, 0.0, 0.0, 0.0, 1.6626777028255267E9, 0.0, 2022-09-08 18:55:02.825
94.0, -6342.35219268229, -9704.658055860766, -30681.88198588872, -27390.073524722284, -17063.165254970223, 6675.7061094887395, 19942.785196636345, 15168.564339705032, -18360.929889789808, -10772.289129768507, -20502.942264430796, -31921.487381635594, 2774.0750043481594, -12787.321244158895, -9205.364788218116, -11771.590920876375, 0.153375, 0.9071875, 0.24406250000000002, 192.0, 0.0, 0.0, 0.0, 0.0, 0.0, 0.0, 0.0, 0.0, 0.0, 1.662677702825532E9, 0.0, 2022-09-08 18:55:02.825
96.0, -6341.100494992793, -9707.5414308955, -30670.92963110562, -27377.780065271865, -17053.978687999093, 6674.32030133251, 19899.579274604235, 15148.201900506247, -18338.980476734698, -10753.178388259219, -20480.076429853016, -31901.393163370274, 2791.8446411901286, -12762.555511302413, -9187.908075798521, -11746.981650231082, 0.153375, 0.9071875, 0.24406250000000002, 192.0, 0.0, 0.0, 0.0, 0.0, 0.0, 0.0, 0.0, 0.0, 0.0, 1.6626777028255367E9, 0.0, 2022-09-08 18:55:02.825
98.0, -6331.310430921368, -9702.221715715137, -30668.292125259894, -27384.642050819642, -17043.4733681051, 6693.319284119521, 19933.285705242837, 15214.139546649403, -18331.939677231276, -10761.672051152236, -20474.019107105625, -31900.25322440305, 2798.7289784823633, -12760.119171156784, -9175.10052622563, -11738.130359426781, 0.1296875, 0.90959375, 0.23203125000000002, 192.0, 1.5, 40.0, 14.0, 64.0, 3.0, 112.0, 0.0, 0.0, 0.0, 1.6626777028255408E9, 0.0, 2022-09-08 18:55:02.825
100.0, -6325.767198296452, -9700.165355225248, -30663.084168801808, -27382.89861475213, -17038.93596398067, 6707.780862782105, 19887.688146554014, 15288.436745218843, -18317.947485202254, -10762.968452330644, -20470.845159392975, -31902.443695359674, 2800.762987227796, -12759.962708945599, -9180.8672762951, -11725.702789509629, 0.1296875, 0.90959375, 0.23203125000000002, 192.0, 0.0, 0.0, 0.0, 0.0, 0.0, 0.0, 0.0, 0.0, 0.0, 1.6626777028255465E9, 0.0, 2022-09-08 18:55:02.825
102.0, -6320.5815935828205, -9698.801898813475, -30662.4359682126, -27386.27372816488, -17021.345141094345, 6696.806156254549, 19971.104856861217, 15256.004364014194, -18305.631674007378, -10773.65258618028, -20465.52544421261, -31896.274613890007, 2801.5229465392767, -12759.448618823126, -9182.230732706874, -11727.714446510607, 0.1296875, 0.90959375, 0.23203125000000002, 192.0, 0.0, 0.0, 0.0, 0.0, 0.0, 0.0, 0.0, 0.0, 0.0, 1.6626777028255515E9, 0.0, 2022-09-08 18:55:02.825
104.0, -6309.517480077444, -9687.78248879701, -30641.31356970234, -27366.60419304421, -17043.518071594008, 6704.696322047273, 19889.45393436598, 15262.77694258415, -18301.58600826097, -10776.021871092544, -20458.685810409286, -31892.094837676865, 2816.3645048576004, -12761.013240934997, -9171.613654090603, -11730.106083167326, 0.1296875, 0.90959375, 0.23203125000000002, 192.0, 0.0, 0.0, 0.0, 0.0, 0.0, 0.0, 0.0, 0.0, 0.0, 1.6626777028255565E9, 0.0, 2022-09-08 18:55:02.825
106.0, -6301.470852073533, -9677.433631114201, -30640.464203413037, -27360.56922204128, -17038.064245946916, 6724.745836823683, 19952.9105368746, 15263.559253640087, -18281.84941790693, -10757.000536561078, -20447.532289926086, -31873.654648501237, 2811.0894931661483, -12758.219272878085, -9165.9139592545, -11715.689207993652, 0.1296875, 0.90959375, 0.23203125000000002, 192.0, 0.0, 0.0, 0.0, 0.0, 0.0, 0.0, 0.0, 0.0, 0.0, 1.6626777028255603E9, 0.0, 2022-09-08 18:55:02.825
108.0, -6303.169584652136, -9674.460849101646, -30627.92487477361, -27346.711140478987, -17018.484117804066, 6717.012133242147, 19940.684132657545, 15254.931480280338, -18281.46943825119, -10754.877120837822, -20443.106644523938, -31867.64202924276, 2811.7153420108966, -12728.871432408267, -9161.95770048591, -11705.69797822213, 0.11384375000000001, 0.918796875, 0.21701562500000002, 192.0, 1.5, 8.0, 14.5, 0.0, 3.0, 40.0, 0.0, 0.0, 0.0, 1.6626777028255644E9, 0.0, 2022-09-08 18:55:02.825
110.0, -6302.186107896103, -9673.969110723629, -30629.422441652114, -27352.522594037368, -17025.480213818577, 6718.688514076294, 19962.499435245925, 15259.044201260114, -18278.697821938735, -10755.74883887158, -20442.48079567919, -31865.853889686336, 2810.4189408324887, -12727.239755063028, -9170.563122101203, -11699.104213607814, 0.11384375000000001, 0.918796875, 0.21701562500000002, 192.0, 0.0, 0.0, 0.0, 0.0, 0.0, 0.0, 0.0, 0.0, 0.0, 1.6626777028255682E9, 0.0, 2022-09-08 18:55:02.825
112.0, -6295.458232815055, -9667.710622276143, -30616.480781612492, -27349.03572190234, -17037.66191454672, 6719.80610129906, 19946.607344938202, 15264.140398995925, -18278.407249260814, -10761.381478474317, -20445.297115480556, -31866.010351897523, 2806.775606486274, -12737.700371468112, -9170.80899129021, -11706.189716600147, 0.11384375000000001, 0.918796875, 0.21701562500000002, 192.0, 0.0, 0.0, 0.0, 0.0, 0.0, 0.0, 0.0, 0.0, 0.0, 1.662677702825572E9, 0.0, 2022-09-08 18:55:02.825
114.0, -6294.541811292388, -9666.4812763311, -30621.129944459197, -27354.780120227355, -17036.343161623856, 6719.0237902431245, 19957.00090610992, 15277.88672183594, -18260.011763574097, -10751.904338825267, -20429.293266450557, -31846.63138945477, 2815.515138568299, -12721.651818949202, -9163.745840042335, -11697.114908351292, 0.11384375000000001, 0.918796875, 0.21701562500000002, 192.0, 0.0, 0.0, 0.0, 0.0, 0.0, 0.0, 0.0, 0.0, 0.0, 1.662677702825576E9, 0.0, 2022-09-08 18:55:02.825
116.0, -6288.640950756187, -9654.299575602958, -30607.76360127492, -27355.718893494475, -17013.499678790533, 6720.56606061054, 19932.436338953536, 15272.16467525538, -18259.341211240437, -10772.870275124345, -20437.116377009916, -31858.701331460637, 2808.4743390648773, -12735.599307489314, -9165.19870343193, -11708.69311197914, 0.11384375000000001, 0.918796875, 0.21701562500000002, 192.0, 0.0, 0.0, 0.0, 0.0, 0.0, 0.0, 0.0, 0.0, 0.0, 1.6626777028255808E9, 0.0, 2022-09-08 18:55:02.825
118.0, -6284.10354663176, -9654.590148280877, -30609.68585129808, -27364.346666854224, -17008.22466709908, 6710.999513983669, 19946.272068771374, 15274.243387489723, -18242.51034766559, -10767.528208199526, -20422.23011520268, -31853.985113380568, 2826.199272417936, -12718.32140902536, -9153.754610270811, -11704.781556699463, 0.11384375000000001, 0.918796875, 0.21701562500000002, 192.0, 0.0, 0.0, 0.0, 0.0, 0.0, 0.0, 0.0, 0.0, 0.0, 1.6626777028255844E9, 0.0, 2022-09-08 18:55:02.825
120.0, -6291.546677535377, -9664.804895496953, -30607.71889778601, -27368.057056433805, -17009.051681643927, 6706.775034281616, 19925.686112128034, 15269.929500809849, -18249.57349891347, -10773.496123969093, -20435.171775242303, -31867.77613970949, 2819.7843217592626, -12729.43022601965, -9164.461095864905, -11717.253830105523, 0.11, 0.9520000000000001, 0.196, 192.0, 1.5, 56.0, 14.5, 96.0, 3.0, 16.0, 0.0, 0.0, 0.0, 1.6626777033050091E9, 0.0, 2022-09-08 18:55:03.305
122.0, -6281.667206486131, -9655.394811081269, -30597.81707499231, -27360.658629019097, -16993.74073669204, 6719.381418154409, 19952.821129896776, 15280.904207337406, -18241.660981376288, -10769.338699500406, -20426.56635362701, -31855.84030817036, 2820.5442810707427, -12733.610002232792, -9153.486389337348, -11716.5162225385, 0.11, 0.9520000000000001, 0.196, 192.0, 0.0, 0.0, 0.0, 0.0, 0.0, 0.0, 0.0, 0.0, 0.0, 1.6626777033051088E9, 0.0, 2022-09-08 18:55:03.305
124.0, -6299.749767750474, -9665.006061197051, -30596.990060447464, -27360.70333250801, -17018.595876526342, 6708.9878569826915, 19939.410083223593, 15311.548448985632, -18246.66777213428, -10777.072403081942, -20430.65672286233, -31849.73828193406, 2817.057408935715, -12722.769406171967, -9153.396982359527, -11706.45793753361, 0.11, 0.9520000000000001, 0.196, 192.0, 0.0, 0.0, 0.0, 0.0, 0.0, 0.0, 0.0, 0.0, 0.0, 1.6626777033051422E9, 0.0, 2022-09-08 18:55:03.305
126.0, -6279.543790762877, -9642.207281852638, -30575.755903214922, -27339.02214038636, -17020.3169608494, 6725.975182768725, 19956.218595053982, 15310.252047807224, -18245.125501766863, -10771.640929179302, -20427.3710164274, -31840.283494029463, 2825.998106717838, -12713.448728734103, -9146.356182856105, -11699.238324074546, 0.11, 0.9520000000000001, 0.196, 192.0, 0.0, 0.0, 0.0, 0.0, 0.0, 0.0, 0.0, 0.0, 0.0, 1.6626777033051467E9, 0.0, 2022-09-08 18:55:03.305
128.0, -6290.809069968352, -9655.394811081269, -30592.452656323036, -27349.996846913917, -17032.27514413299, 6716.341580908487, 19938.627772167656, 15280.703041637307, -18235.648362117812, -10770.635100678814, -20422.543039625056, -31831.40985148071, 2829.060295708215, -12711.437071733126, -9146.66910727848, -11691.437565259645, 0.11, 0.9520000000000001, 0.196, 192.0, 0.0, 0.0, 0.0, 0.0, 0.0, 0.0, 0.0, 0.0, 0.0, 1.6626777033051512E9, 0.0, 2022-09-08 18:55:03.305
130.0, -6274.447593027066, -9642.989592908572, -30577.52169102689, -27328.002730369895, -17002.03323388496, 6746.38232545642, 19952.932888619052, 15294.40466098841, -18245.997219800618, -10772.579702446426, -20428.645065861354, -31836.751918405524, 2819.158472914514, -12711.347664755305, -9158.336717884149, -11694.589161227843, 0.12, 0.9520000000000001, 0.192, 192.0, 1.5, 96.0, 14.5, 96.0, 3.0, 0.0, 0.0, 0.0, 0.0, 1.6626777033051555E9, 0.0, 2022-09-08 18:55:03.305
132.0, -6286.808107710852, -9653.405505824747, -30584.450731808036, -27329.969683881962, -17010.37043456679, 6732.2336712162105, 19957.403237510116, 15295.902227866916, -18233.301428950006, -10754.161865015252, -20418.45267038973, -31819.585778663848, 2833.9329759994716, -12689.688824378112, -9139.069514163675, -11662.82733235685, 0.12, 0.9520000000000001, 0.192, 192.0, 0.0, 0.0, 0.0, 0.0, 0.0, 0.0, 0.0, 0.0, 0.0, 1.6626777033051643E9, 0.0, 2022-09-08 18:55:03.305
134.0, -6294.362997336745, -9665.58720655289, -30596.990060447464, -27341.27966657635, -17006.145954864736, 6727.875081047426, 19938.627772167656, 15283.385250971944, -18253.797978615523, -10768.824609377934, -20438.90451656634, -31837.176601550174, 2818.5549758142206, -12707.637275175724, -9146.311479367194, -11678.048870330915, 0.12, 0.9520000000000001, 0.192, 192.0, 0.0, 0.0, 0.0, 0.0, 0.0, 0.0, 0.0, 0.0, 0.0, 1.6626777033051689E9, 0.0, 2022-09-08 18:55:03.305
136.0, -6296.776985737919, -9662.525017562511, -30603.91910122861, -27347.538155023834, -16990.54443723493, 6729.149130481378, 19956.17389156507, 15276.16563751288, -18255.206138516205, -10776.51360947056, -20445.498281180655, -31838.54005796195, 2817.4597403359107, -12715.99682760201, -9145.551520055715, -11674.763163895985, 0.12, 0.9520000000000001, 0.192, 192.0, 0.0, 0.0, 0.0, 0.0, 0.0, 0.0, 0.0, 0.0, 0.0, 1.6626777033051732E9, 0.0, 2022-09-08 18:55:03.305
138.0, -6306.634105042709, -9669.834037999397, -30610.311700142825, -27361.55269879731, -17044.255679161033, 6696.582638809996, 19912.83385906623, 15248.807102299585, -18265.018554332084, -10785.007272363577, -20448.940449826772, -31845.53615397646, 2819.1808246589694, -12718.14259506972, -9154.492217837837, -11696.086728106347, 0.12, 0.9520000000000001, 0.192, 192.0, 0.0, 0.0, 0.0, 0.0, 0.0, 0.0, 0.0, 0.0, 0.0, 1.6626777033051777E9, 0.0, 2022-09-08 18:55:03.305
140.0, -6308.422244599134, -9671.778639767008, -30615.139676945175, -27364.547832554323, -17050.827092030893, 6694.302760875555, 19923.585048149234, 15257.323116937056, -18268.572481700478, -10791.824554422445, -20455.444807463267, -31850.185316823165, 2811.3353623551566, -12727.195051574117, -9165.444572620938, -11703.84278343234, 0.134, 0.9480000000000001, 0.18, 192.0, 2.0, 24.0, 14.5, 80.0, 2.5, 80.0, 0.0, 0.0, 0.0, 1.662677703305182E9, 0.0, 2022-09-08 18:55:03.305
142.0, -6299.123918905726, -9666.190703653181, -30606.8248280078, -27353.41666381558, -17034.80089125644, 6705.836261014493, 19925.663760383577, 15247.980087754739, -18264.884443865354, -10799.312388814973, -20447.956973070737, -31844.53032547597, 2816.476263579877, -12733.341781299327, -9163.589377831147, -11705.094481121836, 0.134, 0.9480000000000001, 0.18, 192.0, 0.0, 0.0, 0.0, 0.0, 0.0, 0.0, 0.0, 0.0, 0.0, 1.6626777033051865E9, 0.0, 2022-09-08 18:55:03.305
144.0, -6291.300808346368, -9660.558064050445, -30604.232025650985, -27342.531364265844, -17015.556039280422, 6706.193888925778, 19933.37511222066, 15244.87319527545, -18260.83877811894, -10788.292978798507, -20444.38069395789, -31834.20381953762, 2816.029228690771, -12698.22719076004, -9163.43291561996, -11692.041062359938, 0.134, 0.9480000000000001, 0.18, 192.0, 0.0, 0.0, 0.0, 0.0, 0.0, 0.0, 0.0, 0.0, 0.0, 1.6626777033051913E9, 0.0, 2022-09-08 18:55:03.305
146.0, -6305.002427697472, -9672.695061289676, -30618.335976402283, -27355.36126558319, -17028.296533619945, 6690.078281173502, 19901.166248460562, 15197.82277319703, -18262.068124063986, -10792.048071866999, -20441.452615434246, -31832.43803172565, 2814.88928972355, -12715.236868290529, -9161.443610363438, -11697.025501373471, 0.134, 0.9480000000000001, 0.18, 192.0, 0.0, 0.0, 0.0, 0.0, 0.0, 0.0, 0.0, 0.0, 0.0, 1.6626777033051956E9, 0.0, 2022-09-08 18:55:03.305
148.0, -6297.604000282765, -9664.603729796854, -30616.25726416794, -27347.672265490564, -17032.453958088634, 6699.309551633543, 19891.28677741132, 15258.753628582195, -18262.157531041805, -10796.786641691524, -20447.174662014804, -31840.797584151936, 2807.4685105643885, -12725.071635850863, -9168.8643895226, -11705.452109033122, 0.134, 0.9480000000000001, 0.18, 192.0, 0.0, 0.0, 0.0, 0.0, 0.0, 0.0, 0.0, 0.0, 0.0, 1.6626777033052E9, 0.0, 2022-09-08 18:55:03.305
150.0, -6305.762387008952, -9671.041032199983, -30624.39329914967, -27350.93562018104, -17036.499623835043, 6693.028711441602, 19850.60660250266, 15267.73902985323, -18263.94567059823, -10790.259932310573, -20448.225194004204, -31840.484659729562, 2814.218737389891, -12721.495356738014, -9178.63210184957, -11698.679530463163, 0.16, 0.936, 0.17400000000000002, 192.0, 2.5, 0.0, 14.5, 32.0, 2.5, 56.0, 0.0, 0.0, 0.0, 1.6626777033052044E9, 0.0, 2022-09-08 18:55:03.305
152.0, -6314.524270835433, -9679.981729982106, -30635.457412655047, -27357.439977817536, -17057.264394434023, 6691.709958518739, 19923.89797257161, 15258.932442537838, -18277.33436552696, -10801.905191171789, -20455.400103974356, -31846.16200282121, 2801.2770773502684, -12725.295153295418, -9166.182180187963, -11690.945826881627, 0.16, 0.936, 0.17400000000000002, 192.0, 0.0, 0.0, 0.0, 0.0, 0.0, 0.0, 0.0, 0.0, 0.0, 1.6626777033052087E9, 0.0, 2022-09-08 18:55:03.305
154.0, -6321.207442427569, -9685.100279462371, -30638.050215011863, -27352.679056248555, -17046.401446628744, 6687.172554394312, 19888.26929190985, 15240.916936506861, -18287.906740654318, -10811.941124432222, -20468.900557625362, -31859.081311116377, 2785.0720626201705, -12732.939449899131, -9178.654453594025, -11706.569696255887, 0.16, 0.936, 0.17400000000000002, 192.0, 0.0, 0.0, 0.0, 0.0, 0.0, 0.0, 0.0, 0.0, 0.0, 1.6626777033052132E9, 0.0, 2022-09-08 18:55:03.305
156.0, -6307.751692265474, -9673.477372345611, -30638.00551152295, -27343.336027066234, -17046.75907454003, 6697.633170799395, 19914.242018966917, 15250.885814533927, -18280.19538881724, -10802.463984783171, -20459.177548787302, -31850.185316823165, 2789.9223911669724, -12726.479795751547, -9164.997537731831, -11696.913742651193, 0.16, 0.936, 0.17400000000000002, 192.0, 0.0, 0.0, 0.0, 0.0, 0.0, 0.0, 0.0, 0.0, 0.0, 1.6626777033052175E9, 0.0, 2022-09-08 18:55:03.305
158.0, -6311.462081845055, -9678.707680548154, -30642.609970880745, -27338.284532819336, -17056.213862444623, 6685.60793228244, 19818.50949746484, 15235.753683537685, -18281.17886557327, -10794.32794980144, -20460.25043252116, -31845.58085746537, 2779.8194026731735, -12713.068749078364, -9184.309444941216, -11702.345216553835, 0.16, 0.936, 0.17400000000000002, 192.0, 0.0, 0.0, 0.0, 0.0, 0.0, 0.0, 0.0, 0.0, 0.0, 1.662677703305222E9, 0.0, 2022-09-08 18:55:03.305
160.0, -6320.089855204804, -9694.644474344788, -30649.650770384167, -27355.65183826111, -17060.885377035782, 6682.523391547607, 19898.439335637016, 15224.555459565576, -18281.268272551093, -10798.23950508112, -20460.67511566581, -31851.34760753484, 2790.3247225671676, -12731.039551620432, -9166.38334588806, -11698.858344418806, 0.176, 0.936, 0.168, 192.0, 2.5, 64.0, 14.5, 32.0, 2.5, 32.0, 0.0, 0.0, 0.0, 1.6626777033052263E9, 0.0, 2022-09-08 18:55:03.305
162.0, -6331.8468727882955, -9704.345131438391, -30664.7381978915, -27367.8111872448, -17052.5258246095, 6670.408746052832, 19856.574518272224, 15194.425308039823, -18302.256560594626, -10816.43382506774, -20480.14348508638, -31883.042381172465, 2770.7222426798635, -12758.554549044913, -9182.923636784988, -11717.075016149882, 0.176, 0.936, 0.168, 192.0, 0.0, 0.0, 0.0, 0.0, 0.0, 0.0, 0.0, 0.0, 0.0, 1.6626777033052309E9, 0.0, 2022-09-08 18:55:03.305
164.0, -6314.077235946326, -9690.688215576198, -30659.329075733316, -27356.36709408368, -17060.41599040222, 6678.500077545653, 19875.193521403497, 15218.945171707293, -18302.39067106136, -10820.770063492067, -20475.740191428686, -31887.199805641154, 2767.995329856316, -12749.56914777388, -9190.031491521775, -11715.689207993652, 0.176, 0.936, 0.168, 192.0, 0.0, 0.0, 0.0, 0.0, 0.0, 0.0, 0.0, 0.0, 0.0, 1.6626777033052363E9, 0.0, 2022-09-08 18:55:03.305
166.0, -6312.15498592317, -9689.414166142245, -30646.856802327253, -27353.03668415984, -17051.497644364554, 6683.909199703837, 19831.6299714601, 15221.53797406411, -18288.934920899264, -10806.241429596119, -20460.6304121769, -31880.807206726935, 2773.73972818133, -12737.432150534649, -9180.755517572823, -11696.287893806446, 0.176, 0.936, 0.168, 192.0, 0.0, 0.0, 0.0, 0.0, 0.0, 0.0, 0.0, 0.0, 0.0, 1.6626777033052409E9, 0.0, 2022-09-08 18:55:03.305
168.0, -6322.570898839343, -9702.534640137512, -30659.418482711135, -27375.477835592967, -17057.75613281204, 6659.702260458739, 19853.802901959767, 15134.61203987742, -18290.72306045569, -10813.550450033004, -20465.57014770152, -31898.912119735734, 2771.862181647084, -12746.216386105585, -9193.473660167892, -11731.313077367911, 0.176, 0.936, 0.168, 192.0, 0.0, 0.0, 0.0, 0.0, 0.0, 0.0, 0.0, 0.0, 0.0, 1.6626777033052452E9, 0.0, 2022-09-08 18:55:03.305
170.0, -6329.29877392039, -9714.023436787538, -30659.798462366878, -27367.721780266977, -17050.313001908424, 6691.5534963075515, 19895.55596060228, 15273.148152011414, -18299.060261137518, -10816.9032117013, -20473.728534427708, -31909.015108229534, 2762.385041998034, -12753.972441431575, -9178.028604749275, -11717.03031266097, 0.184, 0.9460000000000001, 0.182, 192.0, 2.5, 96.0, 14.5, 72.0, 2.5, 88.0, 0.0, 0.0, 0.0, 1.6626777033052497E9, 0.0, 2022-09-08 18:55:03.305
172.0, -6330.371657654245, -9718.091454278405, -30668.917974104643, -27373.913213481097, -17024.250867873536, 6672.666272242817, 19876.154646415074, 15236.78186378263, -18301.295435583048, -10820.85947046989, -20479.04824960807, -31915.497114121572, 2759.54637045221, -12752.184301875152, -9191.082023511175, -11720.27131560699, 0.184, 0.9460000000000001, 0.182, 192.0, 0.0, 0.0, 0.0, 0.0, 0.0, 0.0, 0.0, 0.0, 0.0, 1.662677703305254E9, 0.0, 2022-09-08 18:55:03.305
174.0, -6319.39695112669, -9700.72414883663, -30648.555534905856, -27347.35934106819, -17047.496682107056, 6700.114214433935, 19918.42179518006, 15285.106335295002, -18294.545208757547, -10807.940162174722, -20472.94622337177, -31895.51465457853, 2767.280074033746, -12749.457389051604, -9173.066517480198, -11703.239286332046, 0.184, 0.9460000000000001, 0.182, 192.0, 0.0, 0.0, 0.0, 0.0, 0.0, 0.0, 0.0, 0.0, 0.0, 1.6626777033052585E9, 0.0, 2022-09-08 18:55:03.305
176.0, -6329.321125664846, -9706.15562273927, -30658.97144782203, -27349.169832369073, -17044.210975672126, 6691.978179452202, 19904.65312059559, 15251.802236056596, -18301.317787327505, -10812.790490721523, -20466.911252368838, -31883.69058176167, 2772.420975258467, -12720.869507893267, -9159.700174295924, -11694.74562343903, 0.184, 0.9460000000000001, 0.182, 192.0, 0.0, 0.0, 0.0, 0.0, 0.0, 0.0, 0.0, 0.0, 0.0, 1.6626777033052628E9, 0.0, 2022-09-08 18:55:03.305
178.0, -6342.7098205935745, -9711.452986175178, -30671.913107861652, -27354.243678360424, -17024.921420207193, 6689.094804417468, 19873.31597486925, 15241.453378373788, -18309.744394987156, -10815.47270005616, -20475.62843270641, -31883.15413989474, 2768.64353044552, -12728.044417863419, -9162.29297665274, -11686.49782973502, 0.184, 0.9460000000000001, 0.182, 192.0, 0.0, 0.0, 0.0, 0.0, 0.0, 0.0, 0.0, 0.0, 0.0, 1.662677703305267E9, 0.0, 2022-09-08 18:55:03.305
180.0, -6341.167550226159, -9715.342189710402, -30675.422331741138, -27357.372922584167, -17031.2693156325, 6689.117156161923, 19914.376129433647, 15241.051046973593, -18325.725892272698, -10825.061598427486, -20491.229950336212, -31895.045267944966, 2749.35397498059, -12748.42920880666, -9181.806049562223, -11714.213992859603, 0.20400000000000001, 0.934, 0.20600000000000002, 192.0, 3.0, 48.0, 14.5, 24.0, 3.0, 56.0, 0.0, 0.0, 0.0, 1.6626777033052716E9, 0.0, 2022-09-08 18:55:03.305
182.0, -6330.885747776717, -9709.486032663111, -30677.07636083083, -27357.12705339516, -17021.83687947236, 6711.178327939311, 19918.734719602435, 15255.758494825184, -18313.030101422086, -10814.355112833395, -20479.361174030444, -31877.141520636265, 2752.4385157154225, -12739.980249402553, -9163.365860386593, -11683.100364577815, 0.20400000000000001, 0.934, 0.20600000000000002, 192.0, 0.0, 0.0, 0.0, 0.0, 0.0, 0.0, 0.0, 0.0, 0.0, 1.662677703305276E9, 0.0, 2022-09-08 18:55:03.305
184.0, -6317.340590636801, -9697.10316623487, -30658.144433277183, -27346.532326523346, -17029.03414118697, 6715.939249508292, 19897.724079814445, 15255.959660525283, -18308.33623508647, -10808.387197063828, -20474.86847339493, -31879.73432299308, 2765.2460652883133, -12743.355362815306, -9169.356127900617, -11698.724233952074, 0.20400000000000001, 0.934, 0.20600000000000002, 192.0, 0.0, 0.0, 0.0, 0.0, 0.0, 0.0, 0.0, 0.0, 0.0, 1.6626777033052804E9, 0.0, 2022-09-08 18:55:03.305
186.0, -6304.86831723074, -9686.01670098504, -30644.97925579301, -27333.63536997263, -17020.18285038267, 6722.868290289437, 19904.60841710668, 15272.365840955477, -18286.409173775814, -10798.261856825573, -20449.2757259936, -31860.73534020607, 2787.128423110059, -12717.449690991603, -9134.085075150142, -11674.003204584504, 0.20400000000000001, 0.934, 0.20600000000000002, 192.0, 0.0, 0.0, 0.0, 0.0, 0.0, 0.0, 0.0, 0.0, 0.0, 1.6626777033052847E9, 0.0, 2022-09-08 18:55:03.305
188.0, -6306.790567253896, -9693.258666188558, -30639.972465035018, -27339.156250853095, -17016.07012940289, 6728.076246747523, 19915.828992823244, 15294.382309243956, -18286.655042964823, -10794.082080612432, -20444.00071430215, -31864.51278501902, 2787.1060713656034, -12720.444824748616, -9140.90235720901, -11685.022614600972, 0.20400000000000001, 0.934, 0.20600000000000002, 192.0, 0.0, 0.0, 0.0, 0.0, 0.0, 0.0, 0.0, 0.0, 0.0, 1.6626777033052893E9, 0.0, 2022-09-08 18:55:03.305
190.0, -6329.187015198114, -9715.610410643865, -30655.573982664824, -27359.764559240888, -17039.382998869776, 6715.246345430178, 19947.881394372154, 15268.387230442433, -18288.04085112105, -10807.38136856334, -20449.76746437162, -31870.771273466504, 2786.212001587391, -12740.09200812483, -9128.743008225323, -11682.966254111083, 0.199, 0.931, 0.223, 192.0, 3.0, 8.0, 14.5, 0.0, 3.5, 64.0, 0.0, 0.0, 0.0, 1.6626777033052936E9, 0.0, 2022-09-08 18:55:03.305
192.0, -6313.563145823854, -9705.328608194424, -30641.44768016907, -27339.78209969784, -17020.56283003841, 6706.439758114786, 19892.31495765626, 15273.55048341161, -18302.99416816165, -10817.014970423577, -20461.90446161085, -31879.51080554853, 2777.9865596278382, -12723.350551527805, -9145.059781677697, -11703.596914243331, 0.199, 0.931, 0.223, 192.0, 0.0, 0.0, 0.0, 0.0, 0.0, 0.0, 0.0, 0.0, 0.0, 1.662677703305298E9, 0.0, 2022-09-08 18:55:03.305
194.0, -6307.3717126097345, -9702.802861070975, -30635.636226610688, -27335.401157784603, -17007.285893831955, 6726.645735102384, 20026.15720345464, 15287.74384114073, -18294.38874654636, -10796.361958546873, -20447.576993414998, -31854.119223847298, 2784.200344586414, -12731.911269654187, -9119.04235113172, -11680.284044776447, 0.199, 0.931, 0.223, 192.0, 0.0, 0.0, 0.0, 0.0, 0.0, 0.0, 0.0, 0.0, 0.0, 1.6626777033053024E9, 0.0, 2022-09-08 18:55:03.305
196.0, -6297.894572960684, -9691.15760220976, -30608.791781519867, -27305.11454404766, -16986.565826721886, 6725.930479279814, 19981.27490058838, 15298.673844179375, -18295.327519813483, -10791.086946855421, -20435.238830475668, -31843.47979348657, 2786.4355190319443, -12718.835499147834, -9113.700284206901, -11667.78941962593, 0.199, 0.931, 0.223, 192.0, 0.0, 0.0, 0.0, 0.0, 0.0, 0.0, 0.0, 0.0, 0.0, 1.6626777033053079E9, 0.0, 2022-09-08 18:55:03.305
198.0, -6298.878049716717, -9689.123593464326, -30603.00267970594, -27303.68403240252, -17007.12943162077, 6712.497080862175, 19994.57418853929, 15281.59711141552, -18289.493714510645, -10789.99171137711, -20424.197068714748, -31827.185371778654, 2795.1526993695143, -12711.437071733126, -9094.27661827524, -11655.250090986501, 0.199, 0.931, 0.223, 192.0, 0.0, 0.0, 0.0, 0.0, 0.0, 0.0, 0.0, 0.0, 0.0, 1.6626777033053122E9, 0.0, 2022-09-08 18:55:03.305
200.0, -6300.554430550866, -9691.20230569867, -30605.126095429194, -27298.87840734463, -17010.95157992263, 6732.971278783236, 19934.04566455432, 15283.206437016303, -18286.52093249809, -10796.451365524694, -20421.537211124567, -31818.132915274255, 2796.0467691477265, -12723.104682338797, -9101.160955567475, -11664.883692846739, 0.1995, 0.9255, 0.2455, 192.0, 3.0, 32.0, 14.0, 96.0, 4.0, 48.0, 0.0, 0.0, 0.0, 1.6626777033053164E9, 0.0, 2022-09-08 18:55:03.305
202.0, -6288.730357734008, -9683.066270716938, -30603.941452973064, -27288.8424740842, -16987.79517266693, 6746.9634708122585, 19998.48574381897, 15301.534867469654, -18281.156513828817, -10789.27645555454, -20417.357434911424, -31804.788923834436, 2797.4325773039554, -12700.238847761018, -9090.543876951204, -11637.055770999881, 0.1995, 0.9255, 0.2455, 192.0, 0.0, 0.0, 0.0, 0.0, 0.0, 0.0, 0.0, 0.0, 0.0, 1.662677703305321E9, 0.0, 2022-09-08 18:55:03.305
204.0, -6300.330913106312, -9690.621160342833, -30611.49634259896, -27295.41388695406, -16990.16445757919, 6741.710810865261, 19970.23313882746, 15257.92661403735, -18276.976737615674, -10788.874124154345, -20421.358397168922, -31803.67133661167, 2793.677484235464, -12705.715025152567, -9094.768356653256, -11645.68354435963, 0.1995, 0.9255, 0.2455, 192.0, 0.0, 0.0, 0.0, 0.0, 0.0, 0.0, 0.0, 0.0, 0.0, 1.6626777033053255E9, 0.0, 2022-09-08 18:55:03.305
206.0, -6307.930506221117, -9699.91948603624, -30630.33886317478, -27310.009576083372, -17000.714480962095, 6738.961546297258, 19990.372060581692, 15290.426050475366, -18284.866903408398, -10786.460135753172, -20427.14749898285, -31803.157246489198, 2794.2139261023913, -12708.37488274275, -9104.737234680324, -11650.243300228512, 0.1995, 0.9255, 0.2455, 192.0, 0.0, 0.0, 0.0, 0.0, 0.0, 0.0, 0.0, 0.0, 0.0, 1.66267770330533E9, 0.0, 2022-09-08 18:55:03.305
208.0, -6305.203593397569, -9696.365558667847, -30629.44479339657, -27312.043584828807, -17010.16926886669, 6716.341580908487, 19943.299286758815, 15227.43883460031, -18290.544246500045, -10790.192877077208, -20436.535231654078, -31810.086287270344, 2790.190612100436, -12718.902554381199, -9118.684723220435, -11675.254902274002, 0.1995, 0.9255, 0.2455, 192.0, 0.0, 0.0, 0.0, 0.0, 0.0, 0.0, 0.0, 0.0, 0.0, 1.6626777033053343E9, 0.0, 2022-09-08 18:55:03.305
210.0, -6301.873183473728, -9692.163430710249, -30631.925837031107, -27315.485753474924, -16997.071146615883, 6759.078116307034, 19980.29142383235, 15363.605661822041, -18291.28185406707, -10787.510667742572, -20434.90355430884, -31800.363278432287, 2782.0992806076147, -12720.690693937624, -9129.391208814528, -11681.222818043569, 0.19975, 0.91275, 0.26575000000000004, 192.0, 3.0, 32.0, 14.0, 16.0, 4.0, 120.0, 0.0, 0.0, 0.0, 1.6626777033053389E9, 0.0, 2022-09-08 18:55:03.305
212.0, -6293.424224069622, -9687.044881229984, -30615.29613915636, -27301.247692256893, -17034.689132534164, 6734.848825317482, 19912.945617788508, 15308.55331522862, -18287.57146448749, -10785.543714230504, -20432.266048463112, -31799.1562842317, 2797.901963937517, -12717.203821802595, -9118.930592409444, -11685.492001234532, 0.19975, 0.91275, 0.26575000000000004, 192.0, 0.0, 0.0, 0.0, 0.0, 0.0, 0.0, 0.0, 0.0, 0.0, 1.6626777033053432E9, 0.0, 2022-09-08 18:55:03.305
214.0, -6295.324122348324, -9688.520096364033, -30609.462333853524, -27301.426506212534, -17021.568658538898, 6733.66418286135, 20056.9355555696, 15292.393003987432, -18274.294528281036, -10769.98690008961, -20418.162097711815, -31780.067894466865, 2807.8484902201285, -12701.80346987289, -9107.397092270505, -11674.159666795691, 0.19975, 0.91275, 0.26575000000000004, 192.0, 0.0, 0.0, 0.0, 0.0, 0.0, 0.0, 0.0, 0.0, 0.0, 1.6626777033053477E9, 0.0, 2022-09-08 18:55:03.305
216.0, -6288.9985786674715, -9674.90788399075, -30592.117380156207, -27288.417790939548, -17006.28006533147, 6743.09661902149, 19998.932778708077, 15288.570855685575, -18287.057374365017, -10770.590397189904, -20423.23594370317, -31779.978487489047, 2799.5559930272098, -12712.956990356088, -9115.220202829863, -11671.11982954977, 0.19975, 0.91275, 0.26575000000000004, 192.0, 0.0, 0.0, 0.0, 0.0, 0.0, 0.0, 0.0, 0.0, 0.0, 1.662677703305352E9, 0.0, 2022-09-08 18:55:03.305
218.0, -6272.927674404106, -9654.38898258078, -30577.119359626697, -27276.884290800608, -16984.97885286556, 6768.376442000443, 20013.886095748676, 15301.199591302824, -18273.60162420292, -10746.22699573362, -20402.47117310419, -31760.8453942353, 2820.5889845596535, -12693.622731402247, -9105.005455613787, -11653.439599685622, 0.19975, 0.91275, 0.26575000000000004, 192.0, 0.0, 0.0, 0.0, 0.0, 0.0, 0.0, 0.0, 0.0, 0.0, 1.6626777033053565E9, 0.0, 2022-09-08 18:55:03.305
220.0, -6272.927674404106, -9657.361764593335, -30576.09117938175, -27283.05337227027, -17011.622132256285, 6757.267625006155, 19997.010528684918, 15297.489201723243, -18272.61814744689, -10744.50591141056, -20403.253484160126, -31762.499423324996, 2812.9446879559387, -12694.673263391645, -9100.065720089164, -11642.353134435789, 0.18887500000000002, 0.907375, 0.278875, 192.0, 2.5, 72.0, 14.0, 24.0, 4.5, 16.0, 0.0, 0.0, 0.0, 1.6626777033053608E9, 0.0, 2022-09-08 18:55:03.305
222.0, -6269.463154013533, -9661.34037510638, -30563.842423420243, -27276.034924511307, -17004.13429786376, 6775.90897988188, 19984.940586679055, 15294.806992388607, -18273.512217225103, -10741.51077765355, -20398.291396891047, -31762.38766460272, 2821.8853857380614, -12706.340873997317, -9096.042406087208, -11635.468797143556, 0.18887500000000002, 0.907375, 0.278875, 192.0, 0.0, 0.0, 0.0, 0.0, 0.0, 0.0, 0.0, 0.0, 0.0, 1.662677703305365E9, 0.0, 2022-09-08 18:55:03.305
224.0, -6284.707043732053, -9670.996328711073, -30553.13593782615, -27273.06214249875, -16991.483210502054, 6783.463869507775, 19977.788028453353, 15300.618445946986, -18281.558845229014, -10751.27848998052, -20403.65581556032, -31767.997952461003, 2824.4334846059664, -12713.448728734103, -9101.362121267572, -11619.509651602466, 0.18887500000000002, 0.907375, 0.278875, 192.0, 0.0, 0.0, 0.0, 0.0, 0.0, 0.0, 0.0, 0.0, 0.0, 1.6626777033053696E9, 0.0, 2022-09-08 18:55:03.305
226.0, -6286.539886777388, -9671.95745372265, -30539.09904230822, -27273.039790754294, -16969.131466046747, 6795.131480113445, 20030.113462223228, 15322.880783424473, -18271.299394524027, -10747.255175978564, -20394.446896844733, -31768.377932116742, 2842.9183772705055, -12699.210667516074, -9078.183362267418, -11610.188974164603, 0.18887500000000002, 0.907375, 0.278875, 192.0, 0.0, 0.0, 0.0, 0.0, 0.0, 0.0, 0.0, 0.0, 0.0, 1.662677703305374E9, 0.0, 2022-09-08 18:55:03.305
228.0, -6297.022854926927, -9688.810669041952, -30539.970760341974, -27295.503293931877, -16980.776724907962, 6796.9196196698695, 20049.5818316438, 15309.670902451386, -18268.84070263394, -10757.22405400563, -20397.71025153521, -31778.99501073301, 2848.4839616398767, -12723.775234672456, -9084.374795481539, -11613.854660255272, 0.18887500000000002, 0.907375, 0.278875, 192.0, 0.0, 0.0, 0.0, 0.0, 0.0, 0.0, 0.0, 0.0, 0.0, 1.6626777033053792E9, 0.0, 2022-09-08 18:55:03.305
230.0, -6303.370750352234, -9693.124555721826, -30542.22828653196, -27310.143686550105, -16974.250015527014, 6783.083889852034, 20011.226238158495, 15296.326911011567, -18262.7610281421, -10779.776964161036, -20402.60528357092, -31797.502255142008, 2855.5247611432983, -12740.04730463592, -9095.08128107563, -11638.553337878388, 0.1544375, 0.9036875, 0.2854375, 192.0, 1.5, 96.0, 14.0, 16.0, 4.5, 16.0, 0.0, 0.0, 0.0, 1.6626777033053837E9, 0.0, 2022-09-08 18:55:03.305
232.0, -6312.602020812276, -9706.379140183824, -30545.804565644812, -27330.483774004435, -16967.656250912696, 6762.38617448642, 20031.096938979263, 15282.938216082839, -18244.6561151333, -10800.429976037738, -20409.735490052164, -31811.762668104493, 2859.6821856119855, -12749.055057651409, -9106.100691092097, -11651.11501826227, 0.1544375, 0.9036875, 0.2854375, 192.0, 0.0, 0.0, 0.0, 0.0, 0.0, 0.0, 0.0, 0.0, 0.0, 1.662677703305388E9, 0.0, 2022-09-08 18:55:03.305
234.0, -6315.798320269385, -9711.162413497259, -30542.272990020872, -27334.08240486174, -16979.413268496188, 6757.424087217341, 19947.23319378295, 15270.376535698955, -18230.820385315466, -10814.46687155567, -20405.55571383902, -31818.62465365227, 2869.181677005491, -12755.492360054537, -9121.99278139982, -11666.515370191977, 0.1544375, 0.9036875, 0.2854375, 192.0, 0.0, 0.0, 0.0, 0.0, 0.0, 0.0, 0.0, 0.0, 0.0, 1.6626777033053925E9, 0.0, 2022-09-08 18:55:03.305
236.0, -6326.616564585754, -9722.003009558084, -30545.26812377788, -27346.3535125677, -16973.713573660087, 6744.214206244255, 20038.137738482685, 15242.995648741204, -18226.260629446584, -10817.037322168031, -20411.47892611968, -31827.990034579045, 2866.1641915040245, -12765.550645059426, -9117.365970297573, -11668.147047537213, 0.1544375, 0.9036875, 0.2854375, 192.0, 0.0, 0.0, 0.0, 0.0, 0.0, 0.0, 0.0, 0.0, 0.0, 1.6626777033053968E9, 0.0, 2022-09-08 18:55:03.305
238.0, -6336.786608312918, -9735.056428319982, -30557.159251828107, -27349.795681213818, -16943.53871864542, 6760.24040701871, 20000.519752564403, 15276.92559682436, -18240.297524964517, -10843.680601558757, -20427.95216178324, -31850.833517412368, 2845.9135110275165, -12781.018052222498, -9131.782845471245, -11684.910855878694, 0.1544375, 0.9036875, 0.2854375, 192.0, 0.0, 0.0, 0.0, 0.0, 0.0, 0.0, 0.0, 0.0, 0.0, 1.662677703305401E9, 0.0, 2022-09-08 18:55:03.305
240.0, -6321.25214591648, -9718.672599634243, -30541.04364407583, -27332.674244961054, -16991.12558259077, 6754.943043582803, 19994.68594726157, 15262.396962928411, -18236.207155729193, -10837.936203233743, -20425.873449548897, -31850.811165667914, 2853.7813250757845, -12764.723630514578, -9113.901449907, -11659.809846855385, 0.13121875, 0.91284375, 0.28371875, 192.0, 1.5, 48.0, 14.0, 104.0, 4.0, 104.0, 0.0, 0.0, 0.0, 1.6626777037853384E9, 0.0, 2022-09-08 18:55:03.785
242.0, -6315.775968524929, -9713.241125731603, -30535.47805970646, -27322.50420123389, -16985.60470171031, 6738.022773030135, 19925.97668480595, 15223.370817109444, -18226.93118178024, -10825.32981936095, -20411.5683330975, -31841.512839974504, 2870.0310432947927, -12753.435999564648, -9109.408749271483, -11656.010050297982, 0.13121875, 0.91284375, 0.28371875, 192.0, 0.0, 0.0, 0.0, 0.0, 0.0, 0.0, 0.0, 0.0, 0.0, 1.6626777037854073E9, 0.0, 2022-09-08 18:55:03.785
244.0, -6322.906175006173, -9718.717303123154, -30545.603399944714, -27323.73354717893, -16966.091628800827, 6739.877967819926, 20026.045444732365, 15263.82747457355, -18227.959362025187, -10832.996467709121, -20413.08825172046, -31839.657645184714, 2862.9008368135496, -12736.627487734258, -9106.70418819239, -11651.696163618108, 0.13121875, 0.91284375, 0.28371875, 192.0, 0.0, 0.0, 0.0, 0.0, 0.0, 0.0, 0.0, 0.0, 0.0, 1.662677703785419E9, 0.0, 2022-09-08 18:55:03.785
246.0, -6323.554375595377, -9719.097282778894, -30551.213687802996, -27318.726756420943, -16993.494867503032, 6741.420238187342, 19938.672475656567, 15321.673789223885, -18235.84952781791, -10837.824444511467, -20422.498336136145, -31845.871430143292, 2855.860037310128, -12749.613851262791, -9130.888775693033, -11662.559111423387, 0.13121875, 0.91284375, 0.28371875, 192.0, 0.0, 0.0, 0.0, 0.0, 0.0, 0.0, 0.0, 0.0, 0.0, 1.6626777037854235E9, 0.0, 2022-09-08 18:55:03.785
248.0, -6326.2142331855575, -9722.293582236003, -30560.690827452047, -27319.46436398797, -17008.537591521454, 6740.280299220121, 19973.831769684766, 15325.562992759109, -18229.926315537254, -10823.251107126607, -20421.201934957735, -31836.77427014998, 2854.3624704316226, -12737.409798790193, -9134.465054805882, -11641.168491979659, 0.13121875, 0.91284375, 0.28371875, 192.0, 0.0, 0.0, 0.0, 0.0, 0.0, 0.0, 0.0, 0.0, 0.0, 1.662677703785429E9, 0.0, 2022-09-08 18:55:03.785
250.0, -6320.961573238561, -9722.4947479361, -30560.780234429865, -27322.481849489435, -16982.095477830826, 6749.779790613627, 19889.45393436598, 15295.812820889096, -18230.21688821517, -10834.762255521091, -20424.331179181478, -31841.468136485597, 2853.669566353508, -12731.464234765082, -9137.124912396064, -11651.025611284449, 0.13121875, 0.91284375, 0.28371875, 192.0, 0.0, 0.0, 0.0, 0.0, 0.0, 0.0, 0.0, 0.0, 0.0, 1.6626777037854333E9, 0.0, 2022-09-08 18:55:03.785
252.0, -6322.526195350432, -9732.061294562971, -30576.024124148385, -27339.4021200421, -16985.31412903239, 6754.764229627161, 19963.035877112852, 15289.531980697153, -18227.020588758063, -10837.355057877905, -20428.220382716703, -31847.860735399812, 2849.4227349069997, -12734.884051666744, -9142.66814502098, -11653.864282830273, 0.12, 0.922, 0.264, 192.0, 1.5, 96.0, 14.0, 104.0, 4.0, 32.0, 0.0, 0.0, 0.0, 1.662677703785438E9, 0.0, 2022-09-08 18:55:03.785
254.0, -6325.051942473882, -9733.581213185933, -30584.80835971932, -27350.22036435847, -17009.230495599568, 6744.594185899996, 19946.227365282462, 15263.961585040282, -18233.189670227726, -10837.779741022558, -20434.27770546409, -31854.990941881057, 2852.5296273862873, -12746.104627383307, -9132.81102571619, -11663.989623068526, 0.12, 0.922, 0.264, 192.0, 0.0, 0.0, 0.0, 0.0, 0.0, 0.0, 0.0, 0.0, 0.0, 1.6626777037854424E9, 0.0, 2022-09-08 18:55:03.785
0.0, -6322.190919183603, -9731.033114318028, -30590.128074899683, -27357.574088284266, -17002.726137963073, 6739.006249786169, 19940.32650474626, 15255.669087847364, -18236.18480398474, -10848.597985338925, -20439.351551455446, -31864.088101874368, 2849.892121540561, -12759.67213626768, -9157.710869039402, -11687.526009979965, 0.12, 0.922, 0.264, 192.0, 0.0, 0.0, 0.0, 0.0, 0.0, 0.0, 0.0, 0.0, 0.0, 1.662677703785447E9, 0.0, 2022-09-08 18:55:03.785
2.0, -6332.316259421857, -9742.521910968055, -30591.53623480037, -27363.385541842646, -17016.204239869625, 6715.849842530471, 19898.66285308157, 15265.302689707602, -18240.56574589798, -10855.459970886704, -20442.324333468, -31872.671171745205, 2836.861054523117, -12766.578825304368, -9166.964491243898, -11703.194582843136, 0.12, 0.922, 0.264, 192.0, 0.0, 0.0, 0.0, 0.0, 0.0, 0.0, 0.0, 0.0, 0.0, 1.6626777037854512E9, 0.0, 2022-09-08 18:55:03.785
4.0, -6318.793454026396, -9733.06712306346, -30574.19128110305, -27348.47692829096, -16998.702823961117, 6703.690493546784, 19979.754981965423, 15237.474767860744, -18234.41901617277, -10837.891499744834, -20428.75682458363, -31861.741168706558, 2837.375144645589, -12745.836406449844, -9157.599110317125, -11704.803908443917, 0.12, 0.922, 0.264, 192.0, 0.0, 0.0, 0.0, 0.0, 0.0, 0.0, 0.0, 0.0, 0.0, 1.6626777037854748E9, 0.0, 2022-09-08 18:55:03.785
6.0, -6324.560204095866, -9730.295506751003, -30571.24085083495, -27345.41473930058, -16999.909818161705, 6703.221106913222, 19939.723007645967, 15209.512735547154, -18235.42484467326, -10836.036304955043, -20422.721853580697, -31849.67122670069, 2833.08360971017, -12760.901482212721, -9145.23859563334, -11710.481251535566, 0.128, 0.9380000000000001, 0.256, 192.0, 2.0, 0.0, 14.5, 40.0, 4.0, 0.0, 0.0, 0.0, 0.0, 1.6626777037854793E9, 0.0, 2022-09-08 18:55:03.785
8.0, -6325.677791318631, -9733.536509697022, -30579.108664883217, -27339.804451442298, -16999.50748676151, 6711.8041767840605, 19907.290626441318, 15313.090719353047, -18241.32570520946, -10845.334630648451, -20430.075577506494, -31853.11339534681, 2815.805711246218, -12758.733363000556, -9159.677822551468, -11712.917591681195, 0.128, 0.9380000000000001, 0.256, 192.0, 0.0, 0.0, 0.0, 0.0, 0.0, 0.0, 0.0, 0.0, 0.0, 1.6626777037854836E9, 0.0, 2022-09-08 18:55:03.785
10.0, -6313.809015012863, -9720.103111279383, -30555.058187849307, -27312.155343551083, -16986.766992421984, 6724.321153679032, 19930.89406858612, 15330.949763172837, -18235.6036586289, -10837.846796255923, -20424.487641392665, -31839.03179633997, 2815.2022141459247, -12747.468083795082, -9148.18902590144, -11679.50173372051, 0.128, 0.9380000000000001, 0.256, 192.0, 0.0, 0.0, 0.0, 0.0, 0.0, 0.0, 0.0, 0.0, 0.0, 1.662677703785488E9, 0.0, 2022-09-08 18:55:03.785
12.0, -6327.957669253072, -9726.071027048949, -30567.776330444376, -27315.195180797004, -17012.203277612123, 6722.622421100428, 19903.289664183816, 15323.283114824668, -18233.74846383911, -10829.129615918353, -20423.548868125545, -31828.54882819043, 2834.5141213553097, -12729.653743464201, -9128.206566358396, -11670.605739427298, 0.128, 0.9380000000000001, 0.256, 192.0, 0.0, 0.0, 0.0, 0.0, 0.0, 0.0, 0.0, 0.0, 0.0, 1.6626777037854924E9, 0.0, 2022-09-08 18:55:03.785
14.0, -6351.337593953323, -9743.59479470191, -30591.603290033734, -27333.5012595059, -17043.786292527475, 6711.871232017426, 19855.769855471834, 15296.103393567015, -18250.244051247126, -10841.847758513422, -20445.028894547093, -31839.00944459551, 2803.9592866849052, -12736.694542967623, -9150.200682902418, -11673.958501095594, 0.128, 0.9380000000000001, 0.256, 192.0, 0.0, 0.0, 0.0, 0.0, 0.0, 0.0, 0.0, 0.0, 0.0, 1.6626777037854967E9, 0.0, 2022-09-08 18:55:03.785
16.0, -6354.332727710334, -9745.271175536058, -30594.91134821312, -27335.490564762422, -17021.769824238996, 6734.446493917286, 19986.43815355756, 15320.623257234485, -18265.934975854754, -10851.14608420683, -20457.925851097807, -31848.017197611, 2792.448138290422, -12742.058961636898, -9148.412543345994, -11671.209236527591, 0.152, 0.9500000000000001, 0.266, 192.0, 2.0, 96.0, 14.5, 88.0, 4.0, 40.0, 0.0, 0.0, 0.0, 1.6626777037855012E9, 0.0, 2022-09-08 18:55:03.785
18.0, -6351.516407908965, -9749.316841282469, -30597.548854058845, -27338.575105497257, -17014.84078345785, 6732.166615982845, 19987.44398205805, 15304.664111693397, -18258.201272273218, -10847.927433005267, -20456.160063285835, -31845.96083712111, 2798.2372401043463, -12737.342743556828, -9125.323191323661, -11656.300622975901, 0.152, 0.9500000000000001, 0.266, 192.0, 0.0, 0.0, 0.0, 0.0, 0.0, 0.0, 0.0, 0.0, 0.0, 1.6626777037855284E9, 0.0, 2022-09-08 18:55:03.785
20.0, -6350.2200067305575, -9747.640460448321, -30600.409877349124, -27343.805413699796, -17006.950617665127, 6727.584508369507, 19978.123304620185, 15328.111091627014, -18262.42575197527, -10856.644613342836, -20459.736342398686, -31855.728549448082, 2799.1089581381034, -12744.830577949355, -9137.95192694091, -11675.277254018458, 0.152, 0.9500000000000001, 0.266, 192.0, 0.0, 0.0, 0.0, 0.0, 0.0, 0.0, 0.0, 0.0, 0.0, 1.6626777037855332E9, 0.0, 2022-09-08 18:55:03.785
22.0, -6354.444486432611, -9755.798847174508, -30604.09791518425, -27354.04251266033, -17005.83303044236, 6716.363932652943, 19986.66167100211, 15325.540641014653, -18260.570557185478, -10841.311316646495, -20453.410798717832, -31853.15809883572, 2805.836833219151, -12746.417551805682, -9129.972354170366, -11662.380297467746, 0.152, 0.9500000000000001, 0.266, 192.0, 0.0, 0.0, 0.0, 0.0, 0.0, 0.0, 0.0, 0.0, 0.0, 1.6626777037855375E9, 0.0, 2022-09-08 18:55:03.785
24.0, -6359.652442890697, -9761.878521666351, -30598.95701395953, -27360.97155344147, -17018.46176605961, 6713.122929706923, 19995.021223428397, 15305.759347171706, -18268.90775786731, -10862.47841864567, -20461.636240677388, -31866.9714769091, 2807.7590832423075, -12761.460275824104, -9131.067589648675, -11683.457992489099, 0.152, 0.9500000000000001, 0.266, 192.0, 0.0, 0.0, 0.0, 0.0, 0.0, 0.0, 0.0, 0.0, 0.0, 1.662677703785542E9, 0.0, 2022-09-08 18:55:03.785
26.0, -6368.548437183909, -9769.388707803335, -30609.68585129808, -27370.538100068345, -17019.579353282377, 6719.80610129906, 19992.897807705143, 15307.972169872783, -18271.299394524027, -10865.63001461387, -20465.436037234787, -31869.49722403255, 2806.1050541526147, -12762.95784270261, -9128.89947043651, -11687.034271601948, 0.152, 0.928, 0.274, 192.0, 2.0, 96.0, 14.5, 0.0, 4.0, 72.0, 0.0, 0.0, 0.0, 1.6626777037855463E9, 0.0, 2022-09-08 18:55:03.785
28.0, -6359.808905101884, -9759.419829776267, -30606.95893847453, -27353.394312071123, -17006.324768820377, 6716.341580908487, 19976.446923786036, 15295.991634844737, -18270.606490445913, -10864.892407046844, -20463.46908372272, -31865.853889686336, 2794.5939057581313, -12759.739191501045, -9142.086999665142, -11691.191696070635, 0.152, 0.928, 0.274, 192.0, 0.0, 0.0, 0.0, 0.0, 0.0, 0.0, 0.0, 0.0, 0.0, 1.6626777037855508E9, 0.0, 2022-09-08 18:55:03.785
30.0, -6360.412402202178, -9753.384858773334, -30606.847179752254, -27337.591628741222, -17018.193545126145, 6717.302705920066, 19977.318641819795, 15287.408564973899, -18261.017592074586, -10844.217043425686, -20455.064827807528, -31841.423432996686, 2801.7241122393743, -12740.986077903042, -9138.309554852194, -11676.484248219043, 0.152, 0.928, 0.274, 192.0, 0.0, 0.0, 0.0, 0.0, 0.0, 0.0, 0.0, 0.0, 0.0, 1.662677703785555E9, 0.0, 2022-09-08 18:55:03.785
32.0, -6361.038251046926, -9748.981565115639, -30605.05904019583, -27324.538209979324, -17021.322789349888, 6711.737121550695, 19967.95326089302, 15294.896399366427, -18266.784342144056, -10847.726267305168, -20459.110493553937, -31832.974473592578, 2802.998161673327, -12740.561394758392, -9131.827548960156, -11669.30933824889, 0.152, 0.928, 0.274, 192.0, 0.0, 0.0, 0.0, 0.0, 0.0, 0.0, 0.0, 0.0, 0.0, 1.6626777037855592E9, 0.0, 2022-09-08 18:55:03.785
34.0, -6365.64271040472, -9755.798847174508, -30616.05609846784, -27331.35549203819, -17033.169213911202, 6718.308534420555, 19963.393505024138, 15310.69908269633, -18277.04379284904, -10858.946843021733, -20465.637202934886, -31827.72181364558, 2792.157565612503, -12751.33493558585, -9141.349392098116, -11664.324899235356, 0.152, 0.928, 0.274, 192.0, 0.0, 0.0, 0.0, 0.0, 0.0, 0.0, 0.0, 0.0, 0.0, 1.6626777037855637E9, 0.0, 2022-09-08 18:55:03.785
36.0, -6358.780724856941, -9755.865902407873, -30613.016261221917, -27323.331215778737, -17017.92532419268, 6721.61659259994, 19945.065074570786, 15287.989710329737, -18273.691031180744, -10849.514406861594, -20463.603194189454, -31826.000729322524, 2789.9670946558826, -12746.149330872218, -9140.790598486734, -11659.340460221823, 0.196, 0.918, 0.274, 192.0, 3.0, 16.0, 14.0, 88.0, 4.0, 72.0, 0.0, 0.0, 0.0, 1.6626777037855694E9, 0.0, 2022-09-08 18:55:03.785
38.0, -6357.68548937863, -9767.466457780178, -30628.77424106291, -27341.972570654463, -17037.997190713548, 6713.2346884292, 19959.48194974446, 15274.60101540101, -18264.99620258763, -10850.386124895349, -20462.66442092233, -31830.739299147048, 2787.21783008788, -12740.628449991758, -9137.728409496356, -11664.570768424364, 0.196, 0.918, 0.274, 192.0, 0.0, 0.0, 0.0, 0.0, 0.0, 0.0, 0.0, 0.0, 0.0, 1.6626777037855737E9, 0.0, 2022-09-08 18:55:03.785
40.0, -6350.130599752736, -9765.991242646127, -30620.504095614448, -27336.49639326291, -17024.3179231069, 6714.620496585429, 19903.78140256183, 15280.948910826315, -18269.444199734236, -10845.133464948352, -20460.56335694353, -31838.87533412878, 2789.0059696443045, -12737.588612745836, -9149.597185802126, -11673.936149351139, 0.196, 0.918, 0.274, 192.0, 0.0, 0.0, 0.0, 0.0, 0.0, 0.0, 0.0, 0.0, 0.0, 1.6626777037855783E9, 0.0, 2022-09-08 18:55:03.785
42.0, -6345.883768306228, -9764.73954495663, -30615.363194389727, -27333.680073461543, -17018.104138148326, 6717.3250576645205, 19972.110685361706, 15291.45423072031, -18263.47628396467, -10836.282174144051, -20453.85783360694, -31833.980302093067, 2809.0107809318047, -12741.813092447888, -9136.722580995867, -11671.276291760958, 0.196, 0.918, 0.274, 192.0, 0.0, 0.0, 0.0, 0.0, 0.0, 0.0, 0.0, 0.0, 0.0, 1.6626777037855825E9, 0.0, 2022-09-08 18:55:03.785
44.0, -6349.571806141354, -9767.578216502454, -30612.032784465886, -27334.328274050746, -17013.522030534987, 6716.743912308683, 19945.176833293062, 15274.39984970091, -18273.132237569363, -10831.387142108339, -20454.349571984956, -31837.310712016908, 2804.182804129458, -12735.062865622385, -9129.346505325617, -11671.812733627885, 0.196, 0.918, 0.274, 192.0, 0.0, 0.0, 0.0, 0.0, 0.0, 0.0, 0.0, 0.0, 0.0, 1.662677703785587E9, 0.0, 2022-09-08 18:55:03.785
46.0, -6345.190864228113, -9757.922262897762, -30609.99877572045, -27332.8530589167, -17009.94575142214, 6714.911069263348, 19980.313775576804, 15279.518399181175, -18276.775571915576, -10830.202499652207, -20454.327220240502, -31840.30584577392, 2806.730902997363, -12743.355362815306, -9127.781883213745, -11679.054698831404, 0.198, 0.904, 0.27, 192.0, 3.0, 24.0, 14.0, 32.0, 4.0, 56.0, 0.0, 0.0, 0.0, 1.6626777037855911E9, 0.0, 2022-09-08 18:55:03.785
48.0, -6348.677736363142, -9749.696820938208, -30607.38362161918, -27324.73937567942, -16993.628977969765, 6721.795406555582, 19936.057321555298, 15287.83324811855, -18272.081705579963, -10824.994543194121, -20454.148406284858, -31841.423432996686, 2804.9874669298492, -12741.611926747792, -9136.119083895575, -11677.668890675175, 0.198, 0.904, 0.27, 192.0, 0.0, 0.0, 0.0, 0.0, 0.0, 0.0, 0.0, 0.0, 0.0, 1.6626777037855968E9, 0.0, 2022-09-08 18:55:03.785
50.0, -6338.239471702514, -9739.839701633418, -30597.459447081026, -27320.090212832718, -16993.606626225308, 6721.907165277858, 20005.39243285566, 15284.435782961344, -18269.645365434335, -10817.23848786813, -20448.33695272648, -31842.63042719727, 2800.6512285055196, -12737.834481934844, -9134.308592594694, -11670.292815004923, 0.198, 0.904, 0.27, 192.0, 0.0, 0.0, 0.0, 0.0, 0.0, 0.0, 0.0, 0.0, 0.0, 1.6626777037856011E9, 0.0, 2022-09-08 18:55:03.785
52.0, -6338.060657746871, -9743.214815046169, -30589.90455745513, -27314.32346276325, -17029.816452242907, 6725.528147879619, 19944.573336192767, 15261.16761698337, -18267.365487499894, -10820.390083836328, -20442.95018231275, -31842.183392308165, 2811.380065844067, -12735.308734811395, -9122.126891866552, -11671.097477805315, 0.198, 0.904, 0.27, 192.0, 0.0, 0.0, 0.0, 0.0, 0.0, 0.0, 0.0, 0.0, 0.0, 1.6626777037856057E9, 0.0, 2022-09-08 18:55:03.785
54.0, -6335.534910623421, -9737.06808532096, -30588.138769643163, -27311.30597726178, -17023.334446350866, 6732.613650871951, 19959.10197008872, 15275.539788668131, -18257.486016450646, -10806.308484829484, -20435.99878978715, -31838.1153748173, 2823.7182287833966, -12732.917098154676, -9118.528261009247, -11662.603814912298, 0.198, 0.904, 0.27, 192.0, 0.0, 0.0, 0.0, 0.0, 0.0, 0.0, 0.0, 0.0, 0.0, 1.66267770378561E9, 0.0, 2022-09-08 18:55:03.785
56.0, -6333.009163499972, -9730.787245129019, -30583.6684207521, -27312.222398784448, -17020.205202127123, 6728.277412447622, 19941.287629757837, 15274.668070634374, -18259.385914729348, -10803.38040630584, -20440.357379955934, -31846.698444688136, 2816.69978102443, -12727.597382974314, -9123.13272036704, -11655.518311919966, 0.192, 0.916, 0.268, 192.0, 3.0, 0.0, 14.0, 80.0, 4.0, 48.0, 0.0, 0.0, 0.0, 1.6626777037856152E9, 0.0, 2022-09-08 18:55:03.785
58.0, -6329.25407043148, -9732.843605618908, -30586.283574853373, -27318.123259320648, -17012.98558866806, 6734.602956128473, 19957.537347976846, 15286.715660895785, -18244.678466877755, -10796.98780739162, -20426.23107746018, -31844.373863264784, 2824.6570020505196, -12720.645990448713, -9114.66140921848, -11649.505692661489, 0.192, 0.916, 0.268, 192.0, 0.0, 0.0, 0.0, 0.0, 0.0, 0.0, 0.0, 0.0, 0.0, 1.6626777037856195E9, 0.0, 2022-09-08 18:55:03.785
60.0, -6339.357058925279, -9743.326573768447, -30600.231063393483, -27335.13293685114, -17025.770786496494, 6714.128758207412, 19890.66092856657, 15277.551445669109, -18248.94765006872, -10811.292923843017, -20437.898688065852, -31859.014255883012, 2815.1128071681032, -12743.534176770947, -9138.130740896553, -11670.158704538191, 0.192, 0.916, 0.268, 192.0, 0.0, 0.0, 0.0, 0.0, 0.0, 0.0, 0.0, 0.0, 0.0, 1.662677703785624E9, 0.0, 2022-09-08 18:55:03.785
62.0, -6332.942108266605, -9743.59479470191, -30596.43126683608, -27333.188335083527, -17011.73389097856, 6715.067531474535, 19990.416764070604, 15280.412468959388, -18257.508368195104, -10825.776854250056, -20441.94435381226, -31863.976343152088, 2805.702722752419, -12752.273708852972, -9140.880005464554, -11684.441469245134, 0.192, 0.916, 0.268, 192.0, 0.0, 0.0, 0.0, 0.0, 0.0, 0.0, 0.0, 0.0, 0.0, 1.6626777037856286E9, 0.0, 2022-09-08 18:55:03.785
64.0, -6330.6175268432535, -9736.241070776114, -30591.469179567004, -27326.482811746933, -17009.65517874422, 6723.225918200722, 19976.066944130296, 15286.02275681767, -18252.590984414936, -10813.192822121719, -20436.065845020516, -31851.146441834742, 2806.6191442750865, -12754.397124576226, -9132.274583849261, -11676.327786007856, 0.192, 0.916, 0.268, 192.0, 0.0, 0.0, 0.0, 0.0, 0.0, 0.0, 0.0, 0.0, 0.0, 1.662677703785633E9, 0.0, 2022-09-08 18:55:03.785
66.0, -6319.866337760251, -9723.075893291938, -30590.77627548889, -27322.59360821171, -17001.340329806844, 6715.9168977638365, 19962.968821879487, 15290.090774308537, -18248.254745990605, -10809.728301731146, -20425.4711181487, -31843.233924297565, 2809.5025193098213, -12746.931641928155, -9141.684668264947, -11676.171323796669, 0.192, 0.916, 0.263, 192.0, 3.0, 0.0, 14.0, 80.0, 4.0, 8.0, 0.0, 0.0, 0.0, 1.6626777037856376E9, 0.0, 2022-09-08 18:55:03.785
68.0, -6326.258936674469, -9727.658000905276, -30597.638261036667, -27332.316617049768, -17019.914629449206, 6699.80129001156, 19949.155443806107, 15270.622404887965, -18254.692048393732, -10817.28319135704, -20434.814147331017, -31851.325255790387, 2806.8426617196396, -12741.120188369774, -9151.921767225476, -11686.743698924029, 0.192, 0.916, 0.263, 192.0, 0.0, 0.0, 0.0, 0.0, 0.0, 0.0, 0.0, 0.0, 0.0, 1.6626777037856436E9, 0.0, 2022-09-08 18:55:03.785
70.0, -6317.497052847988, -9714.649285632288, -30589.92690919959, -27325.097003590705, -17025.07788241838, 6718.397941398375, 19950.451844984513, 15290.917788853383, -18244.142025010828, -10801.70402547169, -20423.23594370317, -31845.245581298543, 2814.576365301176, -12738.862662179788, -9144.679802021958, -11682.206294799602, 0.192, 0.916, 0.263, 192.0, 0.0, 0.0, 0.0, 0.0, 0.0, 0.0, 0.0, 0.0, 0.0, 1.662677703785648E9, 0.0, 2022-09-08 18:55:03.785
72.0, -6325.5660325963545, -9717.599715900387, -30600.34282211576, -27333.747128694908, -17008.13526012126, 6713.637019829395, 19950.831824640256, 15280.278358492656, -18260.794074630034, -10810.220040109163, -20440.737359611674, -31856.600267481837, 2801.0312081612597, -12744.674115738168, -9149.23955789084, -11684.307358778402, 0.192, 0.916, 0.263, 192.0, 0.0, 0.0, 0.0, 0.0, 0.0, 0.0, 0.0, 0.0, 0.0, 1.6626777037856526E9, 0.0, 2022-09-08 18:55:03.785
74.0, -6316.491224347499, -9707.697893106686, -30580.494473039445, -27319.26319828787, -17008.626998499276, 6727.919784536337, 19939.70065590151, 15289.97901558626, -18250.51227218059, -10795.37848179084, -20426.074615248992, -31847.25723829952, 2818.0408856917484, -12725.22809806205, -9135.672049006469, -11673.109134806293, 0.192, 0.916, 0.263, 192.0, 0.0, 0.0, 0.0, 0.0, 0.0, 0.0, 0.0, 0.0, 0.0, 1.6626777037856572E9, 0.0, 2022-09-08 18:55:03.785
76.0, -6331.042209987904, -9728.820291616952, -30591.78210398938, -27331.914285649575, -17019.400539326733, 6716.810967542049, 19952.08352232975, 15283.608768416498, -18258.916528095786, -10798.798298692502, -20438.502185166144, -31859.058959371923, 2810.7765687437736, -12726.14451958472, -9134.107426894598, -11670.426925471655, 0.191, 0.923, 0.2485, 192.0, 2.5, 120.0, 14.5, 8.0, 3.5, 40.0, 0.0, 0.0, 0.0, 1.6626777037856617E9, 0.0, 2022-09-08 18:55:03.785
78.0, -6329.745808809496, -9732.105998051882, -30598.86760698171, -27339.759747953387, -17019.199373626634, 6715.536918108096, 19925.99903655041, 15276.053878790604, -18264.14683629833, -10813.349284332906, -20445.4759294362, -31878.68379100368, 2799.511289538299, -12742.595403503825, -9153.128761426064, -11685.69316693463, 0.191, 0.923, 0.2485, 192.0, 0.0, 0.0, 0.0, 0.0, 0.0, 0.0, 0.0, 0.0, 0.0, 1.662677703785666E9, 0.0, 2022-09-08 18:55:03.785
80.0, -6319.575765082332, -9726.20513751568, -30597.213577892016, -27342.486660776933, -17023.446205073145, 6720.051970488068, 19942.964010591986, 15281.664166648885, -18255.027324560564, -10813.57280177746, -20444.067769535515, -31883.288250361475, 2810.9777344438717, -12748.608022762302, -9152.726430025868, -11680.373451754267, 0.191, 0.923, 0.2485, 192.0, 0.0, 0.0, 0.0, 0.0, 0.0, 0.0, 0.0, 0.0, 0.0, 1.6626777037856705E9, 0.0, 2022-09-08 18:55:03.785
82.0, -6326.437750630111, -9729.379085228335, -30600.655746538134, -27349.862736447187, -17015.399577069235, 6719.940211765792, 19871.37137310164, 15264.252157718201, -18256.346077483428, -10811.985827921133, -20442.883127079385, -31893.905328977744, 2805.79212973024, -12751.893729197232, -9162.829418519666, -11689.157687325203, 0.191, 0.923, 0.2485, 192.0, 0.0, 0.0, 0.0, 0.0, 0.0, 0.0, 0.0, 0.0, 0.0, 1.6626777037856748E9, 0.0, 2022-09-08 18:55:03.785
84.0, -6324.984887240516, -9729.557899183977, -30595.693659269054, -27346.532326523346, -17017.724158492587, 6721.303668177566, 19937.33137098925, 15305.178201815868, -18258.737714140145, -10813.438691310726, -20441.69848462325, -31898.88976799128, 2806.5520890417206, -12750.262051851994, -9162.29297665274, -11681.803963399407, 0.191, 0.923, 0.2485, 192.0, 0.0, 0.0, 0.0, 0.0, 0.0, 0.0, 0.0, 0.0, 0.0, 1.662677703785679E9, 0.0, 2022-09-08 18:55:03.785
86.0, -6328.024724486438, -9733.625916674842, -30593.39142959016, -27348.36516956868, -17007.755280465517, 6690.838240484982, 19910.442222409514, 15249.254137188691, -18261.732847897154, -10817.596115779414, -20443.866603835417, -31906.01997447252, 2801.8805744505617, -12760.879130468265, -9159.8119330182, -11694.11977459428, 0.1865, 0.9315, 0.22825, 192.0, 2.5, 88.0, 14.5, 48.0, 3.0, 64.0, 0.0, 0.0, 0.0, 1.6626777037856836E9, 0.0, 2022-09-08 18:55:03.785
88.0, -6320.223965671536, -9724.34994272589, -30590.396295833147, -27345.54884976731, -17010.99628341154, 6706.9314964928035, 19943.411045481094, 15281.798277115617, -18247.33832446794, -10803.179240605741, -20434.545926397554, -31894.911157478233, 2809.256650120813, -12747.870415195277, -9152.458209092405, -11687.21308555759, 0.1865, 0.9315, 0.22825, 192.0, 0.0, 0.0, 0.0, 0.0, 0.0, 0.0, 0.0, 0.0, 0.0, 1.662677703785688E9, 0.0, 2022-09-08 18:55:03.785
90.0, -6331.601003599287, -9739.16914929976, -30608.545912330857, -27359.27282086287, -17031.93986796616, 6691.642903285373, 19875.21587314795, 15262.866349561973, -18253.03801930404, -10816.23265936764, -20442.95018231275, -31912.949015253667, 2800.6288767610645, -12764.947147959132, -9165.62338657658, -11706.547344511431, 0.1865, 0.9315, 0.22825, 192.0, 0.0, 0.0, 0.0, 0.0, 0.0, 0.0, 0.0, 0.0, 0.0, 1.6626777037856927E9, 0.0, 2022-09-08 18:55:03.785
92.0, -6323.599079084287, -9726.562765426967, -30601.706278527534, -27351.69557949252, -17027.715388264107, 6702.2376301571885, 19957.872624143678, 15305.111146582503, -18262.13517929735, -10825.083950171942, -20448.91809808232, -31918.536951367492, 2791.866992934584, -12763.33782235835, -9166.964491243898, -11692.152821082214, 0.1865, 0.9315, 0.22825, 192.0, 0.0, 0.0, 0.0, 0.0, 0.0, 0.0, 0.0, 0.0, 0.0, 1.662677703785697E9, 0.0, 2022-09-08 18:55:03.785
94.0, -6313.294924890391, -9711.29652396399, -30582.416723062604, -27334.01534962837, -17000.84859142883, 6713.078226218013, 19974.70348771852, 15279.294881736623, -18246.22073724517, -10804.475641784149, -20431.19316472926, -31900.65555580325, 2811.4918245663434, -12753.748923987023, -9139.069514163675, -11684.97791111206, 0.1865, 0.9315, 0.22825, 192.0, 0.0, 0.0, 0.0, 0.0, 0.0, 0.0, 0.0, 0.0, 0.0, 1.6626777037857025E9, 0.0, 2022-09-08 18:55:03.785
96.0, -6328.382352397723, -9732.709495152176, -30608.00947046393, -27356.6576667616, -17026.664856274707, 6719.224955943222, 19974.122342362683, 15319.013931633704, -18252.27805999256, -10804.028606895043, -20432.310751952024, -31899.470913347115, 2807.9155454534944, -12746.28344133895, -9141.23763337584, -11675.79134414093, 0.17525000000000002, 0.9337500000000001, 0.208125, 192.0, 2.5, 16.0, 14.5, 32.0, 2.5, 112.0, 0.0, 0.0, 0.0, 1.6626777037857084E9, 0.0, 2022-09-08 18:55:03.785
98.0, -6329.745808809496, -9737.984506843628, -30601.5721680608, -27352.679056248555, -17016.852440458828, 6717.302705920066, 19918.779423091346, 15309.514440240198, -18269.7124206677, -10827.497938573115, -20454.304868496045, -31924.817791559435, 2794.638609247042, -12765.684755526157, -9161.018927218787, -11694.678568205663, 0.17525000000000002, 0.9337500000000001, 0.208125, 192.0, 0.0, 0.0, 0.0, 0.0, 0.0, 0.0, 0.0, 0.0, 0.0, 1.662677703785714E9, 0.0, 2022-09-08 18:55:03.785
100.0, -6332.897404777695, -9741.225509789647, -30609.887016998175, -27363.02791393136, -17020.36166433831, 6705.188060425289, 19957.269127043382, 15293.242370276736, -18253.46270244869, -10821.306505358996, -20445.00654280264, -31914.156009454255, 2809.7930919877404, -12756.85581646631, -9147.294956123229, -11684.016786100483, 0.17525000000000002, 0.9337500000000001, 0.208125, 192.0, 0.0, 0.0, 0.0, 0.0, 0.0, 0.0, 0.0, 0.0, 0.0, 1.6626777037857196E9, 0.0, 2022-09-08 18:55:03.785
102.0, -6327.130654708226, -9736.933974854228, -30608.14358093066, -27358.73637899594, -17021.61336202781, 6701.097691189968, 19907.156515974584, 15275.629195645954, -18260.637612418846, -10823.452272826706, -20448.404007959845, -31915.810038543947, 2803.4899000513437, -12756.364078088294, -9164.751668542824, -11697.807812429406, 0.17525000000000002, 0.9337500000000001, 0.208125, 192.0, 0.0, 0.0, 0.0, 0.0, 0.0, 0.0, 0.0, 0.0, 0.0, 1.662677703785724E9, 0.0, 2022-09-08 18:55:03.785
104.0, -6318.860509259762, -9729.848471861897, -30600.901615727144, -27356.970591183974, -16999.865114672793, 6714.575793096518, 19941.824071624767, 15283.675823649863, -18249.61820240238, -10815.919734945266, -20436.17760374279, -31905.88586400579, 2807.22264137538, -12760.074467667875, -9167.031546477265, -11696.131431595259, 0.17525000000000002, 0.9337500000000001, 0.208125, 192.0, 0.0, 0.0, 0.0, 0.0, 0.0, 0.0, 0.0, 0.0, 0.0, 1.6626777042655003E9, 0.0, 2022-09-08 18:55:04.265
106.0, -6325.364866896256, -9730.809596873474, -30596.207749391528, -27346.64408524562, -17007.531763020965, 6706.70797904825, 19940.974705335466, 15276.612672401987, -18254.312068737992, -10815.47270005616, -20436.445824676255, -31899.515616836026, 2805.0098186743044, -12749.99383091853, -9156.660337050002, -11691.951655382116, 0.17062500000000003, 0.935875, 0.1990625, 192.0, 2.5, 24.0, 14.5, 40.0, 2.5, 120.0, 0.0, 0.0, 0.0, 1.662677704265626E9, 0.0, 2022-09-08 18:55:04.265
108.0, -6324.046113973393, -9727.63564916082, -30600.76750526041, -27345.101814878206, -17014.773728224485, 6717.906203020359, 19943.142824547627, 15287.386213229443, -18248.90294657981, -10813.706912244192, -20432.556621141033, -31889.34557310886, 2813.1682054004914, -12747.311621583895, -9157.62146206158, -11685.3578907678, 0.17062500000000003, 0.935875, 0.1990625, 192.0, 0.0, 0.0, 0.0, 0.0, 0.0, 0.0, 0.0, 0.0, 0.0, 1.6626777042656503E9, 0.0, 2022-09-08 18:55:04.265
110.0, -6329.455236131577, -9736.442236476212, -30613.172723433105, -27353.707236493497, -17016.584219525364, 6711.133624450401, 19872.623070791135, 15264.319212951568, -18258.491844951135, -10817.462005312682, -20446.012371303128, -31898.755657524547, 2796.7173214813856, -12756.408781577204, -9176.24046519285, -11693.516277493987, 0.17062500000000003, 0.935875, 0.1990625, 192.0, 0.0, 0.0, 0.0, 0.0, 0.0, 0.0, 0.0, 0.0, 0.0, 1.6626777042656548E9, 0.0, 2022-09-08 18:55:04.265
112.0, -6315.150119680181, -9723.366465969857, -30593.883167968175, -27339.98326539794, -17026.262524874513, 6706.886793003892, 19938.71717914548, 15262.016983272671, -18247.427731445758, -10814.04218841102, -20433.450690919246, -31891.938375465677, 2811.670638521986, -12744.785874460445, -9156.727392283368, -11685.849629145818, 0.17062500000000003, 0.935875, 0.1990625, 192.0, 0.0, 0.0, 0.0, 0.0, 0.0, 0.0, 0.0, 0.0, 0.0, 1.662677704265659E9, 0.0, 2022-09-08 18:55:04.265
114.0, -6314.166642924148, -9721.39951245779, -30590.15042664414, -27337.904553163597, -17025.79313824095, 6703.578734824507, 19909.346986931203, 15251.913994778872, -18240.431635431247, -10815.293886100519, -20427.50512689413, -31885.41166608473, 2807.8708419645836, -12745.6575924942, -9154.246348648829, -11686.117850079281, 0.17062500000000003, 0.935875, 0.1990625, 192.0, 0.0, 0.0, 0.0, 0.0, 0.0, 0.0, 0.0, 0.0, 0.0, 1.6626777042656636E9, 0.0, 2022-09-08 18:55:04.265
116.0, -6322.369733139245, -9729.446140461701, -30604.120266928705, -27349.25923934689, -16992.511390747, 6690.927647462803, 19946.205013538005, 15213.133718148914, -18243.337362210437, -10817.9537436907, -20422.073652991494, -31883.556471294938, 2806.8873652085504, -12751.804322219412, -9154.827494004667, -11692.912780393694, 0.17031250000000003, 0.9349375, 0.19553125, 192.0, 2.5, 40.0, 14.5, 24.0, 3.0, 0.0, 0.0, 0.0, 0.0, 1.6626777042656696E9, 0.0, 2022-09-08 18:55:04.265
118.0, -6323.375561639734, -9727.814463116463, -30596.34185985826, -27340.475003775955, -16993.986605881048, 6720.051970488068, 19944.7074466595, 15313.98478913126, -18257.19544377273, -10829.509595574093, -20436.04349327606, -31892.78774175498, 2802.9087546955056, -12758.7110112561, -9159.253139406817, -11688.688300691641, 0.17031250000000003, 0.9349375, 0.19553125, 192.0, 0.0, 0.0, 0.0, 0.0, 0.0, 0.0, 0.0, 0.0, 0.0, 1.6626777042656748E9, 0.0, 2022-09-08 18:55:04.265
120.0, -6329.455236131577, -9742.477207479145, -30605.573130318302, -27355.85300396121, -17009.766937466495, 6715.335752407998, 19940.95235359101, 15306.228733805268, -18239.626972630856, -10819.138386146831, -20427.3710164274, -31887.06569517442, 2829.194406174947, -12746.238737850039, -9133.23570886084, -11672.438582472632, 0.17031250000000003, 0.9349375, 0.19553125, 192.0, 0.0, 0.0, 0.0, 0.0, 0.0, 0.0, 0.0, 0.0, 0.0, 1.662677704265685E9, 0.0, 2022-09-08 18:55:04.265
122.0, -6336.697201335097, -9747.819274403962, -30617.218389179518, -27362.80439648681, -17010.973931667082, 6718.643810587384, 19943.61221118119, 15299.120879068481, -18263.47628396467, -10840.66311605729, -20452.539080684077, -31911.384393141794, 2801.545298283732, -12754.53123504296, -9153.799313759722, -11688.59889371382, 0.17031250000000003, 0.9349375, 0.19553125, 192.0, 0.0, 0.0, 0.0, 0.0, 0.0, 0.0, 0.0, 0.0, 0.0, 1.6626777042656915E9, 0.0, 2022-09-08 18:55:04.265
124.0, -6342.687468849119, -9752.4013820173, -30616.21256067903, -27358.065826662285, -16995.998262882025, 6706.529165092607, 19915.292550956317, 15284.212265516791, -18256.74840888362, -10827.877918228856, -20450.259202749636, -31904.276538405007, 2812.877632722573, -12756.900519955221, -9152.18998815894, -11682.496867477521, 0.17031250000000003, 0.9349375, 0.19553125, 192.0, 0.0, 0.0, 0.0, 0.0, 0.0, 0.0, 0.0, 0.0, 0.0, 1.662677704265697E9, 0.0, 2022-09-08 18:55:04.265
126.0, -6347.82837007384, -9755.754143685597, -30619.587674091777, -27363.296134864824, -16988.13044883376, 6696.314417876532, 19924.590876649723, 15275.204512501303, -18267.65606017781, -10851.883691773855, -20462.507958711143, -31917.17349495572, 2791.129385367559, -12770.691546284146, -9167.500933110827, -11688.844762902829, 0.17115625, 0.93246875, 0.193765625, 192.0, 2.5, 48.0, 14.5, 8.0, 3.0, 0.0, 0.0, 0.0, 0.0, 1.6626777042657025E9, 0.0, 2022-09-08 18:55:04.265
128.0, -6345.034402016927, -9755.731791941142, -30613.418592622114, -27357.194108628526, -17002.4132135407, 6705.031598214102, 19916.968931790463, 15263.49219840672, -18267.6113566889, -10851.973098751676, -20459.80339763205, -31919.721593823626, 2798.0137226597935, -12762.153179902218, -9153.15111317052, -11693.382167027255, 0.17115625, 0.93246875, 0.193765625, 192.0, 0.0, 0.0, 0.0, 0.0, 0.0, 0.0, 0.0, 0.0, 0.0, 1.6626777042657075E9, 0.0, 2022-09-08 18:55:04.265
130.0, -6340.362887425767, -9752.669602950764, -30614.424421122603, -27359.161062140593, -16994.344233792333, 6704.13752843589, 19975.08346737426, 15268.320175209068, -18257.642478661834, -10836.103360188408, -20453.299039995556, -31911.719669308626, 2809.1001879096257, -12757.369906588783, -9144.590395044135, -11678.205332542102, 0.17115625, 0.93246875, 0.193765625, 192.0, 0.0, 0.0, 0.0, 0.0, 0.0, 0.0, 0.0, 0.0, 0.0, 1.6626777042657127E9, 0.0, 2022-09-08 18:55:04.265
132.0, -6341.167550226159, -9750.07680059395, -30612.457467610537, -27359.13871039614, -16996.13237334876, 6708.920801749326, 19907.17886771904, 15248.181253454835, -18265.97967934366, -10831.789473508534, -20452.516728939623, -31914.938320510188, 2799.3101238382014, -12755.224139121074, -9150.468903835881, -11692.063414104392, 0.17115625, 0.93246875, 0.193765625, 192.0, 0.0, 0.0, 0.0, 0.0, 0.0, 0.0, 0.0, 0.0, 0.0, 1.6626777042657256E9, 0.0, 2022-09-08 18:55:04.265
