%OpenBCI Raw EEG Data
%Number of channels = 16
%Sample Rate = 125 Hz
%Board = OpenBCI_GUI$BoardCytonSerialDaisy
Sample Index, EXG Channel 0, EXG Channel 1, EXG Channel 2, EXG Channel 3, EXG Channel 4, EXG Channel 5, EXG Channel 6, EXG Channel 7, EXG Channel 8, EXG Channel 9, EXG Channel 10, EXG Channel 11, EXG Channel 12, EXG Channel 13, EXG Channel 14, EXG Channel 15, Accel Channel 0, Accel Channel 1, Accel Channel 2, Other, Other, Other, Other, Other, Other, Other, Analog Channel 0, Analog Channel 1, Analog Channel 2, Timestamp, Other, Timestamp (Formatted)
134.0, -33023.383679793325, -35264.43663411577, -34649.09310926117, -29082.525263133677, -32249.365121050494, -31070.087083588493, -38942.48323946992, -36837.82062981375, -29753.479928193086, -10570.162304659165, -36521.27522483769, -37804.466522272414, -20516.330959359522, -22703.404450822407, -35983.894584643196, -34178.834757665965, 0.0, 0.0, 0.0, 192.0, 0.0, 0.0, 0.0, 0.0, 0.0, 0.0, 0.0, 0.0, 0.0, 1.6731200114014757E9, 0.0, 2023-01-07 14:33:31.401
136.0, -32998.72970565912, -35243.22482862769, -34612.480951843376, -29085.051010257128, -32245.99000763774, -31078.62544997042, -38912.57660538871, -36854.4503276885, -29726.434317402163, -10563.52383655594, -36500.4657507498, -37797.693943702456, -20502.808153964063, -22683.82432267956, -35973.769244404946, -34175.66080995331, 0.0, 0.0, 0.0, 192.0, 0.0, 0.0, 0.0, 0.0, 0.0, 0.0, 0.0, 0.0, 0.0, 1.673120011401482E9, 0.0, 2023-01-07 14:33:31.401
138.0, -33011.693717443195, -35250.623256042396, -34646.96969353792, -29073.18223395136, -32259.602220011024, -31064.365037007934, -38935.48714345541, -36829.505780876374, -29732.134012238268, -10544.435446791107, -36502.5668147286, -37784.618173196104, -20508.843124966996, -22669.094523083513, -35975.289163027905, -34159.20992603421, 0.0, 0.0, 0.0, 192.0, 0.0, 0.0, 0.0, 0.0, 0.0, 0.0, 0.0, 0.0, 0.0, 1.6731200114014876E9, 0.0, 2023-01-07 14:33:31.401
140.0, -33021.1932088367, -35267.36471263942, -34636.01733875481, -29101.546597665143, -32246.727615204767, -31106.274557861634, -38951.71450992996, -36882.41236000208, -29737.051396018436, -10562.38389758872, -36513.00507938923, -37789.513205231815, -20509.893656956396, -22677.58818597653, -35996.76918944946, -34177.359542531914, 0.0, 0.0, 0.0, 192.0, 0.0, 0.0, 0.0, 0.0, 0.0, 0.0, 0.0, 0.0, 0.0, 1.6731200114014935E9, 0.0, 2023-01-07 14:33:31.401
142.0, -33031.340900819414, -35274.27140167611, -34662.30299023426, -29092.605899883023, -32264.117272390995, -31087.409685541355, -38947.80295465028, -36848.325949707745, -29757.190317772667, -10585.696767055604, -36533.300463354644, -37818.950452679455, -20526.277485642135, -22699.671709498372, -36009.062648899875, -34194.59273750696, -0.08700000000000001, 0.47100000000000003, -0.07, 192.0, 125.0, 72.0, 14.5, 56.0, 125.5, 80.0, 0.0, 0.0, 0.0, 1.6731200114014993E9, 0.0, 2023-01-07 14:33:31.401
144.0, -33001.836598138405, -35251.96436070971, -34621.4216496255, -29092.024754527185, -32235.216466810285, -31097.423267057333, -38929.27335849683, -36872.30937150829, -29722.1651342112, -10556.415981819151, -36502.43270426187, -37776.32567600318, -20496.661424238853, -22678.72812494375, -35979.04425609639, -34166.22837379317, -0.08700000000000001, 0.47100000000000003, -0.07, 192.0, 0.0, 0.0, 0.0, 0.0, 0.0, 0.0, 0.0, 0.0, 0.0, 1.6731200114015048E9, 0.0, 2023-01-07 14:33:31.401
146.0, -33025.79766819449, -35268.05761671753, -34656.29037097578, -29086.034487013163, -32259.57986826657, -31079.407761026356, -38930.03331780831, -36842.33568219372, -29740.046529775445, -10586.210857178075, -36520.82818994858, -37813.38486831008, -20514.341654103002, -22711.98752069325, -35992.9470411476, -34195.822083451996, -0.08700000000000001, 0.47100000000000003, -0.07, 192.0, 0.0, 0.0, 0.0, 0.0, 0.0, 0.0, 0.0, 0.0, 0.0, 1.6731200114015105E9, 0.0, 2023-01-07 14:33:31.401
148.0, -33001.836598138405, -35245.90703796232, -34618.8735507576, -29077.362010164503, -32240.37971977946, -31079.072484859527, -38913.76124784485, -36850.8964003201, -29730.055300003925, -10537.79697868788, -36501.65039320593, -37762.0652630407, -20498.963653917748, -22665.071209081558, -35970.21531703655, -34145.12832702736, -0.08700000000000001, 0.47100000000000003, -0.07, 192.0, 0.0, 0.0, 0.0, 0.0, 0.0, 0.0, 0.0, 0.0, 0.0, 1.6731200114015162E9, 0.0, 2023-01-07 14:33:31.401
150.0, -33035.65478749928, -35275.567802854515, -34663.48763269039, -29091.488312660258, -32259.423406055383, -31081.553528494067, -38929.80980036376, -36847.43187992953, -29738.07957626338, -10583.461592610072, -36526.594940018054, -37817.65405150104, -20515.77216574814, -22697.950625175316, -35994.82458768184, -34192.71519097271, -0.08700000000000001, 0.47100000000000003, -0.07, 192.0, 0.0, 0.0, 0.0, 0.0, 0.0, 0.0, 0.0, 0.0, 0.0, 1.6731200114015217E9, 0.0, 2023-01-07 14:33:31.401
152.0, -33015.91819714525, -35259.94393348026, -34634.81034455423, -29091.6671266159, -32234.210638309796, -31093.15408386637, -38932.447306209484, -36869.090720306725, -29745.1203757668, -10548.950499171078, -36518.74947771424, -37770.424815466984, -20509.73719474521, -22673.006078363193, -35979.73716017451, -34151.56562943049, -0.1245, 0.7025, -0.10500000000000001, 192.0, 125.0, 120.0, 14.5, 24.0, 125.5, 80.0, 0.0, 0.0, 0.0, 1.6731200114015274E9, 0.0, 2023-01-07 14:33:31.401
154.0, -33023.87541817134, -35264.92837249379, -34649.2272197279, -29090.817760326598, -32254.506022275214, -31081.709990705254, -38944.00315809288, -36858.0489585458, -29739.711253608617, -10595.777403804947, -36526.19260861786, -37826.5276940498, -20507.881999955418, -22704.16441013389, -35992.03061962493, -34200.00185966514, -0.1245, 0.7025, -0.10500000000000001, 192.0, 0.0, 0.0, 0.0, 0.0, 0.0, 0.0, 0.0, 0.0, 0.0, 1.6731200114015348E9, 0.0, 2023-01-07 14:33:31.401
156.0, -32985.273955497025, -35229.12087787639, -34608.74821051934, -29077.85374854252, -32225.828734139057, -31071.361133022445, -38915.325869956716, -36852.32691196524, -29726.054337746424, -10544.502502024472, -36495.81658790309, -37755.49385017084, -20488.905368912863, -22677.722296443262, -35962.012226821455, -34144.21190550469, -0.1245, 0.7025, -0.10500000000000001, 192.0, 0.0, 0.0, 0.0, 0.0, 0.0, 0.0, 0.0, 0.0, 0.0, 1.6731200114015405E9, 0.0, 2023-01-07 14:33:31.401
158.0, -33023.517790260055, -35262.424977114795, -34645.203905725946, -29103.088868032562, -32259.9151444334, -31090.717743720743, -38942.70675691447, -36862.87693534815, -29722.232189444567, -10586.52378160045, -36499.59403271604, -37813.42957179899, -20501.57880801902, -22711.74165150424, -35974.372741505234, -34193.20692935073, -0.1245, 0.7025, -0.10500000000000001, 192.0, 0.0, 0.0, 0.0, 0.0, 0.0, 0.0, 0.0, 0.0, 0.0, 1.6731200114015462E9, 0.0, 2023-01-07 14:33:31.401
160.0, -32999.26614752605, -35235.98286342417, -34614.157332677525, -29078.479597387268, -32243.888943658945, -31072.881051645407, -38908.620346620126, -36847.20836248498, -29742.237000732068, -10551.61035676126, -36507.50655025322, -37766.021521809285, -20501.176476618824, -22691.267453583176, -35971.8916978707, -34152.37029223088, -0.1245, 0.7025, -0.10500000000000001, 192.0, 0.0, 0.0, 0.0, 0.0, 0.0, 0.0, 0.0, 0.0, 0.0, 1.6731200114015517E9, 0.0, 2023-01-07 14:33:31.401
162.0, -33024.79183969401, -35262.983770726176, -34635.65971084353, -29096.18217899587, -32260.5633450226, -31084.123979106425, -38940.292768513296, -36854.78560385533, -29723.819163300894, -10573.202141905087, -36498.67761119337, -37810.63560374208, -20504.663348753853, -22700.07404089857, -35964.046235566886, -34187.10490311443, -0.15125, 0.81925, -0.1255, 192.0, 125.0, 56.0, 14.5, 32.0, 125.5, 56.0, 0.0, 0.0, 0.0, 1.6731200114015574E9, 0.0, 2023-01-07 14:33:31.401
164.0, -33014.77825817803, -35255.02654970009, -34626.07081247221, -29085.833321313065, -32237.742213933732, -31078.848967414975, -38952.586227963715, -36859.41241495757, -29751.356512469833, -10540.61329848925, -36513.42976253388, -37771.34123698965, -20507.09968889948, -22688.473485526265, -35972.04816008188, -34156.43830972175, -0.15125, 0.81925, -0.1255, 192.0, 0.0, 0.0, 0.0, 0.0, 0.0, 0.0, 0.0, 0.0, 0.0, 1.6731200114015632E9, 0.0, 2023-01-07 14:33:31.401
166.0, -33017.371060534846, -35258.91575323531, -34621.645167070055, -29083.352277678525, -32254.841298442043, -31072.501071989667, -38931.441477709, -36852.57278115425, -29733.855096561325, -10588.647197323704, -36506.03133511917, -37823.48785680388, -20504.6409970094, -22701.906883943902, -35974.529203716425, -34197.81138870852, -0.15125, 0.81925, -0.1255, 192.0, 0.0, 0.0, 0.0, 0.0, 0.0, 0.0, 0.0, 0.0, 0.0, 1.6731200114015715E9, 0.0, 2023-01-07 14:33:31.401
168.0, -33001.5907289494, -35236.139325635355, -34601.72976276038, -29054.786748264643, -32230.18732430784, -31040.985112307684, -38898.09267498168, -36815.312423147254, -29747.93669556817, -10542.580252001317, -36497.582375715065, -37758.37722520557, -20496.683775983307, -22684.38311629094, -35957.5865814193, -34135.4053181893, -0.15125, 0.81925, -0.1255, 192.0, 0.0, 0.0, 0.0, 0.0, 0.0, 0.0, 0.0, 0.0, 0.0, 1.6731200114015772E9, 0.0, 2023-01-07 14:33:31.401
170.0, -33016.11936284535, -35251.02558744259, -34605.39544885104, -29076.110312475004, -32247.845202427532, -31064.074464330017, -38915.70584961246, -36842.76036533837, -29713.380898640266, -10568.75414475848, -36481.086788307046, -37798.69977220294, -20480.188188575292, -22680.516264500173, -35942.00741553395, -34163.300295269524, -0.15125, 0.81925, -0.1255, 192.0, 0.0, 0.0, 0.0, 0.0, 0.0, 0.0, 0.0, 0.0, 0.0, 1.6731200114015827E9, 0.0, 2023-01-07 14:33:31.401
172.0, -33024.65772922728, -35261.62031431441, -34634.005681753835, -29082.65937360041, -32250.639170484446, -31068.25424054316, -38940.02454757984, -36840.45813565947, -29753.725797382092, -10542.13321711221, -36507.2159775753, -37772.39176897905, -20499.410688806856, -22681.54444474512, -35963.01805532194, -34138.71337636869, -0.168625, 0.8776250000000001, -0.13375, 192.0, 125.0, 24.0, 14.5, 32.0, 125.5, 72.0, 0.0, 0.0, 0.0, 1.6731200114015884E9, 0.0, 2023-01-07 14:33:31.401
174.0, -33024.85889492737, -35265.286000405074, -34630.585864852175, -29104.362917466515, -32249.990969895243, -31102.899444448885, -38956.96716987695, -36881.13831056813, -29739.890067564258, -10585.987339733523, -36510.54638749914, -37825.298348104756, -20501.399994063377, -22708.366538091486, -35973.85865138276, -34195.755028218635, -0.168625, 0.8776250000000001, -0.13375, 192.0, 0.0, 0.0, 0.0, 0.0, 0.0, 0.0, 0.0, 0.0, 0.0, 1.673120011401594E9, 0.0, 2023-01-07 14:33:31.401
176.0, -33017.147543090294, -35250.69031127576, -34642.14171673557, -29079.910109032407, -32245.833545426554, -31076.367923780435, -38940.71745165795, -36850.91875206456, -29758.486718951073, -10552.571481772839, -36516.29078582416, -37784.50641447382, -20507.05498541057, -22694.709622229293, -35979.64775319669, -34167.34596101594, -0.168625, 0.8776250000000001, -0.13375, 192.0, 0.0, 0.0, 0.0, 0.0, 0.0, 0.0, 0.0, 0.0, 0.0, 1.6731200114016E9, 0.0, 2023-01-07 14:33:31.401
178.0, -33017.706336701674, -35255.987674711665, -34631.27876893029, -29099.400830197435, -32250.48270827326, -31095.635127500907, -38948.115879072655, -36876.24327853242, -29732.15636398272, -10578.208932663076, -36503.393829273446, -37808.64629848555, -20497.64490099489, -22702.175104877366, -35979.26777354095, -34186.90373741433, -0.168625, 0.8776250000000001, -0.13375, 192.0, 0.0, 0.0, 0.0, 0.0, 0.0, 0.0, 0.0, 0.0, 0.0, 1.6731200114016054E9, 0.0, 2023-01-07 14:33:31.401
180.0, -33009.883226142316, -35244.253008872634, -34635.480896887886, -29074.65744908541, -32250.32624606207, -31064.745016663674, -38938.01289057886, -36836.68069084653, -29742.84049783236, -10559.075839409334, -36508.84765492054, -37788.77559766479, -20503.188133619802, -22700.811648465595, -35981.68176194212, -34165.24489703714, -0.168625, 0.8776250000000001, -0.13375, 192.0, 0.0, 0.0, 0.0, 0.0, 0.0, 0.0, 0.0, 0.0, 0.0, 1.673120011401611E9, 0.0, 2023-01-07 14:33:31.401
182.0, -33011.403144765274, -35251.74084326516, -34622.42747812599, -29097.836208085562, -32264.944286935843, -31099.01024091366, -38938.92931210152, -36879.551336711804, -29720.153477210224, -10561.959214444067, -36495.79423615864, -37798.25273731384, -20490.648804980374, -22689.456962282296, -35973.746892660485, -34178.63359196587, -0.17431249999999998, 0.9058125000000001, -0.13887500000000003, 192.0, 125.0, 48.0, 14.5, 24.0, 125.5, 64.0, 0.0, 0.0, 0.0, 1.6731200114016168E9, 0.0, 2023-01-07 14:33:31.401
184.0, -33011.850179654386, -35246.95756995172, -34634.89975153205, -29065.247364669725, -32256.540031020646, -31058.62063868292, -38925.831189850716, -36831.2939204328, -29751.26710549201, -10557.868845208746, -36513.452114278334, -37792.55304247773, -20508.73136624472, -22685.00896513569, -35979.200718307584, -34166.07191158199, -0.17431249999999998, 0.9058125000000001, -0.13887500000000003, 192.0, 0.0, 0.0, 0.0, 0.0, 0.0, 0.0, 0.0, 0.0, 0.0, 1.6731200114016223E9, 0.0, 2023-01-07 14:33:31.401
186.0, -33019.315662302455, -35257.26172414562, -34621.980443236884, -29088.962565536807, -32251.33207456256, -31095.34455482299, -38946.171277305046, -36878.165528555575, -29726.501372635532, -10559.209949876065, -36501.918614139395, -37785.26637378531, -20494.403898048866, -22676.045915609113, -35961.028750065416, -34157.19826903323, -0.17431249999999998, 0.9058125000000001, -0.13887500000000003, 192.0, 0.0, 0.0, 0.0, 0.0, 0.0, 0.0, 0.0, 0.0, 0.0, 1.673120011401628E9, 0.0, 2023-01-07 14:33:31.401
188.0, -33013.01247036606, -35245.61646528441, -34632.552818364245, -29060.151166933916, -32230.18732430784, -31058.57593519401, -38915.59409089018, -36825.303652918774, -29742.348759454344, -10562.406249333173, -36515.57553000159, -37793.357705278126, -20504.372776075936, -22686.618290736475, -35970.260020525464, -34156.90769635531, -0.17431249999999998, 0.9058125000000001, -0.13887500000000003, 192.0, 0.0, 0.0, 0.0, 0.0, 0.0, 0.0, 0.0, 0.0, 0.0, 1.6731200114016335E9, 0.0, 2023-01-07 14:33:31.401
190.0, -33004.362345261856, -35244.40947108382, -34614.89494024455, -29082.458207900312, -32246.213525082294, -31089.95778440926, -38924.15480901657, -36867.97313308396, -29713.671471318183, -10539.071028121833, -36488.75343665522, -37760.72415837338, -20484.457371766257, -22671.463807995773, -35953.31739822834, -34136.36644320088, -0.17431249999999998, 0.9058125000000001, -0.13887500000000003, 192.0, 0.0, 0.0, 0.0, 0.0, 0.0, 0.0, 0.0, 0.0, 0.0, 1.6731200114016392E9, 0.0, 2023-01-07 14:33:31.401
192.0, -33031.36325256387, -35266.56004983903, -34658.23497274339, -29087.062667258106, -32277.528319064182, -31089.91308092035, -38956.11780358765, -36859.12184227966, -29749.188393257667, -10588.37897639024, -36525.38794581746, -37811.462618286925, -20519.035520438614, -22706.86897121298, -35998.33381156133, -34180.24291756665, -0.17015625, 0.9239062500000002, -0.14143750000000002, 192.0, 125.0, 104.0, 14.5, 56.0, 125.5, 64.0, 0.0, 0.0, 0.0, 1.673120011401645E9, 0.0, 2023-01-07 14:33:31.401
194.0, -32993.1864730342, -35232.04895640003, -34602.333259860665, -29068.17544319337, -32227.08043182855, -31079.832444171007, -38920.645585137085, -36858.47364169045, -29725.853172046325, -10549.017554404445, -36503.594994973544, -37771.832975367666, -20501.265883596647, -22677.2529098097, -35976.16088106166, -34148.41403346229, -0.17015625, 0.9239062500000002, -0.14143750000000002, 192.0, 0.0, 0.0, 0.0, 0.0, 0.0, 0.0, 0.0, 0.0, 0.0, 1.6731200114016507E9, 0.0, 2023-01-07 14:33:31.401
196.0, -33029.597464751896, -35264.9730759827, -34643.61693186962, -29070.924707761373, -32249.65569372841, -31072.501071989667, -38947.37827150563, -36845.82255432875, -29726.233151702065, -10566.988356946511, -36504.287899051655, -37795.52582449029, -20495.700299227276, -22675.01773536417, -35968.293067013394, -34158.80759463401, -0.17015625, 0.9239062500000002, -0.14143750000000002, 192.0, 0.0, 0.0, 0.0, 0.0, 0.0, 0.0, 0.0, 0.0, 0.0, 1.6731200114016564E9, 0.0, 2023-01-07 14:33:31.401
198.0, -33022.02022338155, -35258.06638694601, -34623.05332697074, -29078.09961773153, -32246.36998729348, -31092.885862932908, -38946.774774405334, -36878.187880300036, -29743.84632633285, -10549.174016615632, -36516.31313756861, -37768.256696254815, -20499.25422659567, -22668.513377727675, -35972.78576764891, -34140.456812436205, -0.17015625, 0.9239062500000002, -0.14143750000000002, 192.0, 0.0, 0.0, 0.0, 0.0, 0.0, 0.0, 0.0, 0.0, 0.0, 1.6731200114016633E9, 0.0, 2023-01-07 14:33:31.401
200.0, -33027.362290306366, -35261.91088699232, -34644.019263269816, -29071.438797883846, -32253.634304241456, -31078.67015345933, -38934.66012891056, -36853.980941054935, -29749.255448491032, -10588.66954906816, -36528.763059230216, -37814.16717936601, -20512.844087224494, -22695.78250596315, -35982.53112823142, -34173.29152504105, -0.17015625, 0.9239062500000002, -0.14143750000000002, 192.0, 0.0, 0.0, 0.0, 0.0, 0.0, 0.0, 0.0, 0.0, 0.0, 1.673120011401669E9, 0.0, 2023-01-07 14:33:31.401
202.0, -32992.270051511536, -35230.73020347717, -34601.908576716014, -29062.498100101722, -32222.38656549294, -31073.931583634807, -38911.12374199912, -36853.712720121475, -29729.518858137, -10538.825158932825, -36499.37051527149, -37748.16247798949, -20494.29213932659, -22675.844749909014, -35955.016130806944, -34124.47531515066, -0.17015625, 0.9239062500000002, -0.14143750000000002, 192.0, 0.0, 0.0, 0.0, 0.0, 0.0, 0.0, 0.0, 0.0, 0.0, 1.6731200114016747E9, 0.0, 2023-01-07 14:33:31.401
204.0, -33005.614042951354, -35237.97216868069, -34612.14567567655, -29062.967486735284, -32237.58575172255, -31065.616734697433, -38895.343410413676, -36833.1938187115, -29714.476134118577, -10574.118563427755, -36487.07705582107, -37788.105045331125, -20490.82761893602, -22683.466694768274, -35945.33782545779, -34153.7113968982, -0.17200000000000001, 0.9400000000000001, -0.152, 192.0, 125.0, 80.0, 14.5, 48.0, 125.5, 32.0, 0.0, 0.0, 0.0, 1.6731200114016805E9, 0.0, 2023-01-07 14:33:31.401
206.0, -33010.2408540536, -35242.17429663829, -34605.88718722906, -29085.69921084633, -32245.610027982002, -31089.287232075603, -38936.26945451134, -36861.69229289202, -29733.02808201648, -10519.423844745617, -36491.54740471213, -37744.27327445427, -20489.732383457707, -22669.474502739253, -35942.94618880108, -34124.14003898383, -0.17200000000000001, 0.9400000000000001, -0.152, 192.0, 0.0, 0.0, 0.0, 0.0, 0.0, 0.0, 0.0, 0.0, 0.0, 1.673120011401686E9, 0.0, 2023-01-07 14:33:31.401
208.0, -33039.231066612134, -35268.728169051195, -34628.507152617836, -29108.252121001737, -32246.8617256715, -31099.88195894742, -38960.834021667724, -36874.00810408689, -29740.471212920096, -10589.295397912909, -36513.02743113368, -37829.18755163998, -20505.691528998796, -22714.669730027883, -35974.819776394346, -34201.544130032555, -0.17200000000000001, 0.9400000000000001, -0.152, 192.0, 0.0, 0.0, 0.0, 0.0, 0.0, 0.0, 0.0, 0.0, 0.0, 1.6731200114016917E9, 0.0, 2023-01-07 14:33:31.401
210.0, -33003.82590339493, -35232.92067443379, -34597.90761445852, -29077.630231097966, -32229.852048141012, -31064.990885852683, -38921.763172359846, -36844.615560128164, -29749.79189035796, -10533.684257708104, -36502.92444263988, -37763.853402597124, -20496.303796327567, -22681.96912788977, -35957.45247095257, -34144.97186481617, -0.17200000000000001, 0.9400000000000001, -0.152, 192.0, 0.0, 0.0, 0.0, 0.0, 0.0, 0.0, 0.0, 0.0, 0.0, 1.6731200114016972E9, 0.0, 2023-01-07 14:33:31.401
212.0, -33035.0959938879, -35262.76025328162, -34633.04455674226, -29101.010155798216, -32258.08230138806, -31086.426208785324, -38951.46864074095, -36869.291886006824, -29733.60922737232, -10572.173961660143, -36499.23640480476, -37811.14969386455, -20502.316415586047, -22706.958378190804, -35959.50883144246, -34179.08062685497, -0.17200000000000001, 0.9400000000000001, -0.152, 192.0, 0.0, 0.0, 0.0, 0.0, 0.0, 0.0, 0.0, 0.0, 0.0, 1.673120011401703E9, 0.0, 2023-01-07 14:33:31.401
214.0, -33007.13396157431, -35233.54652327854, -34605.17193140649, -29063.32511464657, -32222.47597247076, -31056.497222959668, -38927.060535795754, -36840.72635659294, -29755.40217821624, -10541.08268512281, -36513.519169511696, -37763.20520200791, -20512.665273268853, -22694.26258734019, -35966.57198269034, -34140.97090255868, -0.182, 0.9420000000000001, -0.15, 192.0, 125.0, 40.0, 14.5, 56.0, 125.5, 40.0, 0.0, 0.0, 0.0, 1.6731200114017084E9, 0.0, 2023-01-07 14:33:31.401
216.0, -33020.81322918096, -35248.7680612526, -34598.44405632545, -29059.27944890016, -32239.485650001247, -31073.596307467975, -38926.81466660675, -36856.23846724492, -29713.984395740557, -10570.765801759459, -36485.84770987603, -37793.78238842278, -20485.977290389215, -22688.182912848344, -35944.51081091294, -34151.83385036395, -0.182, 0.9420000000000001, -0.15, 192.0, 0.0, 0.0, 0.0, 0.0, 0.0, 0.0, 0.0, 0.0, 0.0, 1.673120011401714E9, 0.0, 2023-01-07 14:33:31.401
218.0, -32989.677249154716, -35214.52518874707, -34566.41400652099, -29014.732422200734, -32210.920120587365, -31052.876240357906, -38909.60382337616, -36830.28809193231, -29740.15828849772, -10523.402455258663, -36486.250041276224, -37735.08670748314, -20494.20273234877, -22670.61444170647, -35938.56524688783, -34106.28099516404, -0.182, 0.9420000000000001, -0.15, 192.0, 0.0, 0.0, 0.0, 0.0, 0.0, 0.0, 0.0, 0.0, 0.0, 1.6731200114017196E9, 0.0, 2023-01-07 14:33:31.401
220.0, -33011.96193837666, -35241.034357671066, -34572.04664612373, -29049.33292261755, -32233.830658654057, -31099.658441502863, -38939.95749234647, -36880.57951695675, -29702.607357812805, -10545.37422005823, -36456.70103510631, -37759.941847317445, -20476.38839201789, -22673.229595807745, -35921.801438546354, -34142.960207815195, -0.182, 0.9420000000000001, -0.15, 192.0, 0.0, 0.0, 0.0, 0.0, 0.0, 0.0, 0.0, 0.0, 0.0, 1.6731200114017253E9, 0.0, 2023-01-07 14:33:31.401
222.0, -33022.35549954838, -35250.73501476467, -34590.88916669955, -29054.831451753555, -32243.95599889231, -31084.2357378287, -38941.9915010919, -36857.60192365669, -29745.835631589372, -10538.892214166191, -36488.52991921067, -37749.794155334734, -20496.14733411638, -22701.772773477172, -35941.672139367125, -34138.89219032433, -0.182, 0.9420000000000001, -0.15, 192.0, 0.0, 0.0, 0.0, 0.0, 0.0, 0.0, 0.0, 0.0, 0.0, 1.6731200114017308E9, 0.0, 2023-01-07 14:33:31.401
224.0, -33020.097973358395, -35250.93618046477, -34585.077713141174, -29080.714771832798, -32232.131926075454, -31088.281403575114, -38937.23057952292, -36871.97409534146, -29728.200105214135, -10579.125354185744, -36489.401637244424, -37794.542347734256, -20498.87424693993, -22701.415145565887, -35941.940360300585, -34170.05052209503, -0.188, 0.9380000000000001, -0.15, 192.0, 125.0, 16.0, 14.5, 40.0, 125.5, 40.0, 0.0, 0.0, 0.0, 1.6731200114017365E9, 0.0, 2023-01-07 14:33:31.401
226.0, -33025.23887458311, -35250.6679595313, -34620.81815252521, -29090.504835904223, -32228.622702195968, -31069.282420788102, -38937.87878011212, -36848.39300494111, -29759.671361407207, -10556.684202752615, -36513.60857648952, -37773.218783523895, -20508.932531944818, -22697.21301760829, -35957.318360485835, -34150.3586352299, -0.188, 0.9380000000000001, -0.15, 192.0, 0.0, 0.0, 0.0, 0.0, 0.0, 0.0, 0.0, 0.0, 0.0, 1.6731200114017422E9, 0.0, 2023-01-07 14:33:31.401
228.0, -33018.95803439117, -35248.70100601924, -34610.75986752032, -29115.874065860997, -32236.311702288593, -31087.007354141162, -38940.292768513296, -36879.551336711804, -29721.963968511103, -10565.803714490381, -36490.34041051155, -37790.80960641022, -20486.08904911149, -22687.31119481459, -35945.42723243561, -34164.52964121457, -0.188, 0.9380000000000001, -0.15, 192.0, 0.0, 0.0, 0.0, 0.0, 0.0, 0.0, 0.0, 0.0, 0.0, 1.6731200114017477E9, 0.0, 2023-01-07 14:33:31.401
230.0, -33002.55185396098, -35225.388136552356, -34611.34101287615, -29078.18902470935, -32225.8063823946, -31040.67218788531, -38921.405544448564, -36825.08013547422, -29752.161175270223, -10549.263423593453, -36514.48029452327, -37788.77559766479, -20514.229895380726, -22691.602729750008, -35966.57198269034, -34160.595734190436, -0.188, 0.9380000000000001, -0.15, 192.0, 0.0, 0.0, 0.0, 0.0, 0.0, 0.0, 0.0, 0.0, 0.0, 1.673120011401755E9, 0.0, 2023-01-07 14:33:31.401
232.0, -33005.85991214036, -35234.50764829012, -34583.75896021831, -29089.43195217037, -32227.48276322875, -31065.97436260872, -38914.23063447841, -36859.34535972421, -29694.203101897612, -10522.374275013719, -36466.17817475536, -37762.0652630407, -20470.778104159606, -22663.68540092533, -35922.650804835655, -34125.32468143996, -0.188, 0.9380000000000001, -0.15, 192.0, 0.0, 0.0, 0.0, 0.0, 0.0, 0.0, 0.0, 0.0, 0.0, 1.6731200114017606E9, 0.0, 2023-01-07 14:33:31.401
234.0, -33026.222351339144, -35251.74084326516, -34615.94547223395, -29078.837225298554, -32255.0648158866, -31054.57497293651, -38930.927387586526, -36837.21713271346, -29737.006692529525, -10557.600624275283, -36502.052724606125, -37785.84751914114, -20506.58559877701, -22682.214997078776, -35952.04334879439, -34132.052556521005, -0.178, 0.9400000000000001, -0.14400000000000002, 192.0, 125.0, 56.0, 14.5, 48.0, 125.5, 64.0, 0.0, 0.0, 0.0, 1.6731200114017663E9, 0.0, 2023-01-07 14:33:31.401
236.0, -33020.075621613934, -35254.98184621118, -34595.068942912694, -29095.55633015112, -32249.90156291742, -31089.980136153717, -38933.27432075433, -36875.080987820744, -29724.243846445544, -10555.700725996581, -36490.92155586738, -37776.28097251427, -20498.986005662206, -22673.430761507843, -35948.71293887054, -34126.93400704074, -0.178, 0.9400000000000001, -0.14400000000000002, 192.0, 0.0, 0.0, 0.0, 0.0, 0.0, 0.0, 0.0, 0.0, 0.0, 1.6731200114017732E9, 0.0, 2023-01-07 14:33:31.401
238.0, -33021.975519892636, -35249.75153800864, -34608.05530644122, -29067.080207715062, -32233.517734231682, -31060.18526079479, -38924.60184390567, -36836.09954549069, -29737.006692529525, -10568.374165102741, -36507.75241944223, -37788.105045331125, -20514.654578525377, -22688.473485526265, -35960.24643900948, -34138.13223101285, -0.178, 0.9400000000000001, -0.14400000000000002, 192.0, 0.0, 0.0, 0.0, 0.0, 0.0, 0.0, 0.0, 0.0, 0.0, 1.6731200114017787E9, 0.0, 2023-01-07 14:33:31.401
240.0, -33013.63831921081, -35242.82249722749, -34577.411064793, -29077.630231097966, -32226.588693450536, -31084.19103433979, -38909.7826373318, -36864.039226059824, -29722.790983055947, -10551.431542805618, -36487.45703547681, -37757.0137687938, -20493.86745618194, -22667.373438760453, -35929.75865957244, -34117.389812158326, -0.178, 0.9400000000000001, -0.14400000000000002, 192.0, 0.0, 0.0, 0.0, 0.0, 0.0, 0.0, 0.0, 0.0, 0.0, 1.6731200114017844E9, 0.0, 2023-01-07 14:33:31.401
242.0, -33039.54399103451, -35265.06248296052, -34617.733611790376, -29077.94315552034, -32254.43896704185, -31080.14536859338, -38939.46575396845, -36857.98190331244, -29736.87258206279, -10571.101077926289, -36508.870006665, -37791.70367618843, -20505.222142365237, -22699.96228217629, -35951.75277611647, -34151.4091672193, -0.178, 0.9400000000000001, -0.14400000000000002, 192.0, 0.0, 0.0, 0.0, 0.0, 0.0, 0.0, 0.0, 0.0, 0.0, 1.67312001140179E9, 0.0, 2023-01-07 14:33:31.401
244.0, -33024.277749571535, -35255.20536365573, -34586.21765210839, -29075.84209154154, -32247.733443705256, -31092.282365832612, -38934.548370188284, -36881.22771754595, -29735.196201228646, -10554.426676562629, -36500.48810249425, -37760.94767581793, -20494.62741549342, -22678.43755226583, -35950.25520923796, -34140.27799848056, -0.17400000000000002, 0.9380000000000001, -0.14200000000000002, 192.0, 125.0, 72.0, 14.5, 40.0, 125.5, 72.0, 0.0, 0.0, 0.0, 1.6731200114017956E9, 0.0, 2023-01-07 14:33:31.401
246.0, -33048.819964983464, -35273.51144236463, -34618.22535016839, -29070.164748449894, -32269.8169672271, -31085.934470407305, -38962.10807110168, -36871.70587440799, -29745.813279844915, -10590.591799091317, -36518.8165329476, -37807.81928394071, -20523.595276307497, -22702.622139766474, -35978.016075851454, -34177.985391376664, -0.17400000000000002, 0.9380000000000001, -0.14200000000000002, 192.0, 0.0, 0.0, 0.0, 0.0, 0.0, 0.0, 0.0, 0.0, 0.0, 1.673120011401801E9, 0.0, 2023-01-07 14:33:31.401
248.0, -32998.10385681437, -35222.54946500653, -34561.49662274082, -29044.773166748666, -32217.960920090787, -31065.86260388644, -38902.94300352848, -36857.91484807907, -29730.68114884867, -10534.153644341666, -36485.69124766484, -37739.91468428549, -20497.86841843944, -22657.49396771121, -35937.82763932081, -34112.204207444694, -0.17400000000000002, 0.9380000000000001, -0.14200000000000002, 192.0, 0.0, 0.0, 0.0, 0.0, 0.0, 0.0, 0.0, 0.0, 0.0, 1.6731200114018068E9, 0.0, 2023-01-07 14:33:31.401
250.0, -33014.6441477113, -35236.36284307991, -34602.44501858295, -29058.295972144126, -32239.776222679167, -31058.91121136084, -38917.60574789116, -36838.93821703651, -29719.79584929894, -10556.192464374599, -36482.763169141195, -37773.710521901914, -20503.277540597624, -22672.939023129824, -35928.21638920503, -34130.84556232042, -0.17400000000000002, 0.9380000000000001, -0.14200000000000002, 192.0, 0.0, 0.0, 0.0, 0.0, 0.0, 0.0, 0.0, 0.0, 0.0, 1.6731200114018123E9, 0.0, 2023-01-07 14:33:31.401
252.0, -33012.94541513269, -35234.84292445695, -34602.44501858295, -29077.920803775884, -32231.461373741793, -31073.842176656985, -38930.65916665306, -36865.42503421605, -29739.666550119706, -10542.51319676795, -36495.54836696963, -37740.495829641324, -20502.025842908126, -22678.906938899392, -35935.57011313082, -34105.02929747454, -0.17400000000000002, 0.9380000000000001, -0.14200000000000002, 192.0, 0.0, 0.0, 0.0, 0.0, 0.0, 0.0, 0.0, 0.0, 0.0, 1.673120011401818E9, 0.0, 2023-01-07 14:33:31.401
254.0, -33034.268979343055, -35253.39487235485, -34632.44105964197, -29093.94700455034, -32248.336940805548, -31086.58267099651, -38941.07507956923, -36867.414339472576, -29733.475116905585, -10584.04273796591, -36506.5677769861, -37801.02435362629, -20510.497154056688, -22701.415145565887, -35950.99281680499, -34161.221583035185, -0.17400000000000002, 0.93, -0.146, 192.0, 125.0, 72.0, 14.5, 8.0, 125.5, 56.0, 0.0, 0.0, 0.0, 1.6731200114018235E9, 0.0, 2023-01-07 14:33:31.401
0.0, -16440.624468401013, -17533.445958309883, -17278.099629652457, -14459.321136393684, -16080.314347781463, -15460.232253102335, -19400.39776568386, -18347.20591869425, -14860.803170299909, -5259.0748976558325, -18237.99529528562, -18867.64393659162, -10247.537225191263, -11330.769816728809, -17967.69564958759, -17059.4772171351, -0.17200000000000001, 0.926, -0.126, 192.0, 125.0, 80.0, 14.0, 120.0, 126.0, 8.0, 0.0, 0.0, 0.0, 1.6731200119639049E9, 0.0, 2023-01-07 14:33:31.963
2.0, -32878.007933856, -35067.76363465353, -34536.73088988434, -28934.802584028555, -32167.334218899516, -30935.84250638992, -38801.667249401486, -36719.35638420062, -29655.020493867458, -10372.036441807324, -36393.065618642046, -37600.5739093511, -20419.436147145767, -22508.07255602748, -35839.0105770839, -34031.49205821658, -0.17200000000000001, 0.926, -0.126, 192.0, 0.0, 0.0, 0.0, 0.0, 0.0, 0.0, 0.0, 0.0, 0.0, 1.6731200119639747E9, 0.0, 2023-01-07 14:33:31.963
4.0, -32911.60260577233, -35103.12409438182, -34566.346951287625, -28959.72477909622, -32170.55287010108, -30933.36146275538, -38844.6720057335, -36724.67609938099, -29657.92622064665, -10430.10627390221, -36411.34934560649, -37668.769081684244, -20434.434167675277, -22551.03260887058, -35861.965818639495, -34080.59884078489, -0.17200000000000001, 0.926, -0.126, 192.0, 0.0, 0.0, 0.0, 0.0, 0.0, 0.0, 0.0, 0.0, 0.0, 1.6731200119640524E9, 0.0, 2023-01-07 14:33:31.964
6.0, -32903.6677364907, -35099.01137340205, -34553.27118078127, -28971.81707284654, -32166.708370054766, -30933.674387177754, -38830.76922068229, -36731.001643061834, -29684.88242445975, -10411.755491704404, -36423.64280505691, -37642.19285752688, -20437.00461828764, -22550.071483859003, -35872.04645538884, -34048.725253191624, -0.17200000000000001, 0.926, -0.126, 192.0, 0.0, 0.0, 0.0, 0.0, 0.0, 0.0, 0.0, 0.0, 0.0, 1.6731200119640684E9, 0.0, 2023-01-07 14:33:31.964
8.0, -32934.80371651694, -35132.471934851645, -34582.73077997336, -29006.506980241178, -32184.098027240998, -30962.016399147084, -38852.80804071522, -36751.90052412755, -29678.10984588979, -10466.36080340872, -36431.28710166062, -37715.551282829205, -20444.224231746703, -22580.3804493404, -35877.567336269305, -34099.3966578718, -0.182, 0.93, -0.13, 192.0, 125.0, 40.0, 14.5, 8.0, 125.5, 120.0, 0.0, 0.0, 0.0, 1.6731200119640744E9, 0.0, 2023-01-07 14:33:31.964
10.0, -32896.89515792074, -35098.47493153512, -34550.20899179089, -28985.45163696428, -32164.204974675773, -30949.857050163395, -38815.79355189724, -36725.279596481276, -29695.611261798294, -10447.272413643886, -36433.72344180625, -37677.1956893439, -20443.352513712947, -22573.697277748262, -35871.24179258845, -34061.666913231245, -0.182, 0.93, -0.13, 192.0, 0.0, 0.0, 0.0, 0.0, 0.0, 0.0, 0.0, 0.0, 0.0, 1.6731200119640808E9, 0.0, 2023-01-07 14:33:31.964
12.0, -32924.43250708968, -35123.50888532506, -34566.8610414101, -29009.65857620938, -32192.636393622925, -30985.03869593605, -38842.50388652133, -36753.48749798388, -29648.516136230963, -10468.238349942965, -36407.884825215915, -37708.063448436675, -20430.38850192887, -22584.426115086808, -35858.43424301556, -34091.01475370106, -0.182, 0.93, -0.13, 192.0, 0.0, 0.0, 0.0, 0.0, 0.0, 0.0, 0.0, 0.0, 0.0, 1.6731200119640868E9, 0.0, 2023-01-07 14:33:31.964
14.0, -32915.44710581865, -35110.723687496626, -34556.758052916295, -28986.055134064572, -32165.054340965075, -30974.734541742153, -38842.97327315489, -36744.41268973502, -29690.24684312902, -10450.312250889809, -36430.37068013796, -37674.66994222045, -20447.085255036982, -22589.321147122522, -35869.67717047658, -34064.05854988797, -0.182, 0.93, -0.13, 192.0, 0.0, 0.0, 0.0, 0.0, 0.0, 0.0, 0.0, 0.0, 0.0, 1.673120011964093E9, 0.0, 2023-01-07 14:33:31.964
16.0, -32925.88537047927, -35122.05602193547, -34554.85815463759, -28993.297099268093, -32168.362399144462, -30980.166015644794, -38839.17347659749, -36753.375739261595, -29669.549127763406, -10482.297597205354, -36425.4979998467, -37712.8020182612, -20435.19412698676, -22601.972234484227, -35862.949295395534, -34100.670707305755, -0.182, 0.93, -0.13, 192.0, 0.0, 0.0, 0.0, 0.0, 0.0, 0.0, 0.0, 0.0, 0.0, 1.6731200119640992E9, 0.0, 2023-01-07 14:33:31.964
18.0, -32905.90291093623, -35100.0842571359, -34546.74447140032, -28963.569279142535, -32156.583029816513, -30946.616047217376, -38829.36106078161, -36722.95501505792, -29672.901889431705, -10424.45128255502, -36417.38431660942, -37652.09468032059, -20430.254391462135, -22566.85764394494, -35852.95806562401, -34037.92936061971, -0.18, 0.934, -0.12, 192.0, 125.0, 48.0, 14.5, 24.0, 126.0, 32.0, 0.0, 0.0, 0.0, 1.6731200119641051E9, 0.0, 2023-01-07 14:33:31.964
20.0, -32915.98354768557, -35115.01522243205, -34554.54523021522, -28983.21646251875, -32171.469291623747, -30977.12617839887, -38849.27646509129, -36762.76347193283, -29661.502499759496, -10458.001250982434, -36419.574787566045, -37693.75833198528, -20429.360321683922, -22578.74877199516, -35867.553754753324, -34082.766959997054, -0.18, 0.934, -0.12, 192.0, 0.0, 0.0, 0.0, 0.0, 0.0, 0.0, 0.0, 0.0, 0.0, 1.6731200119641113E9, 0.0, 2023-01-07 14:33:31.964
22.0, -32911.89317845025, -35103.28055659301, -34565.34112278713, -28955.075616249516, -32171.625753834935, -30955.847317677417, -38838.94995915294, -36733.661500652015, -29688.235186128044, -10443.182044408566, -36434.796325540105, -37660.45423274687, -20447.644048648366, -22568.981059668193, -35883.55760378332, -34055.00609338356, -0.18, 0.934, -0.12, 192.0, 0.0, 0.0, 0.0, 0.0, 0.0, 0.0, 0.0, 0.0, 0.0, 1.6731200119641175E9, 0.0, 2023-01-07 14:33:31.964
24.0, -32912.09434415035, -35103.12409438182, -34550.52191621326, -28952.885145292898, -32180.074713239042, -30978.064951665994, -38844.73906096686, -36769.49134701388, -29655.48988050102, -10445.059590942812, -36415.97615670874, -37670.15488984047, -20431.528440896087, -22564.153082865847, -35879.57899327028, -34071.47932904713, -0.18, 0.934, -0.12, 192.0, 0.0, 0.0, 0.0, 0.0, 0.0, 0.0, 0.0, 0.0, 0.0, 1.6731200119641235E9, 0.0, 2023-01-07 14:33:31.964
26.0, -32898.2139108436, -35083.2310418166, -34549.38197724605, -28909.902740705344, -32181.304059184084, -30932.713262166177, -38808.864511116095, -36714.88603530956, -29670.085569630337, -10414.035369638845, -36418.27838638763, -37631.41931669942, -20440.402083444846, -22548.193937324755, -35886.95506894053, -34035.89535187428, -0.18, 0.934, -0.12, 192.0, 0.0, 0.0, 0.0, 0.0, 0.0, 0.0, 0.0, 0.0, 0.0, 1.6731200119641297E9, 0.0, 2023-01-07 14:33:31.964
28.0, -32907.19931211464, -35095.70331522266, -34547.41502373398, -28951.34287492548, -32182.443998151306, -30967.827852705464, -38833.02674687228, -36762.60700972164, -29649.72313043155, -10414.817680694781, -36401.2910606016, -37632.7827731112, -20424.28647569257, -22537.107472074924, -35867.62080998669, -34041.59504671038, -0.176, 0.9420000000000001, -0.12, 192.0, 125.0, 64.0, 14.5, 56.0, 126.0, 32.0, 0.0, 0.0, 0.0, 1.673120011964136E9, 0.0, 2023-01-07 14:33:31.964
30.0, -32923.404326844735, -35110.433114818705, -34586.70939048641, -28967.614944888945, -32194.312774457074, -30952.22633507566, -38844.515543522306, -36740.1211547996, -29685.240052371035, -10423.19958486552, -36439.4007848979, -37650.99944484227, -20454.5283859406, -22566.544719522564, -35895.739304511466, -34058.02357888503, -0.176, 0.9420000000000001, -0.12, 192.0, 0.0, 0.0, 0.0, 0.0, 0.0, 0.0, 0.0, 0.0, 0.0, 1.673120011964142E9, 0.0, 2023-01-07 14:33:31.964
32.0, -32923.65019603374, -35121.16195215726, -34577.90280317102, -29011.714936699267, -32185.95322203079, -30989.106713426914, -38859.401805329544, -36785.76341697734, -29664.49763351651, -10435.358933849207, -36428.29196790361, -37666.15392758297, -20441.72083636771, -22563.884861932384, -35888.76556024141, -34074.27329710404, -0.176, 0.9420000000000001, -0.12, 192.0, 0.0, 0.0, 0.0, 0.0, 0.0, 0.0, 0.0, 0.0, 0.0, 1.6731200119641483E9, 0.0, 2023-01-07 14:33:31.964
34.0, -32925.483039079074, -35120.60315854587, -34597.6170417806, -29000.6955266828, -32193.41870467886, -30951.958114142195, -38836.58067424067, -36740.63524492207, -29688.16813089468, -10461.845751028748, -36454.3541019385, -37693.35600058508, -20463.84906337846, -22587.465952332732, -35911.65374656364, -34092.24409964611, -0.176, 0.9420000000000001, -0.12, 192.0, 0.0, 0.0, 0.0, 0.0, 0.0, 0.0, 0.0, 0.0, 0.0, 1.6731200119641545E9, 0.0, 2023-01-07 14:33:31.964
36.0, -32910.90970169422, -35108.354402584366, -34554.90285812651, -29011.156143087883, -32192.07760001154, -30977.193233632235, -38834.725479450884, -36773.313495315735, -29660.139043347725, -10437.951736206023, -36421.42998235583, -37664.298732793184, -20443.240754990667, -22562.431998542786, -35881.21067061552, -34067.92540167873, -0.176, 0.9420000000000001, -0.12, 192.0, 0.0, 0.0, 0.0, 0.0, 0.0, 0.0, 0.0, 0.0, 0.0, 1.6731200119641616E9, 0.0, 2023-01-07 14:33:31.964
38.0, -32935.362510128325, -35127.80042026048, -34573.208936835406, -29003.198922061794, -32179.694733583303, -30969.70539923971, -38851.422232558994, -36751.207620049434, -29680.054447657403, -10478.855428559236, -36432.4493923723, -37687.857471449075, -20455.757731885642, -22588.65059478886, -35890.39723758665, -34087.50552982158, -0.158, 0.9420000000000001, -0.116, 192.0, 125.5, 8.0, 14.5, 56.0, 126.0, 48.0, 0.0, 0.0, 0.0, 1.6731200119641693E9, 0.0, 2023-01-07 14:33:31.964
40.0, -32897.677468976675, -35093.28932682149, -34521.241130976814, -28990.34666899999, -32148.871677979434, -30972.812291718998, -38817.22406354237, -36759.16484107552, -29660.20609858109, -10440.365724607198, -36410.343517106005, -37655.894476877984, -20425.873449548897, -22572.04324865857, -35866.57027799729, -34061.041064386496, -0.158, 0.9420000000000001, -0.116, 192.0, 0.0, 0.0, 0.0, 0.0, 0.0, 0.0, 0.0, 0.0, 0.0, 1.6731200119641757E9, 0.0, 2023-01-07 14:33:31.964
42.0, -32915.51416105201, -35108.689678751194, -34568.67153271098, -28990.860759122465, -32193.463408167772, -30963.513966025588, -38839.50875276432, -36739.36119548812, -29664.654095727696, -10457.576567837783, -36417.51842707615, -37678.71560796686, -20440.156214255836, -22596.47370534822, -35878.70727523652, -34076.12849189383, -0.158, 0.9420000000000001, -0.116, 192.0, 0.0, 0.0, 0.0, 0.0, 0.0, 0.0, 0.0, 0.0, 0.0, 1.6731200119641817E9, 0.0, 2023-01-07 14:33:31.964
44.0, -32890.43550377316, -35084.05805636145, -34538.4519742074, -28986.859796864963, -32170.30700091207, -30979.78603598905, -38831.35036603813, -36766.876192912605, -29660.653133470194, -10426.641753511638, -36409.04711592759, -37641.701119148864, -20435.32823745349, -22565.538891022075, -35876.27093509089, -34055.31901780594, -0.158, 0.9420000000000001, -0.116, 192.0, 0.0, 0.0, 0.0, 0.0, 0.0, 0.0, 0.0, 0.0, 0.0, 1.6731200119641876E9, 0.0, 2023-01-07 14:33:31.964
46.0, -32916.967024441605, -35103.727591482115, -34578.439245037946, -28984.199939274782, -32195.832693080032, -30973.929878941763, -38846.08016563418, -36752.07933808319, -29668.87857542975, -10459.387059138664, -36423.419287612356, -37686.8963464375, -20445.14065326937, -22590.88576923439, -35889.1231881527, -34095.5968613144, -0.158, 0.9420000000000001, -0.116, 192.0, 0.0, 0.0, 0.0, 0.0, 0.0, 0.0, 0.0, 0.0, 0.0, 1.6731200119641938E9, 0.0, 2023-01-07 14:33:31.964
48.0, -32883.8640909033, -35070.08821607688, -34535.76976487276, -28960.216517474237, -32155.420739104837, -30961.211736346693, -38823.326089778675, -36749.59829444865, -29664.698799216607, -10405.25113406791, -36406.67783101533, -37629.74293586528, -20434.27770546409, -22551.345533292955, -35869.27483907638, -34046.75829967955, -0.168, 0.9380000000000001, -0.112, 192.0, 125.0, 96.0, 14.5, 40.0, 126.0, 64.0, 0.0, 0.0, 0.0, 1.6731200119642E9, 0.0, 2023-01-07 14:33:31.964
50.0, -32909.59094877135, -35091.52353900952, -34562.211878563394, -28962.45169191977, -32183.293364440608, -30955.80261418851, -38836.31245330721, -36737.14837278704, -29657.434482268633, -10437.661163528104, -36405.6943542593, -37669.99842762929, -20437.161080498827, -22566.924699178304, -35875.62273450169, -34083.50456756408, -0.168, 0.9380000000000001, -0.112, 192.0, 0.0, 0.0, 0.0, 0.0, 0.0, 0.0, 0.0, 0.0, 0.0, 1.673120011964206E9, 0.0, 2023-01-07 14:33:31.964
52.0, -32905.74644872504, -35092.350553554366, -34540.329520741645, -28965.715046610243, -32171.22342243474, -30958.328361311957, -38838.569979497195, -36751.58759970518, -29676.58992726683, -10413.34246556073, -36407.884825215915, -37629.51941842073, -20438.61394388842, -22557.648725229352, -35872.76171121141, -34042.66793044424, -0.168, 0.9380000000000001, -0.112, 192.0, 0.0, 0.0, 0.0, 0.0, 0.0, 0.0, 0.0, 0.0, 0.0, 1.673120011964212E9, 0.0, 2023-01-07 14:33:31.964
54.0, -32921.102097165836, -35108.354402584366, -34559.37320701757, -28968.196090244783, -32179.73943707221, -30953.098053109417, -38835.30662480672, -36741.99870133385, -29669.616182996775, -10453.173274180088, -36413.80803749657, -37684.996448158796, -20433.450690919246, -22577.60883302794, -35876.47210079099, -34084.666858275756, -0.168, 0.9380000000000001, -0.112, 192.0, 0.0, 0.0, 0.0, 0.0, 0.0, 0.0, 0.0, 0.0, 0.0, 1.6731200119642181E9, 0.0, 2023-01-07 14:33:31.964
56.0, -32917.458762819624, -35107.95207118417, -34561.720140185374, -28977.986154316208, -32179.337105672017, -30961.07762587996, -38843.800287699734, -36756.1250038296, -29691.990279196536, -10418.036331896345, -36425.76622078016, -37640.181200525905, -20445.163005013826, -22554.720646705708, -35878.99784791444, -34045.32778803442, -0.168, 0.9380000000000001, -0.112, 192.0, 0.0, 0.0, 0.0, 0.0, 0.0, 0.0, 0.0, 0.0, 0.0, 1.6731200119642243E9, 0.0, 2023-01-07 14:33:31.964
58.0, -32927.9193792247, -35126.43696384871, -34581.166157861495, -28998.97444235974, -32198.738419859223, -30972.566422529988, -38852.204543614935, -36763.32226554421, -29678.243956356524, -10475.614425613216, -36432.8964272614, -37707.83993099212, -20446.682923636785, -22583.934376708792, -35898.48856907947, -34111.935986511235, -0.171, 0.935, -0.111, 192.0, 125.0, 72.0, 14.5, 16.0, 126.0, 72.0, 0.0, 0.0, 0.0, 1.6731200119642303E9, 0.0, 2023-01-07 14:33:31.964
60.0, -32899.152684110726, -35096.12799836731, -34562.144823330025, -28983.082352052017, -32191.608213377982, -30950.08056760795, -38830.12102009309, -36742.624550178596, -29678.44512205662, -10419.131567374656, -36421.13940967791, -37649.70304366387, -20438.256315977134, -22551.122015848403, -35884.63048751718, -34061.21987834214, -0.171, 0.935, -0.111, 192.0, 0.0, 0.0, 0.0, 0.0, 0.0, 0.0, 0.0, 0.0, 0.0, 1.6731200119642365E9, 0.0, 2023-01-07 14:33:31.964
62.0, -32914.15070464023, -35110.61192877435, -34575.46646302539, -29003.198922061794, -32194.35747794598, -30973.125216141372, -38853.34448258215, -36763.65754171104, -29655.53458398993, -10452.636832313161, -36412.578691551535, -37694.54064304121, -20436.80345258754, -22570.478626546697, -35887.692676507555, -34102.72706779565, -0.171, 0.935, -0.111, 192.0, 0.0, 0.0, 0.0, 0.0, 0.0, 0.0, 0.0, 0.0, 0.0, 1.6731200119642425E9, 0.0, 2023-01-07 14:33:31.964
64.0, -32907.78045747047, -35100.64305074728, -34569.632657722555, -28989.7431718997, -32168.27299216664, -30960.51883226858, -38839.486401019865, -36747.854858381135, -29681.59671802482, -10433.012000681401, -36426.68264230283, -37659.00136935728, -20444.403045702344, -22584.89550172037, -35892.43124633208, -34066.98662841161, -0.171, 0.935, -0.111, 192.0, 0.0, 0.0, 0.0, 0.0, 0.0, 0.0, 0.0, 0.0, 0.0, 1.6731200119642487E9, 0.0, 2023-01-07 14:33:31.964
66.0, -32925.05835593442, -35120.60315854587, -34567.799814677215, -29005.054116851585, -32184.925041785842, -30979.3613528444, -38851.73515698137, -36770.98891389238, -29647.66676994166, -10455.140227692154, -36407.34838334899, -37688.81859646065, -20419.32438842349, -22576.111266149434, -35866.07853961927, -34083.03518093052, -0.171, 0.935, -0.111, 192.0, 0.0, 0.0, 0.0, 0.0, 0.0, 0.0, 0.0, 0.0, 0.0, 1.6731200119642549E9, 0.0, 2023-01-07 14:33:31.964
68.0, -32926.2206466461, -35121.363117857356, -34578.61805899359, -28992.090105067506, -32176.36432365946, -30969.16895737278, -38857.568962284204, -36756.90731488554, -29699.142837422234, -10447.361820621709, -36446.44158440132, -37675.42990153193, -20451.041513805572, -22585.90133022086, -35890.48664456447, -34066.763110967055, -0.1715, 0.9385000000000001, -0.1095, 192.0, 125.0, 80.0, 14.5, 56.0, 126.0, 80.0, 0.0, 0.0, 0.0, 1.6731200119642608E9, 0.0, 2023-01-07 14:33:31.964
70.0, -32932.54619032695, -35131.95784472917, -34574.4606345249, -29010.50794249868, -32189.618908121458, -30995.722829785685, -38855.31143609422, -36787.149225133566, -29672.67837198715, -10476.039108757866, -36435.086898218025, -37707.59406180311, -20436.669342120807, -22591.869245990427, -35885.949240440044, -34095.23923340312, -0.1715, 0.9385000000000001, -0.1095, 192.0, 0.0, 0.0, 0.0, 0.0, 0.0, 0.0, 0.0, 0.0, 0.0, 1.6731200119642692E9, 0.0, 2023-01-07 14:33:31.964
72.0, -32917.74933549754, -35115.01522243205, -34574.28182056926, -28979.05903805006, -32182.332239429026, -30958.976561901163, -38844.649653989036, -36746.401994991546, -29687.58698553884, -10446.892433988147, -36442.351215166, -37674.11114860906, -20452.360266728436, -22580.738077251684, -35889.927850953085, -34061.801023697975, -0.1715, 0.9385000000000001, -0.1095, 192.0, 0.0, 0.0, 0.0, 0.0, 0.0, 0.0, 0.0, 0.0, 0.0, 1.6731200119642751E9, 0.0, 2023-01-07 14:33:31.964
74.0, -32917.34700409735, -35118.59150154489, -34558.233268050346, -28997.275709781137, -32178.264221938163, -30987.47503608168, -38848.561209268715, -36786.56807977773, -29654.998142123004, -10457.867140515702, -36421.228816655734, -37689.26563134976, -20432.198993229747, -22588.695298277773, -35886.19510962905, -34081.67172451875, -0.1715, 0.9385000000000001, -0.1095, 192.0, 0.0, 0.0, 0.0, 0.0, 0.0, 0.0, 0.0, 0.0, 0.0, 1.6731200119642813E9, 0.0, 2023-01-07 14:33:31.964
76.0, -32907.89221619275, -35104.018164160036, -34563.687093697445, -28964.575107643024, -32166.998942732687, -30952.293390309023, -38830.67981370447, -36739.048271065745, -29663.201232338102, -10430.240384368943, -36422.77108702315, -37660.00719785776, -20428.980342028182, -22567.528196278596, -35888.34087709676, -34058.35885505186, -0.1715, 0.9385000000000001, -0.1095, 192.0, 0.0, 0.0, 0.0, 0.0, 0.0, 0.0, 0.0, 0.0, 0.0, 1.6731200119642873E9, 0.0, 2023-01-07 14:33:31.964
78.0, -32895.442294531145, -35097.04441988998, -34537.26733175127, -28976.22036650424, -32157.41004436136, -30971.40413181831, -38816.03942108624, -36765.31157080073, -29631.86408661176, -10425.546518033329, -36397.78183672212, -37654.8886483775, -20407.969702240196, -22551.74786469315, -35870.973571654984, -34058.5376690075, -0.16775, 0.94225, -0.10975, 192.0, 125.0, 112.0, 14.5, 72.0, 126.0, 72.0, 0.0, 0.0, 0.0, 1.6731200119642937E9, 0.0, 2023-01-07 14:33:31.964
80.0, -32919.559826798424, -35116.46808582164, -34576.60640199261, -28982.74707588519, -32182.242832451208, -30962.686951480744, -38842.414479543506, -36744.725614157396, -29669.72794171905, -10449.060553200312, -36427.666119058864, -37665.08104384912, -20436.04349327606, -22569.629260257396, -35889.83844397526, -34057.97887539612, -0.16775, 0.94225, -0.10975, 192.0, 0.0, 0.0, 0.0, 0.0, 0.0, 0.0, 0.0, 0.0, 0.0, 1.6731200119642997E9, 0.0, 2023-01-07 14:33:31.964
82.0, -32911.55790228342, -35113.76352474255, -34551.88537262504, -29002.193093561305, -32160.87456475193, -30991.498350083635, -38838.637034730564, -36785.13756813259, -29651.1983455656, -10447.719448532993, -36419.35127012149, -37669.14906133999, -20425.582876870976, -22566.678829989294, -35878.10377813623, -34062.851555687375, -0.16775, 0.94225, -0.10975, 192.0, 0.0, 0.0, 0.0, 0.0, 0.0, 0.0, 0.0, 0.0, 0.0, 1.6731200119643056E9, 0.0, 2023-01-07 14:33:31.964
84.0, -32887.90975664971, -35084.05805636145, -34549.8066603907, -28958.07075000653, -32172.65393407988, -30937.6529976908, -38794.872319087066, -36716.92004405499, -29660.139043347725, -10443.1149891752, -36418.07722068754, -37665.23750606031, -20428.645065861354, -22562.677867731796, -35876.785025213365, -34057.55419225147, -0.16775, 0.94225, -0.10975, 192.0, 0.0, 0.0, 0.0, 0.0, 0.0, 0.0, 0.0, 0.0, 0.0, 1.6731200119643116E9, 0.0, 2023-01-07 14:33:31.964
86.0, -32893.52004450799, -35093.40108554377, -34534.048680549706, -28990.324317255538, -32161.07573045203, -30972.83464346345, -38833.83140967267, -36767.636152224084, -29632.467583712052, -10413.208355093999, -36388.28234532861, -37631.084040532594, -20410.540152852554, -22542.896573888847, -35854.56739122479, -34029.81567738243, -0.16775, 0.94225, -0.10975, 192.0, 0.0, 0.0, 0.0, 0.0, 0.0, 0.0, 0.0, 0.0, 0.0, 1.6731200119643178E9, 0.0, 2023-01-07 14:33:31.964
88.0, -32940.36930088631, -35137.72459479864, -34591.85029171113, -29018.21929433576, -32199.721896615258, -30985.03869593605, -38871.918782224515, -36774.45343428295, -29672.991296409524, -10468.439515643062, -36438.19379069731, -37694.51829129676, -20441.407911945334, -22595.62433905892, -35905.14938892715, -34082.923422208245, -0.163875, 0.941125, -0.109875, 192.0, 125.5, 0.0, 14.5, 48.0, 126.0, 72.0, 0.0, 0.0, 0.0, 1.673120011964324E9, 0.0, 2023-01-07 14:33:31.964
90.0, -32912.340213339354, -35111.10366715237, -34552.60062844761, -29010.016204120664, -32181.974611517744, -30985.061047680505, -38849.92466568049, -36785.606954766154, -29671.851357442305, -10450.02167821189, -36431.108287704985, -37672.21125033036, -20442.257278234636, -22581.006298185148, -35903.60711855973, -34070.36174182436, -0.163875, 0.941125, -0.109875, 192.0, 0.0, 0.0, 0.0, 0.0, 0.0, 0.0, 0.0, 0.0, 0.0, 1.67312001196433E9, 0.0, 2023-01-07 14:33:31.964
92.0, -32912.25080636154, -35103.63818450429, -34568.22449782187, -28981.182453773316, -32171.893974768398, -30946.861916406386, -38831.14920033803, -36740.67994841099, -29667.984505651537, -10458.045954471345, -36429.18603768182, -37687.589250515615, -20444.80537710254, -22576.200673127256, -35897.43803709007, -34079.32479135094, -0.163875, 0.941125, -0.109875, 192.0, 0.0, 0.0, 0.0, 0.0, 0.0, 0.0, 0.0, 0.0, 0.0, 1.673120011964336E9, 0.0, 2023-01-07 14:33:31.964
94.0, -32894.79409394194, -35087.27670756301, -34544.88927661053, -28983.55173868558, -32170.664628823357, -30962.016399147084, -38827.59527296964, -36762.31643704372, -29650.57249672085, -10406.592238735228, -36404.73322924772, -37630.50289517676, -20414.42935638778, -22539.722626176193, -35859.75299593842, -34030.70974716065, -0.163875, 0.941125, -0.109875, 192.0, 0.0, 0.0, 0.0, 0.0, 0.0, 0.0, 0.0, 0.0, 0.0, 1.673120011964342E9, 0.0, 2023-01-07 14:33:31.964
96.0, -32916.542341296954, -35107.437981061696, -34583.35662881811, -28990.21255853326, -32177.41485564886, -30965.905602682305, -38857.90423845103, -36760.930628887494, -29665.72697946155, -10468.283053431876, -36426.95086323629, -37688.7962447162, -20440.022103789106, -22580.42515282931, -35889.3243538528, -34087.41612284376, -0.163875, 0.941125, -0.109875, 192.0, 0.0, 0.0, 0.0, 0.0, 0.0, 0.0, 0.0, 0.0, 0.0, 1.6731200119643483E9, 0.0, 2023-01-07 14:33:31.964
98.0, -32894.12354160828, -35088.506053508056, -34556.15455581601, -28987.6421079209, -32167.17775668833, -30971.5605940295, -38838.94995915294, -36770.25130632536, -29670.68906673063, -10420.338561575241, -36415.238549141715, -37639.912979592445, -20429.405025172833, -22565.248318344155, -35884.764597983914, -34053.66498871625, -0.16493750000000001, 0.9395625000000001, -0.1139375, 192.0, 125.0, 104.0, 14.5, 40.0, 126.0, 40.0, 0.0, 0.0, 0.0, 1.673120011964355E9, 0.0, 2023-01-07 14:33:31.964
100.0, -32916.81056223042, -35107.61679501734, -34574.661800224996, -28988.44677072129, -32184.612117363467, -30967.112596882893, -38838.569979497195, -36757.33199803019, -29654.573458978353, -10451.720410790493, -36412.2434153847, -37684.81763420315, -20436.37876944289, -22592.048059946068, -35884.20580437253, -34084.68921002021, -0.16493750000000001, 0.9395625000000001, -0.1139375, 192.0, 0.0, 0.0, 0.0, 0.0, 0.0, 0.0, 0.0, 0.0, 0.0, 1.6731200119643612E9, 0.0, 2023-01-07 14:33:31.964
102.0, -32911.22262611659, -35103.28055659301, -34563.01654136378, -28990.771352144642, -32185.237966208217, -30976.27681210957, -38845.9684069119, -36772.330018559696, -29679.92033719067, -10420.182099364054, -36417.63018579843, -37644.718604650334, -20444.850080591452, -22574.03255391509, -35885.54690903985, -34052.34623579338, -0.16493750000000001, 0.9395625000000001, -0.1139375, 192.0, 0.0, 0.0, 0.0, 0.0, 0.0, 0.0, 0.0, 0.0, 0.0, 1.6731200119643688E9, 0.0, 2023-01-07 14:33:31.964
104.0, -32922.845533233354, -35115.70812651016, -34576.13701535905, -28993.945299857296, -32183.360419673973, -30972.499367296623, -38857.434851817474, -36765.08805335618, -29675.718209233073, -10467.478390631484, -36421.809962011575, -37704.42011409046, -20455.265993507623, -22599.96057748325, -35904.612947060225, -34106.03512597503, -0.16493750000000001, 0.9395625000000001, -0.1139375, 192.0, 0.0, 0.0, 0.0, 0.0, 0.0, 0.0, 0.0, 0.0, 0.0, 1.673120011964376E9, 0.0, 2023-01-07 14:33:31.964
106.0, -32910.194445871646, -35101.31360308094, -34556.53453547174, -28981.45067470678, -32170.597573589992, -30959.736521212642, -38849.49998253584, -36755.476803240395, -29674.265345843476, -10410.0567591258, -36412.10930491797, -37641.25408425976, -20436.75874909863, -22560.71091421973, -35880.96480142651, -34037.83995364189, -0.16493750000000001, 0.9395625000000001, -0.1139375, 192.0, 0.0, 0.0, 0.0, 0.0, 0.0, 0.0, 0.0, 0.0, 0.0, 1.6731200119643824E9, 0.0, 2023-01-07 14:33:31.964
108.0, -32945.73371955559, -35138.17162968774, -34584.27305034078, -29014.3971460339, -32195.162140746375, -30994.627594307378, -38893.935250512994, -36797.766303749835, -29668.722113218562, -10466.181989453076, -36428.023746970146, -37709.76218101528, -20441.69848462325, -22590.818714001027, -35894.37584809969, -34092.89230023531, -0.17546875, 0.93778125, -0.11696875, 192.0, 125.0, 24.0, 14.5, 32.0, 126.0, 32.0, 0.0, 0.0, 0.0, 1.6731200119643884E9, 0.0, 2023-01-07 14:33:31.964
110.0, -32932.81441126042, -35126.77224001554, -34574.661800224996, -29000.896692382896, -32196.011507035677, -30980.814216233997, -38874.578639814696, -36786.36691407763, -29703.568482824387, -10444.947832220536, -36449.59318036952, -37677.79918644419, -20460.161025543337, -22592.405687857354, -35912.659575064135, -34071.61343951386, -0.17546875, 0.93778125, -0.11696875, 192.0, 0.0, 0.0, 0.0, 0.0, 0.0, 0.0, 0.0, 0.0, 0.0, 1.6731200119643943E9, 0.0, 2023-01-07 14:33:31.964
112.0, -32935.18369617268, -35130.48262959512, -34567.41983502148, -29007.579863975036, -32201.13005651594, -30986.55861455901, -38858.910066951525, -36785.45049255496, -29663.089473615822, -10479.682443104082, -36424.313357390565, -37706.0517914357, -20446.41470270332, -22592.070411690525, -35894.66642077761, -34092.60172755739, -0.17546875, 0.93778125, -0.11696875, 192.0, 0.0, 0.0, 0.0, 0.0, 0.0, 0.0, 0.0, 0.0, 0.0, 1.6731200119644005E9, 0.0, 2023-01-07 14:33:31.964
114.0, -32910.2167976161, -35104.06286764894, -34551.661855180486, -28978.83552060551, -32192.27876571164, -30955.3555792994, -38815.68179317496, -36739.13767804357, -29683.45191281461, -10432.58731753675, -36426.749697536194, -37652.80993614315, -20448.33695272648, -22580.84983597396, -35888.0726561633, -34046.11009909035, -0.17546875, 0.93778125, -0.11696875, 192.0, 0.0, 0.0, 0.0, 0.0, 0.0, 0.0, 0.0, 0.0, 0.0, 1.6731200119644065E9, 0.0, 2023-01-07 14:33:31.964
116.0, -32929.14872516975, -35128.78389701652, -34564.98349487585, -29010.284425054127, -32208.081449041543, -30990.380762860867, -38834.68077596197, -36776.50979477284, -29648.96317112007, -10458.78356203837, -36406.767237993154, -37681.26370683476, -20442.816071846017, -22577.586481283484, -35876.53915602436, -34074.16153838176, -0.17546875, 0.93778125, -0.11696875, 192.0, 0.0, 0.0, 0.0, 0.0, 0.0, 0.0, 0.0, 0.0, 0.0, 1.6731200119644127E9, 0.0, 2023-01-07 14:33:31.964
118.0, -32931.85328624884, -35131.66727205125, -34582.976649162374, -29007.959843630775, -32197.75494310319, -30984.6140127914, -38860.96642744141, -36767.23382082389, -29688.436351828143, -10451.429838112574, -36434.371642395454, -37666.15392758297, -20466.039534335083, -22587.1306761659, -35901.72957202549, -34062.69509347619, -0.178734375, 0.9398906250000001, -0.116484375, 192.0, 125.0, 40.0, 14.5, 56.0, 126.0, 48.0, 0.0, 0.0, 0.0, 1.6731200119644196E9, 0.0, 2023-01-07 14:33:31.964
120.0, -32945.15257419975, -35146.799403047495, -34578.52865201577, -29036.927704444854, -32187.696658098303, -31017.873408540894, -38887.90027951006, -36812.607862068166, -29672.186633609133, -10497.966170068523, -36436.472706374254, -37709.56101531518, -20458.350534242458, -22610.42119388833, -35910.96084248553, -34109.074963220955, -0.178734375, 0.9398906250000001, -0.116484375, 192.0, 0.0, 0.0, 0.0, 0.0, 0.0, 0.0, 0.0, 0.0, 0.0, 1.6731200124432025E9, 0.0, 2023-01-07 14:33:32.443
122.0, -32931.8756379933, -35129.588559816904, -34583.35662881811, -29012.78782043312, -32184.008620263176, -30983.563480802, -38859.31239835172, -36768.86549816913, -29688.436351828143, -10456.883663759669, -36441.94888376581, -37675.07227362064, -20459.13284529839, -22596.071373948023, -35904.03180170438, -34070.182927868715, -0.178734375, 0.9398906250000001, -0.116484375, 192.0, 0.0, 0.0, 0.0, 0.0, 0.0, 0.0, 0.0, 0.0, 0.0, 1.6731200124433577E9, 0.0, 2023-01-07 14:33:32.443
124.0, -32935.60837931733, -35135.71293779766, -34567.799814677215, -29030.445698552812, -32191.831730822534, -31008.17275144729, -38862.5757530422, -36802.92955671901, -29674.421808054663, -10471.524056377895, -36434.90808426238, -37697.24520412031, -20452.650839406353, -22601.39108912839, -35896.20869114503, -34085.38211409833, -0.178734375, 0.9398906250000001, -0.116484375, 192.0, 0.0, 0.0, 0.0, 0.0, 0.0, 0.0, 0.0, 0.0, 0.0, 1.6731200124434352E9, 0.0, 2023-01-07 14:33:32.443
126.0, -32933.21674266061, -35132.42723136273, -34573.99124789134, -29004.852951151486, -32189.954184288286, -30974.153396386315, -38846.70601447893, -36760.05891085374, -29688.97279369507, -10468.886550532168, -36443.28998843313, -37682.38129405752, -20457.411760975334, -22600.85464726146, -35894.46525507751, -34053.0391398715, -0.178734375, 0.9398906250000001, -0.116484375, 192.0, 0.0, 0.0, 0.0, 0.0, 0.0, 0.0, 0.0, 0.0, 0.0, 1.673120012443457E9, 0.0, 2023-01-07 14:33:32.443
128.0, -32920.811524487915, -35123.017146947044, -34539.05547130769, -29011.781991932632, -32185.50618714168, -30985.463379080702, -38835.46308701791, -36780.3319430747, -29659.669656714163, -10466.114934219711, -36424.536874835125, -37686.13638712602, -20441.027932289595, -22587.37654535491, -35873.968705412, -34049.59697122538, -0.178734375, 0.9398906250000001, -0.116484375, 192.0, 0.0, 0.0, 0.0, 0.0, 0.0, 0.0, 0.0, 0.0, 0.0, 1.6731200124434648E9, 0.0, 2023-01-07 14:33:32.443
130.0, -32928.67933853619, -35126.459315593165, -34561.92130588547, -29001.79076216111, -32185.305021441585, -30968.543108528032, -38842.347424310145, -36752.59342820566, -29673.706552232095, -10465.802009797337, -36433.745793550705, -37684.012971402764, -20457.81409237553, -22590.70695527875, -35875.35451356823, -34047.09357584638, -0.17200000000000001, 0.9420000000000001, -0.112, 192.0, 125.0, 80.0, 14.5, 56.0, 126.0, 64.0, 0.0, 0.0, 0.0, 1.6731200124434729E9, 0.0, 2023-01-07 14:33:32.443
132.0, -32893.52004450799, -35093.95987915515, -34510.10996223807, -28990.21255853326, -32167.870660766443, -30968.252535850115, -38802.31544999069, -36756.527335229795, -29636.557952947376, -10433.727256503971, -36399.860548956465, -37657.68261643441, -20421.268990191104, -22564.823635199504, -35846.878391132166, -34038.01876759753, -0.17200000000000001, 0.9420000000000001, -0.112, 192.0, 0.0, 0.0, 0.0, 0.0, 0.0, 0.0, 0.0, 0.0, 0.0, 1.67312001244348E9, 0.0, 2023-01-07 14:33:32.443
134.0, -32938.00001597405, -35131.95784472917, -34568.023332121775, -29004.227102306737, -32209.936643831334, -30977.953192943718, -38867.649599033546, -36756.54968697425, -29666.06225562838, -10453.374439880186, -36422.61462481196, -37679.56497425616, -20444.894784080363, -22590.2822721341, -35873.05228388933, -34057.12950910682, -0.17200000000000001, 0.9420000000000001, -0.112, 192.0, 0.0, 0.0, 0.0, 0.0, 0.0, 0.0, 0.0, 0.0, 0.0, 1.6731200124434948E9, 0.0, 2023-01-07 14:33:32.443
136.0, -32923.49373382256, -35119.70908876766, -34540.038948063724, -29008.317471542057, -32164.16027118686, -30998.874425753886, -38851.93632268147, -36789.60791702365, -29668.520947518464, -10452.100390446234, -36424.15689517938, -37670.8924974075, -20438.211612488227, -22588.22591164421, -35876.87443219119, -34058.448262029684, -0.17200000000000001, 0.9420000000000001, -0.112, 192.0, 0.0, 0.0, 0.0, 0.0, 0.0, 0.0, 0.0, 0.0, 0.0, 1.673120012443503E9, 0.0, 2023-01-07 14:33:32.443
138.0, -32923.20316114464, -35113.51765555354, -34566.548116987724, -28981.517729940148, -32194.290422712616, -30954.17093684327, -38835.10545910662, -36737.52835244279, -29668.655057985197, -10454.044992213845, -36427.621415569956, -37680.7943202012, -20446.258240492134, -22588.963519211236, -35878.99784791444, -34060.28110507502, -0.17200000000000001, 0.9420000000000001, -0.112, 192.0, 0.0, 0.0, 0.0, 0.0, 0.0, 0.0, 0.0, 0.0, 0.0, 1.6731200124435103E9, 0.0, 2023-01-07 14:33:32.443
140.0, -32929.28283563648, -35124.76058301456, -34567.799814677215, -29010.06090760957, -32204.169893761864, -30992.526530328578, -38887.96733474342, -36801.36493460714, -29673.751255721007, -10442.869119986191, -36430.325976649045, -37657.369692012035, -20449.163967271325, -22578.547606295062, -35890.12901665318, -34044.29960778947, -0.17, 0.9400000000000001, -0.114, 192.0, 125.0, 88.0, 14.5, 48.0, 126.0, 56.0, 0.0, 0.0, 0.0, 1.6731200124435177E9, 0.0, 2023-01-07 14:33:32.443
142.0, -32972.5334611575, -35164.703150356196, -34624.05915547123, -29037.017111422672, -32212.797667121613, -31004.596472334444, -38926.3899834621, -36807.13168467661, -29709.49169510504, -10516.182841799598, -36476.482328949256, -37730.169323702976, -20481.75281068716, -22622.982874272213, -35936.59829337577, -34106.72803005314, -0.17, 0.9400000000000001, -0.114, 192.0, 0.0, 0.0, 0.0, 0.0, 0.0, 0.0, 0.0, 0.0, 0.0, 1.673120012443526E9, 0.0, 2023-01-07 14:33:32.443
144.0, -32930.534533325976, -35125.22996964812, -34572.22546007937, -29024.88011418344, -32188.926004043344, -30987.340925614946, -38880.70301779545, -36795.21820488193, -29695.991241454038, -10464.572663852294, -36459.472651418764, -37686.739884226314, -20464.72078141222, -22594.551455325065, -35918.649842578154, -34065.22084059964, -0.17, 0.9400000000000001, -0.114, 192.0, 0.0, 0.0, 0.0, 0.0, 0.0, 0.0, 0.0, 0.0, 0.0, 1.6731200124435337E9, 0.0, 2023-01-07 14:33:32.443
146.0, -32938.87173400781, -35130.1920569172, -34585.010657907806, -29030.445698552812, -32194.156312245887, -30979.875442966873, -38870.84589849066, -36769.20077433596, -29679.070970901368, -10480.732975093482, -36442.23945644373, -37715.84185550712, -20456.89767085286, -22599.357080382953, -35904.277670893396, -34086.54440481, -0.17, 0.9400000000000001, -0.114, 192.0, 0.0, 0.0, 0.0, 0.0, 0.0, 0.0, 0.0, 0.0, 0.0, 1.6731200124435413E9, 0.0, 2023-01-07 14:33:32.443
148.0, -32912.7201929951, -35105.62748976082, -34548.17498304546, -29023.918989171863, -32179.292402183106, -30989.6655070383, -38850.28229359177, -36771.39124529258, -29679.696819746117, -10436.521224560884, -36426.97321498075, -37665.03634036021, -20440.022103789106, -22580.671022018316, -35883.82582471679, -34056.436605028706, -0.17, 0.9400000000000001, -0.114, 192.0, 0.0, 0.0, 0.0, 0.0, 0.0, 0.0, 0.0, 0.0, 0.0, 1.6731200124435492E9, 0.0, 2023-01-07 14:33:32.443
150.0, -32908.853341204325, -35098.60904200185, -34543.324654498654, -28996.135770813915, -32184.813283063566, -30958.84245143443, -38799.54383367823, -36723.75967785832, -29667.425712040153, -10465.779658052881, -36418.90423523238, -37700.374448344046, -20442.167871256814, -22589.969347711725, -35876.40504555763, -34094.79219851401, -0.178, 0.934, -0.11800000000000001, 192.0, 125.0, 56.0, 14.5, 24.0, 126.0, 40.0, 0.0, 0.0, 0.0, 1.6731200124435575E9, 0.0, 2023-01-07 14:33:32.443
152.0, -32863.50165170451, -35053.43616645767, -34504.45497089088, -28956.751997083666, -32171.156367201373, -30925.247779518104, -38780.70131310241, -36687.88512800755, -29645.476298985042, -10379.457220966486, -36375.43009226681, -37606.273604187205, -20412.976492998183, -22529.17260279329, -35829.42167871257, -34002.390086935775, -0.178, 0.934, -0.11800000000000001, 192.0, 0.0, 0.0, 0.0, 0.0, 0.0, 0.0, 0.0, 0.0, 0.0, 1.6731200124435656E9, 0.0, 2023-01-07 14:33:32.443
154.0, -32933.30614963843, -35125.49819058159, -34572.24781182382, -29021.393242048413, -32200.817132093565, -31002.27189091109, -38894.359933657644, -36771.279486570296, -29650.930124632137, -10440.902166474125, -36397.759484977665, -37677.77683469973, -20427.28160944958, -22578.458199317243, -35873.61107750071, -34083.30340186398, -0.178, 0.934, -0.11800000000000001, 192.0, 0.0, 0.0, 0.0, 0.0, 0.0, 0.0, 0.0, 0.0, 0.0, 1.6731200124435728E9, 0.0, 2023-01-07 14:33:32.443
156.0, -32928.41111760272, -35117.786838744505, -34565.18466057595, -29008.920968642353, -32199.677193126347, -30995.745181530143, -38887.63205857659, -36764.30574230025, -29692.459665830098, -10438.801102495325, -36434.48340111773, -37665.88570664951, -20445.542984669566, -22589.0305744446, -35906.11051393873, -34080.48708206262, -0.178, 0.934, -0.11800000000000001, 192.0, 0.0, 0.0, 0.0, 0.0, 0.0, 0.0, 0.0, 0.0, 0.0, 1.6731200124435804E9, 0.0, 2023-01-07 14:33:32.443
158.0, -32948.48298412359, -35135.601179075384, -34582.4625590399, -29008.518637242156, -32211.18834152083, -30998.539149587054, -38903.32298318422, -36774.81106219424, -29684.50244480401, -10487.974940297001, -36439.53489536463, -37718.07702995265, -20452.00263881715, -22598.820638516027, -35912.05607796384, -34118.9544342702, -0.178, 0.934, -0.11800000000000001, 192.0, 0.0, 0.0, 0.0, 0.0, 0.0, 0.0, 0.0, 0.0, 0.0, 1.6731200124435885E9, 0.0, 2023-01-07 14:33:32.443
160.0, -32908.74158248205, -35094.96570765563, -34558.88146863955, -28956.796700572577, -32179.18064346083, -30944.559686727487, -38850.796383714245, -36723.08912552466, -29698.807561255406, -10427.222898867476, -36438.19379069731, -37656.63208444501, -20453.276688251102, -22560.733265964183, -35897.34863011225, -34055.162555594754, -0.178, 0.932, -0.116, 192.0, 125.0, 56.0, 14.5, 16.0, 126.0, 48.0, 0.0, 0.0, 0.0, 1.6731200124435968E9, 0.0, 2023-01-07 14:33:32.443
162.0, -32907.93691968166, -35097.08912337889, -34561.89895414102, -28952.59457261498, -32191.47410291125, -30953.589791487433, -38841.18513359847, -36728.25237849383, -29656.383950279233, -10440.119855418188, -36409.44944732779, -37669.03730261771, -20429.919115295306, -22535.431091240775, -35867.30788556432, -34060.817546941944, -0.178, 0.932, -0.116, 192.0, 0.0, 0.0, 0.0, 0.0, 0.0, 0.0, 0.0, 0.0, 0.0, 1.6731200124436064E9, 0.0, 2023-01-07 14:33:32.443
164.0, -32880.623087957276, -35068.05420733144, -34550.968951102375, -28919.4245838433, -32179.78414056112, -30913.893093334806, -38799.32031623367, -36681.96191572689, -29669.72794171905, -10386.38626174763, -36408.13069440493, -37615.66133685844, -20429.449728661744, -22517.527343932074, -35861.138804094655, -34013.45420044115, -0.178, 0.932, -0.116, 192.0, 0.0, 0.0, 0.0, 0.0, 0.0, 0.0, 0.0, 0.0, 0.0, 1.6731200124436145E9, 0.0, 2023-01-07 14:33:32.443
166.0, -32905.299413835935, -35100.307774580455, -34573.90184091352, -28969.11251176745, -32219.637300924936, -30958.976561901163, -38849.79055521376, -36734.4214599635, -29652.15947057718, -10425.948849433524, -36403.34742109149, -37657.54850596768, -20434.47887116419, -22537.621562197397, -35870.772405954885, -34060.01288414155, -0.178, 0.932, -0.116, 192.0, 0.0, 0.0, 0.0, 0.0, 0.0, 0.0, 0.0, 0.0, 0.0, 1.673120012443625E9, 0.0, 2023-01-07 14:33:32.443
168.0, -32901.14198936725, -35097.782027457004, -34583.043704395735, -28967.6372966334, -32179.828844050033, -30947.51011699559, -38850.77403196979, -36722.552683657734, -29678.981563923546, -10419.042160396833, -36427.37554638094, -37650.57476169762, -20442.14551951236, -22544.41649251181, -35896.70042952304, -34057.487137018106, -0.178, 0.932, -0.116, 192.0, 0.0, 0.0, 0.0, 0.0, 0.0, 0.0, 0.0, 0.0, 0.0, 1.6731200124436333E9, 0.0, 2023-01-07 14:33:32.443
170.0, -32900.09145737785, -35101.358306569855, -34572.80660543521, -28991.508959711668, -32191.22823372224, -30964.877422437363, -38833.943168394944, -36737.61775942061, -29650.39368276521, -10448.412352611107, -36418.166627665356, -37687.49984353779, -20425.2699524486, -22553.536004249574, -35889.70433350853, -34090.00892520058, -0.16, 0.934, -0.11, 192.0, 125.5, 0.0, 14.5, 24.0, 126.0, 72.0, 0.0, 0.0, 0.0, 1.6731200124436412E9, 0.0, 2023-01-07 14:33:32.443
172.0, -32907.109905136815, -35105.67219324973, -34585.03300965226, -28981.897709595887, -32161.433358363316, -30947.30895129549, -38839.329938808674, -36712.58380563066, -29666.53164226194, -10430.77682623587, -36425.654462057886, -37663.56112522616, -20433.607153130433, -22541.063730843514, -35886.44097881806, -34051.519221248534, -0.16, 0.934, -0.11, 192.0, 0.0, 0.0, 0.0, 0.0, 0.0, 0.0, 0.0, 0.0, 0.0, 1.6731200124436493E9, 0.0, 2023-01-07 14:33:32.443
174.0, -32914.46362906261, -35116.602196288375, -34574.862965925095, -29006.752849430188, -32182.019315006655, -30985.016344191594, -38852.94215118196, -36752.124041572104, -29653.947610133604, -10452.770942779893, -36421.40763061138, -37690.67379125045, -20419.90553377933, -22559.503920019142, -35880.47306304849, -34073.40157907028, -0.16, 0.934, -0.11, 192.0, 0.0, 0.0, 0.0, 0.0, 0.0, 0.0, 0.0, 0.0, 0.0, 1.6731200124436572E9, 0.0, 2023-01-07 14:33:32.443
176.0, -32924.14193441176, -35125.18526615921, -34604.300213372735, -28997.566282459054, -32208.349669975007, -30967.559631772, -38863.13454665358, -36727.917102327, -29686.91643320518, -10457.30834690432, -36443.24528494421, -37688.30450633818, -20456.13771154138, -22582.570920297017, -35906.512845338926, -34070.51820403555, -0.16, 0.934, -0.11, 192.0, 0.0, 0.0, 0.0, 0.0, 0.0, 0.0, 0.0, 0.0, 0.0, 1.6731200124436648E9, 0.0, 2023-01-07 14:33:32.443
178.0, -32917.99520468655, -35126.34755687089, -34577.388713048545, -29013.704241955787, -32196.86087332498, -31002.47305661119, -38851.95867442592, -36768.17259409101, -29663.223584082556, -10460.750515550437, -36425.14037193541, -37688.908003438475, -20440.782063100585, -22576.71476324973, -35896.45456033404, -34075.34618083789, -0.16, 0.934, -0.11, 192.0, 0.0, 0.0, 0.0, 0.0, 0.0, 0.0, 0.0, 0.0, 0.0, 1.673120012443673E9, 0.0, 2023-01-07 14:33:32.443
180.0, -32919.40336458723, -35120.53610331251, -34592.67730625597, -28986.435113720312, -32196.302079713594, -30971.247669607124, -38849.768203469306, -36727.82769534918, -29676.321706333365, -10462.739820806959, -36440.51837212066, -37694.562994785665, -20453.880185351394, -22580.98394644069, -35905.305851138335, -34079.68241926222, -0.148, 0.9400000000000001, -0.112, 192.0, 125.5, 48.0, 14.5, 48.0, 126.0, 64.0, 0.0, 0.0, 0.0, 1.673120012443681E9, 0.0, 2023-01-07 14:33:32.443
182.0, -32915.916492452205, -35118.92677771173, -34570.83965192314, -29001.83546565002, -32184.343896430004, -30999.94730948774, -38851.288122092265, -36767.2785243128, -29652.092415343814, -10441.148035663133, -36422.9499009788, -37671.563049741155, -20430.500260651144, -22553.759521694126, -35884.116397394704, -34068.998285412585, -0.148, 0.9400000000000001, -0.112, 192.0, 0.0, 0.0, 0.0, 0.0, 0.0, 0.0, 0.0, 0.0, 0.0, 1.673120012443689E9, 0.0, 2023-01-07 14:33:32.443
184.0, -32937.463574107125, -35135.98115873113, -34614.49260884435, -28990.771352144642, -32193.843387823512, -30990.3137076275, -38880.54655558426, -36751.78876540527, -29682.311973847387, -10465.824361541792, -36454.19763972731, -37698.11692215406, -20454.126054540404, -22576.46889406072, -35912.950147742056, -34094.658088047276, -0.148, 0.9400000000000001, -0.112, 192.0, 0.0, 0.0, 0.0, 0.0, 0.0, 0.0, 0.0, 0.0, 0.0, 1.6731200124436972E9, 0.0, 2023-01-07 14:33:32.443
186.0, -32923.963120456116, -35128.0909929384, -34592.23027136687, -28996.11341906946, -32190.51297789967, -31011.301995671034, -38872.36581711362, -36782.29889658676, -29675.315877832876, -10460.057611472323, -36443.759375066686, -37674.06644512015, -20442.592554401464, -22574.90427194885, -35909.73149654049, -34082.901070463784, -0.148, 0.9400000000000001, -0.112, 192.0, 0.0, 0.0, 0.0, 0.0, 0.0, 0.0, 0.0, 0.0, 0.0, 1.6731200124437053E9, 0.0, 2023-01-07 14:33:32.443
188.0, -32923.694899522656, -35127.75571677157, -34611.69864078744, -28967.234965233205, -32197.50907391418, -30972.141739385337, -38855.31143609422, -36732.186285517964, -29686.625860527263, -10472.26166394492, -36454.667026360876, -37697.647535520504, -20458.90932785384, -22583.554397053053, -35922.092011224275, -34095.283936892025, -0.148, 0.9400000000000001, -0.112, 192.0, 0.0, 0.0, 0.0, 0.0, 0.0, 0.0, 0.0, 0.0, 0.0, 1.6731200124437137E9, 0.0, 2023-01-07 14:33:32.443
190.0, -32915.625919774284, -35117.5409695555, -34584.027181151774, -28972.44292169129, -32192.256413967185, -30985.284565125057, -38849.99172091386, -36755.409748007034, -29665.995200395013, -10425.837090711248, -36430.28127316014, -37646.86437211804, -20436.870507820906, -22534.335855762467, -35899.00265920194, -34049.61932296983, -0.15, 0.936, -0.11800000000000001, 192.0, 125.5, 40.0, 14.5, 32.0, 126.0, 40.0, 0.0, 0.0, 0.0, 1.673120012443722E9, 0.0, 2023-01-07 14:33:32.443
192.0, -32917.30230060843, -35113.67411776473, -34587.5140532868, -28952.59457261498, -32191.51880640016, -30953.723901954163, -38814.452447229916, -36714.237834720356, -29678.93686043464, -10457.956547493524, -36448.60970361349, -37691.210233117374, -20455.10953129644, -22561.828501442495, -35922.20376994655, -34094.859253747374, -0.15, 0.936, -0.11800000000000001, 192.0, 0.0, 0.0, 0.0, 0.0, 0.0, 0.0, 0.0, 0.0, 0.0, 1.6731200124437299E9, 0.0, 2023-01-07 14:33:32.443
194.0, -32869.04488432943, -35064.76850089651, -34524.325671711646, -28917.994072198162, -32176.02904749263, -30924.286654506526, -38763.04343498271, -36684.26414540579, -29641.497688471998, -10385.402784991596, -36396.61954601044, -37606.92180477641, -20414.18348719877, -22500.942349546236, -35864.826841929775, -34015.21998825312, -0.15, 0.936, -0.11800000000000001, 192.0, 0.0, 0.0, 0.0, 0.0, 0.0, 0.0, 0.0, 0.0, 0.0, 1.673120012443738E9, 0.0, 2023-01-07 14:33:32.443
196.0, -32931.11567868182, -35128.15804817177, -34593.75018998983, -28978.299078738582, -32211.65772815439, -30987.542091315045, -38871.31528512422, -36749.77710840429, -29642.078833827836, -10432.609669281206, -36406.78958973761, -37659.604866457565, -20429.695597850754, -22550.898498403847, -35883.73641773897, -34062.985666154105, -0.15, 0.936, -0.11800000000000001, 192.0, 0.0, 0.0, 0.0, 0.0, 0.0, 0.0, 0.0, 0.0, 0.0, 1.6731200124437463E9, 0.0, 2023-01-07 14:33:32.443
198.0, -32923.62784428929, -35120.62551029033, -34581.143806117034, -28989.944337599798, -32193.463408167772, -31006.585777590964, -38885.86627076462, -36777.225050595414, -29682.602546525308, -10438.041143183846, -36438.104383719496, -37657.77202341223, -20451.846176605963, -22578.413495828332, -35916.88405476619, -34077.87192796134, -0.15, 0.936, -0.11800000000000001, 192.0, 0.0, 0.0, 0.0, 0.0, 0.0, 0.0, 0.0, 0.0, 0.0, 1.6731200124437568E9, 0.0, 2023-01-07 14:33:32.443
200.0, -32928.433469347176, -35124.984100459114, -34586.821149208685, -28987.93268059882, -32192.70344885629, -30993.19708266224, -38879.74189278387, -36764.86453591163, -29674.712380732584, -10480.755326837936, -36435.377470895946, -37702.16258790047, -20458.842272620474, -22600.47466760572, -35919.700374567554, -34110.527826610545, -0.158, 0.937, -0.116, 192.0, 125.0, 104.0, 14.5, 40.0, 126.0, 56.0, 0.0, 0.0, 0.0, 1.6731200124437647E9, 0.0, 2023-01-07 14:33:32.443
202.0, -32897.85628293232, -35095.904480922756, -34546.49860221131, -28970.923003068332, -32161.478061852227, -30963.78218695905, -38832.31149104971, -36738.2212565209, -29668.4538922851, -10422.618439509683, -36412.53398806262, -37641.74582263778, -20427.728644338687, -22568.019934656615, -35884.45167356154, -34039.96336936514, -0.158, 0.937, -0.116, 192.0, 0.0, 0.0, 0.0, 0.0, 0.0, 0.0, 0.0, 0.0, 0.0, 1.673120012443773E9, 0.0, 2023-01-07 14:33:32.443
204.0, -32919.38101284278, -35119.79849574548, -34574.50533801381, -28991.665421922855, -32189.41774242136, -30974.734541742153, -38855.04321516075, -36748.61481769262, -29650.080758342836, -10465.109105719222, -36413.45040958529, -37693.75833198528, -20426.70046409374, -22581.498036563164, -35881.72476073799, -34071.47932904713, -0.158, 0.937, -0.116, 192.0, 0.0, 0.0, 0.0, 0.0, 0.0, 0.0, 0.0, 0.0, 0.0, 1.673120012443781E9, 0.0, 2023-01-07 14:33:32.443
206.0, -32889.74259969504, -35087.32141105192, -34552.019483091775, -28970.54302341259, -32160.136957184906, -30961.256439835604, -38836.08893586265, -36732.342747729155, -29656.16043283468, -10412.314285315786, -36410.72349676174, -37640.9858633263, -20423.302998936535, -22549.31152454752, -35871.93469666656, -34029.435697726694, -0.158, 0.937, -0.116, 192.0, 0.0, 0.0, 0.0, 0.0, 0.0, 0.0, 0.0, 0.0, 0.0, 1.6731200124437892E9, 0.0, 2023-01-07 14:33:32.443
208.0, -32912.87665520628, -35109.539045040496, -34576.24877408132, -28997.29806152559, -32190.334163944026, -30988.83849249345, -38856.56313378372, -36762.00351262135, -29643.44229023961, -10456.21311142601, -36416.31143287557, -37694.361829085574, -20430.679074606785, -22586.013088943135, -35887.11153115172, -34099.21784391616, -0.158, 0.937, -0.116, 192.0, 0.0, 0.0, 0.0, 0.0, 0.0, 0.0, 0.0, 0.0, 0.0, 1.673120012443797E9, 0.0, 2023-01-07 14:33:32.443
210.0, -32892.20129158512, -35087.32141105192, -34567.598648977124, -28974.566337414544, -32177.817187049055, -30964.4080358038, -38820.465066488396, -36733.41563146301, -29662.374217793255, -10414.34829406122, -36417.96546196526, -37643.55631393866, -20433.629504874887, -22567.103513133945, -35888.34087709676, -34059.34233180789, -0.163, 0.9385000000000001, -0.115, 192.0, 125.0, 96.0, 14.5, 48.0, 126.0, 56.0, 0.0, 0.0, 0.0, 1.6731200124438052E9, 0.0, 2023-01-07 14:33:32.443
212.0, -32896.98456489856, -35096.32916406741, -34571.06316936769, -28981.31656424005, -32200.61596639347, -30972.65582950781, -38822.700240933926, -36744.34563450165, -29640.514211715963, -10440.58924205175, -36403.839159469506, -37677.82153818864, -20424.822917559497, -22563.326068321, -35885.9715921845, -34088.75722751108, -0.163, 0.9385000000000001, -0.115, 192.0, 0.0, 0.0, 0.0, 0.0, 0.0, 0.0, 0.0, 0.0, 0.0, 1.6731200124438136E9, 0.0, 2023-01-07 14:33:32.443
214.0, -32919.559826798424, -35116.870417221835, -34596.72297200239, -28989.83257887752, -32189.88712905492, -30979.763684244597, -38868.29779962276, -36756.05794859624, -29676.992258667025, -10433.570794292784, -36429.074278959546, -37652.698177420876, -20446.302943981045, -22558.498091518653, -35911.184359930085, -34064.28206733252, -0.163, 0.9385000000000001, -0.115, 192.0, 0.0, 0.0, 0.0, 0.0, 0.0, 0.0, 0.0, 0.0, 0.0, 1.6731200124438224E9, 0.0, 2023-01-07 14:33:32.443
216.0, -32931.62976880428, -35134.57299883044, -34592.073809155685, -29003.31068078407, -32202.739382116724, -31000.75197228813, -38868.74483451186, -36782.72357973141, -29669.63853474123, -10473.222788956498, -36435.86920927396, -37700.32974485514, -20441.586725900976, -22580.492208062675, -35926.51765662643, -34108.27030042056, -0.163, 0.9385000000000001, -0.115, 192.0, 0.0, 0.0, 0.0, 0.0, 0.0, 0.0, 0.0, 0.0, 0.0, 1.6731200124438305E9, 0.0, 2023-01-07 14:33:32.443
218.0, -32921.727946010586, -35117.47391432213, -34596.3653440911, -28973.44875019178, -32205.51099842918, -30960.630590990855, -38869.57184905671, -36739.94234084396, -29686.40234308271, -10447.16065492161, -36445.61456985647, -37665.08104384912, -20453.723723140207, -22569.31633583502, -35934.89956079717, -34069.60178251288, -0.163, 0.9385000000000001, -0.115, 192.0, 0.0, 0.0, 0.0, 0.0, 0.0, 0.0, 0.0, 0.0, 0.0, 1.6731200124438384E9, 0.0, 2023-01-07 14:33:32.443
220.0, -32937.038890962474, -35139.244513421596, -34597.25941386932, -29005.83642790752, -32215.39046947843, -31010.072649725993, -38899.456131393454, -36798.79448399478, -29663.760025949483, -10472.038146500367, -36433.052889472594, -37685.488186536815, -20447.889917837372, -22586.437772087786, -35934.117249741226, -34098.3461258824, -0.1615, 0.9452500000000001, -0.1105, 192.0, 125.5, 0.0, 14.5, 96.0, 126.0, 88.0, 0.0, 0.0, 0.0, 1.6731200124438467E9, 0.0, 2023-01-07 14:33:32.443
222.0, -32922.82318148889, -35120.26788237904, -34593.16904463399, -28966.363247199446, -32195.586823891026, -30964.36333231489, -38867.98487520038, -36746.0220153358, -29694.516026319987, -10455.542559092351, -36445.77103206766, -37670.244296818295, -20467.42534249131, -22573.80903647054, -35940.42044167763, -34078.60953552837, -0.1615, 0.9452500000000001, -0.1105, 192.0, 0.0, 0.0, 0.0, 0.0, 0.0, 0.0, 0.0, 0.0, 0.0, 1.6731200124438553E9, 0.0, 2023-01-07 14:33:32.443
224.0, -32914.575387784884, -35117.76448700005, -34569.58795423364, -28986.278651509125, -32192.479931411737, -30996.75101003063, -38862.039311175264, -36782.29889658676, -29656.473357257055, -10453.888530002658, -36414.65740378587, -37664.27638104873, -20436.08819676497, -22552.12784434889, -35898.734438268475, -34069.8923551908, -0.1615, 0.9452500000000001, -0.1105, 192.0, 0.0, 0.0, 0.0, 0.0, 0.0, 0.0, 0.0, 0.0, 0.0, 1.6731200124438632E9, 0.0, 2023-01-07 14:33:32.443
226.0, -32915.491809307554, -35113.89763520928, -34595.02423942378, -28974.633392647913, -32190.982364533233, -30972.18644287425, -38859.64767451855, -36743.809192634726, -29680.121502890768, -10463.92446326309, -36436.6515203299, -37671.428939274425, -20460.00456333215, -22566.745885222663, -35912.12313319721, -34070.56290752446, -0.1615, 0.9452500000000001, -0.1105, 192.0, 0.0, 0.0, 0.0, 0.0, 0.0, 0.0, 0.0, 0.0, 0.0, 1.673120012443871E9, 0.0, 2023-01-07 14:33:32.443
228.0, -32915.13418139627, -35119.28440562301, -34581.54613751723, -29001.544892972102, -32199.163103003873, -30998.382687375866, -38866.599067044146, -36780.935440174995, -29656.96509563507, -10454.179102680577, -36422.88284574543, -37667.42797701692, -20443.5760311575, -22559.123940363403, -35894.17468239959, -34068.32773307893, -0.1615, 0.9452500000000001, -0.1105, 192.0, 0.0, 0.0, 0.0, 0.0, 0.0, 0.0, 0.0, 0.0, 0.0, 1.6731200124438791E9, 0.0, 2023-01-07 14:33:32.443
230.0, -32904.62886150228, -35108.823789217924, -34592.5655475337, -28971.951183313275, -32184.589765619014, -30954.97559964366, -38842.280369076776, -36730.64401515055, -29674.801787710407, -10468.193646454054, -36440.29485467611, -37679.92260216744, -20460.47394996571, -22586.728344765706, -35905.797589516354, -34071.948715680686, -0.15575, 0.9476250000000002, -0.10825, 192.0, 125.5, 40.0, 14.5, 88.0, 126.0, 88.0, 0.0, 0.0, 0.0, 1.6731200124438887E9, 0.0, 2023-01-07 14:33:32.443
232.0, -32887.395666527234, -35091.6800012207, -34559.73083492885, -28975.840386848497, -32191.608213377982, -30972.141739385337, -38817.045249586736, -36751.207620049434, -29643.665807684163, -10431.246212869431, -36403.16860713585, -37640.807049370655, -20426.320484438, -22543.522422733597, -35868.44782453153, -34039.02459609802, -0.15575, 0.9476250000000002, -0.10825, 192.0, 0.0, 0.0, 0.0, 0.0, 0.0, 0.0, 0.0, 0.0, 0.0, 1.673120012443896E9, 0.0, 2023-01-07 14:33:32.443
234.0, -32909.009803415516, -35106.1862833722, -34596.43239932447, -28971.504148424166, -32200.012469293175, -30957.59075374493, -38858.8206599737, -36734.62262566359, -29662.798900937905, -10449.194663667044, -36422.3464038785, -37667.29386655019, -20449.253374249147, -22560.107417119434, -35892.29713586535, -34055.095500361385, -0.15575, 0.9476250000000002, -0.10825, 192.0, 0.0, 0.0, 0.0, 0.0, 0.0, 0.0, 0.0, 0.0, 0.0, 1.6731200124439037E9, 0.0, 2023-01-07 14:33:32.443
236.0, -32898.8174079439, -35101.492417036585, -34573.16423334649, -28988.603232932477, -32176.721951570747, -30990.64898379433, -38872.79050025827, -36778.38734130709, -29657.613296224274, -10447.764152021904, -36418.993642210204, -37654.26279953275, -20433.76361534162, -22557.447559529253, -35896.655726034136, -34050.17811658122, -0.15575, 0.9476250000000002, -0.10825, 192.0, 0.0, 0.0, 0.0, 0.0, 0.0, 0.0, 0.0, 0.0, 0.0, 1.673120012443912E9, 0.0, 2023-01-07 14:33:32.443
238.0, -32907.84751270384, -35102.341783325886, -34591.87264345559, -28966.609116388456, -32186.690829597814, -30954.79678568802, -38854.41736631601, -36731.09105003966, -29654.416996767166, -10466.584320853271, -36426.45912485828, -37676.41337828796, -20445.85590909194, -22578.12292315041, -35903.45065634855, -34067.478366789626, -0.15575, 0.9476250000000002, -0.10825, 192.0, 0.0, 0.0, 0.0, 0.0, 0.0, 0.0, 0.0, 0.0, 0.0, 1.67312001244392E9, 0.0, 2023-01-07 14:33:32.443
240.0, -32900.65025098923, -35091.38942854279, -34564.22353556437, -28971.325334468525, -32188.568376132058, -30970.398303317823, -38846.59425575665, -36759.097785842154, -29656.67452295715, -10425.747683733427, -36417.943110220804, -37639.60005517007, -20435.819975831506, -22543.008332611123, -35891.96185969852, -34036.78942165249, -0.15087499999999998, 0.9418125000000002, -0.112125, 192.0, 125.5, 56.0, 14.5, 32.0, 126.0, 48.0, 0.0, 0.0, 0.0, 1.6731200129251328E9, 0.0, 2023-01-07 14:33:32.925
242.0, -32917.34700409735, -35101.17949261421, -34582.95429741792, -28961.870546563932, -32201.75590536069, -30946.392529772824, -38845.72253772289, -36727.715936626904, -29669.86205218578, -10459.945852750046, -36431.600026083, -37678.22386958884, -20450.840348105474, -22563.08019913199, -35901.84133074777, -34071.12170113584, -0.15087499999999998, 0.9418125000000002, -0.112125, 192.0, 0.0, 0.0, 0.0, 0.0, 0.0, 0.0, 0.0, 0.0, 0.0, 1.6731200129252708E9, 0.0, 2023-01-07 14:33:32.925
244.0, -32894.79409394194, -35087.12024535182, -34548.17498304546, -28963.03283727561, -32173.346838157995, -30960.74234971313, -38851.35517732563, -36752.14639331656, -29655.981618879036, -10408.715654458483, -36403.68269725832, -37619.416429926925, -20419.480850634678, -22522.98116957917, -35871.6664757331, -34022.864284856834, -0.15087499999999998, 0.9418125000000002, -0.112125, 192.0, 0.0, 0.0, 0.0, 0.0, 0.0, 0.0, 0.0, 0.0, 0.0, 1.6731200129253387E9, 0.0, 2023-01-07 14:33:32.925
246.0, -32910.105038893824, -35103.68288799321, -34572.11370135709, -28968.956049556262, -32186.55671913108, -30956.897849666817, -38854.84204946066, -36740.031747821784, -29652.40533976619, -10452.435666613062, -36416.289081131115, -37679.56497425616, -20430.075577506494, -22560.487396775174, -35894.37584809969, -34079.68241926222, -0.15087499999999998, 0.9418125000000002, -0.112125, 192.0, 0.0, 0.0, 0.0, 0.0, 0.0, 0.0, 0.0, 0.0, 0.0, 1.673120012925347E9, 0.0, 2023-01-07 14:33:32.925
248.0, -32902.4160388012, -35100.173664113725, -34553.36058775909, -28977.516767682646, -32181.84050105101, -30963.80453870351, -38848.60591275763, -36752.36991076111, -29657.52388924645, -10421.277334842365, -36411.036421184115, -37638.25895050275, -20426.27578094909, -22542.516594233108, -35885.21163287302, -34035.20244779616, -0.15087499999999998, 0.9418125000000002, -0.112125, 192.0, 0.0, 0.0, 0.0, 0.0, 0.0, 0.0, 0.0, 0.0, 0.0, 1.6731200129253547E9, 0.0, 2023-01-07 14:33:32.925
250.0, -32922.71142276662, -35117.76448700005, -34576.94167815944, -28995.196997546795, -32196.570300647058, -30970.711227740198, -38859.401805329544, -36750.715881671415, -29662.977714893546, -10475.055632001833, -36420.67002304435, -37697.06639016466, -20440.960877056226, -22590.751658767662, -35894.46525507751, -34085.47152107615, -0.1594375, 0.9379062500000002, -0.11306250000000001, 192.0, 125.0, 96.0, 14.5, 24.0, 126.0, 56.0, 0.0, 0.0, 0.0, 1.673120012925362E9, 0.0, 2023-01-07 14:33:32.925
252.0, -32902.214873101104, -35101.291251336486, -34552.51122146979, -28982.523558440636, -32181.61698360646, -30970.197137617724, -38845.67783423398, -36744.569151946205, -29676.67933424465, -10432.117930903189, -36423.888674245914, -37658.46492749035, -20443.553679413042, -22573.518463792618, -35898.13094116819, -34052.59210498239, -0.1594375, 0.9379062500000002, -0.11306250000000001, 192.0, 0.0, 0.0, 0.0, 0.0, 0.0, 0.0, 0.0, 0.0, 0.0, 1.67312001292537E9, 0.0, 2023-01-07 14:33:32.925
254.0, -32919.80569598743, -35121.74309751309, -34565.497584998324, -28993.297099268093, -32191.608213377982, -30990.917204727797, -38856.339616339166, -36765.80330917875, -29657.52388924645, -10476.843771558259, -36408.48832231621, -37696.28407910873, -20434.434167675277, -22590.148161667366, -35884.138749139165, -34087.48317807713, -0.1594375, 0.9379062500000002, -0.11306250000000001, 192.0, 0.0, 0.0, 0.0, 0.0, 0.0, 0.0, 0.0, 0.0, 0.0, 1.6731200129253774E9, 0.0, 2023-01-07 14:33:32.925
0.0, -32900.60554750032, -35102.74411472608, -34550.79013714673, -28977.15913977136, -32178.264221938163, -30977.70732375471, -38841.67687197648, -36755.767375918316, -29667.78333995144, -10442.936175219558, -36412.86926422945, -37650.64181693099, -20435.976438042693, -22577.89940570586, -35883.13292063867, -34054.02261662753, -0.1594375, 0.9379062500000002, -0.11306250000000001, 192.0, 0.0, 0.0, 0.0, 0.0, 0.0, 0.0, 0.0, 0.0, 0.0, 1.673120012925385E9, 0.0, 2023-01-07 14:33:32.925
2.0, -32923.35962335582, -35126.54872257099, -34562.61420996359, -28995.12994231343, -32195.765637846667, -30995.946347230238, -38857.18898262847, -36777.09094012868, -29648.806708908884, -10491.819440343314, -36411.14817990639, -37699.61448903257, -20437.272839221103, -22601.52519959512, -35885.21163287302, -34098.48023634914, -0.1594375, 0.9379062500000002, -0.11306250000000001, 192.0, 0.0, 0.0, 0.0, 0.0, 0.0, 0.0, 0.0, 0.0, 0.0, 1.6731200129253924E9, 0.0, 2023-01-07 14:33:32.925
4.0, -32897.90098642123, -35100.91127168075, -34538.4519742074, -28961.937601797297, -32173.726817813735, -30961.03292239105, -38834.32314805069, -36743.116288556615, -29657.233316568534, -10443.49496883094, -36404.71087750326, -37643.57866568311, -20426.007560015627, -22572.445580058764, -35871.465310033, -34039.20341005366, -0.17171875, 0.9359531250000002, -0.11353125, 192.0, 125.0, 32.0, 14.5, 24.0, 126.0, 56.0, 0.0, 0.0, 0.0, 1.673120012925399E9, 0.0, 2023-01-07 14:33:32.925
6.0, -32926.28770187947, -35135.109440697364, -34548.9572941014, -29002.483666239223, -32204.058135039588, -31002.495408355644, -38866.01792168831, -36784.10938788765, -29626.92435108714, -10490.880667076191, -36397.401857066376, -37688.483320293824, -20419.480850634678, -22595.914911736836, -35875.06394089031, -34080.35297159588, -0.17171875, 0.9359531250000002, -0.11353125, 192.0, 0.0, 0.0, 0.0, 0.0, 0.0, 0.0, 0.0, 0.0, 0.0, 1.6731200129254272E9, 0.0, 2023-01-07 14:33:32.925
8.0, -32908.786285970964, -35120.26788237904, -34532.84168634912, -28977.852043849474, -32185.103855741487, -30973.169919630283, -38848.18122961298, -36750.13473631558, -29651.064235098867, -10476.150867480144, -36411.796380495594, -37666.08687234961, -20427.840403060964, -22598.395955371376, -35880.76363572641, -34055.00609338356, -0.17171875, 0.9359531250000002, -0.11353125, 192.0, 0.0, 0.0, 0.0, 0.0, 0.0, 0.0, 0.0, 0.0, 0.0, 1.673120012925434E9, 0.0, 2023-01-07 14:33:32.925
10.0, -32920.65506227673, -35144.76539430206, -34537.84847710711, -29015.157105345384, -32206.785047863134, -31014.76651606161, -38874.6233433036, -36795.17350139302, -29612.373365446732, -10507.152737039654, -36392.931508175316, -37696.28407910873, -20408.126164451383, -22613.2375136897, -35873.94635366754, -34088.37724785534, -0.17171875, 0.9359531250000002, -0.11353125, 192.0, 0.0, 0.0, 0.0, 0.0, 0.0, 0.0, 0.0, 0.0, 0.0, 1.6731200129254396E9, 0.0, 2023-01-07 14:33:32.925
12.0, -32904.47239929109, -35131.28729239551, -34544.12931729905, -28990.234910277715, -32198.000812292197, -30986.826835492473, -38862.97808444239, -36760.90827714304, -29628.15369703218, -10497.206210757044, -36407.23662462671, -37680.25787833427, -20421.917190780307, -22615.539743368598, -35890.06196141982, -34070.07116914644, -0.17171875, 0.9359531250000002, -0.11353125, 192.0, 0.0, 0.0, 0.0, 0.0, 0.0, 0.0, 0.0, 0.0, 0.0, 1.673120012925446E9, 0.0, 2023-01-07 14:33:32.925
14.0, -32894.74939045303, -35129.27563539453, -34518.76008734228, -29008.004547119686, -32193.50811165668, -31013.09013522746, -38862.73221525338, -36795.37466709312, -29590.602766347263, -10510.527850452407, -36386.091874371996, -37690.092645894605, -20405.30984465001, -22614.51156312365, -35878.394350814146, -34093.4957973356, -0.17171875, 0.9359531250000002, -0.11353125, 192.0, 0.0, 0.0, 0.0, 0.0, 0.0, 0.0, 0.0, 0.0, 0.0, 1.6731200129254522E9, 0.0, 2023-01-07 14:33:32.925
16.0, -32884.244070559034, -35118.14446665579, -34517.01665127476, -28983.998773574684, -32182.6451638514, -30979.383704588858, -38845.67783423398, -36751.297027027256, -29609.400583434177, -10501.788318370382, -36397.401857066376, -37677.03922713271, -20418.340911667456, -22623.56401962805, -35877.25441184693, -34073.200413370185, -0.20400000000000001, 0.936, -0.12, 192.0, 124.5, 80.0, 14.5, 32.0, 126.0, 32.0, 0.0, 0.0, 0.0, 1.673120012925458E9, 0.0, 2023-01-07 14:33:32.925
18.0, -32876.9574018666, -35118.94912945618, -34490.283964906215, -29002.55072147259, -32193.239890723216, -31008.932710758774, -38840.76045045382, -36787.79742572277, -29576.632926062695, -10502.83885035978, -36371.09385384248, -37675.899288165485, -20390.08830667595, -22607.80603978706, -35843.436222486045, -34064.662046988255, -0.20400000000000001, 0.936, -0.12, 192.0, 0.0, 0.0, 0.0, 0.0, 0.0, 0.0, 0.0, 0.0, 0.0, 1.673120012925464E9, 0.0, 2023-01-07 14:33:32.925
20.0, -32878.030285600464, -35116.19986488818, -34505.41609590246, -28977.96380257175, -32196.346783202505, -30981.820044734486, -38848.20358135743, -36749.531239215285, -29595.27428093842, -10513.299466764864, -36387.72355171723, -37680.70491322338, -20405.89099000585, -22617.283179436112, -35852.55573422381, -34058.78353819651, -0.20400000000000001, 0.936, -0.12, 192.0, 0.0, 0.0, 0.0, 0.0, 0.0, 0.0, 0.0, 0.0, 0.0, 1.6731200129254713E9, 0.0, 2023-01-07 14:33:32.925
22.0, -32897.945689910135, -35145.592408846904, -34506.846607547595, -29023.874285682952, -32160.785157774113, -31049.4787752007, -38900.305497682755, -36830.556312865774, -29573.52603358341, -10512.897135364668, -36374.98305737771, -37677.240392832806, -20385.148571151327, -22612.94694101178, -35840.10581256221, -34061.175174853226, -0.20400000000000001, 0.936, -0.12, 192.0, 0.0, 0.0, 0.0, 0.0, 0.0, 0.0, 0.0, 0.0, 0.0, 1.6731200129254782E9, 0.0, 2023-01-07 14:33:32.925
24.0, -32907.825160959386, -35152.92378102825, -34544.7551661438, -29012.07256461055, -32189.976536032744, -31029.920998802307, -38897.95856451494, -36803.354239863664, -29615.23438873701, -10562.495656310995, -36423.84397075701, -37717.585291574636, -20420.553734368532, -22661.80785439108, -35886.53038579588, -34101.60948057288, -0.20400000000000001, 0.936, -0.12, 192.0, 0.0, 0.0, 0.0, 0.0, 0.0, 0.0, 0.0, 0.0, 0.0, 1.6731200129254854E9, 0.0, 2023-01-07 14:33:32.925
26.0, -32854.896230089216, -35108.622623517826, -34489.32283989464, -28985.518692197646, -32170.97755324573, -31025.137725488872, -38857.03252041728, -36803.60010905268, -29578.24225166348, -10514.439405732084, -36385.75659820516, -37664.566953726644, -20396.4138503568, -22627.140298740902, -35857.227248814976, -34057.30832306246, -0.192, 0.9480000000000001, -0.12, 192.0, 125.0, 0.0, 14.5, 80.0, 126.0, 32.0, 0.0, 0.0, 0.0, 1.673120012925491E9, 0.0, 2023-01-07 14:33:32.925
28.0, -32856.86318360129, -35110.67898400772, -34511.65223260549, -28961.06588376354, -32185.483835397226, -31001.511931599613, -38866.97904669989, -36771.01126563684, -29573.61544056123, -10506.03514981689, -36382.1356156034, -37662.01885485874, -20410.629559830377, -22611.784650300106, -35861.407025028115, -34052.21212532665, -0.192, 0.9480000000000001, -0.12, 192.0, 0.0, 0.0, 0.0, 0.0, 0.0, 0.0, 0.0, 0.0, 0.0, 1.6731200129254975E9, 0.0, 2023-01-07 14:33:32.925
30.0, -32856.55025917891, -35122.59246380239, -34490.32866839512, -28982.948241585287, -32181.259355695172, -31040.158097762836, -38874.3774741146, -36815.98297548091, -29567.71458002503, -10487.997292041457, -36367.137595073895, -37627.44070618638, -20395.922111978784, -22593.456219846754, -35853.89683889113, -34030.419174482726, -0.192, 0.9480000000000001, -0.12, 192.0, 0.0, 0.0, 0.0, 0.0, 0.0, 0.0, 0.0, 0.0, 0.0, 1.673120012925504E9, 0.0, 2023-01-07 14:33:32.925
32.0, -32866.16150929469, -35134.79651627499, -34506.93601452542, -28968.911346067354, -32192.390524433915, -31020.04152775306, -38873.41634910302, -36786.56807977773, -29591.116856469736, -10537.662868221149, -36391.29983083008, -37676.50278526578, -20428.980342028182, -22628.995493530692, -35873.633429245165, -34075.145015137794, -0.192, 0.9480000000000001, -0.12, 192.0, 0.0, 0.0, 0.0, 0.0, 0.0, 0.0, 0.0, 0.0, 0.0, 1.67312001292551E9, 0.0, 2023-01-07 14:33:32.925
34.0, -32839.428822926144, -35118.01035618906, -34462.72426399282, -28965.40212218787, -32167.535384599614, -31025.875333055897, -38857.34544483965, -36800.89554797358, -29571.67083879362, -10490.12070776471, -36353.25716176715, -37610.900415289456, -20389.08247817546, -22589.09762967797, -35843.99501609743, -34035.96240710764, -0.192, 0.9480000000000001, -0.12, 192.0, 0.0, 0.0, 0.0, 0.0, 0.0, 0.0, 0.0, 0.0, 0.0, 1.6731200129255173E9, 0.0, 2023-01-07 14:33:32.925
36.0, -32855.946762078616, -35136.83052502043, -34497.03419173172, -28969.045456534084, -32171.759864301668, -31009.647966581342, -38863.91685770951, -36782.61182100914, -29564.51828056792, -10528.945687883579, -36360.365016503936, -37656.16269781145, -20394.40219335582, -22618.490173636696, -35855.34970228073, -34073.64744825929, -0.168, 0.9520000000000001, -0.108, 192.0, 125.0, 96.0, 14.5, 96.0, 126.0, 80.0, 0.0, 0.0, 0.0, 1.673120012925524E9, 0.0, 2023-01-07 14:33:32.925
38.0, -32841.328721204845, -35134.57299883044, -34482.505557835764, -28978.7908171166, -32162.908573497367, -31019.885065541872, -38858.574790784696, -36798.973297950426, -29573.61544056123, -10485.40448968464, -36363.27074328312, -37615.39311592497, -20381.41582982729, -22600.921702494827, -35847.28072253236, -34036.78942165249, -0.168, 0.9520000000000001, -0.108, 192.0, 0.0, 0.0, 0.0, 0.0, 0.0, 0.0, 0.0, 0.0, 0.0, 1.6731200129255347E9, 0.0, 2023-01-07 14:33:32.925
40.0, -32839.585285137335, -35137.23285642062, -34493.94965099688, -28967.68200012231, -32182.80162606259, -31002.56246358901, -38823.616662456596, -36768.30670455774, -29571.313210882334, -10531.739655940492, -36377.30763880106, -37672.56887824165, -20393.642234044342, -22625.62038011794, -35854.075652846775, -34085.47152107615, -0.168, 0.9520000000000001, -0.108, 192.0, 0.0, 0.0, 0.0, 0.0, 0.0, 0.0, 0.0, 0.0, 0.0, 1.6731200129255412E9, 0.0, 2023-01-07 14:33:32.925
42.0, -32768.08205462481, -35072.681018433694, -34425.888589130474, -28904.493618547156, -32146.904724467367, -30950.281733308046, -38778.89082180153, -36720.093991767644, -29528.867248161707, -10428.698114001527, -36314.94627177075, -37567.00158917923, -20358.952326649705, -22544.84117565646, -35799.17976846454, -33985.022781494, -0.168, 0.9520000000000001, -0.108, 192.0, 0.0, 0.0, 0.0, 0.0, 0.0, 0.0, 0.0, 0.0, 0.0, 1.673120012925548E9, 0.0, 2023-01-07 14:33:32.925
44.0, -32831.69511934461, -35144.564228601965, -34491.06627596215, -28963.412816931348, -32170.865794523455, -31025.85298131144, -38907.502759397365, -36810.0374114558, -29522.765221925405, -10487.907885063636, -36320.355393928934, -37619.61759562702, -20370.731695977654, -22586.840103487983, -35828.840533356735, -34047.71942469113, -0.168, 0.9520000000000001, -0.108, 192.0, 0.0, 0.0, 0.0, 0.0, 0.0, 0.0, 0.0, 0.0, 0.0, 1.6731200129255555E9, 0.0, 2023-01-07 14:33:32.925
46.0, -32822.75442156249, -35137.85870526537, -34487.86997650504, -28955.835575561, -32156.426567605326, -31017.404021907336, -38888.81670103272, -36807.15403642107, -29576.029428962403, -10486.097393762755, -36359.515650214635, -37609.291089688675, -20391.56352181, -22608.163667698343, -35869.05132163183, -34053.97791313862, -0.14400000000000002, 0.9420000000000001, -0.10200000000000001, 192.0, 125.5, 64.0, 14.5, 56.0, 126.0, 104.0, 0.0, 0.0, 0.0, 1.6731200129255624E9, 0.0, 2023-01-07 14:33:32.925
48.0, -32826.06247974187, -35143.647807079295, -34504.25380519078, -28952.862793548444, -32169.88231776742, -31001.780152533076, -38877.81964276071, -36792.22307112492, -29551.107233894734, -10506.012798072434, -36350.59730417697, -37640.807049370655, -20388.255463630612, -22599.29002514959, -35851.974588867975, -34070.51820403555, -0.14400000000000002, 0.9420000000000001, -0.10200000000000001, 192.0, 0.0, 0.0, 0.0, 0.0, 0.0, 0.0, 0.0, 0.0, 0.0, 1.6731200129255695E9, 0.0, 2023-01-07 14:33:32.925
50.0, -32795.172368904634, -35119.95495795667, -34490.127502695024, -28923.693767034267, -32137.20406737376, -30969.41482656179, -38861.59227628616, -36768.060835368735, -29564.495928823464, -10464.617367341205, -36347.557466931044, -37589.86742375701, -20385.4614955737, -22571.216234113723, -35844.95614110901, -34013.74477311907, -0.14400000000000002, 0.9420000000000001, -0.10200000000000001, 192.0, 0.0, 0.0, 0.0, 0.0, 0.0, 0.0, 0.0, 0.0, 0.0, 1.673120012925576E9, 0.0, 2023-01-07 14:33:32.925
52.0, -32813.41139238017, -35147.358196658875, -34513.17215122845, -28944.12326146642, -32167.93771599981, -30992.75004777313, -38869.951828712445, -36792.64775426957, -29544.066434391312, -10485.69506236256, -36340.04728079406, -37629.54177016518, -20381.549940294022, -22585.007260442646, -35842.47509747447, -34049.909895647754, -0.14400000000000002, 0.9420000000000001, -0.10200000000000001, 192.0, 0.0, 0.0, 0.0, 0.0, 0.0, 0.0, 0.0, 0.0, 0.0, 1.6731200129255834E9, 0.0, 2023-01-07 14:33:32.925
54.0, -32792.44545608109, -35127.95688247167, -34500.58811910011, -28911.109734905927, -32150.235134391205, -30963.42455904777, -38844.87317143359, -36756.28146604079, -29573.771902772416, -10445.73014327647, -36349.83734486548, -37591.387342379974, -20391.51881832109, -22562.007315398136, -35852.98041736847, -34018.25982549904, -0.14400000000000002, 0.9420000000000001, -0.10200000000000001, 192.0, 0.0, 0.0, 0.0, 0.0, 0.0, 0.0, 0.0, 0.0, 0.0, 1.673120012925592E9, 0.0, 2023-01-07 14:33:32.925
56.0, -32823.715546574065, -35166.156013745785, -34510.467590149354, -28942.178659698806, -32178.59949810499, -30992.459475095213, -38859.826488474195, -36785.405789066055, -29540.288989578366, -10469.467695888006, -36337.566237159524, -37622.45626717285, -20374.620899512876, -22564.287193332577, -35837.04362357183, -34040.05277634296, -0.114, 0.9460000000000001, -0.096, 192.0, 126.0, 56.0, 14.5, 72.0, 126.5, 0.0, 0.0, 0.0, 0.0, 1.673120012925599E9, 0.0, 2023-01-07 14:33:32.925
58.0, -32807.95756673307, -35156.097728740904, -34501.16926445595, -28916.29533961956, -32155.912477482856, -30950.773471686065, -38832.132677094065, -36738.82475362119, -29570.687362037585, -10452.770942779893, -36363.94129561679, -37607.12297047651, -20386.579082796467, -22561.18030085329, -35847.32542602127, -34013.6777178857, -0.114, 0.9460000000000001, -0.096, 192.0, 0.0, 0.0, 0.0, 0.0, 0.0, 0.0, 0.0, 0.0, 0.0, 1.6731200129256053E9, 0.0, 2023-01-07 14:33:32.925
60.0, -32821.30155817289, -35184.3056302435, -34499.93991851091, -28954.382712171402, -32168.921192755843, -30980.344829600435, -38840.15695335352, -36775.548669761265, -29542.45710879053, -10481.582341382784, -36348.13861228688, -37634.369746967524, -20369.144722121328, -22568.243452101167, -35834.31671074828, -34040.969197865634, -0.114, 0.9460000000000001, -0.096, 192.0, 0.0, 0.0, 0.0, 0.0, 0.0, 0.0, 0.0, 0.0, 0.0, 1.6731200129256134E9, 0.0, 2023-01-07 14:33:32.925
62.0, -32824.0955262298, -35192.46401696969, -34515.384973929526, -28944.235020188695, -32166.03781772111, -30955.60144848841, -38833.27261606129, -36738.288311754266, -29576.94585048507, -10467.545445864851, -36370.91503988684, -37626.32311896361, -20387.204931641216, -22581.52038830762, -35845.51493472039, -34031.1344303053, -0.114, 0.9460000000000001, -0.096, 192.0, 0.0, 0.0, 0.0, 0.0, 0.0, 0.0, 0.0, 0.0, 0.0, 1.6731200129256215E9, 0.0, 2023-01-07 14:33:32.925
64.0, -32840.9487415491, -35220.694270216736, -34514.960290784875, -28982.7917793741, -32177.303096926582, -31006.496370613146, -38853.679758748985, -36786.05398965526, -29562.596030544762, -10494.255780488942, -36363.53896421659, -37650.194782041886, -20378.577158281467, -22587.488304077186, -35846.788984154344, -34064.88556443281, -0.114, 0.9460000000000001, -0.096, 192.0, 0.0, 0.0, 0.0, 0.0, 0.0, 0.0, 0.0, 0.0, 0.0, 1.6731200129256275E9, 0.0, 2023-01-07 14:33:32.925
66.0, -32821.055688983884, -35196.80025539402, -34520.10119200959, -28946.514898123136, -32165.65783806537, -30966.687913738242, -38834.14433409504, -36731.2698639953, -29580.09744645327, -10491.573571154306, -36376.34651378948, -37641.76817438223, -20392.859922988406, -22594.104420435957, -35863.68690296256, -34061.08576787541, -0.112, 0.9520000000000001, -0.08600000000000001, 192.0, 126.0, 64.0, 14.5, 96.0, 126.5, 40.0, 0.0, 0.0, 0.0, 1.6731200129256334E9, 0.0, 2023-01-07 14:33:32.925
68.0, -32815.043069725405, -35191.97227859167, -34498.86703477705, -28961.334104697, -32172.944506757798, -31003.501236856133, -38849.29881683574, -36768.91020165804, -29543.440585546567, -10466.830190042281, -36343.80237386255, -37624.28911021818, -20369.189425610235, -22571.305641091545, -35846.56546670979, -34058.26944807404, -0.112, 0.9520000000000001, -0.08600000000000001, 192.0, 0.0, 0.0, 0.0, 0.0, 0.0, 0.0, 0.0, 0.0, 0.0, 1.6731200129256392E9, 0.0, 2023-01-07 14:33:32.925
70.0, -32805.52122658744, -35173.82266209396, -34512.9486337839, -28925.034871701584, -32164.383788631418, -30968.476053294668, -38831.17155208249, -36719.51284641181, -29569.636830048184, -10469.98178601048, -36356.40875773534, -37622.277453217204, -20385.819123484984, -22583.241472630678, -35857.13784183715, -34060.39286379729, -0.112, 0.9520000000000001, -0.08600000000000001, 192.0, 0.0, 0.0, 0.0, 0.0, 0.0, 0.0, 0.0, 0.0, 0.0, 1.673120012925648E9, 0.0, 2023-01-07 14:33:32.925
72.0, -32798.614537550755, -35169.68758936973, -34490.82040677314, -28932.6791683053, -32181.28170743963, -30997.980355975673, -38838.05588937472, -36750.47001248241, -29535.908047665125, -10439.292840873342, -36327.485600410175, -37591.85672901353, -20364.22733834116, -22551.099664103946, -35831.56744618028, -34037.10234607486, -0.112, 0.9520000000000001, -0.08600000000000001, 192.0, 0.0, 0.0, 0.0, 0.0, 0.0, 0.0, 0.0, 0.0, 0.0, 1.673120012925654E9, 0.0, 2023-01-07 14:33:32.925
74.0, -32808.65047081119, -35173.28622022703, -34508.00889825927, -28912.942577951264, -32170.239945678706, -30966.64321024933, -38837.29593006324, -36710.75096258533, -29576.498815595965, -10468.26070168742, -36363.561315961044, -37623.77502009571, -20399.766612025098, -22584.26965287562, -35855.08148134726, -34062.292762075995, -0.112, 0.9520000000000001, -0.08600000000000001, 192.0, 0.0, 0.0, 0.0, 0.0, 0.0, 0.0, 0.0, 0.0, 0.0, 1.6731200129256597E9, 0.0, 2023-01-07 14:33:32.925
76.0, -32804.11306668676, -35174.87319408336, -34470.212098385346, -28918.038775687073, -32168.004771233176, -30981.28360286756, -38823.97429036788, -36733.01330006281, -29538.74671921095, -10425.166538377589, -36325.116315497915, -37582.82662425359, -20360.248727828115, -22545.444672756752, -35818.29050997383, -34022.663119156736, -0.10400000000000001, 0.9520000000000001, -0.074, 192.0, 126.0, 96.0, 14.5, 96.0, 126.5, 88.0, 0.0, 0.0, 0.0, 1.6731200129256656E9, 0.0, 2023-01-07 14:33:32.925
78.0, -32826.35305241979, -35195.77207514907, -34492.720305051844, -28905.074763902994, -32180.43234115033, -30956.339056055436, -38819.39218275454, -36702.95020377042, -29572.85548124975, -10472.686347089571, -36364.50008922817, -37639.331834236604, -20391.965853210193, -22574.144312637367, -35849.13591732215, -34063.209183598665, -0.10400000000000001, 0.9520000000000001, -0.074, 192.0, 0.0, 0.0, 0.0, 0.0, 0.0, 0.0, 0.0, 0.0, 0.0, 1.673120012925671E9, 0.0, 2023-01-07 14:33:32.925
80.0, -32817.61352033776, -35196.643793182826, -34462.72426399282, -28915.870656474908, -32168.965896244754, -30978.891966210842, -38836.80419168522, -36737.28248325378, -29552.917725195617, -10427.468768056486, -36339.443783693765, -37597.15409244944, -20364.45085578571, -22530.625466182886, -35818.84930358521, -34018.57274992141, -0.10400000000000001, 0.9520000000000001, -0.074, 192.0, 0.0, 0.0, 0.0, 0.0, 0.0, 0.0, 0.0, 0.0, 0.0, 1.6731200129256773E9, 0.0, 2023-01-07 14:33:32.925
82.0, -32841.97692179405, -35224.91874991879, -34509.32765118214, -28925.884237990886, -32164.56260258706, -30983.98816394665, -38869.43773858997, -36739.674119910494, -29575.783559773394, -10497.832059601791, -36375.63125796691, -37658.86725889055, -20393.41871659979, -22581.095705162967, -35849.29237953334, -34076.50847154957, -0.10400000000000001, 0.9520000000000001, -0.074, 192.0, 0.0, 0.0, 0.0, 0.0, 0.0, 0.0, 0.0, 0.0, 0.0, 1.673120012925683E9, 0.0, 2023-01-07 14:33:32.925
84.0, -32836.992482780515, -35225.32108131899, -34497.81650278765, -28943.743281810675, -32167.356570643973, -31013.671280583298, -38875.71857878192, -36776.26392558384, -29566.84286199127, -10455.609614325716, -36358.97920834771, -37611.14628447846, -20378.97948968166, -22559.07923687449, -35842.85507713021, -34040.52216297652, -0.10400000000000001, 0.9520000000000001, -0.074, 192.0, 0.0, 0.0, 0.0, 0.0, 0.0, 0.0, 0.0, 0.0, 0.0, 1.673120012925689E9, 0.0, 2023-01-07 14:33:32.925
86.0, -32848.86125908628, -35237.72629949168, -34528.77366885825, -28945.933752767298, -32185.305021441585, -31000.95313798823, -38875.00332295935, -36756.54968697425, -29590.491007624987, -10531.985525129501, -36393.37854306442, -37680.97313415684, -20411.970664497694, -22622.848763805483, -35881.70240899354, -34106.03512597503, -0.10200000000000001, 0.9490000000000001, -0.069, 192.0, 126.0, 112.0, 14.5, 72.0, 127.0, 0.0, 0.0, 0.0, 0.0, 1.673120012925695E9, 0.0, 2023-01-07 14:33:32.925
88.0, -32807.4434766106, -35201.471769985175, -34479.666886289946, -28922.15149666685, -32148.067015179044, -30985.262213380603, -38837.49709576334, -36743.60802693463, -29571.402617860156, -10457.822437026793, -36356.34170250198, -37608.59818561056, -20375.06793440198, -22572.579690525497, -35846.07372833177, -34036.49884897457, -0.10200000000000001, 0.9490000000000001, -0.069, 192.0, 0.0, 0.0, 0.0, 0.0, 0.0, 0.0, 0.0, 0.0, 0.0, 1.6731200129257016E9, 0.0, 2023-01-07 14:33:32.925
90.0, -32851.4540614431, -35241.88372396037, -34518.96125304237, -28947.028988245605, -32186.891995297912, -31000.17082693229, -38867.47078507791, -36754.89565788456, -29566.28406837989, -10506.929219595102, -36368.85867939695, -37665.97511362733, -20388.32251886398, -22605.28029266361, -35860.065920360794, -34084.75626525358, -0.10200000000000001, 0.9490000000000001, -0.069, 192.0, 0.0, 0.0, 0.0, 0.0, 0.0, 0.0, 0.0, 0.0, 0.0, 1.6731200129257083E9, 0.0, 2023-01-07 14:33:32.925
92.0, -32815.91478775916, -35206.500912487616, -34474.77185425423, -28912.71906050671, -32155.30898038256, -30973.907527197305, -38836.02188062929, -36735.11436404161, -29568.452187592055, -10442.466788585996, -36352.00546407765, -37606.38536290948, -20375.850245457917, -22561.403818297844, -35843.95031260852, -34028.09459305937, -0.10200000000000001, 0.9490000000000001, -0.069, 192.0, 0.0, 0.0, 0.0, 0.0, 0.0, 0.0, 0.0, 0.0, 0.0, 1.6731200129257147E9, 0.0, 2023-01-07 14:33:32.925
94.0, -32859.47833770255, -35252.21022989872, -34520.324709454144, -28944.10090972196, -32198.671364625858, -31010.60909159292, -38876.56794507122, -36769.78191969179, -29576.230594662502, -10508.672655662616, -36370.132728830904, -37669.97607588483, -20394.80452475602, -22603.693318807284, -35867.15142335313, -34092.914651979765, -0.10200000000000001, 0.9490000000000001, -0.069, 192.0, 0.0, 0.0, 0.0, 0.0, 0.0, 0.0, 0.0, 0.0, 0.0, 1.673120012925722E9, 0.0, 2023-01-07 14:33:32.925
96.0, -32820.65335758369, -35211.57475847897, -34480.82917700162, -28901.833760956975, -32167.669495066348, -30972.521719041077, -38830.00926137081, -36735.963730330914, -29583.539615099387, -10452.703887546526, -36362.26491478264, -37613.78379032419, -20389.641271786844, -22565.248318344155, -35855.43910925855, -34045.39484326778, -0.111, 0.9415, -0.0665, 192.0, 126.0, 32.0, 14.5, 24.0, 127.0, 0.0, 0.0, 0.0, 0.0, 1.673120012925729E9, 0.0, 2023-01-07 14:33:32.925
98.0, -32857.332570234845, -35250.26562813111, -34515.42967741843, -28936.657778818346, -32204.751039117702, -31003.434181622768, -38866.08497692168, -36767.52439350181, -29575.917670240127, -10513.813556887337, -36367.09289158498, -37666.55625898317, -20399.3642806249, -22598.2841966491, -35862.14463259514, -34093.831073502435, -0.111, 0.9415, -0.0665, 192.0, 0.0, 0.0, 0.0, 0.0, 0.0, 0.0, 0.0, 0.0, 0.0, 1.6731200129257352E9, 0.0, 2023-01-07 14:33:32.925
100.0, -32828.342357676316, -35224.337604562956, -34486.48416834881, -28902.325499334995, -32166.08252121002, -30966.46439629369, -38832.84793291664, -36728.83352384967, -29585.61832733373, -10453.933233491569, -36368.09872008547, -37623.68561311789, -20392.70346077722, -22573.160835881336, -35862.70342620652, -34043.293779288986, -0.111, 0.9415, -0.0665, 192.0, 0.0, 0.0, 0.0, 0.0, 0.0, 0.0, 0.0, 0.0, 0.0, 1.673120012925742E9, 0.0, 2023-01-07 14:33:32.925
102.0, -32838.043014769915, -35238.933293692266, -34481.36561886855, -28909.925092449797, -32169.03295147812, -30974.13104464186, -38827.2152933139, -36739.338843743666, -29561.031408432893, -10489.852486831247, -36356.31935075753, -37656.72149142283, -20379.068896659483, -22574.45723705974, -35841.02223408488, -34059.65525623027, -0.111, 0.9415, -0.0665, 192.0, 0.0, 0.0, 0.0, 0.0, 0.0, 0.0, 0.0, 0.0, 0.0, 1.673120012925753E9, 0.0, 2023-01-07 14:33:32.925
104.0, -32828.02943325394, -35232.80891571152, -34483.19846191388, -28890.00968814012, -32164.16027118686, -30956.16024209979, -38828.39993577003, -36718.03763127776, -29575.738856284483, -10452.882701502169, -36365.55062121757, -37616.64481361447, -20384.70153626222, -22556.352324050942, -35839.47996371746, -34011.44254344017, -0.111, 0.9415, -0.0665, 192.0, 0.0, 0.0, 0.0, 0.0, 0.0, 0.0, 0.0, 0.0, 0.0, 1.6731200129257612E9, 0.0, 2023-01-07 14:33:32.925
106.0, -32861.91467784818, -35276.618334843915, -34510.98168027183, -28936.92599975181, -32200.303041971096, -31009.156228203326, -38870.242401390366, -36776.06275988374, -29556.47165256401, -10495.373367711707, -36360.968513604224, -37651.06650007564, -20377.906605947806, -22571.886786447383, -35838.85411487271, -34043.562000222446, -0.11649999999999999, 0.94475, -0.06225, 192.0, 126.0, 24.0, 14.5, 80.0, 127.0, 24.0, 0.0, 0.0, 0.0, 1.6731200134054923E9, 0.0, 2023-01-07 14:33:33.405
108.0, -32846.64843638521, -35263.31904689301, -34514.93793904042, -28915.893008219366, -32171.670457323846, -30976.27681210957, -38867.91781996701, -36744.591503690666, -29608.685327611605, -10498.167335768621, -36400.79932222358, -37652.49701172078, -20413.624693587386, -22593.031536702103, -35876.56150776881, -34050.51339274805, -0.11649999999999999, 0.94475, -0.06225, 192.0, 0.0, 0.0, 0.0, 0.0, 0.0, 0.0, 0.0, 0.0, 0.0, 1.6731200134055505E9, 0.0, 2023-01-07 14:33:33.405
110.0, -32878.76789316748, -35304.22273924622, -34529.6006834031, -28965.424473932326, -32188.903652298886, -31033.072594770503, -38896.237480191885, -36803.62246079713, -29581.863234265238, -10529.325667539319, -36387.544737761586, -37672.390064286, -20397.173809668282, -22605.503810108163, -35860.75882443891, -34070.965238924655, -0.11649999999999999, 0.94475, -0.06225, 192.0, 0.0, 0.0, 0.0, 0.0, 0.0, 0.0, 0.0, 0.0, 0.0, 1.6731200134055672E9, 0.0, 2023-01-07 14:33:33.405
112.0, -32863.97103833807, -35284.95553552575, -34538.250808507306, -28940.748148053666, -32192.9493180453, -30999.656736809822, -38877.03733170478, -36760.796518420764, -29617.894246327192, -10517.009856344444, -36420.42415385535, -37673.73116895332, -20420.352568668433, -22616.36675791344, -35892.453598076536, -34073.334523836915, -0.11649999999999999, 0.94475, -0.06225, 192.0, 0.0, 0.0, 0.0, 0.0, 0.0, 0.0, 0.0, 0.0, 0.0, 1.6731200134055736E9, 0.0, 2023-01-07 14:33:33.405
114.0, -32856.23733475654, -35285.782550070595, -34515.720250096354, -28950.49350863618, -32193.306945956585, -31024.310710944024, -38872.56698281372, -36790.636097268594, -29578.935155741594, -10509.611428929738, -36387.43297903931, -37664.34343628209, -20392.591702054942, -22590.818714001027, -35867.553754753324, -34072.082826147416, -0.11649999999999999, 0.94475, -0.06225, 192.0, 0.0, 0.0, 0.0, 0.0, 0.0, 0.0, 0.0, 0.0, 0.0, 1.6731200134055793E9, 0.0, 2023-01-07 14:33:33.405
116.0, -32853.21984925507, -35280.08285523449, -34528.97483455835, -28917.614092542422, -32191.854082566988, -30984.50225406912, -38862.687511764474, -36747.54193395876, -29600.4375339076, -10498.279094490897, -36399.41351406735, -37650.70887216436, -20414.98814999916, -22588.158856410846, -35878.66257174761, -34058.47061377414, -0.12025, 0.948375, -0.056125, 192.0, 126.0, 16.0, 14.5, 96.0, 127.0, 56.0, 0.0, 0.0, 0.0, 1.6731200134055853E9, 0.0, 2023-01-07 14:33:33.405
118.0, -32861.959381337096, -35299.46181767724, -34514.93793904042, -28945.44201438928, -32205.443943195816, -31025.450649911243, -38876.947924726956, -36797.96746944993, -29583.89724301067, -10501.520097436918, -36385.19780459378, -37647.62433142952, -20408.260274918113, -22582.548568552564, -35868.85015593173, -34059.83407018591, -0.12025, 0.948375, -0.056125, 192.0, 0.0, 0.0, 0.0, 0.0, 0.0, 0.0, 0.0, 0.0, 0.0, 1.673120013405592E9, 0.0, 2023-01-07 14:33:33.405
120.0, -32852.303427732404, -35284.866128547925, -34524.79505834521, -28912.897874462353, -32195.095085513007, -30977.41675107679, -38862.10636640863, -36750.20179154895, -29610.38406019021, -10508.65030391816, -36407.884825215915, -37669.79726192919, -20428.287437950068, -22601.56990308403, -35887.17858638508, -34067.00898015606, -0.12025, 0.948375, -0.056125, 192.0, 0.0, 0.0, 0.0, 0.0, 0.0, 0.0, 0.0, 0.0, 0.0, 1.673120013405598E9, 0.0, 2023-01-07 14:33:33.405
