%OpenBCI Raw EEG Data
%Number of channels = 16
%Sample Rate = 125 Hz
%Board = OpenBCI_GUI$BoardCytonSerialDaisy
Sample Index, EXG Channel 0, EXG Channel 1, EXG Channel 2, EXG Channel 3, EXG Channel 4, EXG Channel 5, EXG Channel 6, EXG Channel 7, EXG Channel 8, EXG Channel 9, EXG Channel 10, EXG Channel 11, EXG Channel 12, EXG Channel 13, EXG Channel 14, EXG Channel 15, Accel Channel 0, Accel Channel 1, Accel Channel 2, Other, Other, Other, Other, Other, Other, Other, Analog Channel 0, Analog Channel 1, Analog Channel 2, Timestamp, Other, Timestamp (Formatted)
0.0, -2353.102249276906, -7609.8972689982975, -33890.8995855927, -25251.570373960778, -13328.546384399699, 14099.860382063436, 30205.253387123754, 18226.08181549094, 0.0, 0.0, 0.0, 0.0, 0.0, 0.0, 0.0, 0.0, 0.0, 0.0, 0.0, 192.0, 0.0, 0.0, 0.0, 0.0, 0.0, 0.0, 0.0, 0.0, 0.0, 1.6626774363485584E9, 0.0, 2022-09-08 18:50:36.348
196.0, -2350.6435573868225, -7612.020684721552, -33885.490463434515, -25240.975647088962, -13345.287840996723, 14105.64948387736, 30284.132693306532, 18224.6513038458, -12937.904946554298, -10108.95640956836, -22114.637150125167, -29627.617255165253, 1508.1616053773887, -14155.292708312596, -12872.749611467078, -10485.203323984542, 0.0, 0.0, 0.0, 192.0, 0.0, 0.0, 0.0, 0.0, 0.0, 0.0, 0.0, 0.0, 0.0, 1.6626774363485641E9, 0.0, 2022-09-08 18:50:36.348
198.0, -2345.6144148843787, -7608.511460842069, -33880.30485872088, -25235.968856330976, -13342.605631662087, 14104.867172821425, 30187.64021249297, 18192.8447714859, -12937.144987242817, -10099.300455963667, -22106.344652932246, -29621.20230450658, 1506.1723001208663, -14149.32479254303, -12866.289957319494, -10478.922483792601, 0.0, 0.0, 0.0, 192.0, 0.0, 0.0, 0.0, 0.0, 0.0, 0.0, 0.0, 0.0, 0.0, 1.662677436348569E9, 0.0, 2022-09-08 18:50:36.348
200.0, -2369.5531331960124, -7627.443388395714, -33899.52735895245, -25249.04462683733, -13351.16634978847, 14096.418213417319, 30204.26991036772, 18233.12261499436, -12955.51812118508, -10115.483118949309, -22124.606028152233, -29639.575438448843, 1479.1490410744002, -14163.965185161256, -12873.889550434298, -10495.708643878537, 0.0, 0.0, 0.0, 192.0, 0.0, 0.0, 0.0, 0.0, 0.0, 0.0, 0.0, 0.0, 0.0, 1.6626774363485732E9, 0.0, 2022-09-08 18:50:36.348
202.0, -2370.7824791410544, -7627.085760484429, -33895.39228622822, -25236.9076295981, -13337.241212992814, 14083.856533033435, 30224.431183866407, 18244.6561151333, -12961.664850910289, -10122.367456241544, -22138.53116494789, -29652.070063599356, 1465.6262356789393, -14160.701830470782, -12874.090716134397, -10489.36074845323, 0.0, 0.0, 0.0, 192.0, 0.0, 0.0, 0.0, 0.0, 0.0, 0.0, 0.0, 0.0, 0.0, 1.6626774363485775E9, 0.0, 2022-09-08 18:50:36.348
204.0, -2373.889371620342, -7630.930260530742, -33906.36699275577, -25236.125318542163, -13334.02256179125, 14089.623283102905, 30238.40102415097, 18256.435484461246, -12957.306260741505, -10121.249869018779, -22136.519507946912, -29643.15171756169, 1460.8206106210484, -14159.740705459202, -12861.819608428432, -10481.60469312724, 0.23800000000000002, 0.93, 0.308, 192.0, 3.5, 56.0, 14.5, 8.0, 4.5, 80.0, 0.0, 0.0, 0.0, 1.6626774363485823E9, 0.0, 2022-09-08 18:50:36.348
206.0, -2359.8748278468643, -7605.225754407139, -33893.09005654932, -25215.338196198725, -13346.293669497212, 14101.447355919761, 30179.437122277872, 18249.037057046542, -12954.914624084786, -10121.71925565234, -22145.080226073293, -29644.291656528912, 1448.2589302371657, -14176.884493456424, -12875.07419289043, -10491.64062638767, 0.23800000000000002, 0.93, 0.308, 192.0, 0.0, 0.0, 0.0, 0.0, 0.0, 0.0, 0.0, 0.0, 0.0, 1.6626774363485866E9, 0.0, 2022-09-08 18:50:36.348
208.0, -2366.9379790947414, -7620.357885403381, -33894.98995482802, -25216.65694912159, -13357.469541724866, 14109.248114734664, 30120.070889004575, 18223.824289300956, -12957.440371208237, -10098.451089674365, -22134.865478857217, -29628.37721447673, 1449.1977035042887, -14148.967164631746, -12857.326907792916, -10474.139210479167, 0.23800000000000002, 0.93, 0.308, 192.0, 0.0, 0.0, 0.0, 0.0, 0.0, 0.0, 0.0, 0.0, 0.0, 1.662677436348591E9, 0.0, 2022-09-08 18:50:36.348
210.0, -2358.6454819018227, -7614.948763245197, -33881.645963388204, -25204.922283282554, -13335.318962969657, 14104.375434443407, 30241.284399185708, 18231.155661482295, -12975.522932472579, -10099.926304808416, -22139.13466204818, -29631.729976145027, 1443.0733255235345, -14143.535690729106, -12844.005268097553, -10477.98371052548, 0.23800000000000002, 0.93, 0.308, 192.0, 0.0, 0.0, 0.0, 0.0, 0.0, 0.0, 0.0, 0.0, 0.0, 1.6626774363485956E9, 0.0, 2022-09-08 18:50:36.348
212.0, -2363.0264238150626, -7612.311257399471, -33889.759646625476, -25206.196332716507, -13334.894279825006, 14114.724292126215, 30254.65074236998, 18267.365487499894, -12967.811580635498, -10099.90395306396, -22139.33582774828, -29630.56768543335, 1448.4600959372635, -14144.452112251773, -12828.649619656757, -10468.841847043259, 0.23800000000000002, 0.93, 0.308, 192.0, 0.0, 0.0, 0.0, 0.0, 0.0, 0.0, 0.0, 0.0, 0.0, 1.6626774363486E9, 0.0, 2022-09-08 18:50:36.348
214.0, -2379.2984937785263, -7627.041056995518, -33903.70713516559, -25214.734699098433, -13339.945774071906, 14112.042082791577, 30193.16109337343, 18249.841719846932, -12967.543359702035, -10111.705674136361, -22156.077284345305, -29646.079796085334, 1436.0995812534788, -14153.99630713419, -12843.513529719536, -10471.389945911164, 0.244, 0.93, 0.316, 192.0, 3.5, 80.0, 14.5, 8.0, 4.5, 112.0, 0.0, 0.0, 0.0, 1.6626774363486044E9, 0.0, 2022-09-08 18:50:36.348
216.0, -2367.340310494937, -7613.965286489164, -33897.6498124182, -25209.7502600849, -13334.02256179125, 14109.471632179217, 30228.901532757467, 18229.32281843696, -12959.072048553473, -10121.3392759966, -22149.639981942175, -29646.280961785433, 1448.8400755930038, -14164.188702605808, -12839.333753506393, -10477.022585513902, 0.244, 0.93, 0.316, 192.0, 0.0, 0.0, 0.0, 0.0, 0.0, 0.0, 0.0, 0.0, 0.0, 1.662677436348609E9, 0.0, 2022-09-08 18:50:36.348
218.0, -2365.9768540831633, -7612.8253475219435, -33898.61093742978, -25205.86105654968, -13344.97491657435, 14092.037271504078, 30185.20387234734, 18227.89230679182, -12960.301394498516, -10101.42387168692, -22144.6778946731, -29635.440365724608, 1439.3852876884089, -14138.998286604678, -12838.707904661645, -10480.21888497101, 0.244, 0.93, 0.316, 192.0, 0.0, 0.0, 0.0, 0.0, 0.0, 0.0, 0.0, 0.0, 0.0, 1.6626774363486135E9, 0.0, 2022-09-08 18:50:36.348
220.0, -2362.84760985942, -7606.36569337436, -33891.748951882, -25198.41792564606, -13338.559965915676, 14094.965350027724, 30202.772343489214, 18222.84081254492, -12963.989432333641, -10092.550229138164, -22142.465071972023, -29625.985577820014, 1449.28711048211, -14135.533766214105, -12846.754532665556, -10484.018681528412, 0.244, 0.93, 0.316, 192.0, 0.0, 0.0, 0.0, 0.0, 0.0, 0.0, 0.0, 0.0, 0.0, 1.662677436348618E9, 0.0, 2022-09-08 18:50:36.348
222.0, -2388.3733020273808, -7629.924432030253, -33908.624518945755, -25211.717213596967, -13366.343184273623, 14081.956634754735, 30175.905546653936, 18225.232449201638, -12975.455877239214, -10108.419967701431, -22153.976220366505, -29636.870877369747, 1437.1277614984228, -14155.0915426125, -12845.25696578705, -10483.795164083858, 0.244, 0.93, 0.316, 192.0, 0.0, 0.0, 0.0, 0.0, 0.0, 0.0, 0.0, 0.0, 0.0, 1.6626774363486223E9, 0.0, 2022-09-08 18:50:36.348
224.0, -2384.014711858596, -7624.738827316622, -33901.82958863134, -25204.698765838002, -13350.674611410454, 14087.857495290935, 30194.681011996392, 18195.45992558717, -12976.081726083961, -10114.164366026445, -22154.33384827779, -29641.497688471998, 1433.5738341300291, -14154.71156295676, -12859.562082238446, -10498.323797979809, 0.248, 0.932, 0.318, 192.0, 3.5, 96.0, 14.5, 16.0, 4.5, 120.0, 0.0, 0.0, 0.0, 1.6626774363486269E9, 0.0, 2022-09-08 18:50:36.348
226.0, -2374.939903609741, -7614.1217487003505, -33879.0978645203, -25189.141951697107, -13354.764980645774, 14104.084861765488, 30175.614973976015, 18225.679484090746, -12973.108944071406, -10109.202278757368, -22151.67399068761, -29638.211982037068, 1441.8216278340374, -14150.442379765795, -12847.514491977036, -10489.450155431052, 0.248, 0.932, 0.318, 192.0, 0.0, 0.0, 0.0, 0.0, 0.0, 0.0, 0.0, 0.0, 0.0, 1.6626774363486342E9, 0.0, 2022-09-08 18:50:36.348
228.0, -2379.8349356454537, -7615.172280689751, -33885.37870471224, -25193.411134888072, -13364.219768550369, 14107.281161222598, 30153.419691731895, 18193.940006964207, -12970.829066136965, -10095.90299080646, -22138.933496348083, -29624.979749319526, 1458.5854361755178, -14155.538577501606, -12836.383323238293, -10475.256797701932, 0.248, 0.932, 0.318, 192.0, 0.0, 0.0, 0.0, 0.0, 0.0, 0.0, 0.0, 0.0, 0.0, 1.6626774363486388E9, 0.0, 2022-09-08 18:50:36.348
230.0, -2373.7552611536103, -7608.667923053256, -33874.0463702734, -25177.31787888025, -13340.728085127841, 14099.368643685419, 30217.882122741, 18212.60371358439, -12981.066165097496, -10100.440394930887, -22141.682760916086, -29624.599769663786, 1449.3765174599312, -14135.354952258464, -12834.639887170779, -10474.049803501344, 0.248, 0.932, 0.318, 192.0, 0.0, 0.0, 0.0, 0.0, 0.0, 0.0, 0.0, 0.0, 0.0, 1.6626774363486433E9, 0.0, 2022-09-08 18:50:36.348
232.0, -2367.3179587504815, -7605.113995684862, -33863.51869863495, -25176.200291657486, -13341.577451417143, 14104.576600143506, 30224.766460033235, 18246.310144222993, -12961.866016610387, -10096.037101273192, -22123.823717096297, -29606.696022355085, 1464.7098141562717, -14141.278164539119, -12822.01115155353, -10458.537692849362, 0.248, 0.932, 0.318, 192.0, 0.0, 0.0, 0.0, 0.0, 0.0, 0.0, 0.0, 0.0, 0.0, 1.6626774363486476E9, 0.0, 2022-09-08 18:50:36.348
234.0, -2357.9078743347973, -7596.955608958675, -33851.091128717795, -25168.6901055205, -13342.337410728624, 14103.88369606539, 30195.105695141043, 18214.66007407428, -12961.575443932468, -10079.720327820818, -22117.408766437624, -29597.57651061732, 1465.2462560231993, -14144.854443651968, -12819.641866641268, -10464.259739429921, 0.247, 0.934, 0.322, 192.0, 3.5, 88.0, 14.5, 32.0, 5.0, 24.0, 0.0, 0.0, 0.0, 1.6626774363486521E9, 0.0, 2022-09-08 18:50:36.348
236.0, -2372.1682872972833, -7614.83700452292, -33861.46233814506, -25185.543320839803, -13346.181910774936, 14100.419175674819, 30158.761758656714, 18182.294748102995, -12956.56865317448, -10083.117792978024, -22118.32518796029, -29604.66201360965, 1478.8361166520258, -14140.093522082989, -12833.991686581576, -10471.457001144528, 0.247, 0.934, 0.322, 192.0, 0.0, 0.0, 0.0, 0.0, 0.0, 0.0, 0.0, 0.0, 0.0, 1.662677436348657E9, 0.0, 2022-09-08 18:50:36.348
238.0, -2387.1663078267943, -7622.593059848912, -33870.98418128302, -25196.070992478253, -13364.443285994923, 14092.350195926452, 30202.41471557793, 18218.102242720397, -12977.825162151476, -10103.681397876906, -22134.440795712566, -29632.95932209007, 1468.2637415246656, -14162.355859560474, -12840.8313203849, -10478.698966348049, 0.247, 0.934, 0.322, 192.0, 0.0, 0.0, 0.0, 0.0, 0.0, 0.0, 0.0, 0.0, 0.0, 1.6626774363486612E9, 0.0, 2022-09-08 18:50:36.348
240.0, -2396.464633520202, -7624.6270685943455, -33878.47201567555, -25196.94271051201, -13370.344146531123, 14097.625207617904, 30201.431238821893, 18203.417146613258, -12999.394595550848, -10107.458842689854, -22147.605973196743, -29642.190592550112, 1459.85948560947, -14149.123626842933, -12854.532939736002, -10484.130440250688, 0.247, 0.934, 0.322, 192.0, 0.0, 0.0, 0.0, 0.0, 0.0, 0.0, 0.0, 0.0, 0.0, 1.6626774363486657E9, 0.0, 2022-09-08 18:50:36.348
242.0, -2374.336406509448, -7607.304466641483, -33865.8432800583, -25185.45391386198, -13358.855349881096, 14108.242286234175, 30191.26119509473, 18198.96914946665, -12979.680356941266, -10085.129449979002, -22136.832432369287, -29623.035147551913, 1471.7953171486042, -14138.014809848644, -12847.760361166045, -10469.132419721178, 0.247, 0.934, 0.322, 192.0, 0.0, 0.0, 0.0, 0.0, 0.0, 0.0, 0.0, 0.0, 0.0, 1.6626774363486702E9, 0.0, 2022-09-08 18:50:36.348
244.0, -2377.912685622297, -7610.165489931762, -33866.31266669186, -25187.487922607415, -13345.377247974546, 14111.527992669106, 30148.72582539628, 18206.054652458984, -12969.577368447468, -10081.508467377242, -22127.064720042315, -29618.073060282837, 1479.4172620078639, -14144.966202374246, -12846.665125687734, -10467.388983653664, 0.2435, 0.934, 0.321, 192.0, 3.5, 64.0, 14.5, 24.0, 5.0, 0.0, 0.0, 0.0, 0.0, 1.6626774363486748E9, 0.0, 2022-09-08 18:50:36.348
246.0, -2381.466612990691, -7617.630972579834, -33872.057065016874, -25189.276062163837, -13349.087637554127, 14103.83899257648, 30226.599303078572, 18230.775681826555, -12996.690034471756, -10090.583275626097, -22131.11038578873, -29624.800935363884, 1483.7535004321935, -14154.644507723393, -12837.277393016506, -10457.844788771246, 0.2435, 0.934, 0.321, 192.0, 0.0, 0.0, 0.0, 0.0, 0.0, 0.0, 0.0, 0.0, 0.0, 1.6626774363486793E9, 0.0, 2022-09-08 18:50:36.348
248.0, -2370.1342785518505, -7609.383178875826, -33860.45650964457, -25183.397553372095, -13358.229501036347, 14110.41040544634, 30156.77245340019, 18228.495803892114, -12961.150760787817, -10088.012825013737, -22115.866496070208, -29620.263531239456, 1489.4084917793862, -14146.217900063742, -12834.729294148601, -10458.135361449165, 0.2435, 0.934, 0.321, 192.0, 0.0, 0.0, 0.0, 0.0, 0.0, 0.0, 0.0, 0.0, 0.0, 1.6626774363486838E9, 0.0, 2022-09-08 18:50:36.348
250.0, -2374.626979187367, -7613.0041614775855, -33869.8442423158, -25195.89217852261, -13357.827169636152, 14104.956579799245, 30201.274776610706, 18209.8991525053, -12969.040926580541, -10084.078917989602, -22120.56036240582, -29626.454964453576, 1492.3589220474867, -14146.776693675125, -12832.53882319198, -10452.905053246624, 0.2435, 0.934, 0.321, 192.0, 0.0, 0.0, 0.0, 0.0, 0.0, 0.0, 0.0, 0.0, 0.0, 1.6626774363486884E9, 0.0, 2022-09-08 18:50:36.348
252.0, -2374.179944298261, -7608.287943397516, -33867.29614344789, -25193.925225010542, -13351.523977699755, 14110.164536257333, 30173.983296630777, 18205.473507103146, -12961.106057298906, -10085.241208701278, -22120.00156879444, -29632.19936277859, 1498.3715413059642, -14129.655257422359, -12835.913936604731, -10465.44438188605, 0.2435, 0.934, 0.321, 192.0, 0.0, 0.0, 0.0, 0.0, 0.0, 0.0, 0.0, 0.0, 0.0, 1.662677436348693E9, 0.0, 2022-09-08 18:50:36.348
254.0, -2373.531743709057, -7614.501728356091, -33876.16978599665, -25203.827047804243, -13349.579375932142, 14108.108175767444, 30204.962814445833, 18246.64542038982, -12970.717307414689, -10085.956464523848, -22124.874249085697, -29632.62404592324, 1497.410416294386, -14143.043952351089, -12835.221032526617, -10456.168407937099, 0.23575000000000002, 0.931, 0.3195, 192.0, 3.5, 16.0, 14.5, 0.0, 4.5, 120.0, 0.0, 0.0, 0.0, 1.6626774363487053E9, 0.0, 2022-09-08 18:50:36.348
0.0, -2385.3558165259146, -7625.230565694638, -33880.17074825415, -25213.259483964383, -13346.137207286027, 14083.409498144329, 30158.44883423434, 18195.437573842715, -12979.166266818795, -10098.451089674365, -22135.20075502405, -29643.509345472976, 1487.4862417562297, -14150.46473151025, -12852.87891064631, -10468.841847043259, 0.23575000000000002, 0.931, 0.3195, 192.0, 0.0, 0.0, 0.0, 0.0, 0.0, 0.0, 0.0, 0.0, 0.0, 1.6626774363487096E9, 0.0, 2022-09-08 18:50:36.348
2.0, -2395.659970719811, -7632.919565787264, -33894.453512961096, -25234.963027830487, -13361.06817258217, 14073.462971861718, 30200.201892876852, 18187.45800107217, -12983.27898779857, -10109.38109271301, -22145.66137142913, -29651.175993821147, 1486.1674888333666, -14162.42291479384, -12855.404657769759, -10484.912751306623, 0.23575000000000002, 0.931, 0.3195, 192.0, 0.0, 0.0, 0.0, 0.0, 0.0, 0.0, 0.0, 0.0, 0.0, 1.6626774363487153E9, 0.0, 2022-09-08 18:50:36.348
4.0, -2373.3529297534146, -7614.389969633815, -33873.8452045733, -25217.662777622078, -13348.707657898387, 14082.135448710376, 30143.719034638292, 18185.6922132602, -12984.597740721434, -10110.655142146963, -22146.980124351994, -29647.68912168612, 1492.314218558576, -14155.963260646256, -12847.223919299116, -10491.528867665395, 0.23575000000000002, 0.931, 0.3195, 192.0, 0.0, 0.0, 0.0, 0.0, 0.0, 0.0, 0.0, 0.0, 0.0, 1.6626774363487198E9, 0.0, 2022-09-08 18:50:36.348
6.0, -2387.7027496937217, -7625.342324416915, -33890.720771637054, -25230.380920217147, -13362.811608649685, 14079.609701586927, 30145.373063727984, 18199.12561167784, -12960.815484620987, -10092.930208793905, -22131.400958466646, -29634.501592457487, 1508.474529799763, -14160.254795581675, -12843.804102397455, -10484.64453037316, 0.23575000000000002, 0.931, 0.3195, 192.0, 0.0, 0.0, 0.0, 0.0, 0.0, 0.0, 0.0, 0.0, 0.0, 1.6626774363487244E9, 0.0, 2022-09-08 18:50:36.348
8.0, -2397.8280899319757, -7629.343286674415, -33900.62259443076, -25227.721062626966, -13356.687230668931, 14081.174323698799, 30188.377820059995, 18220.270361932562, -12986.81056342251, -10104.441357188387, -22151.00343835395, -29654.081720600334, 1487.9109249008804, -14156.812626935558, -12847.045105343475, -10484.97980653999, 0.235875, 0.9225000000000001, 0.31575, 192.0, 3.5, 48.0, 14.0, 72.0, 4.5, 96.0, 0.0, 0.0, 0.0, 1.662677436348729E9, 0.0, 2022-09-08 18:50:36.348
10.0, -2380.952522868219, -7617.653324324289, -33892.73242863803, -25214.13120199814, -13347.947698586906, 14105.873001321914, 30183.527491513192, 18260.078818807462, -12993.314921059004, -10101.3344647091, -22146.15310980715, -29644.96220886257, 1493.0965296145118, -14156.097371112988, -12840.943079107175, -10468.908902276624, 0.235875, 0.9225000000000001, 0.31575, 192.0, 0.0, 0.0, 0.0, 0.0, 0.0, 0.0, 0.0, 0.0, 0.0, 1.6626774363487334E9, 0.0, 2022-09-08 18:50:36.348
12.0, -2380.147860067828, -7616.088702212418, -33881.780073854934, -25208.52091413986, -13344.416122962968, 14100.195658230265, 30138.10874678001, 18240.163414497783, -12971.969005104185, -10093.556057638652, -22141.079263815795, -29639.53073495993, 1488.6261807234503, -14148.207205320265, -12840.071361073418, -10465.69025107506, 0.235875, 0.9225000000000001, 0.31575, 192.0, 0.0, 0.0, 0.0, 0.0, 0.0, 0.0, 0.0, 0.0, 0.0, 1.662677436348738E9, 0.0, 2022-09-08 18:50:36.348
14.0, -2395.525860253079, -7627.041056995518, -33874.94044005161, -25214.935864798532, -13338.045875793205, 14094.093631993966, 30190.74710497226, 18230.64157135982, -12978.540417974045, -10090.896200048472, -22135.603086424242, -29633.808688379373, 1493.8788406704475, -14139.400618004873, -12830.236593513084, -10469.870027288203, 0.235875, 0.9225000000000001, 0.31575, 192.0, 0.0, 0.0, 0.0, 0.0, 0.0, 0.0, 0.0, 0.0, 0.0, 1.6626774363487425E9, 0.0, 2022-09-08 18:50:36.348
16.0, -2400.040912633051, -7630.594984363912, -33869.620724871245, -25213.46064966448, -13357.313079513679, 14088.349233668952, 30146.423595717384, 18228.875783547854, -12980.015633108096, -10092.818450071627, -22133.367911978712, -29638.971941348547, 1499.8467564400146, -14141.345219772486, -12819.574811407902, -10462.87393127369, 0.235875, 0.9225000000000001, 0.31575, 192.0, 0.0, 0.0, 0.0, 0.0, 0.0, 0.0, 0.0, 0.0, 0.0, 1.6626774363487473E9, 0.0, 2022-09-08 18:50:36.348
18.0, -2391.882525906864, -7622.213080193172, -33875.208660985074, -25222.021367790865, -13357.827169636152, 14080.481419620684, 30181.940517656865, 18198.633873299823, -12978.026327851574, -10092.930208793905, -22134.463147457023, -29647.66676994166, 1507.5804600215508, -14153.884548411912, -12828.314343489927, -10470.585283110773, 0.2389375, 0.9192500000000001, 0.311875, 192.0, 3.5, 72.0, 14.0, 80.0, 4.5, 80.0, 0.0, 0.0, 0.0, 1.6626774363487515E9, 0.0, 2022-09-08 18:50:36.348
20.0, -2391.7484154401322, -7622.324838915449, -33881.53420466593, -25217.79688808881, -13340.057532794182, 14090.472649392206, 30179.794750189158, 18257.061333305996, -12974.673566183277, -10093.62311287202, -22134.105519545737, -29643.77756640644, 1495.6893319713274, -14146.687286697304, -12828.984895823587, -10462.516303362407, 0.2389375, 0.9192500000000001, 0.311875, 192.0, 0.0, 0.0, 0.0, 0.0, 0.0, 0.0, 0.0, 0.0, 0.0, 1.6626774363487573E9, 0.0, 2022-09-08 18:50:36.348
22.0, -2389.2226683166828, -7615.015818478563, -33880.55072790989, -25214.26531246487, -13353.580338189644, 14095.121812238911, 30150.782185886168, 18220.583286354933, -12977.7134034292, -10091.611455871041, -22136.273638757903, -29642.034130338925, 1500.5173087736737, -14141.456978494762, -12835.601012182356, -10467.433687142575, 0.2389375, 0.9192500000000001, 0.311875, 192.0, 0.0, 0.0, 0.0, 0.0, 0.0, 0.0, 0.0, 0.0, 0.0, 1.6626774363487618E9, 0.0, 2022-09-08 18:50:36.348
24.0, -2390.13908983935, -7616.423978379247, -33878.427312186635, -25209.99612927391, -13348.439436964922, 14098.340463440474, 30125.614121629493, 18250.98165881415, -12975.768801661588, -10076.367566152521, -22132.2726765004, -29632.936970345614, 1506.7087419877937, -14137.23249879271, -12828.716674890122, -10464.997346996946, 0.2389375, 0.9192500000000001, 0.311875, 192.0, 0.0, 0.0, 0.0, 0.0, 0.0, 0.0, 0.0, 0.0, 0.0, 1.6626774363487663E9, 0.0, 2022-09-08 18:50:36.348
26.0, -2389.6473514613335, -7613.540603344513, -33872.5935068838, -25207.805658317287, -13348.97587883185, 14094.495963394162, 30188.02019214871, 18254.692048393732, -12970.873769625876, -10078.401574897955, -22127.467051442512, -29635.418013980154, 1512.900175201914, -14127.084806809999, -12818.34546546286, -10465.44438188605, 0.2389375, 0.9192500000000001, 0.311875, 192.0, 0.0, 0.0, 0.0, 0.0, 0.0, 0.0, 0.0, 0.0, 0.0, 1.6626774363487709E9, 0.0, 2022-09-08 18:50:36.348
28.0, -2399.727988210677, -7619.307353413982, -33884.797559356404, -25218.892123567122, -13361.850483638107, 14096.149992483854, 30175.033828620177, 18251.98748731464, -12974.718269672188, -10088.057528502648, -22134.5749061793, -29647.376197263744, 1512.3637333349864, -14145.793216919092, -12818.34546546286, -10464.416201641108, 0.24146875, 0.916625, 0.3059375, 192.0, 3.5, 80.0, 14.0, 72.0, 4.5, 48.0, 0.0, 0.0, 0.0, 1.6626774363487751E9, 0.0, 2022-09-08 18:50:36.348
30.0, -2397.04577887604, -7618.726208058144, -33876.32624820784, -25219.205047989493, -13366.11966682907, 14101.64852161986, 30131.9620170548, 18215.487088619124, -12974.42769699427, -10093.37724368301, -22137.748853891953, -29654.01466536697, 1503.2218698527658, -14133.008019090656, -12836.472730216114, -10472.574588367295, 0.24146875, 0.916625, 0.3059375, 192.0, 0.0, 0.0, 0.0, 0.0, 0.0, 0.0, 0.0, 0.0, 0.0, 1.6626774363487804E9, 0.0, 2022-09-08 18:50:36.348
32.0, -2413.3849040728696, -7640.0050687795965, -33878.6955331201, -25228.145745771617, -13367.997213363316, 14088.013957502122, 30126.239970474242, 18208.51334434907, -12979.658005196812, -10091.94673203787, -22141.95098184955, -29659.15556659169, 1507.5581082770955, -14143.46863549574, -12828.761378379033, -10471.658166844627, 0.24146875, 0.916625, 0.3059375, 192.0, 0.0, 0.0, 0.0, 0.0, 0.0, 0.0, 0.0, 0.0, 0.0, 1.6626774363487847E9, 0.0, 2022-09-08 18:50:36.348
34.0, -2411.529709283079, -7637.300507700505, -33883.054123288886, -25223.51893466937, -13361.202283048902, 14083.588312099972, 30136.25355199022, 18256.56959492798, -12995.170115848794, -10108.732892123806, -22154.736179677988, -29678.668639501175, 1497.6562854833944, -14151.872891410934, -12845.815759398432, -10479.235408214976, 0.24146875, 0.916625, 0.3059375, 192.0, 0.0, 0.0, 0.0, 0.0, 0.0, 0.0, 0.0, 0.0, 0.0, 1.6626774363487904E9, 0.0, 2022-09-08 18:50:36.348
36.0, -2406.589973758456, -7635.154740232795, -33892.71007689358, -25232.66079815159, -13361.31404177118, 14078.469762619707, 30171.323439040596, 18243.449120932713, -12970.113810314395, -10098.831069330105, -22140.453414971045, -29670.130273119245, 1522.891404973436, -14144.9885541187, -12823.285200987482, -10460.325832405786, 0.24146875, 0.916625, 0.3059375, 192.0, 0.0, 0.0, 0.0, 0.0, 0.0, 0.0, 0.0, 0.0, 0.0, 1.662677436348795E9, 0.0, 2022-09-08 18:50:36.348
38.0, -2406.433511547269, -7636.8981763003085, -33898.923861852156, -25237.444071465026, -13358.363611503079, 14079.900274264846, 30122.216656472287, 18226.350036424403, -12973.75714466061, -10107.302380478666, -22145.706074918042, -29678.556880778895, 1528.1887684093438, -14144.541519229595, -12843.044143085974, -10479.615387870715, 0.240734375, 0.9163125000000001, 0.29796875, 192.0, 3.5, 64.0, 14.0, 80.0, 4.5, 8.0, 0.0, 0.0, 0.0, 1.6626774363487995E9, 0.0, 2022-09-08 18:50:36.348
40.0, -2410.2109563602157, -7640.452103668703, -33915.28533879344, -25247.681170425556, -13370.388850020034, 14064.45521884623, 30123.9600925398, 18173.711678232157, -12984.888313399353, -10105.961275811349, -22157.507795990445, -29688.436351828143, 1522.0420386841345, -14161.528845015628, -12853.147131579773, -10488.734899608482, 0.240734375, 0.9163125000000001, 0.29796875, 192.0, 0.0, 0.0, 0.0, 0.0, 0.0, 0.0, 0.0, 0.0, 0.0, 1.6626774363488038E9, 0.0, 2022-09-08 18:50:36.348
42.0, -2401.4714242781906, -7633.456007654191, -33901.31549850887, -25232.52668768486, -13350.205224776892, 14078.134486452876, 30078.966030951266, 18224.628952101346, -12987.883447156364, -10108.196450256879, -22157.86542390173, -29693.800770497415, 1524.8360067410479, -14147.022562864133, -12862.7360299511, -10490.947722309556, 0.240734375, 0.9163125000000001, 0.29796875, 192.0, 0.0, 0.0, 0.0, 0.0, 0.0, 0.0, 0.0, 0.0, 0.0, 1.6626774363488083E9, 0.0, 2022-09-08 18:50:36.348
44.0, -2402.2537353341268, -7634.1936152212165, -33888.709114636076, -25227.296379482315, -13362.02929759375, 14086.874018534902, 30203.331137100595, 18275.568577714992, -12962.290699755038, -10103.077900776614, -22135.737196890976, -29683.384857581244, 1549.1547047084218, -14132.404521990362, -12827.308514989438, -10462.896283018146, 0.240734375, 0.9163125000000001, 0.29796875, 192.0, 0.0, 0.0, 0.0, 0.0, 0.0, 0.0, 0.0, 0.0, 0.0, 1.6626774363488126E9, 0.0, 2022-09-08 18:50:36.348
46.0, -2417.3635145859143, -7647.9846415501415, -33904.69061192162, -25240.103929055207, -13382.727012959363, 14064.477570590685, 30126.99992978572, 18222.393777655816, -12989.67158671279, -10110.521031680231, -22155.205566311546, -29696.55003506542, 1538.5823295810617, -14158.332545558518, -12842.194776796672, -10482.610521627728, 0.240734375, 0.9163125000000001, 0.29796875, 192.0, 0.0, 0.0, 0.0, 0.0, 0.0, 0.0, 0.0, 0.0, 0.0, 1.662677436348817E9, 0.0, 2022-09-08 18:50:36.348
48.0, -2413.206090117227, -7641.033249024541, -33907.931614867644, -25239.18750753254, -13381.855294925606, 14059.940166466256, 30149.35167424103, 18219.17512645425, -12981.736717431155, -10113.113834037047, -22154.15503432215, -29692.817293741384, 1535.184864423855, -14152.632850722415, -12850.375515267315, -10485.158620495633, 0.240734375, 0.9163125000000001, 0.29796875, 192.0, 0.0, 0.0, 0.0, 0.0, 0.0, 0.0, 0.0, 0.0, 0.0, 1.6626774363488216E9, 0.0, 2022-09-08 18:50:36.348
50.0, -2399.973857399685, -7630.192652963717, -33889.46907394756, -25230.157402772595, -13348.953527087395, 14063.02470720109, 30122.037842516645, 18194.789373253512, -12978.607473207412, -10102.317941465133, -22144.990819095474, -29683.854244214803, 1548.3500419080308, -14144.832091907514, -12845.413427998237, -10480.822382071303, 0.24, 0.91, 0.28600000000000003, 192.0, 3.5, 64.0, 14.0, 56.0, 4.0, 120.0, 0.0, 0.0, 0.0, 1.662677436348826E9, 0.0, 2022-09-08 18:50:36.348
52.0, -2405.919421424797, -7637.255804211593, -33917.07347834986, -25256.711275185502, -13375.060364611194, 14055.134541408366, 30098.032068971643, 18229.434577159238, -12976.685223184255, -10109.090520035092, -22145.259040028937, -29696.103000176314, 1544.1479139504331, -14163.786371205613, -12853.571814724424, -10485.337434451276, 0.24, 0.91, 0.28600000000000003, 192.0, 0.0, 0.0, 0.0, 0.0, 0.0, 0.0, 0.0, 0.0, 0.0, 1.6626774363488307E9, 0.0, 2022-09-08 18:50:36.348
54.0, -2385.0652438479956, -7622.168376704261, -33909.74210616852, -25240.14863254412, -13368.556006974699, 14071.11603869391, 30101.09425796202, 18236.765949340577, -12965.777571890065, -10114.298476493177, -22146.063702829328, -29702.249729901523, 1542.8515127720252, -14145.077961096522, -12864.25594857406, -10485.471544918008, 0.24, 0.91, 0.28600000000000003, 192.0, 0.0, 0.0, 0.0, 0.0, 0.0, 0.0, 0.0, 0.0, 0.0, 1.6626774363488352E9, 0.0, 2022-09-08 18:50:36.348
56.0, -2385.8699066483864, -7618.145062702306, -33899.415600230175, -25237.309960998293, -13370.880588398051, 14062.443561845252, 30157.085377822565, 18221.767928811067, -12954.42288570677, -10087.431679657899, -22125.611856652722, -29682.379029080756, 1561.1352397364665, -14134.483234224706, -12836.11510230483, -10470.026489499389, 0.24, 0.91, 0.28600000000000003, 192.0, 0.0, 0.0, 0.0, 0.0, 0.0, 0.0, 0.0, 0.0, 0.0, 1.6626774363488395E9, 0.0, 2022-09-08 18:50:36.348
58.0, -2394.8329561749647, -7621.140196459317, -33893.51473969397, -25240.483908710947, -13369.628890708553, 14050.239509372654, 30129.592732142537, 18179.74664923509, -12963.18476953325, -10099.099290263568, -22127.80232760934, -29692.63847978574, 1561.6493298589385, -14147.938984386801, -12836.182157538195, -10480.97884428249, 0.24, 0.91, 0.28600000000000003, 192.0, 0.0, 0.0, 0.0, 0.0, 0.0, 0.0, 0.0, 0.0, 0.0, 1.6626774363488443E9, 0.0, 2022-09-08 18:50:36.348
60.0, -2409.04866564854, -7637.725190845155, -33902.29897526491, -25245.803623891312, -13382.279978070257, 14042.461102302206, 30116.91929303638, 18167.9896316516, -12975.27706328357, -10117.897107350482, -22135.603086424242, -29706.92124449268, 1552.507466376718, -14159.60659499247, -12845.391076253782, -10499.50844043594, 0.24, 0.912, 0.28200000000000003, 192.0, 3.5, 64.0, 14.0, 64.0, 4.0, 104.0, 0.0, 0.0, 0.0, 1.6626774363488488E9, 0.0, 2022-09-08 18:50:36.348
0.0, -1302.4137976662873, -3867.8129157797002, -16888.91105519665, -12691.029929045431, -6758.541674440107, 6970.056232220678, 15058.213777329182, 9082.966635580855, -6495.573400923419, -5051.896578299592, -11061.923034420375, -14846.967440482074, 780.0982332346717, -7074.394175338051, -6415.93413542916, -5228.050676351867, 0.248, 0.9, 0.37, 192.0, 3.5, 96.0, 14.0, 16.0, 5.5, 72.0, 0.0, 0.0, 0.0, 1.6626774369456806E9, 0.0, 2022-09-08 18:50:36.945
2.0, -2613.008333803217, -7745.639413075378, -33793.31186930083, -25407.205570603084, -13534.96474444446, 13927.640191035294, 30144.903677094422, 18131.846860867365, -13142.64692576491, -10306.702292764461, -22199.77494475543, -29705.44602935863, 1627.855196935558, -14223.309066690097, -12527.52691835486, -10523.760083169947, 0.248, 0.9, 0.37, 192.0, 0.0, 0.0, 0.0, 0.0, 0.0, 0.0, 0.0, 0.0, 0.0, 1.662677436945747E9, 0.0, 2022-09-08 18:50:36.945
4.0, -2609.074426779083, -7743.650107818856, -33787.56747097582, -25409.12782062624, -13543.01137244837, 13942.347638886886, 30094.612252069983, 18263.52098745358, -13159.276623639658, -10320.582726071207, -22216.047014718893, -29709.60345382732, 1613.371266528519, -14245.370238467483, -12538.8592527937, -10536.031190875912, 0.248, 0.9, 0.37, 192.0, 0.0, 0.0, 0.0, 0.0, 0.0, 0.0, 0.0, 0.0, 0.0, 1.6626774369457877E9, 0.0, 2022-09-08 18:50:36.945
6.0, -2605.6099063885104, -7728.540328567068, -33784.885261641175, -25417.420317819156, -13546.051209694293, 13930.52356607003, 30134.64422638944, 18167.475541529126, -13151.721734013765, -10311.954952711458, -22201.808953500862, -29687.676392516663, 1626.0447056346782, -14206.18763043733, -12528.868023022178, -10521.346094768774, 0.248, 0.9, 0.37, 192.0, 0.0, 0.0, 0.0, 0.0, 0.0, 0.0, 0.0, 0.0, 0.0, 1.6626774369457912E9, 0.0, 2022-09-08 18:50:36.945
8.0, -2600.558412141611, -7719.264354618115, -33775.385770247674, -25407.607902003278, -13537.19991888999, 13933.921031227235, 30115.66759534688, 18170.671840986233, -13154.158074159393, -10319.107510937156, -22207.575703570332, -29689.73275300655, 1624.7483044562705, -14222.996142267722, -12543.709581340503, -10545.463627036052, 0.252, 0.888, 0.432, 192.0, 3.5, 112.0, 13.5, 96.0, 6.5, 64.0, 0.0, 0.0, 0.0, 1.662677436945795E9, 0.0, 2022-09-08 18:50:36.945
10.0, -2594.299923694125, -7713.005866170629, -33776.25748828143, -25410.98301541603, -13539.077465424236, 13941.297106897488, 30134.219543244788, 18126.124814286806, -13146.849053722508, -10303.327179351709, -22196.86921797624, -29671.71724697557, 1635.3877348169965, -14209.853316528, -12538.09929348222, -10535.159472842155, 0.252, 0.888, 0.432, 192.0, 0.0, 0.0, 0.0, 0.0, 0.0, 0.0, 0.0, 0.0, 0.0, 1.6626774369457986E9, 0.0, 2022-09-08 18:50:36.945
12.0, -2588.555525369111, -7719.979610440685, -33772.63650567967, -25410.491277038014, -13550.20863416298, 13925.00268518957, 30112.091316234033, 18076.705107296122, -13168.306728399602, -10310.435034088498, -22205.429936102624, -29676.321706333365, 1623.2283858333094, -14216.804709053602, -12538.300459182317, -10555.387801574207, 0.252, 0.888, 0.432, 192.0, 0.0, 0.0, 0.0, 0.0, 0.0, 0.0, 0.0, 0.0, 0.0, 1.6626774369458025E9, 0.0, 2022-09-08 18:50:36.945
14.0, -2603.844118576541, -7740.163235683827, -33779.20791854953, -25414.358128828782, -13570.012279750381, 13935.060970194456, 30099.86491201698, 18184.93225394872, -13181.114277972494, -10318.459310347953, -22212.82836351733, -29681.529662791454, 1607.246888547765, -14222.794976567624, -12542.726104584468, -10541.37325780073, 0.252, 0.888, 0.432, 192.0, 0.0, 0.0, 0.0, 0.0, 0.0, 0.0, 0.0, 0.0, 0.0, 1.662677436945806E9, 0.0, 2022-09-08 18:50:36.945
16.0, -2593.294095193636, -7721.566584297012, -33753.45870893702, -25393.436896018615, -13555.774218532351, 13954.149359959289, 30105.519903364173, 18183.904073703776, -13192.379557177968, -10324.51663309534, -22218.952741498084, -29671.449026042108, 1595.98160934229, -14220.783319566646, -12537.182871959552, -10509.857298118746, 0.252, 0.888, 0.432, 192.0, 0.0, 0.0, 0.0, 0.0, 0.0, 0.0, 0.0, 0.0, 0.0, 1.6626774369458098E9, 0.0, 2022-09-08 18:50:36.945
18.0, -2580.263028176192, -7710.994209169652, -33740.27117970838, -25385.949061626085, -13543.994849204404, 13959.670240839749, 30112.29248193413, 18148.342448275384, -13182.790658806642, -10294.587647269684, -22196.24336913149, -29639.798955893395, 1611.9407548833794, -14212.781395051647, -12502.358854098184, -10486.522076907406, 0.24, 0.884, 0.47800000000000004, 192.0, 3.5, 64.0, 13.5, 80.0, 7.0, 120.0, 0.0, 0.0, 0.0, 1.6626774369458134E9, 0.0, 2022-09-08 18:50:36.945
20.0, -2578.1172607084827, -7718.079712161984, -33741.835801820256, -25391.22407331754, -13548.286384139823, 13956.272775682542, 30119.735612837747, 18120.8274508509, -13192.960702533806, -10305.584705541696, -22202.546561067888, -29634.5462959464, 1602.2848012786867, -14210.680331072848, -12491.562961526271, -10486.186800740577, 0.24, 0.884, 0.47800000000000004, 192.0, 0.0, 0.0, 0.0, 0.0, 0.0, 0.0, 0.0, 0.0, 0.0, 1.662677436945817E9, 0.0, 2022-09-08 18:50:36.945
22.0, -2568.237789659237, -7704.132223621872, -33732.35866217121, -25380.048201089885, -13522.380712316122, 13974.601206135894, 30119.310929693096, 18119.799270605956, -13182.611844850999, -10288.552676266752, -22185.447476559577, -29633.04872906789, 1605.9281356249019, -14201.449060612806, -12481.03528988782, -10473.088678489767, 0.24, 0.884, 0.47800000000000004, 192.0, 0.0, 0.0, 0.0, 0.0, 0.0, 0.0, 0.0, 0.0, 0.0, 1.6626774369458206E9, 0.0, 2022-09-08 18:50:36.945
24.0, -2575.6138653294884, -7710.837746958465, -33742.886333809656, -25398.8460181768, -13551.214462663469, 13958.597357105895, 30128.564551897594, 18102.476668653093, -13193.921827545384, -10283.858809931136, -22188.91199695015, -29641.497688471998, 1596.607458187039, -14207.685197315837, -12478.956577653478, -10463.969166752002, 0.24, 0.884, 0.47800000000000004, 192.0, 0.0, 0.0, 0.0, 0.0, 0.0, 0.0, 0.0, 0.0, 0.0, 1.662677436945824E9, 0.0, 2022-09-08 18:50:36.945
26.0, -2572.529324594656, -7703.796947455043, -33751.08942402475, -25409.50780028198, -13549.381619618132, 13963.850017052891, 30094.321679392062, 18104.68949135417, -13199.777984592676, -10292.665397246528, -22190.789543484396, -29667.313953317876, 1597.054493076145, -14205.070043214566, -12495.072185405754, -10473.222788956498, 0.24, 0.884, 0.47800000000000004, 192.0, 0.0, 0.0, 0.0, 0.0, 0.0, 0.0, 0.0, 0.0, 0.0, 1.6626774369458275E9, 0.0, 2022-09-08 18:50:36.945
28.0, -2586.677978834865, -7724.517014565113, -33778.00092434894, -25440.308504141394, -13567.486532626932, 13951.914185513759, 30118.327452937065, 18090.25026443604, -13204.717720117298, -10303.349531096164, -22202.099526178783, -29692.236148385546, 1593.4782139632957, -14205.114746703477, -12511.321903624763, -10482.610521627728, 0.22, 0.872, 0.486, 192.0, 3.0, 112.0, 13.5, 32.0, 7.5, 24.0, 0.0, 0.0, 0.0, 1.6626774369458313E9, 0.0, 2022-09-08 18:50:36.945
30.0, -2567.0531472031057, -7707.8649649459085, -33756.722063627494, -25428.17150690216, -13550.007468462882, 13959.245557695098, 30085.202167654297, 18096.64286335026, -13200.560295648611, -10312.647856789572, -22195.706927264564, -29698.24876764402, 1599.401426243952, -14201.0020257237, -12527.616325332681, -10492.825268843802, 0.22, 0.872, 0.486, 192.0, 0.0, 0.0, 0.0, 0.0, 0.0, 0.0, 0.0, 0.0, 0.0, 1.662677436945835E9, 0.0, 2022-09-08 18:50:36.945
32.0, -2582.744071810731, -7723.95822095373, -33767.0709213103, -25448.22102167857, -13565.92191051506, 13937.050275450978, 30115.309967435598, 18089.266787680004, -13180.331966916558, -10310.27857187731, -22186.520360293434, -29693.420790841676, 1622.2225573328208, -14190.47435408525, -12519.56969732877, -10492.89232407717, 0.22, 0.872, 0.486, 192.0, 0.0, 0.0, 0.0, 0.0, 0.0, 0.0, 0.0, 0.0, 0.0, 1.6626774369458385E9, 0.0, 2022-09-08 18:50:36.945
34.0, -2573.3563391395023, -7711.128319636384, -33749.72596761298, -25436.866335495277, -13550.722724285451, 13947.108560455867, 30066.85138545649, 18093.71478482661, -13177.493295370734, -10318.951048725969, -22190.387212084202, -29702.652061301716, 1622.0884468660888, -14215.396549152918, -12527.750435799413, -10503.956437582545, 0.22, 0.872, 0.486, 192.0, 0.0, 0.0, 0.0, 0.0, 0.0, 0.0, 0.0, 0.0, 0.0, 1.662677436945842E9, 0.0, 2022-09-08 18:50:36.945
36.0, -2582.9899409997392, -7715.598668527445, -33758.8678310952, -25449.18214669015, -13553.136712686624, 13945.588641832906, 30107.15158070941, 18107.95284604464, -13159.187216661838, -10310.680903277505, -22184.218130614536, -29695.074819931368, 1637.8687784515357, -14193.491839586717, -12512.484194336439, -10492.735861865982, 0.22, 0.872, 0.486, 192.0, 0.0, 0.0, 0.0, 0.0, 0.0, 0.0, 0.0, 0.0, 0.0, 1.6626774369458466E9, 0.0, 2022-09-08 18:50:36.945
38.0, -2583.8616590334964, -7717.2526976171375, -33760.38774971816, -25452.981943247552, -13550.767427774363, 13937.162034173256, 30072.461673314774, 18107.72932860009, -13148.100751412005, -10308.937467209991, -22187.6379475162, -29697.377049610266, 1639.7016214968708, -14203.438365869328, -12524.867060764678, -10500.22369625851, 0.24, 0.896, 0.466, 192.0, 3.5, 64.0, 14.0, 0.0, 7.0, 72.0, 0.0, 0.0, 0.0, 1.6626774369458501E9, 0.0, 2022-09-08 18:50:36.945
40.0, -2588.7119875802982, -7721.544232552556, -33772.30122951284, -25466.124768987273, -13565.787800048329, 13936.491481839596, 30110.169066210878, 18111.149145501753, -13147.273736867159, -10317.319371380732, -22187.883816705205, -29697.153532165714, 1640.9756709308233, -14206.634665326437, -12527.348104399218, -10503.710568393537, 0.24, 0.896, 0.466, 192.0, 0.0, 0.0, 0.0, 0.0, 0.0, 0.0, 0.0, 0.0, 0.0, 1.6626774369458537E9, 0.0, 2022-09-08 18:50:36.945
42.0, -2578.9219235088735, -7703.327560821482, -33758.57725841728, -25452.959591503095, -13552.06382895277, 13943.532281343018, 30063.386865065917, 18116.558267659937, -13141.439931564324, -10306.65758927555, -22183.368764325234, -29692.392610596733, 1643.9708046878345, -14198.543333833615, -12535.19356670303, -10506.213963772532, 0.24, 0.896, 0.466, 192.0, 0.0, 0.0, 0.0, 0.0, 0.0, 0.0, 0.0, 0.0, 0.0, 1.6626774369458573E9, 0.0, 2022-09-08 18:50:36.945
44.0, -2572.551676339111, -7708.267296346105, -33767.49560445495, -25472.60677487931, -13559.73047730094, 13924.555650300463, 30113.76769706818, 18127.667084654222, -13122.351541799491, -10291.547810023763, -22164.61565072723, -29674.757084221495, 1664.9590927313677, -14187.412165094873, -12520.977857229454, -10489.919542064614, 0.24, 0.896, 0.466, 192.0, 0.0, 0.0, 0.0, 0.0, 0.0, 0.0, 0.0, 0.0, 0.0, 1.6626774369458609E9, 0.0, 2022-09-08 18:50:36.945
46.0, -2564.482696590745, -7711.553002781035, -33770.06605506731, -25479.781684849466, -13559.194035434013, 13911.166955371733, 30057.12837661843, 18110.456241423635, -13133.236841349226, -10314.748920768372, -22177.400848555666, -29700.014555455993, 1652.6879850254043, -14222.325589934062, -12546.794122075335, -10512.338341753286, 0.24, 0.896, 0.466, 192.0, 0.0, 0.0, 0.0, 0.0, 0.0, 0.0, 0.0, 0.0, 0.0, 1.6626774369458644E9, 0.0, 2022-09-08 18:50:36.945
48.0, -2558.3136151210806, -7707.350874823436, -33784.92996513009, -25485.74960061903, -13564.849026781205, 13911.010493160546, 30098.09912420501, 18143.626230195314, -13116.093053352006, -10309.116281165634, -22162.782807681895, -29700.0592589449, 1670.3905666340074, -14197.38104312194, -12550.124531999176, -10511.332513252797, 0.224, 0.88, 0.41200000000000003, 192.0, 3.5, 0.0, 13.5, 64.0, 6.0, 112.0, 0.0, 0.0, 0.0, 1.662677436945868E9, 0.0, 2022-09-08 18:50:36.945
50.0, -2560.45938258879, -7705.719197478199, -33788.595651220756, -25489.70585938762, -13560.848064523705, 13906.875420436314, 30061.196394109298, 18141.771035405523, -13112.203849816782, -10315.039493446291, -22165.509720505444, -29713.537360851453, 1670.8376015231136, -14208.847488027513, -12563.446171694539, -10523.491862236484, 0.224, 0.88, 0.41200000000000003, 192.0, 0.0, 0.0, 0.0, 0.0, 0.0, 0.0, 0.0, 0.0, 0.0, 1.6626774369458716E9, 0.0, 2022-09-08 18:50:36.945
52.0, -2564.9520832243065, -7708.423758557291, -33802.40902929414, -25500.792324637452, -13576.337823431233, 13886.22240855961, 30081.67059203036, 18144.72146567362, -13113.142623083904, -10299.102699649657, -22168.460150773546, -29718.722965565084, 1676.246723681298, -14213.38489215194, -12576.186666034064, -10536.589984487295, 0.224, 0.88, 0.41200000000000003, 192.0, 0.0, 0.0, 0.0, 0.0, 0.0, 0.0, 0.0, 0.0, 0.0, 1.6626774369458752E9, 0.0, 2022-09-08 18:50:36.945
54.0, -2571.970530983273, -7711.776520225588, -33813.04845965486, -25513.644577699255, -13587.848971825717, 13859.266204746511, 30046.511298002162, 18102.096688997353, -13131.761626215175, -10314.972438212924, -22179.792485212387, -29737.36432044081, 1661.9416072299014, -14231.132177249454, -12597.86785815571, -10559.813446976357, 0.224, 0.88, 0.41200000000000003, 192.0, 0.0, 0.0, 0.0, 0.0, 0.0, 0.0, 0.0, 0.0, 0.0, 1.6626774369458787E9, 0.0, 2022-09-08 18:50:36.945
56.0, -2561.17463841136, -7700.578296253479, -33807.5275787744, -25503.183961294173, -13579.377660677155, 13875.851199132348, 30081.648240285904, 18147.06839884143, -13125.12315811195, -10322.884955750103, -22176.193854355082, -29741.991131543058, 1666.3896043765074, -14221.208002711297, -12596.794974421857, -10562.89798771119, 0.224, 0.88, 0.41200000000000003, 192.0, 0.0, 0.0, 0.0, 0.0, 0.0, 0.0, 0.0, 0.0, 0.0, 1.6626774369458823E9, 0.0, 2022-09-08 18:50:36.945
58.0, -2552.591568540522, -7692.755185694121, -33799.436247281585, -25494.936167590164, -13576.606044364697, 13888.70345219415, 30069.600650024495, 18179.478428301623, -13110.505117238179, -10305.85292647516, -22165.040333871882, -29734.950332039636, 1679.5994853495938, -14213.966037507778, -12590.82705865229, -10546.916490425647, 0.218, 0.875, 0.382, 192.0, 3.0, 80.0, 13.5, 24.0, 5.5, 0.0, 0.0, 0.0, 0.0, 1.662677436945886E9, 0.0, 2022-09-08 18:50:36.945
60.0, -2549.328213850047, -7688.6648164588, -33802.81136069434, -25497.32780424688, -13576.896617042616, 13884.881303892293, 30069.62300176895, 18139.73702666009, -13096.602332186978, -10305.830574730704, -22158.781845424397, -29732.022253515992, 1686.1038429860882, -14201.314950146074, -12589.642416196159, -10544.860129935758, 0.218, 0.875, 0.382, 192.0, 0.0, 0.0, 0.0, 0.0, 0.0, 0.0, 0.0, 0.0, 0.0, 1.6626774369458897E9, 0.0, 2022-09-08 18:50:36.945
62.0, -2561.2863971336365, -7708.446110301747, -33813.45079105506, -25507.475496229592, -13584.138582246136, 13873.124286308801, 30055.384940550917, 18179.098448645884, -13095.954131597773, -10311.485566077896, -22168.549557751365, -29744.69569262215, 1684.0921859851107, -14215.709473575293, -12590.290616785362, -10558.002955675478, 0.218, 0.875, 0.382, 192.0, 0.0, 0.0, 0.0, 0.0, 0.0, 0.0, 0.0, 0.0, 0.0, 1.6626774369458933E9, 0.0, 2022-09-08 18:50:36.945
64.0, -2544.880216703441, -7689.7153484482, -33808.62281425272, -25501.149952548738, -13579.377660677155, 13886.088298092878, 30064.638562755415, 18190.140210406807, -13090.679119906321, -10308.713949765439, -22168.996592640473, -29749.322503724397, 1688.0931482426106, -14213.988389252234, -12599.678349456592, -10557.622976019738, 0.218, 0.875, 0.382, 192.0, 0.0, 0.0, 0.0, 0.0, 0.0, 0.0, 0.0, 0.0, 0.0, 1.6626774369458969E9, 0.0, 2022-09-08 18:50:36.945
66.0, -2550.0211179281614, -7690.207086826216, -33813.8307707108, -25511.47645848709, -13584.384451435144, 13872.297271763955, 30075.65797277188, 18162.960489149154, -13081.514904679645, -10307.104624164656, -22166.113217605736, -29747.64612289025, 1698.2184884808646, -14211.9543805068, -12594.91742788761, -10553.75612422897, 0.218, 0.875, 0.382, 192.0, 0.0, 0.0, 0.0, 0.0, 0.0, 0.0, 0.0, 0.0, 0.0, 1.6626774369459004E9, 0.0, 2022-09-08 18:50:36.945
68.0, -2541.16982712386, -7683.635673956356, -33810.410953809136, -25516.550304478445, -13582.752774089906, 13873.325452008898, 30039.403443265375, 18136.67483766971, -13080.173800012328, -10311.910249222547, -22171.00824964145, -29754.41870146021, 1699.4925379148171, -14217.318799176073, -12608.641398983169, -10576.152572173187, 0.21100000000000002, 0.8594999999999999, 0.333, 192.0, 3.0, 48.0, 13.0, 48.0, 4.0, 112.0, 0.0, 0.0, 0.0, 1.6626774369459057E9, 0.0, 2022-09-08 18:50:36.945
70.0, -2539.426391056346, -7676.505467475113, -33812.95905267704, -25521.266522558515, -13585.569093891276, 13872.252568275044, 30056.52487951814, 18128.337636987882, -13070.003756285163, -10309.362150354642, -22172.14818860867, -29754.12812878229, 1706.041599040222, -14217.698778831815, -12617.872669443212, -10583.752165287991, 0.21100000000000002, 0.8594999999999999, 0.333, 192.0, 0.0, 0.0, 0.0, 0.0, 0.0, 0.0, 0.0, 0.0, 0.0, 1.6626774369459093E9, 0.0, 2022-09-08 18:50:36.945
72.0, -2552.1221819069606, -7687.56958098049, -33827.75590750646, -25534.610513998334, -13596.275579485367, 13874.465390976118, 30029.1886960493, 18207.97690248214, -13079.816172101042, -10317.118205680634, -22175.322136321323, -29758.866698606816, 1708.3661804635742, -14224.359598679495, -12629.137948648686, -10593.274008425953, 0.21100000000000002, 0.8594999999999999, 0.333, 192.0, 0.0, 0.0, 0.0, 0.0, 0.0, 0.0, 0.0, 0.0, 0.0, 1.6626774369459128E9, 0.0, 2022-09-08 18:50:36.945
74.0, -2536.051277643595, -7662.46857195718, -33810.276843342406, -25514.71746143311, -13577.54481763182, 13894.000815630057, 30062.157519120876, 18223.399606156305, -13080.4867244347, -10315.866507991137, -22169.443627529577, -29754.08342529338, 1714.177634021954, -14197.291636144118, -12620.934858433588, -10573.42565934964, 0.21100000000000002, 0.8594999999999999, 0.333, 192.0, 0.0, 0.0, 0.0, 0.0, 0.0, 0.0, 0.0, 0.0, 0.0, 1.6626774369459164E9, 0.0, 2022-09-08 18:50:36.945
76.0, -2532.139722363916, -7650.8680165848755, -33804.7783142064, -25510.358871264325, -13576.4048786646, 13891.676234206705, 30035.357777518962, 18216.6493793308, -13053.284651432592, -10294.297074591765, -22148.120063319217, -29734.011558772512, 1735.4341429989508, -14177.197417878799, -12616.30804733134, -10562.249787121986, 0.21100000000000002, 0.8594999999999999, 0.333, 192.0, 0.0, 0.0, 0.0, 0.0, 0.0, 0.0, 0.0, 0.0, 0.0, 1.6626774369459198E9, 0.0, 2022-09-08 18:50:36.945
78.0, -2545.0366789146283, -7672.549208706523, -33821.69858475907, -25529.491964518067, -13596.342634718732, 13873.213693286621, 30066.314943589565, 18181.445381813694, -13055.519825878124, -10293.693577491473, -22152.90333663265, -29739.152459997233, 1739.4127535119956, -14191.90486573039, -12619.571402021815, -10574.207970405576, 0.21250000000000002, 0.8467499999999999, 0.2895, 192.0, 3.0, 88.0, 13.0, 8.0, 3.5, 88.0, 0.0, 0.0, 0.0, 1.6626774369459233E9, 0.0, 2022-09-08 18:50:36.945
80.0, -2536.721829977254, -7665.933092347753, -33808.48870378598, -25516.282083544982, -13585.077355513258, 13883.428440502697, 30021.61145467895, 18178.606710267868, -13070.62960512991, -10311.552621311263, -22165.263851316435, -29758.21849801761, 1733.8471691426241, -14208.199287438309, -12636.961059208043, -10589.38480489073, 0.21250000000000002, 0.8467499999999999, 0.2895, 192.0, 0.0, 0.0, 0.0, 0.0, 0.0, 0.0, 0.0, 0.0, 0.0, 1.662677436945927E9, 0.0, 2022-09-08 18:50:36.945
82.0, -2542.64504225791, -7667.587121437446, -33810.16508462013, -25520.305397546937, -13599.337768475745, 13872.587844441874, 30067.36547557896, 18168.816646196443, -13062.82884631501, -10301.002597928358, -22153.90916513314, -29754.284590993477, 1743.9948611253335, -14198.364519877974, -12631.753102749957, -10577.180752418131, 0.21250000000000002, 0.8467499999999999, 0.2895, 192.0, 0.0, 0.0, 0.0, 0.0, 0.0, 0.0, 0.0, 0.0, 0.0, 1.6626774369459305E9, 0.0, 2022-09-08 18:50:36.945
84.0, -2537.3476788220023, -7655.293661987026, -33786.78515991988, -25507.877827629785, -13585.189114235534, 13876.253530532544, 30033.256713540166, 18167.45318978467, -13072.35068945297, -10302.388406084587, -22153.260964543937, -29766.04160857697, 1737.4234482554732, -14208.020473482666, -12639.777379009412, -10583.685110054626, 0.21250000000000002, 0.8467499999999999, 0.2895, 192.0, 0.0, 0.0, 0.0, 0.0, 0.0, 0.0, 0.0, 0.0, 0.0, 1.6626774369459352E9, 0.0, 2022-09-08 18:50:36.945
86.0, -2535.0901526320163, -7650.2198159956715, -33776.16808130361, -25506.38026075128, -13580.942282789027, 13880.41095500123, 30082.162330408377, 18177.086791644906, -13078.475067433725, -10283.635292486584, -22143.560307450334, -29763.292344008965, 1748.1522855940207, -14212.691988073826, -12622.11950088972, -10563.345022600297, 0.21250000000000002, 0.8467499999999999, 0.2895, 192.0, 0.0, 0.0, 0.0, 0.0, 0.0, 0.0, 0.0, 0.0, 0.0, 1.6626774369459388E9, 0.0, 2022-09-08 18:50:36.945
88.0, -2520.717980947254, -7635.9594030331855, -33756.40913920512, -25494.690298401154, -13564.35728840319, 13881.439135246175, 30021.678509912315, 18175.857445699865, -13079.659709889855, -10276.303920305243, -22134.79842362385, -29768.18737604468, 1758.2552740878195, -14195.145868676409, -12626.768663736424, -10567.18952264661, 0.20625000000000002, 0.867375, 0.25775, 192.0, 3.0, 32.0, 13.5, 96.0, 3.5, 8.0, 0.0, 0.0, 0.0, 1.6626774369459424E9, 0.0, 2022-09-08 18:50:36.945
90.0, -2523.8248734265417, -7634.707705343689, -33763.226421263986, -25508.034289840973, -13579.981157777449, 13870.531483951985, 30075.166234393866, 18180.417201568747, -13059.990174769186, -10256.969661351402, -22120.649769383643, -29759.917230596213, 1764.5137625353054, -14204.980636236745, -12623.550012534859, -10563.076801666833, 0.20625000000000002, 0.867375, 0.25775, 192.0, 0.0, 0.0, 0.0, 0.0, 0.0, 0.0, 0.0, 0.0, 0.0, 1.662677436945946E9, 0.0, 2022-09-08 18:50:36.945
92.0, -2522.014382125662, -7623.375370904848, -33759.62779040668, -25507.967234607608, -13575.242587952924, 13868.586882184372, 30022.639634923893, 18174.806913710465, -13071.054288274561, -10259.964795108413, -22126.014188052915, -29768.768521400514, 1746.3641460375961, -14215.128328219454, -12639.59856505377, -10574.47619133904, 0.20625000000000002, 0.867375, 0.25775, 192.0, 0.0, 0.0, 0.0, 0.0, 0.0, 0.0, 0.0, 0.0, 0.0, 1.6626774369459496E9, 0.0, 2022-09-08 18:50:36.945
94.0, -2509.296239530592, -7605.806899762977, -33763.02525556389, -25516.66206320072, -13573.320337929767, 13872.207864786133, 30062.559850521073, 18185.84867547139, -13065.91338704984, -10260.07655383069, -22122.013225795417, -29765.70633241014, 1741.4914657463391, -14216.625895097959, -12637.87748073071, -10571.302243626385, 0.20625000000000002, 0.867375, 0.25775, 192.0, 0.0, 0.0, 0.0, 0.0, 0.0, 0.0, 0.0, 0.0, 0.0, 1.6626774369459531E9, 0.0, 2022-09-08 18:50:36.945
96.0, -2517.8346059125192, -7605.717492785156, -33770.20016553404, -25524.753394693544, -13573.186227463035, 13861.613137914317, 30019.599797677973, 18178.78552422351, -13074.54116040959, -10267.385574267575, -22130.261019499427, -29767.427416733197, 1730.337945263141, -14216.156508464397, -12641.8337394993, -10575.70553728408, 0.20625000000000002, 0.867375, 0.25775, 192.0, 0.0, 0.0, 0.0, 0.0, 0.0, 0.0, 0.0, 0.0, 0.0, 1.6626774369459567E9, 0.0, 2022-09-08 18:50:36.945
98.0, -2510.1456058198937, -7600.464832838158, -33770.53544170087, -25527.77088019501, -13572.940358274027, 13866.59757692785, 30052.65802772737, 18185.759268493566, -13064.974613782719, -10264.368088766108, -22127.355292720236, -29755.290419493966, 1734.4283144984622, -14214.435424141338, -12637.07281793032, -10571.168133159654, 0.19012500000000002, 0.8826875000000001, 0.227875, 192.0, 2.5, 56.0, 14.0, 8.0, 3.0, 24.0, 0.0, 0.0, 0.0, 1.6626774369459603E9, 0.0, 2022-09-08 18:50:36.945
100.0, -2500.4002452373797, -7590.0489199219855, -33761.41592996311, -25517.37731902329, -13562.747962802407, 13868.720992651106, 30016.939940087792, 18182.31709984745, -13072.328337708514, -10274.001690626346, -22135.223106768502, -29753.636390404274, 1724.6382504270377, -14222.370293422973, -12646.706419790557, -10580.421755364152, 0.19012500000000002, 0.8826875000000001, 0.227875, 192.0, 0.0, 0.0, 0.0, 0.0, 0.0, 0.0, 0.0, 0.0, 0.0, 1.6626774369459648E9, 0.0, 2022-09-08 18:50:36.945
102.0, -2479.6801781273102, -7571.027585390519, -33755.09038628225, -25503.541589205455, -13548.755770773385, 13886.64709170426, 30054.781443450625, 18203.014815213064, -13048.099046718962, -10254.309803761222, -22111.843182068253, -29720.801677799427, 1752.6673379739927, -14197.693967544314, -12633.407131839649, -10559.254653364975, 0.19012500000000002, 0.8826875000000001, 0.227875, 192.0, 0.0, 0.0, 0.0, 0.0, 0.0, 0.0, 0.0, 0.0, 0.0, 1.6626774369459684E9, 0.0, 2022-09-08 18:50:36.945
104.0, -2489.0902625429944, -7579.7224139836335, -33768.032046321874, -25513.75633642153, -13559.194035434013, 13872.565492697418, 30028.026405337623, 18189.626120284334, -13042.801683283054, -10256.07559157319, -22115.71003385902, -29724.377956912274, 1752.7343932073586, -14183.724127259748, -12634.100035917763, -10559.589929531805, 0.19012500000000002, 0.8826875000000001, 0.227875, 192.0, 0.0, 0.0, 0.0, 0.0, 0.0, 0.0, 0.0, 0.0, 0.0, 1.662677436945972E9, 0.0, 2022-09-08 18:50:36.945
106.0, -2471.4547361677573, -7553.257948548549, -33765.30513349833, -25499.495923459046, -13546.185320161025, 13889.284597549988, 30048.254734069676, 18205.585265825423, -13018.81826148251, -10242.776303622282, -22108.378661677678, -29720.198180699135, 1759.819896199691, -14180.483124313729, -12631.574288794314, -10555.790132974404, 0.19012500000000002, 0.8826875000000001, 0.227875, 192.0, 0.0, 0.0, 0.0, 0.0, 0.0, 0.0, 0.0, 0.0, 0.0, 1.6626774369459753E9, 0.0, 2022-09-08 18:50:36.945
108.0, -2487.2797712421147, -7560.119934096329, -33792.59661347826, -25511.118830575804, -13562.435038380032, 13874.331280509386, 30036.38595776391, 18186.586283038414, -13001.652121740834, -10234.528509918275, -22102.410745908113, -29718.387689398252, 1773.275646361786, -14174.537560288616, -12627.796843981367, -10547.877615437224, 0.18206250000000002, 0.8813437500000001, 0.1849375, 192.0, 2.5, 56.0, 13.5, 64.0, 2.0, 56.0, 0.0, 0.0, 0.0, 1.662677436945979E9, 0.0, 2022-09-08 18:50:36.945
110.0, -2469.912465800341, -7539.377515241804, -33785.242889552464, -25503.921568861195, -13556.10949469918, 13884.501324236551, 30036.073033341534, 18195.12464942034, -12997.740566461154, -10242.843358855649, -22106.098783743237, -29724.31090167891, 1769.6099602711154, -14180.259606869175, -12644.940631978588, -10561.42277257714, 0.18206250000000002, 0.8813437500000001, 0.1849375, 192.0, 0.0, 0.0, 0.0, 0.0, 0.0, 0.0, 0.0, 0.0, 0.0, 1.6626774369459825E9, 0.0, 2022-09-08 18:50:36.945
112.0, -2461.1282302294053, -7523.6642388897235, -33772.61415393522, -25496.09845830184, -13548.152273673091, 13887.339995782375, 30043.13618458941, 18205.16058268077, -12973.868903382887, -10219.575192877674, -22088.99969923493, -29706.295395647932, 1783.915076722512, -14168.614348007959, -12638.79390225338, -10554.22551086253, 0.18206250000000002, 0.8813437500000001, 0.1849375, 192.0, 0.0, 0.0, 0.0, 0.0, 0.0, 0.0, 0.0, 0.0, 0.0, 1.662677436945986E9, 0.0, 2022-09-08 18:50:36.945
114.0, -2479.009625793651, -7542.596166443368, -33794.474160012505, -25526.988569139074, -13566.793628548818, 13871.02322233, 30027.9369983598, 18192.688309274712, -12963.341231744436, -10215.64128585354, -22079.053172952317, -29697.511160076996, 1790.3300273811851, -14158.667821725348, -12642.325477877317, -10557.354755086275, 0.18206250000000002, 0.8813437500000001, 0.1849375, 192.0, 0.0, 0.0, 0.0, 0.0, 0.0, 0.0, 0.0, 0.0, 0.0, 1.6626774369459896E9, 0.0, 2022-09-08 18:50:36.945
116.0, -2481.065986283539, -7537.745837896567, -33799.05626762584, -25539.885525689784, -13568.179436705046, 13866.21759727211, 30030.485097227705, 18191.97305345214, -12967.342194001938, -10236.718980874895, -22100.108516229215, -29726.233151702065, 1773.4991638063389, -14176.9962521787, -12661.525626364426, -10582.969854232057, 0.18206250000000002, 0.8813437500000001, 0.1849375, 192.0, 0.0, 0.0, 0.0, 0.0, 0.0, 0.0, 0.0, 0.0, 0.0, 1.662677436945994E9, 0.0, 2022-09-08 18:50:36.945
118.0, -2470.046576267073, -7523.0160383005195, -33792.373096033705, -25532.643560486267, -13557.182378433035, 13876.007661343536, 30017.498733699173, 18203.663015802267, -12946.46566468068, -10224.35846619111, -22087.03274572286, -29721.87456153328, 1788.9218674805009, -14153.549272245084, -12660.139818208198, -10575.19144716161, 0.18803125, 0.8936718750000001, 0.13646875, 192.0, 3.0, 8.0, 14.0, 40.0, 1.0, 96.0, 0.0, 0.0, 0.0, 1.6626774369459977E9, 0.0, 2022-09-08 18:50:36.945
120.0, -2483.4799746847125, -7528.11223603633, -33803.54896826136, -25542.52303153551, -13559.39520113411, 13862.775428625993, 30054.8932021729, 18197.98567271062, -12941.950612300709, -10223.710265601905, -22094.677042326577, -29732.469288405096, 1783.6468557890482, -14162.266452582653, -12666.107733977764, -10576.823124506847, 0.18803125, 0.8936718750000001, 0.13646875, 192.0, 0.0, 0.0, 0.0, 0.0, 0.0, 0.0, 0.0, 0.0, 0.0, 1.6626774374251175E9, 0.0, 2022-09-08 18:50:37.425
122.0, -2472.661730368344, -7521.093788277363, -33800.978517649, -25542.925362935708, -13551.572090574753, 13861.568434425406, 30028.495791971185, 18201.27137914555, -12941.794150089521, -10217.563535876696, -22091.83837078075, -29730.994073271046, 1785.010312200822, -14152.029353622122, -12666.800638055878, -10579.840610008314, 0.18803125, 0.8936718750000001, 0.13646875, 192.0, 0.0, 0.0, 0.0, 0.0, 0.0, 0.0, 0.0, 0.0, 0.0, 1.6626774374252455E9, 0.0, 2022-09-08 18:50:37.425
124.0, -2468.4372506662908, -7519.953849310143, -33803.86189268374, -25551.3296188509, -13561.809189535285, 13851.107818020322, 30053.574449250038, 18202.41131811277, -12921.454062635192, -10214.277829441766, -22094.90055977113, -29725.517895879497, 1787.4466523464505, -14156.94673740229, -12669.549902623881, -10581.069955953355, 0.18803125, 0.8936718750000001, 0.13646875, 192.0, 0.0, 0.0, 0.0, 0.0, 0.0, 0.0, 0.0, 0.0, 0.0, 1.6626774374252503E9, 0.0, 2022-09-08 18:50:37.425
126.0, -2454.8026865485535, -7497.311532176916, -33793.758904189934, -25542.4783280466, -13547.816997506261, 13857.299251234443, 30004.668832381827, 18211.37436763935, -12911.708702052678, -10210.858012540104, -22091.637205080653, -29719.97466325458, 1785.2785331342857, -14166.781504962624, -12683.206818486075, -10588.848363023802, 0.18803125, 0.8936718750000001, 0.13646875, 192.0, 0.0, 0.0, 0.0, 0.0, 0.0, 0.0, 0.0, 0.0, 0.0, 1.6626774374252543E9, 0.0, 2022-09-08 18:50:37.425
128.0, -2461.6870238407882, -7501.983046768075, -33808.28753808588, -25547.7309879936, -13551.080352196735, 13855.98049831158, 30045.684283457314, 18221.03032124404, -12875.923559179731, -10195.904695499505, -22084.730516043965, -29719.684090576662, 1800.3883123860733, -14141.367571516941, -12670.533379379915, -10572.509237826973, 0.18803125, 0.8936718750000001, 0.13646875, 192.0, 0.0, 0.0, 0.0, 0.0, 0.0, 0.0, 0.0, 0.0, 0.0, 1.6626774374252589E9, 0.0, 2022-09-08 18:50:37.425
130.0, -2453.171009203316, -7496.328055420882, -33803.45956128354, -25535.7281012211, -13538.25045087939, 13857.79098961246, 30014.771820875627, 18234.79899582851, -12858.220977571127, -10194.787108276738, -22082.74121078744, -29739.51008790852, 1808.2561264343415, -14126.928344598813, -12668.253501445473, -10564.999051689989, 0.19, 0.916, 0.042, 192.0, 2.5, 120.0, 14.0, 80.0, 0.5, 40.0, 0.0, 0.0, 0.0, 1.6626774374252632E9, 0.0, 2022-09-08 18:50:37.425
132.0, -2446.599596333456, -7494.025825741986, -33820.201017880565, -25549.16149963874, -13548.35343937319, 13841.563623137907, 30046.8912776579, 18240.811615086986, -12835.243384271073, -10192.998968720314, -22082.18241717606, -29757.145614283756, 1813.821710803713, -14126.928344598813, -12667.247672944985, -10563.56854004485, 0.19, 0.916, 0.042, 192.0, 0.0, 0.0, 0.0, 0.0, 0.0, 0.0, 0.0, 0.0, 0.0, 1.6626774374252744E9, 0.0, 2022-09-08 18:50:37.425
134.0, -2435.490779339168, -7485.889790760254, -33822.8832272152, -25547.90980194924, -13543.279593381834, 13840.602498126329, 29997.69508811177, 18236.6541906183, -12837.925593605709, -10189.757965774294, -22087.680946312066, -29766.063960321422, 1814.201690459453, -14127.88946961039, -12680.993995784998, -10581.025252464444, 0.19, 0.916, 0.042, 192.0, 0.0, 0.0, 0.0, 0.0, 0.0, 0.0, 0.0, 0.0, 0.0, 1.662677437425279E9, 0.0, 2022-09-08 18:50:37.425
136.0, -2428.4276280912914, -7479.072508701385, -33833.12032617573, -25554.212993885638, -13549.806302762783, 13843.843501072348, 30046.913629402356, 18241.75038835411, -12813.003398538041, -10184.907637227492, -22085.021088721882, -29762.532384697486, 1828.9985452888664, -14110.902143824356, -12678.401193428183, -10584.020386221455, 0.19, 0.916, 0.042, 192.0, 0.0, 0.0, 0.0, 0.0, 0.0, 0.0, 0.0, 0.0, 0.0, 1.6626774374252832E9, 0.0, 2022-09-08 18:50:37.425
138.0, -2430.886319981375, -7470.422383597182, -33841.256361157466, -25560.180909655206, -13555.885977254628, 13830.790082310448, 30013.229550508207, 18234.642533617323, -12806.767261835012, -10178.805610991194, -22094.09589697074, -29771.718951668616, 1825.690487109481, -14117.518260183127, -12702.809298373379, -10598.884296284235, 0.19, 0.916, 0.042, 192.0, 0.0, 0.0, 0.0, 0.0, 0.0, 0.0, 0.0, 0.0, 0.0, 1.6626774374252946E9, 0.0, 2022-09-08 18:50:37.425
140.0, -2410.792101716054, -7457.681889257657, -33846.64313157119, -25563.95835446815, -13555.103666198691, 13838.859062058815, 30066.270240100654, 18245.46077793369, -12768.56813056089, -10171.273073109756, -22083.881149754663, -29771.696599924162, 1839.1238855271204, -14113.36083571444, -12703.144574540207, -10602.013540507978, 0.196, 0.902, -0.028, 192.0, 3.0, 16.0, 14.0, 24.0, 127.5, 16.0, 0.0, 0.0, 0.0, 1.6626774374252994E9, 0.0, 2022-09-08 18:50:37.425
142.0, -2421.565642543512, -7470.936473719654, -33871.9453062946, -25579.24694767558, -13564.469047125465, 13813.176907679666, 30031.535629217105, 18223.42195790076, -12752.899557697721, -10177.352747601599, -22089.17851319057, -29782.492492496076, 1837.26869073733, -14101.98379778669, -12717.315580524872, -10611.088348756832, 0.196, 0.902, -0.028, 192.0, 0.0, 0.0, 0.0, 0.0, 0.0, 0.0, 0.0, 0.0, 0.0, 1.662677437425304E9, 0.0, 2022-09-08 18:50:37.425
144.0, -2415.7765407295874, -7471.137639419751, -33885.75868436798, -25585.751305312075, -13568.961747760983, 13813.69099780214, 30074.56273729357, 18226.662960846777, -12739.846138935822, -10190.495573341319, -22097.269844683393, -29803.32431832842, 1831.4795889234053, -14126.593068431983, -12741.030781391953, -10625.304058230407, 0.196, 0.902, -0.028, 192.0, 0.0, 0.0, 0.0, 0.0, 0.0, 0.0, 0.0, 0.0, 0.0, 1.6626774374253085E9, 0.0, 2022-09-08 18:50:37.425
146.0, -2416.7600174856207, -7473.976310965576, -33891.570137926356, -25586.86889253484, -13567.240663437924, 13809.824146011371, 30059.832937697523, 18223.93604802323, -12714.700426423602, -10183.097145926613, -22094.90055977113, -29812.9355684442, 1837.2463389928746, -14132.024542334622, -12749.837368707344, -10635.541157190939, 0.196, 0.902, -0.028, 192.0, 0.0, 0.0, 0.0, 0.0, 0.0, 0.0, 0.0, 0.0, 0.0, 1.6626774374253132E9, 0.0, 2022-09-08 18:50:37.425
148.0, -2431.601575803945, -7487.141488449752, -33909.2056643016, -25603.453886920677, -13582.97629153446, 13798.424756339164, 30101.13896145093, 18227.288809691527, -12708.37488274275, -10192.39547162002, -22104.355347675722, -29815.394260334288, 1840.7555628723578, -14139.55708021606, -12763.941319458643, -10647.365230007796, 0.196, 0.902, -0.028, 192.0, 0.0, 0.0, 0.0, 0.0, 0.0, 0.0, 0.0, 0.0, 0.0, 1.6626774374253175E9, 0.0, 2022-09-08 18:50:37.425
150.0, -2443.29153815407, -7492.7294245635785, -33919.17454232866, -25610.517038168557, -13587.871323570173, 13787.450049811609, 30108.202112698807, 18227.579382369448, -12710.453594977093, -10197.648131567017, -22120.873286828195, -29806.118286385336, 1828.104475510654, -14137.187795303798, -12770.490380584048, -10649.980384109067, 0.20600000000000002, 0.914, -0.082, 192.0, 3.0, 56.0, 14.0, 72.0, 126.5, 56.0, 0.0, 0.0, 0.0, 1.662677437425322E9, 0.0, 2022-09-08 18:50:37.425
152.0, -2461.0611749960394, -7511.43783467267, -33953.35035960083, -25643.284695540035, -13611.050082570326, 13765.76885768996, 30145.55187768363, 18216.31410316397, -12714.812185145878, -10220.089283000147, -22144.163804550626, -29813.18143763321, 1807.943202011967, -14169.79899046409, -12780.369851633293, -10664.307852304919, 0.20600000000000002, 0.914, -0.082, 192.0, 0.0, 0.0, 0.0, 0.0, 0.0, 0.0, 0.0, 0.0, 0.0, 1.6626774374253263E9, 0.0, 2022-09-08 18:50:37.425
154.0, -2485.692797385788, -7537.857596618843, -33983.502862871035, -25672.297259843024, -13637.581603238774, 13737.203328276079, 30153.129119053978, 18201.003158212086, -12722.970571872065, -10249.593585681152, -22180.64185150169, -29844.473879870642, 1770.660492260515, -14179.454944068784, -12793.490325628558, -10690.168820639708, 0.20600000000000002, 0.914, -0.082, 192.0, 0.0, 0.0, 0.0, 0.0, 0.0, 0.0, 0.0, 0.0, 0.0, 1.6626774374253309E9, 0.0, 2022-09-08 18:50:37.425
156.0, -2498.9920853366957, -7560.701079452167, -34005.29581371496, -25699.432277611766, -13657.809931970827, 13716.013874532448, 30179.59358448906, 18203.30538789098, -12727.865603907778, -10270.805391169239, -22199.55142731088, -29855.91797303176, 1743.0113843693, -14195.27997914314, -12804.48738390057, -10714.398111629262, 0.20600000000000002, 0.914, -0.082, 192.0, 0.0, 0.0, 0.0, 0.0, 0.0, 0.0, 0.0, 0.0, 0.0, 1.6626774374253352E9, 0.0, 2022-09-08 18:50:37.425
158.0, -2511.7772831651314, -7581.622312262334, -34027.73696514809, -25724.354472679435, -13678.485295591987, 13692.008100987447, 30197.45262830885, 18197.516286077058, -12737.029819134454, -10294.744109480871, -22226.127651468236, -29858.28725794402, 1708.3885322080293, -14228.740540592737, -12824.380436465794, -10742.807178831958, 0.20600000000000002, 0.914, -0.082, 192.0, 0.0, 0.0, 0.0, 0.0, 0.0, 0.0, 0.0, 0.0, 0.0, 1.6626774374253397E9, 0.0, 2022-09-08 18:50:37.425
160.0, -2519.779207680131, -7596.240353136105, -34045.39484326778, -25742.504089177142, -13698.311292923843, 13680.698118293061, 30215.22226515082, 18205.294693147505, -12738.147406357219, -10307.931638709502, -22244.411378432676, -29849.927705517737, 1676.2690754257533, -14244.29735473363, -12839.981954095598, -10762.9908040751, 0.22, 0.916, -0.112, 192.0, 3.0, 112.0, 14.0, 80.0, 126.0, 64.0, 0.0, 0.0, 0.0, 1.662677437425344E9, 0.0, 2022-09-08 18:50:37.425
162.0, -2543.3379463360247, -7628.337458173926, -34071.36757032485, -25775.942298882284, -13730.207232261568, 13647.371667310199, 30231.963721747845, 18183.702908003677, -12749.99383091853, -10333.032647732813, -22271.144064801225, -29866.065665014467, 1628.4810457803067, -14269.733639923768, -12862.7360299511, -10784.604940963382, 0.22, 0.916, -0.112, 192.0, 0.0, 0.0, 0.0, 0.0, 0.0, 0.0, 0.0, 0.0, 0.0, 1.6626774374253483E9, 0.0, 2022-09-08 18:50:37.425
164.0, -2548.9035307053964, -7642.0614292694845, -34079.481253562124, -25791.588520000998, -13747.373372003243, 13627.277449044877, 30229.683843813404, 18168.079038629417, -12771.026822450975, -10350.019973518845, -22284.46570449659, -29882.15892102229, 1592.9194203519132, -14308.536268298181, -12882.003233671574, -10804.56504876197, 0.22, 0.916, -0.112, 192.0, 0.0, 0.0, 0.0, 0.0, 0.0, 0.0, 0.0, 0.0, 0.0, 1.6626774374253535E9, 0.0, 2022-09-08 18:50:37.425
166.0, -2572.7751937836642, -7681.087575088451, -34104.67166956326, -25830.279389653137, -13779.403421807698, 13586.418460180577, 30235.249428182775, 18136.764244647533, -12784.795497035444, -10382.675872168049, -22313.120640888294, -29909.1598283243, 1555.6590623449163, -14323.914268483433, -12902.879762992832, -10833.041171198032, 0.22, 0.916, -0.112, 192.0, 0.0, 0.0, 0.0, 0.0, 0.0, 0.0, 0.0, 0.0, 0.0, 1.662677437425358E9, 0.0, 2022-09-08 18:50:37.425
168.0, -2575.0774234625605, -7694.588028739457, -34109.18672194323, -25842.081110725536, -13785.125468388256, 13569.87816928365, 30198.234939364786, 18116.53591591548, -12800.419366409704, -10411.643732982127, -22334.913591732216, -29931.846848946436, 1525.2383381412433, -14371.791705106702, -12935.490958153125, -10867.284043703563, 0.22, 0.916, -0.112, 192.0, 0.0, 0.0, 0.0, 0.0, 0.0, 0.0, 0.0, 0.0, 0.0, 1.6626774374253623E9, 0.0, 2022-09-08 18:50:37.425
170.0, -2592.5341358821556, -7717.319752850503, -34125.32468143996, -25858.59904987801, -13806.426680854163, 13549.895709740606, 30215.17756166191, 18101.806116319432, -12774.871322497287, -10407.933343402547, -22340.725045290597, -29930.952779168223, 1514.6436112694278, -14390.477763471337, -12940.341286699926, -10874.10132576243, 0.17200000000000001, 0.912, -0.138, 192.0, 2.5, 48.0, 14.0, 64.0, 125.5, 88.0, 0.0, 0.0, 0.0, 1.6626774374253669E9, 0.0, 2022-09-08 18:50:37.425
172.0, -2602.5030139092223, -7719.912555207319, -34123.26832095007, -25866.51156741519, -13815.277971658466, 13534.718875255452, 30184.1756921024, 18079.700241053135, -12778.089973698852, -10444.031410697868, -22362.607403112343, -29945.794337486546, 1488.7826429346376, -14413.455356771394, -12953.640574650834, -10900.63284643088, 0.17200000000000001, 0.912, -0.138, 192.0, 0.0, 0.0, 0.0, 0.0, 0.0, 0.0, 0.0, 0.0, 0.0, 1.662677437425371E9, 0.0, 2022-09-08 18:50:37.425
174.0, -2617.255165249725, -7732.6754012913, -34130.46558266468, -25881.531939689154, -13831.818262555393, 13527.007523418371, 30210.01430869273, 18071.72066828259, -12782.940302245654, -10458.202416682532, -22389.80947611445, -29949.437671832762, 1471.6835584263276, -14432.454339558404, -12958.759124131098, -10912.993361114664, 0.17200000000000001, 0.912, -0.138, 192.0, 0.0, 0.0, 0.0, 0.0, 0.0, 0.0, 0.0, 0.0, 0.0, 1.6626774374253752E9, 0.0, 2022-09-08 18:50:37.425
176.0, -2628.9227758553957, -7757.664651592333, -34143.63076014886, -25905.582416723064, -13855.511111678019, 13497.726738181918, 30185.874424681002, 18045.010333658498, -12791.970407005598, -10477.134344236178, -22407.556761211963, -29954.332703868477, 1466.6544159238836, -14428.118101134074, -12976.037022595052, -10925.756207198645, 0.17200000000000001, 0.912, -0.138, 192.0, 0.0, 0.0, 0.0, 0.0, 0.0, 0.0, 0.0, 0.0, 0.0, 1.6626774374253795E9, 0.0, 2022-09-08 18:50:37.425
178.0, -2642.7585056732305, -7774.517866911634, -34173.157414574314, -25935.980789182282, -13892.190324329178, 13476.514932693832, 30241.32910267462, 18017.89766763421, -12808.510697902526, -10496.870934590213, -22434.468261536153, -29954.042131190556, 1463.1898955333108, -14455.00724971381, -12998.411118794815, -10948.130303398408, 0.17200000000000001, 0.912, -0.138, 192.0, 0.0, 0.0, 0.0, 0.0, 0.0, 0.0, 0.0, 0.0, 0.0, 1.662677437425384E9, 0.0, 2022-09-08 18:50:37.425
180.0, -2654.739040701275, -7801.786995147109, -34193.653964239835, -25962.557013339643, -13917.55955428595, 13447.882348046584, 30258.674056371936, 17999.56923718086, -12833.477596459103, -10528.453949505561, -22470.991011976126, -29957.238430647663, 1451.3211192275428, -14492.20055248744, -13028.273049387104, -10975.734707800711, 0.16, 0.884, -0.182, 192.0, 2.5, 0.0, 13.5, 80.0, 125.0, 40.0, 0.0, 0.0, 0.0, 1.6626774374253883E9, 0.0, 2022-09-08 18:50:37.425
182.0, -2695.1733464209256, -7847.004574180195, -34235.16115369334, -26015.687109909908, -13968.722697344148, 13396.965074177395, 30343.43187134646, 17964.476998386028, -12851.44839900117, -10567.122467413243, -22512.431146196264, -29975.969192501212, 1436.1442847423893, -14521.034302834787, -13063.164122481838, -11016.459586198282, 0.16, 0.884, -0.182, 192.0, 0.0, 0.0, 0.0, 0.0, 0.0, 0.0, 0.0, 0.0, 0.0, 1.6626774374253929E9, 0.0, 2022-09-08 18:50:37.425
184.0, -2740.5026841762883, -7889.22701945627, -34277.51770943614, -26060.63646800953, -14018.2094595682, 13347.12068404206, 30346.71757778139, 17914.766718717423, -12895.50368732258, -10599.756014317993, -22561.89555667586, -30017.40932672135, 1405.5670983275293, -14575.93018721702, -13116.78595743012, -11061.587758253547, 0.16, 0.884, -0.182, 192.0, 0.0, 0.0, 0.0, 0.0, 0.0, 0.0, 0.0, 0.0, 0.0, 1.6626774374253972E9, 0.0, 2022-09-08 18:50:37.425
186.0, -2786.256705076302, -7940.47956949229, -34333.97821593025, -26116.560532636708, -14074.088820706465, 13305.97112249984, 30355.39005463005, 17865.34701172674, -12913.005103231086, -10649.242776542042, -22605.90614150836, -30059.721178975247, 1369.580789754485, -14627.182737253039, -13164.641042308933, -11107.475889620291, 0.16, 0.884, -0.182, 192.0, 0.0, 0.0, 0.0, 0.0, 0.0, 0.0, 0.0, 0.0, 0.0, 1.6626774374254014E9, 0.0, 2022-09-08 18:50:37.425
188.0, -2824.0088014613157, -7980.086860667094, -34369.98687624775, -26140.23103001488, -14103.59312338747, 13264.15100862396, 30278.03066707023, 17823.996284484423, -12953.37235371737, -10706.999684214556, -22656.085807810523, -30110.57139761107, 1327.2465857561333, -14666.387697027649, -13219.089891802061, -11155.554491943658, 0.16, 0.884, -0.182, 192.0, 0.0, 0.0, 0.0, 0.0, 0.0, 0.0, 0.0, 0.0, 0.0, 1.6626774374254057E9, 0.0, 2022-09-08 18:50:37.425
190.0, -2833.418885877, -7995.82248876363, -34387.2647747117, -26141.616838171107, -14115.484251437694, 13245.755522937241, 30246.98409402181, 17806.56192380928, -12970.449086481225, -10730.513719381539, -22672.24611905171, -30123.982444284255, 1319.8481583414268, -14666.074772605274, -13242.447464757857, -11164.785762403699, 0.164, 0.889, -0.198, 192.0, 2.5, 32.0, 13.5, 120.0, 124.5, 40.0, 0.0, 0.0, 0.0, 1.66267743742541E9, 0.0, 2022-09-08 18:50:37.425
192.0, -2861.2021042349465, -8028.634849624021, -34412.23167326828, -26154.08911157717, -14141.591088961493, 13216.206516767326, 30162.74036916976, 17774.867150171656, -13009.452880555735, -10735.475806650617, -22701.2586833547, -30138.332264224562, 1299.642181353829, -14697.85895322072, -13275.237473873793, -11191.205524349873, 0.164, 0.889, -0.198, 192.0, 0.0, 0.0, 0.0, 0.0, 0.0, 0.0, 0.0, 0.0, 0.0, 1.6626774374254143E9, 0.0, 2022-09-08 18:50:37.425
194.0, -2859.704537356441, -8034.82628283814, -34419.98772859427, -26162.068684347712, -14152.834016422514, 13212.272609743191, 30105.18462719734, 17767.42401926804, -13015.309037603027, -10759.258062751063, -22717.798974251626, -30158.82881389008, 1285.5382306025303, -14716.477956351991, -13296.829259017619, -11203.610742522567, 0.164, 0.889, -0.198, 192.0, 0.0, 0.0, 0.0, 0.0, 0.0, 0.0, 0.0, 0.0, 0.0, 1.6626774374254189E9, 0.0, 2022-09-08 18:50:37.425
196.0, -2855.6588716100305, -8032.635811881521, -34421.217074539316, -26168.349524539655, -14147.938984386801, 13210.238600997758, 30043.694978200794, 17761.076123842733, -12999.171078106294, -10748.238652734597, -22700.87870369896, -30150.02222657469, 1304.4031029228095, -14709.928895226587, -13294.594084572087, -11199.252152353782, 0.164, 0.889, -0.198, 192.0, 0.0, 0.0, 0.0, 0.0, 0.0, 0.0, 0.0, 0.0, 0.0, 1.662677437425424E9, 0.0, 2022-09-08 18:50:37.425
198.0, -2860.6880141124743, -8030.668858369453, -34435.09750784606, -26185.60507125915, -14153.303403056074, 13215.13363303347, 30011.173190018322, 17762.484283743415, -12993.314921059004, -10757.447571450182, -22695.804857707604, -30155.990142344257, 1317.3671147068876, -14715.516831340414, -13306.909895766961, -11207.87992571353, 0.164, 0.889, -0.198, 192.0, 0.0, 0.0, 0.0, 0.0, 0.0, 0.0, 0.0, 0.0, 0.0, 1.6626774374254284E9, 0.0, 2022-09-08 18:50:37.425
200.0, -2884.447918468466, -8041.688268385919, -34451.10135687606, -26207.107449425155, -14166.021545651145, 13197.922789802884, 29970.716532554216, 17746.36867599114, -12997.628807738878, -10765.13657154281, -22704.454982811807, -30161.95805811382, 1320.2057862527117, -14706.643188791657, -13320.633866862521, -11221.112158431073, 0.164, 0.8825000000000001, -0.229, 192.0, 2.5, 16.0, 13.5, 48.0, 123.5, 112.0, 0.0, 0.0, 0.0, 1.6626774374254327E9, 0.0, 2022-09-08 18:50:37.425
202.0, -2886.5936859361755, -8044.884567843029, -34462.99248492628, -26221.99371123239, -14171.005984664678, 13181.583664606056, 29942.173354884788, 17736.399797964074, -12998.075842627984, -10771.573873945938, -22712.278093371166, -30162.20392730283, 1325.54785317753, -14722.11059595473, -13337.710599626374, -11236.959545249885, 0.164, 0.8825000000000001, -0.229, 192.0, 0.0, 0.0, 0.0, 0.0, 0.0, 0.0, 0.0, 0.0, 0.0, 1.6626774374254372E9, 0.0, 2022-09-08 18:50:37.425
204.0, -2886.5936859361755, -8045.957451576884, -34459.237391857794, -26228.453365379974, -14179.700813257792, 13168.485542355245, 29907.528150979062, 17722.653475124058, -12999.752223462132, -10772.803219890979, -22716.480221328762, -30154.78314814367, 1332.163969536301, -14732.235936192983, -13351.92630909995, -11254.058629758196, 0.164, 0.8825000000000001, -0.229, 192.0, 0.0, 0.0, 0.0, 0.0, 0.0, 0.0, 0.0, 0.0, 0.0, 1.6626774374254415E9, 0.0, 2022-09-08 18:50:37.425
206.0, -2882.19039227848, -8042.0905997861155, -34444.23937132828, -26226.911095012558, -14177.33152834553, 13168.664356310888, 29883.76824662307, 17722.56406814624, -12996.041833882551, -10775.463077481161, -22714.893247472435, -30152.525621953682, 1341.641109185351, -14726.133909956683, -13360.911710370983, -11261.74762985082, 0.164, 0.8825000000000001, -0.229, 192.0, 0.0, 0.0, 0.0, 0.0, 0.0, 0.0, 0.0, 0.0, 0.0, 1.6626774374254458E9, 0.0, 2022-09-08 18:50:37.425
208.0, -2870.0310432947927, -8035.16155900497, -34425.93329261938, -26218.462135608454, -14168.65905149687, 13173.51468485769, 29872.838243584425, 17727.816728093236, -12970.538493459046, -10773.071440824442, -22708.366538091486, -30157.152433055933, 1352.906388390826, -14738.516776384924, -13359.54825395921, -11260.048897272218, 0.164, 0.8825000000000001, -0.229, 192.0, 0.0, 0.0, 0.0, 0.0, 0.0, 0.0, 0.0, 0.0, 0.0, 1.66267743742545E9, 0.0, 2022-09-08 18:50:37.425
210.0, -2869.539304916776, -8043.699925386897, -34424.48042922979, -26226.486411867907, -14172.414144565362, 13169.446667366823, 29878.49323493162, 17728.666094382537, -12955.987507818641, -10758.140475528298, -22698.464715297785, -30163.477976736784, 1362.7858594400716, -14728.100863468751, -13350.16052128798, -11252.359897179593, 0.16, 0.8872500000000001, -0.2655, 192.0, 2.0, 112.0, 13.5, 112.0, 123.0, 72.0, 0.0, 0.0, 0.0, 1.6626774374254544E9, 0.0, 2022-09-08 18:50:37.425
212.0, -2873.8755433411056, -8057.669765671464, -34435.16456307943, -26241.3950254196, -14190.876685485446, 13145.954983944295, 29952.410453845318, 17717.80314657726, -12947.829121092454, -10772.780868146523, -22702.510381044198, -30178.87832866649, 1362.5623419955186, -14732.034770492884, -13358.005983591795, -11254.393905925024, 0.16, 0.8872500000000001, -0.2655, 192.0, 0.0, 0.0, 0.0, 0.0, 0.0, 0.0, 0.0, 0.0, 0.0, 1.662677437425459E9, 0.0, 2022-09-08 18:50:37.425
214.0, -2884.3808632350997, -8078.4568880149, -34449.91671441993, -26249.262839467865, -14211.037958984132, 13127.335980813024, 30026.28296927011, 17706.202591204954, -12958.915586342286, -10797.680711469737, -22722.78341326516, -30191.819988706113, 1341.0376120850578, -14766.076477298318, -13371.506437242799, -11267.46967643138, 0.16, 0.8872500000000001, -0.2655, 192.0, 0.0, 0.0, 0.0, 0.0, 0.0, 0.0, 0.0, 0.0, 0.0, 1.6626774374254632E9, 0.0, 2022-09-08 18:50:37.425
216.0, -2907.045532112781, -8117.4159786005, -34469.29567686268, -26262.048037296303, -14234.999029040222, 13102.458489234268, 30070.382961080428, 17681.03452694828, -12968.482132969159, -10813.125766888354, -22747.593849610552, -30208.40498309195, 1312.4050274378094, -14786.01423335245, -13382.011757136794, -11281.104240549117, 0.16, 0.8872500000000001, -0.2655, 192.0, 0.0, 0.0, 0.0, 0.0, 0.0, 0.0, 0.0, 0.0, 0.0, 1.6626774374254675E9, 0.0, 2022-09-08 18:50:37.425
218.0, -2938.62854702813, -8167.5285896692985, -34502.800941801186, -26279.661211927083, -14260.055334574621, 13061.644203858878, 30000.60081489096, 17644.891756164045, -13004.088461886462, -10853.448313885727, -22786.463533218328, -30260.059864528164, 1272.8647914963713, -14824.36982683776, -13410.219658639391, -11315.771796199298, 0.16, 0.8872500000000001, -0.2655, 192.0, 0.0, 0.0, 0.0, 0.0, 0.0, 0.0, 0.0, 0.0, 0.0, 1.6626774374254715E9, 0.0, 2022-09-08 18:50:37.425
220.0, -2941.6683842740517, -8176.04460430677, -34512.434543661424, -26283.662174184585, -14255.875558361478, 13056.77152356762, 29919.933369151757, 17635.504023492816, -13010.726929989689, -10886.864171846411, -22811.94452189738, -30310.686565719436, 1257.2409221221117, -14848.286193404938, -13430.291525160257, -11342.660944779032, 0.16999999999999998, 0.904625, -0.28975, 192.0, 2.5, 80.0, 14.0, 104.0, 123.0, 24.0, 0.0, 0.0, 0.0, 1.662677437425476E9, 0.0, 2022-09-08 18:50:37.425
222.0, -2913.192261837991, -8157.85028432015, -34510.08761049362, -26273.536833946328, -14237.524776163671, 13067.25449171716, 29846.641999082807, 17647.97629689888, -12987.145839589339, -10884.87486658989, -22801.238036303286, -30331.607798529603, 1263.454707080687, -14839.166681667171, -13413.997103452339, -11339.822273233209, 0.16999999999999998, 0.904625, -0.28975, 192.0, 0.0, 0.0, 0.0, 0.0, 0.0, 0.0, 0.0, 0.0, 0.0, 1.6626774374254804E9, 0.0, 2022-09-08 18:50:37.425
224.0, -2890.8852208715944, -8141.3546969121335, -34516.3460989411, -26265.937240831525, -14228.181746981354, 13073.065945275539, 29800.66446073824, 17657.54284352575, -12961.731906143656, -10863.551302379527, -22787.469361718817, -30334.37941484206, 1275.1223176863573, -14816.367902322758, -13404.98935043685, -11337.162415643028, 0.16999999999999998, 0.904625, -0.28975, 192.0, 0.0, 0.0, 0.0, 0.0, 0.0, 0.0, 0.0, 0.0, 0.0, 1.662677437425485E9, 0.0, 2022-09-08 18:50:37.425
226.0, -2877.3624154761333, -8126.289621149257, -34513.30626169518, -26251.00627553538, -14209.875668272456, 13079.883227334409, 29756.475061950096, 17666.572948285695, -12951.51715892758, -10852.420133640782, -22770.593794655062, -30318.66613848998, 1273.2224194076562, -14803.113317860762, -13400.854277712617, -11332.401494074047, 0.16999999999999998, 0.904625, -0.28975, 192.0, 0.0, 0.0, 0.0, 0.0, 0.0, 0.0, 0.0, 0.0, 0.0, 1.662677437425489E9, 0.0, 2022-09-08 18:50:37.425
228.0, -2841.4878656253654, -8094.5054405338105, -34486.439464859905, -26217.56806583024, -14180.438420824818, 13114.528431240135, 29758.352608484343, 17694.579684088192, -12934.485129652636, -10828.347304862416, -22739.480166373276, -30279.639992671015, 1290.8802975273488, -14771.843227367786, -13378.74840244632, -11310.183860085472, 0.16999999999999998, 0.904625, -0.28975, 192.0, 0.0, 0.0, 0.0, 0.0, 0.0, 0.0, 0.0, 0.0, 0.0, 1.6626774374254944E9, 0.0, 2022-09-08 18:50:37.425
230.0, -2815.872766479584, -8055.836922626129, -34447.43567078539, -26167.522509994807, -14141.814606406047, 13145.776169988654, 29756.944448583658, 17731.393007206083, -12908.422995617748, -10791.891609655811, -22704.052651411614, -30247.006445766267, 1314.5731466499742, -14743.478863654002, -13341.219823505859, -11276.365670724592, 0.177, 0.9143125000000001, -0.311875, 192.0, 2.5, 96.0, 14.0, 112.0, 122.5, 72.0, 0.0, 0.0, 0.0, 1.6626774374254987E9, 0.0, 2022-09-08 18:50:37.425
232.0, -2786.7484434543185, -8031.451169425389, -34418.11018206003, -26138.733463136374, -14121.049835807067, 13168.843170266531, 29750.21657350261, 17749.743789403892, -12877.823457458433, -10760.018022062544, -22672.469636496262, -30225.12408794452, 1335.159103293312, -14716.142680185161, -13311.894334780496, -11250.638812856534, 0.177, 0.9143125000000001, -0.311875, 192.0, 0.0, 0.0, 0.0, 0.0, 0.0, 0.0, 0.0, 0.0, 0.0, 1.6626774374255033E9, 0.0, 2022-09-08 18:50:37.425
234.0, -2769.0458618457155, -8005.836070279607, -34387.577699134075, -26108.916236032994, -14094.294797694063, 13190.949045532829, 29747.087329278867, 17766.597004723193, -12847.425084999215, -10743.254213721064, -22627.47557490773, -30210.03666043719, 1352.5934639684515, -14699.445927077048, -13291.129564181516, -11232.533899847735, 0.177, 0.9143125000000001, -0.311875, 192.0, 0.0, 0.0, 0.0, 0.0, 0.0, 0.0, 0.0, 0.0, 0.0, 1.6626774374255073E9, 0.0, 2022-09-08 18:50:37.425
236.0, -2736.2111492408694, -7968.3074913391465, -34350.540858571636, -26071.812340237182, -14067.428000858785, 13212.071444043095, 29755.692750894163, 17790.98275792393, -12811.192907237162, -10712.229992417097, -22581.498036563164, -30173.44685476385, 1378.2756183475994, -14645.399408984114, -13259.703011477353, -11204.035425667218, 0.177, 0.9143125000000001, -0.311875, 192.0, 0.0, 0.0, 0.0, 0.0, 0.0, 0.0, 0.0, 0.0, 0.0, 1.6626774374255118E9, 0.0, 2022-09-08 18:50:37.425
238.0, -2718.5979746100875, -7945.173435827904, -34308.20665457328, -26032.987360118314, -14040.1141691344, 13220.721569147297, 29758.50907069553, 17812.686301790036, -12781.8674185118, -10689.900599706245, -22551.390236781866, -30144.43429046086, 1395.642923789373, -14640.750246137412, -13236.345438521557, -11187.7410039593, 0.177, 0.9143125000000001, -0.311875, 192.0, 0.0, 0.0, 0.0, 0.0, 0.0, 0.0, 0.0, 0.0, 0.0, 1.662677437425516E9, 0.0, 2022-09-08 18:50:37.425
240.0, -2685.316227116135, -7907.019008042695, -34269.7393023657, -25996.509313167255, -14002.071500071466, 13253.198653840858, 29767.31565801092, 17844.761055083403, -12743.601232004314, -10657.334108034864, -22515.158059019814, -30106.503380120204, 1432.6127091184508, -14612.385882423627, -13203.220153238792, -11164.562244959146, 0.1835, 0.91015625, -0.3389375, 192.0, 2.5, 120.0, 14.0, 40.0, 122.0, 72.0, 0.0, 0.0, 0.0, 1.6626774376135528E9, 0.0, 2022-09-08 18:50:37.613
242.0, -2676.5766950341103, -7890.1210892344825, -34261.87148831743, -25983.098266494068, -13990.470944699162, 13267.324956336613, 29770.199033045654, 17860.317869224295, -12717.740263669522, -10619.850232583312, -22481.71984931467, -30077.580222795037, 1452.997500061691, -14575.751373261379, -13173.626443579966, -11133.046285277163, 0.1835, 0.91015625, -0.3389375, 192.0, 0.0, 0.0, 0.0, 0.0, 0.0, 0.0, 0.0, 0.0, 0.0, 1.6626774376135972E9, 0.0, 2022-09-08 18:50:37.613
244.0, -2661.9586541603394, -7873.8043157821085, -34263.72668310722, -25986.607490373553, -13981.306729472486, 13282.72530826632, 29744.181602499677, 17866.218729760498, -12731.240717320528, -10629.193261765631, -22491.621672108373, -30093.248795658208, 1445.643776135895, -14582.188675664507, -13181.091926228039, -11139.483587680292, 0.1835, 0.91015625, -0.3389375, 192.0, 0.0, 0.0, 0.0, 0.0, 0.0, 0.0, 0.0, 0.0, 0.0, 1.6626774376136036E9, 0.0, 2022-09-08 18:50:37.613
246.0, -2617.3222204830913, -7830.754855961187, -34233.39536588137, -25956.4773388478, -13948.248499423087, 13313.34719817009, 29754.061073548924, 17901.221561577506, -12687.006615043476, -10607.400310921706, -22459.703381026196, -30064.61621101096, 1476.511535228674, -14559.456951553459, -13153.018135192173, -11112.527383867191, 0.1835, 0.91015625, -0.3389375, 192.0, 0.0, 0.0, 0.0, 0.0, 0.0, 0.0, 0.0, 0.0, 0.0, 1.6626774376136096E9, 0.0, 2022-09-08 18:50:37.613
248.0, -2578.6313508309545, -7803.9551143592735, -34207.847321968955, -25928.336492578568, -13927.506080568563, 13338.492910682311, 29753.56933517091, 17926.07670141181, -12649.276870402917, -10562.80858073337, -22422.621836974842, -30027.46761172624, 1504.2947535866206, -14514.194669031462, -13125.391379045413, -11082.464287574803, 0.1835, 0.91015625, -0.3389375, 192.0, 0.0, 0.0, 0.0, 0.0, 0.0, 0.0, 0.0, 0.0, 0.0, 1.6626774376136153E9, 0.0, 2022-09-08 18:50:37.613
250.0, -2569.690653048832, -7802.681064925321, -34192.33521131697, -25920.89336167495, -13921.51581305454, 13337.822358348652, 29753.36816947081, 17930.636457280692, -12615.659846742135, -10533.013705374446, -22393.296348249478, -29999.639689879383, 1519.248070627221, -14508.003235817343, -13114.5954864735, -11067.7121362343, 0.17975, 0.9060781250000001, -0.37246875, 192.0, 2.5, 64.0, 14.0, 24.0, 121.5, 40.0, 0.0, 0.0, 0.0, 1.662677437613623E9, 0.0, 2022-09-08 18:50:37.613
252.0, -2534.844283443008, -7784.710262383254, -34154.225487020674, -25893.288957272645, -13890.670405706216, 13371.64054770953, 29756.430358461188, 17957.547957604882, -12598.270189555908, -10524.922373881624, -22380.28763297649, -29994.856416565948, 1533.1061521895115, -14497.766136856811, -13107.934666625819, -11055.016345383687, 0.17975, 0.9060781250000001, -0.37246875, 192.0, 0.0, 0.0, 0.0, 0.0, 0.0, 0.0, 0.0, 0.0, 0.0, 1.6626774376136415E9, 0.0, 2022-09-08 18:50:37.613
254.0, -2506.5916784515, -7774.137887255894, -34119.87085579286, -25877.866253598484, -13867.402239728242, 13391.086565385649, 29775.56345171493, 17977.88804505921, -12554.259604723407, -10500.961303825534, -22346.782368037984, -29974.73984655617, 1567.5948938840502, -14467.635985331057, -13080.129096523417, -11024.32740024655, 0.17975, 0.9060781250000001, -0.37246875, 192.0, 0.0, 0.0, 0.0, 0.0, 0.0, 0.0, 0.0, 0.0, 0.0, 1.6626774376136491E9, 0.0, 2022-09-08 18:50:37.613
0.0, -2475.8356780809972, -7750.445038133269, -34068.14891912328, -25845.791500305117, -13838.97082078109, 13420.769682022295, 29798.496341526075, 18003.70430990509, -12521.201374674009, -10489.651321131149, -22317.814507223906, -29957.573706814495, 1590.952466839846, -14449.352258366616, -13059.900767791363, -10999.002873778687, 0.17975, 0.9060781250000001, -0.37246875, 192.0, 0.0, 0.0, 0.0, 0.0, 0.0, 0.0, 0.0, 0.0, 0.0, 1.6626774376136568E9, 0.0, 2022-09-08 18:50:37.613
2.0, -2458.267206939126, -7733.211843158227, -34025.32297674692, -25809.87224696544, -13811.388768123243, 13454.409057427534, 29819.52933305852, 18034.795586442422, -12462.37158326764, -10455.430800370073, -22277.491960226533, -29928.359976811407, 1625.1059323675554, -14431.85084245811, -13028.653029042844, -10959.105009925963, 0.17975, 0.9060781250000001, -0.37246875, 192.0, 0.0, 0.0, 0.0, 0.0, 0.0, 0.0, 0.0, 0.0, 0.0, 1.6626774376136632E9, 0.0, 2022-09-08 18:50:37.613
4.0, -2456.8143435495313, -7727.825072744498, -34007.754505605044, -25800.90919743886, -13796.904837716203, 13466.94838606696, 29819.261112125056, 18052.967554684587, -12441.517405690838, -10439.315192617798, -22264.192672275625, -29932.45034604673, 1638.0475924071782, -14393.025862339242, -13002.90381943033, -10930.450073534259, 0.17975, 0.9060781250000001, -0.37246875, 192.0, 0.0, 0.0, 0.0, 0.0, 0.0, 0.0, 0.0, 0.0, 0.0, 1.6626774376136723E9, 0.0, 2022-09-08 18:50:37.613
6.0, -2438.6200235629112, -7710.189546369261, -33976.95380174563, -25787.989889143693, -13775.87184618376, 13490.037738089293, 29829.498211085585, 18078.828523019376, -12410.73905357588, -10433.615497781695, -22252.435654692134, -29941.525154295585, 1650.4081070909629, -14406.839240412623, -12989.090441356951, -10909.327675023995, 0.158, 0.964, -0.41400000000000003, 192.0, 2.0, 120.0, 15.0, 16.0, 121.5, 8.0, 0.0, 0.0, 0.0, 1.662677437613678E9, 0.0, 2022-09-08 18:50:37.613
8.0, -2412.401427316836, -7692.643426971845, -33947.74007174255, -25780.837330917995, -13752.760142416972, 13512.702406966973, 29858.71194108867, 18110.478593168093, -12372.808143235225, -10426.664105256094, -22231.335607926325, -29939.848773461435, 1685.0533109966889, -14387.147353547498, -12968.482132969159, -10877.901122319832, 0.158, 0.964, -0.41400000000000003, 192.0, 0.0, 0.0, 0.0, 0.0, 0.0, 0.0, 0.0, 0.0, 0.0, 1.6626774376136837E9, 0.0, 2022-09-08 18:50:37.613
10.0, -2384.4617467477024, -7666.558941192501, -33927.1094116103, -25766.77808365561, -13734.476415452531, 13536.708180511974, 29891.501950204605, 18145.34731451837, -12331.971506115378, -10401.317227043775, -22204.267645390948, -29910.858560902903, 1722.6042416816047, -14353.709143842358, -12940.207176233194, -10846.832197526955, 0.158, 0.964, -0.41400000000000003, 192.0, 0.0, 0.0, 0.0, 0.0, 0.0, 0.0, 0.0, 0.0, 0.0, 1.6626774376136894E9, 0.0, 2022-09-08 18:50:37.613
12.0, -2370.0895750629397, -7660.836894611943, -33926.99765288802, -25770.980211613205, -13737.091569553802, 13533.735398499419, 29910.188008569243, 18153.617459966834, -12314.894773351523, -10387.928532115047, -22190.901302206672, -29881.10838903289, 1743.0337361137554, -14339.605193091058, -12939.17899598825, -10839.657287556802, 0.158, 0.964, -0.41400000000000003, 192.0, 0.0, 0.0, 0.0, 0.0, 0.0, 0.0, 0.0, 0.0, 0.0, 1.6626774376136947E9, 0.0, 2022-09-08 18:50:37.613
14.0, -2351.6717376317665, -7646.554129905001, -33924.47190576457, -25773.707124436754, -13730.162528772657, 13541.603212547687, 29922.704985464217, 18170.716544475144, -12304.411805201986, -10386.945055359014, -22188.375555083225, -29865.842147569914, 1757.9199979209898, -14342.823844292623, -12944.431655935246, -10835.969249721677, 0.158, 0.964, -0.41400000000000003, 192.0, 0.0, 0.0, 0.0, 0.0, 0.0, 0.0, 0.0, 0.0, 0.0, 1.6626774376136997E9, 0.0, 2022-09-08 18:50:37.613
16.0, -2334.7738188235544, -7633.120731487362, -33924.44955402012, -25789.040421133093, -13728.732017127517, 13541.983192203426, 29943.82738397448, 18182.473562058636, -12288.586770127627, -10382.541761701317, -22171.164711852638, -29869.1502057493, 1766.9724544253893, -14294.901704180445, -12938.910775054786, -10830.493072330126, 0.156, 0.9560000000000001, -0.442, 192.0, 2.0, 112.0, 14.5, 112.0, 121.0, 24.0, 0.0, 0.0, 0.0, 1.6626774376137047E9, 0.0, 2022-09-08 18:50:37.613
18.0, -2308.018780710552, -7609.427882364736, -33913.8548271483, -25794.427191546823, -13710.828269818816, 13552.332049886234, 29942.0168926736, 18193.761193008566, -12254.880339489024, -10358.133656756123, -22141.727464404998, -29865.059836513978, 1789.9276959809895, -14302.0766141506, -12919.241239934116, -10821.306505358996, 0.156, 0.9560000000000001, -0.442, 192.0, 0.0, 0.0, 0.0, 0.0, 0.0, 0.0, 0.0, 0.0, 0.0, 1.662677437613711E9, 0.0, 2022-09-08 18:50:37.613
20.0, -2300.4862428291135, -7610.254896909582, -33925.05305112041, -25819.617607547953, -13712.549354141875, 13544.754808515885, 29948.945933454746, 18194.185876153217, -12236.194281124388, -10332.09387446569, -22124.94130431906, -29867.80910108198, 1811.4077224025398, -14287.279759321185, -12908.400643873292, -10820.18891813623, 0.156, 0.9560000000000001, -0.442, 192.0, 0.0, 0.0, 0.0, 0.0, 0.0, 0.0, 0.0, 0.0, 0.0, 1.6626774376137164E9, 0.0, 2022-09-08 18:50:37.613
22.0, -2290.606771779868, -7595.1004141688845, -33935.826591947865, -25808.598197531486, -13705.419147660632, 13554.20959642048, 29919.64279647384, 18200.354957622883, -12227.410045553452, -10339.067618735746, -22121.320321717303, -29893.67006941677, 1814.626373604104, -14302.769518228713, -12912.781585786532, -10832.460025842194, 0.156, 0.9560000000000001, -0.442, 192.0, 0.0, 0.0, 0.0, 0.0, 0.0, 0.0, 0.0, 0.0, 0.0, 1.6626774376137218E9, 0.0, 2022-09-08 18:50:37.613
24.0, -2286.7399199890997, -7590.898286211287, -33941.05690015041, -25794.941281669293, -13694.04210973288, 13555.438942365521, 29924.1131453649, 18210.27913216104, -12204.611266209038, -10331.42332213203, -22098.342728417247, -29909.71862193568, 1848.779839131813, -14276.707384193825, -12884.774849984033, -10815.830327967446, 0.156, 0.9560000000000001, -0.442, 192.0, 0.0, 0.0, 0.0, 0.0, 0.0, 0.0, 0.0, 0.0, 0.0, 1.662677437613727E9, 0.0, 2022-09-08 18:50:37.613
26.0, -2276.1228413728286, -7575.609693003857, -33932.965568657586, -25768.834444145497, -13685.414336373131, 13570.414611150576, 29885.824607112958, 18215.531792108035, -12179.465553696818, -10322.884955750103, -22082.674155554076, -29938.59707577194, 1875.0654906112543, -14280.976567384789, -12854.979974625108, -10813.259877355085, 0.148, 0.928, -0.454, 192.0, 2.0, 80.0, 14.5, 0.0, 120.5, 104.0, 0.0, 0.0, 0.0, 1.6626774376137328E9, 0.0, 2022-09-08 18:50:37.613
28.0, -2259.5154952425355, -7563.964434142642, -33924.67307146467, -25744.76161536713, -13670.103391421246, 13584.317396201777, 29857.661409099273, 18229.144004481317, -12164.244015722754, -10308.289266620788, -22070.715972270486, -29954.131538168378, 1900.0770926567427, -14280.484829006771, -12819.954791063643, -10804.855621439889, 0.148, 0.928, -0.454, 192.0, 0.0, 0.0, 0.0, 0.0, 0.0, 0.0, 0.0, 0.0, 0.0, 1.6626774376946568E9, 0.0, 2022-09-08 18:50:37.694
30.0, -2240.8964921112647, -7550.128704324807, -33923.734298197545, -25724.2203622127, -13659.732181993984, 13596.521448674375, 29840.04823446849, 18242.867975576875, -12133.73388454126, -10300.913190950536, -22054.823881962762, -29957.8195760035, 1934.7670000513795, -14238.95528780881, -12799.212372209118, -10790.215228821664, 0.148, 0.928, -0.454, 192.0, 0.0, 0.0, 0.0, 0.0, 0.0, 0.0, 0.0, 0.0, 0.0, 1.6626774376946704E9, 0.0, 2022-09-08 18:50:37.694
32.0, -2238.437800221181, -7545.926576367209, -33924.985995887044, -25721.202876711235, -13652.84784470175, 13598.3095882308, 29835.175554177233, 18249.41703670228, -12110.73393949675, -10292.263065846333, -22045.436149291534, -29964.703913295736, 1961.7455556089349, -14246.77839836817, -12787.835334281366, -10777.944121115699, 0.148, 0.928, -0.454, 192.0, 0.0, 0.0, 0.0, 0.0, 0.0, 0.0, 0.0, 0.0, 0.0, 1.6626774376946752E9, 0.0, 2022-09-08 18:50:37.694
34.0, -2223.9985733030526, -7537.723486152111, -33927.82466743287, -25714.787926052562, -13642.901318419137, 13605.283332500856, 29818.299987113478, 18261.03994381904, -12099.133384124445, -10296.46519380393, -22051.426416805556, -29980.305430925542, 1983.4267477305827, -14256.099075806032, -12786.427174380682, -10784.694347941202, 0.148, 0.928, -0.454, 192.0, 0.0, 0.0, 0.0, 0.0, 0.0, 0.0, 0.0, 0.0, 0.0, 1.6626774376946797E9, 0.0, 2022-09-08 18:50:37.694
36.0, -2215.728427854589, -7534.124855294807, -33928.405812788704, -25701.399231123833, -13637.64865847214, 13603.182268522058, 29824.67023428324, 18269.37714450087, -12062.677688917838, -10295.124089136612, -22049.146538871115, -29976.997372746155, 2015.099169623753, -14246.621936156982, -12770.110400928308, -10778.167638560253, 0.154, 0.91, -0.446, 192.0, 2.0, 104.0, 14.0, 56.0, 121.0, 8.0, 0.0, 0.0, 0.0, 1.662677437694693E9, 0.0, 2022-09-08 18:50:37.694
38.0, -2198.316418923905, -7521.116140021818, -33916.96171962759, -25683.27196637058, -13631.3678182802, 13613.240553526944, 29805.89476894078, 18270.561786957, -12058.743781893705, -10279.299054062254, -22046.39727430311, -29975.231584934187, 2025.6268412622026, -14252.254575759718, -12767.718764271589, -10784.828458407934, 0.154, 0.91, -0.446, 192.0, 0.0, 0.0, 0.0, 0.0, 0.0, 0.0, 0.0, 0.0, 0.0, 1.6626774376946988E9, 0.0, 2022-09-08 18:50:37.694
40.0, -2191.275619420483, -7510.409654427726, -33915.77707717146, -25673.28073659906, -13622.337713520255, 13618.359103007211, 29817.67413826873, 18280.351851028427, -12046.495025932196, -10269.352527779643, -22025.051358348293, -29959.898288237848, 2051.9124927416437, -14249.907642591912, -12751.33493558585, -10775.75365015908, 0.154, 0.91, -0.446, 192.0, 0.0, 0.0, 0.0, 0.0, 0.0, 0.0, 0.0, 0.0, 0.0, 1.6626774376947038E9, 0.0, 2022-09-08 18:50:37.694
42.0, -2197.9140875237094, -7528.738084881078, -33928.6069784888, -25672.99016392114, -13630.540803735354, 13608.747852891429, 29808.956957931157, 18273.713382925198, -12040.840034585004, -10267.564388223218, -22026.92890488254, -29961.753483027638, 2053.11948694223, -14234.887270317946, -12755.201787376618, -10777.720603671147, 0.154, 0.91, -0.446, 192.0, 0.0, 0.0, 0.0, 0.0, 0.0, 0.0, 0.0, 0.0, 0.0, 1.66267743769471E9, 0.0, 2022-09-08 18:50:37.694
44.0, -2205.0666457494076, -7543.44553273267, -33935.401908803215, -25668.27394584107, -13625.243440299446, 13606.155050534613, 29803.056097394958, 18272.886368380354, -12044.438665442309, -10283.769402953316, -22038.484756765934, -29974.51632911162, 2052.7171555420346, -14269.711288179315, -12768.277557882973, -10788.292978798507, 0.154, 0.91, -0.446, 192.0, 0.0, 0.0, 0.0, 0.0, 0.0, 0.0, 0.0, 0.0, 0.0, 1.662677437694714E9, 0.0, 2022-09-08 18:50:37.694
46.0, -2198.606991601824, -7538.9304803526975, -33929.56810350038, -25654.214698578682, -13625.086978088259, 13615.587486694752, 29793.60130949036, 18275.121542825884, -12032.748703092182, -10285.646949487562, -22029.253486305894, -29967.9225644973, 2061.344928901783, -14267.342003267051, -12761.19205489064, -10782.973263618143, 0.158, 0.91, -0.434, 192.0, 2.0, 120.0, 14.0, 56.0, 121.0, 56.0, 0.0, 0.0, 0.0, 1.6626774376947184E9, 0.0, 2022-09-08 18:50:37.694
48.0, -2186.4252908736817, -7529.922727337209, -33914.27951029295, -25627.660826165775, -13608.256114513411, 13638.65448697263, 29806.006527663056, 18291.393612789347, -12020.544650619586, -10275.566312738218, -22015.149535554592, -29951.225811389188, 2072.2302284515176, -14259.20596828532, -12750.038534407442, -10769.718679156147, 0.158, 0.91, -0.434, 192.0, 0.0, 0.0, 0.0, 0.0, 0.0, 0.0, 0.0, 0.0, 0.0, 1.6626774381634843E9, 0.0, 2022-09-08 18:50:38.163
50.0, -2173.997720956531, -7524.379494712293, -33903.885949121235, -25614.160372514772, -13593.191038750534, 13650.187987111567, 29814.00845217806, 18302.48007803918, -11997.924685230815, -10260.74710616435, -21975.810465313254, -29934.909037936814, 2096.3924642077045, -14234.10495926201, -12727.843252163322, -10743.36597244334, 0.158, 0.91, -0.434, 192.0, 0.0, 0.0, 0.0, 0.0, 0.0, 0.0, 0.0, 0.0, 0.0, 1.6626774381635056E9, 0.0, 2022-09-08 18:50:38.163
54.0, -2173.5506860674245, -7523.485424934081, -33899.192082785616, -25598.82707581843, -13581.232855466946, 13657.675821504095, 29835.19790592169, 18313.164211888816, -11989.252208382155, -10259.36129800812, -21950.530642334303, -29923.97903489817, 2111.3010777593945, -14227.980581281256, -12709.313656009872, -10736.45928340665, 0.158, 0.91, -0.434, 192.0, 0.0, 0.0, 0.0, 0.0, 0.0, 0.0, 0.0, 0.0, 0.0, 1.662677438163512E9, 0.0, 2022-09-08 18:50:38.163
56.0, -2162.6877382621456, -7510.387302683271, -33897.91803335166, -25586.44420939019, -13572.895654785116, 13663.397868084654, 29852.05112124099, 18319.087424169473, -11974.209484363733, -10259.31659451921, -21930.771700235808, -29901.1579038093, 2130.5235779909585, -14231.936840049844, -12707.123185053253, -10732.659486849248, 0.15, 0.912, -0.404, 192.0, 2.0, 88.0, 14.0, 64.0, 121.5, 48.0, 0.0, 0.0, 0.0, 1.6626774381635163E9, 0.0, 2022-09-08 18:50:38.163
58.0, -2152.897674190721, -7499.926686278187, -33894.11823679427, -25572.384962127802, -13567.508884371387, 13666.862388475227, 29867.563231892975, 18322.373130604403, -11988.738118259684, -10257.081420073679, -21930.883458958087, -29895.97229909567, 2132.1329035917406, -14239.022343042177, -12718.544926469915, -10742.471902665127, 0.15, 0.912, -0.404, 192.0, 0.0, 0.0, 0.0, 0.0, 0.0, 0.0, 0.0, 0.0, 0.0, 1.6626774381635203E9, 0.0, 2022-09-08 18:50:38.163
60.0, -2119.191243552118, -7473.439869098648, -33863.406939912675, -25534.498755276058, -13537.959878201471, 13699.764156313438, 29903.14720906582, 18359.54408163358, -11952.818864920006, -10229.722884860383, -21904.061365611717, -29865.640981869816, 2152.4953427905252, -14210.970903750767, -12701.937580339621, -10722.444739633173, 0.15, 0.912, -0.404, 192.0, 0.0, 0.0, 0.0, 0.0, 0.0, 0.0, 0.0, 0.0, 0.0, 1.6626774381635246E9, 0.0, 2022-09-08 18:50:38.163
62.0, -2129.115418090274, -7485.710976804612, -33877.91322206417, -25534.811679698432, -13551.3485731302, 13686.1295921957, 29918.97224414018, 18351.16217746284, -11937.038533334558, -10221.631553367562, -21887.454019481425, -29851.112347973867, 2163.671215018179, -14209.115708960977, -12689.46530693356, -10711.40297787225, 0.15, 0.912, -0.404, 192.0, 0.0, 0.0, 0.0, 0.0, 0.0, 0.0, 0.0, 0.0, 0.0, 1.662677438163529E9, 0.0, 2022-09-08 18:50:38.163
64.0, -2123.572185465358, -7475.831505755366, -33868.41373067066, -25518.09257484586, -13547.168796917058, 13688.18595268559, 29910.813857413992, 18347.541194861078, -11947.36503927291, -10230.348733705132, -21890.940891616454, -29847.71488281666, 2153.6576335022014, -14221.140947477932, -12699.009501815975, -10718.443777375673, 0.15, 0.912, -0.404, 192.0, 0.0, 0.0, 0.0, 0.0, 0.0, 0.0, 0.0, 0.0, 0.0, 1.6626774381635332E9, 0.0, 2022-09-08 18:50:38.163
66.0, -2124.3097930323834, -7469.416555096693, -33861.35057942278, -25507.09551657385, -13538.67513402404, 13685.816667773328, 29930.55044776803, 18349.999886751164, -11945.59925146094, -10226.884213314559, -21881.62021417859, -29833.253304154077, 2165.3699475967824, -14211.552049106605, -12684.212646986563, -10717.370893641817, 0.148, 0.892, -0.388, 192.0, 2.0, 80.0, 13.5, 112.0, 121.5, 112.0, 0.0, 0.0, 0.0, 1.6626774381635373E9, 0.0, 2022-09-08 18:50:38.163
68.0, -2102.382731721727, -7448.8082467089, -33833.36619536474, -25480.116961016294, -13520.570221015243, 13707.654322106162, 29932.875029191382, 18368.57418639352, -11938.290231024055, -10213.607277108107, -21870.824321606677, -29804.866588695837, 2176.1658401686955, -14198.319816389063, -12669.8404753018, -10708.206678415141, 0.148, 0.892, -0.388, 192.0, 0.0, 0.0, 0.0, 0.0, 0.0, 0.0, 0.0, 0.0, 0.0, 1.6626774381635437E9, 0.0, 2022-09-08 18:50:38.163
70.0, -2109.7588073919783, -7456.296081101428, -33827.55474180636, -25474.84194932484, -13524.839404206206, 13702.915752281637, 29946.93427645377, 18365.802570081065, -11940.3689432584, -10207.30408517171, -21848.159652728995, -29785.577033230908, 2181.9772937270754, -14197.962188477779, -12657.010573984453, -10693.40982358573, 0.148, 0.892, -0.388, 192.0, 0.0, 0.0, 0.0, 0.0, 0.0, 0.0, 0.0, 0.0, 0.0, 1.6626774381635594E9, 0.0, 2022-09-08 18:50:38.163
72.0, -2089.575182148836, -7432.759694189989, -33810.343898575775, -25451.03734147994, -13512.970627900439, 13729.38021771672, 29933.053843147023, 18384.73449763471, -11939.117245568901, -10204.644227581528, -21834.547440355713, -29773.596498202864, 2188.660465319212, -14191.502534330195, -12656.02709722842, -10690.325282850896, 0.148, 0.892, -0.388, 192.0, 0.0, 0.0, 0.0, 0.0, 0.0, 0.0, 0.0, 0.0, 0.0, 1.6626774381635635E9, 0.0, 2022-09-08 18:50:38.163
74.0, -2105.154348034185, -7444.650822240213, -33818.70345100206, -25454.12188221477, -13522.000732660383, 13724.015799047447, 29949.01298868811, 18385.516808690645, -11924.83448086196, -10198.899829256516, -21818.87886749254, -29758.799643373448, 2197.824680545888, -14180.952510947289, -12664.677222332624, -10673.919102420701, 0.148, 0.892, -0.388, 192.0, 0.0, 0.0, 0.0, 0.0, 0.0, 0.0, 0.0, 0.0, 0.0, 1.6626774381635678E9, 0.0, 2022-09-08 18:50:38.163
76.0, -2092.7267781170344, -7432.156197089696, -33799.81622693732, -25437.08985293983, -13513.238848833902, 13738.320915498844, 29935.065500148, 18387.30494824707, -11944.74988517164, -10210.768605562283, -21825.919666995964, -29759.805471873937, 2189.9792182420756, -14189.245008140208, -12722.545888727414, -10679.484686790072, 0.153, 0.893, -0.383, 192.0, 2.0, 120.0, 13.5, 120.0, 122.0, 24.0, 0.0, 0.0, 0.0, 1.662677438163572E9, 0.0, 2022-09-08 18:50:38.163
78.0, -2094.201993251085, -7432.983211634542, -33787.65687795364, -25428.26091387998, -13507.62856097562, 13735.10226429728, 29950.510555566616, 18392.73642214971, -11935.3174490115, -10199.570381590174, -21806.94303595341, -29740.851192575836, 2208.4194074177035, -14184.28292087113, -12722.367074771772, -10670.186361096665, 0.153, 0.893, -0.383, 192.0, 0.0, 0.0, 0.0, 0.0, 0.0, 0.0, 0.0, 0.0, 0.0, 1.6626774381635761E9, 0.0, 2022-09-08 18:50:38.163
80.0, -2089.4410716821044, -7425.316563286372, -33772.43533997957, -25420.013120175972, -13508.813203431751, 13733.068255551847, 29935.2666658481, 18388.93662559231, -11939.676039180284, -10199.235105423344, -21795.610701514568, -29737.900762307738, 2213.403846431237, -14199.57151407856, -12726.859775407289, -10669.851084929835, 0.153, 0.893, -0.383, 192.0, 0.0, 0.0, 0.0, 0.0, 0.0, 0.0, 0.0, 0.0, 0.0, 1.6626774381635804E9, 0.0, 2022-09-08 18:50:38.163
82.0, -2085.417757680149, -7420.555641717392, -33757.906706083624, -25408.591378759313, -13501.124203339125, 13728.508499682965, 29953.21511664571, 18393.07169831654, -11927.673152407784, -10186.740480272829, -21783.764276953254, -29722.902741778227, 2225.406733203737, -14176.392755078406, -12726.099816095808, -10670.16400935221, 0.153, 0.893, -0.383, 192.0, 0.0, 0.0, 0.0, 0.0, 0.0, 0.0, 0.0, 0.0, 0.0, 1.6626774381635847E9, 0.0, 2022-09-08 18:50:38.163
84.0, -2086.0436065248978, -7422.008505106986, -33757.66083689461, -25415.74393698501, -13509.684921465509, 13717.310275710855, 29940.78754672856, 18377.64899464238, -11935.138635055857, -10192.015491964281, -21778.668079217445, -29728.177753469678, 2217.4495121776476, -14193.491839586717, -12732.76063594349, -10682.144544380253, 0.153, 0.893, -0.383, 192.0, 0.0, 0.0, 0.0, 0.0, 0.0, 0.0, 0.0, 0.0, 0.0, 1.6626774381635888E9, 0.0, 2022-09-08 18:50:38.163
86.0, -2066.262312681951, -7399.723815885046, -33732.51512438239, -25385.904358137173, -13492.362319512644, 13733.939973585604, 29966.000314474146, 18394.390451239404, -11940.681867680772, -10192.328416386654, -21772.856625659064, -29726.054337746424, 2207.0112475170195, -14193.469487842262, -12742.014258147987, -10684.536181036972, 0.1555, 0.8985000000000001, -0.3755, 192.0, 2.0, 120.0, 14.0, 32.0, 122.0, 64.0, 0.0, 0.0, 0.0, 1.6626774381635947E9, 0.0, 2022-09-08 18:50:38.163
88.0, -2044.1117339267414, -7372.007652760465, -33704.48603683544, -25351.885003076197, -13474.302109992757, 13758.169264575155, 29977.1761867018, 18417.613913728466, -11924.700370395229, -10166.690965496418, -21749.007314325252, -29697.891139732736, 2203.7255410820894, -14169.262548597164, -12721.473004993559, -10656.417686512195, 0.1555, 0.8985000000000001, -0.3755, 192.0, 0.0, 0.0, 0.0, 0.0, 0.0, 0.0, 0.0, 0.0, 0.0, 1.6626774381636004E9, 0.0, 2022-09-08 18:50:38.163
90.0, -2059.6238445787244, -7385.172830244641, -33705.961251969486, -25350.633305386702, -13484.695671164474, 13746.43459873612, 29986.60862286194, 18418.418576528857, -11914.440919690243, -10147.088485609112, -21743.799357867167, -29688.21283438359, 2181.8878867492544, -14169.106086385977, -12721.227135804551, -10648.236948041553, 0.1555, 0.8985000000000001, -0.3755, 192.0, 0.0, 0.0, 0.0, 0.0, 0.0, 0.0, 0.0, 0.0, 0.0, 1.662677438163607E9, 0.0, 2022-09-08 18:50:38.163
92.0, -2061.1661149461406, -7383.921132555143, -33686.91756569357, -25330.896715032664, -13477.610168172141, 13757.364601774765, 29979.65723033634, 18432.142547624415, -11919.3135999815, -10151.20120658889, -21742.59236366658, -29688.72692450606, 2156.5857120258465, -14173.531731788127, -12718.455519492092, -10640.145616548733, 0.1555, 0.8985000000000001, -0.3755, 192.0, 0.0, 0.0, 0.0, 0.0, 0.0, 0.0, 0.0, 0.0, 0.0, 1.6626774381636128E9, 0.0, 2022-09-08 18:50:38.163
94.0, -2082.199106478585, -7394.135879771219, -33690.62795527315, -25327.231028941995, -13486.617921187632, 13750.726133671538, 29993.60471887645, 18431.851974946498, -11924.432149461765, -10160.097200882103, -21757.45627372936, -29702.562654323898, 2137.0726391163635, -14157.304365313574, -12718.880202636743, -10635.272936257476, 0.1555, 0.8985000000000001, -0.3755, 192.0, 0.0, 0.0, 0.0, 0.0, 0.0, 0.0, 0.0, 0.0, 0.0, 1.662677438163617E9, 0.0, 2022-09-08 18:50:38.163
96.0, -2077.639350609702, -7384.345815699794, -33681.709609235484, -25312.255360156938, -13474.413868715033, 13761.700840199095, 30007.239282994185, 18454.293126379627, -11936.166815300801, -10165.86395095157, -21763.759465665757, -29713.64911957373, 2121.5605284643802, -14168.502589285683, -12715.259220034985, -10628.276840242963, 0.15875, 0.91225, -0.36575, 192.0, 2.5, 8.0, 14.0, 120.0, 122.0, 112.0, 0.0, 0.0, 0.0, 1.6626774381636212E9, 0.0, 2022-09-08 18:50:38.163
98.0, -2069.9056470281657, -7379.897818553188, -33664.588172982716, -25295.357441348726, -13464.355583710145, 13774.01665139397, 30029.79219314959, 18475.594338845534, -11917.234887747156, -10156.900901424993, -21753.522366705223, -29708.843494515837, 2117.5372144624253, -14153.124589100433, -12697.199010515096, -10603.779328319946, 0.15875, 0.91225, -0.36575, 192.0, 0.0, 0.0, 0.0, 0.0, 0.0, 0.0, 0.0, 0.0, 0.0, 1.6626774381636255E9, 0.0, 2022-09-08 18:50:38.163
100.0, -2075.873562797733, -7388.212667490562, -33662.24123981491, -25299.604272795234, -13461.293394719767, 13772.876712426749, 30043.85144041198, 18475.728449312264, -11926.98024832967, -10144.585090230119, -21761.345477264582, -29709.469343360586, 2112.731589404534, -14162.08763862701, -12691.923998823644, -10595.57623810485, 0.15875, 0.91225, -0.36575, 192.0, 0.0, 0.0, 0.0, 0.0, 0.0, 0.0, 0.0, 0.0, 0.0, 1.6626774381636295E9, 0.0, 2022-09-08 18:50:38.163
102.0, -2068.609245849758, -7387.206838990073, -33655.71453043396, -25301.68298502958, -13457.538301651277, 13775.15659036119, 30059.318847575054, 18470.27462366517, -11912.943352811737, -10145.143883841502, -21762.396009253982, -29708.016479970993, 2120.554699963892, -14137.523071470629, -12695.500277936493, -10603.28758994193, 0.15875, 0.91225, -0.36575, 192.0, 0.0, 0.0, 0.0, 0.0, 0.0, 0.0, 0.0, 0.0, 0.0, 1.6626774381636355E9, 0.0, 2022-09-08 18:50:38.163
104.0, -2058.8862370116994, -7377.617940618747, -33645.56683845125, -25292.183493636072, -13455.079609761193, 13777.682337484639, 30076.082655916533, 18466.251309663214, -11909.12120450988, -10151.558834500174, -21759.937317363896, -29703.702593291117, 2113.1339208047298, -14156.209129835264, -12697.735452382023, -10610.618962123272, 0.15875, 0.91225, -0.36575, 192.0, 0.0, 0.0, 0.0, 0.0, 0.0, 0.0, 0.0, 0.0, 0.0, 1.6626774381636398E9, 0.0, 2022-09-08 18:50:38.163
106.0, -2060.02617597892, -7378.109678996763, -33646.66207392956, -25287.824903467288, -13456.107790006137, 13778.151724118201, 30064.10212088849, 18457.869405492474, -11905.723739352672, -10138.706581438373, -21756.91983186243, -29694.3595641088, 2117.2689935289613, -14156.969089146745, -12703.502202451493, -10614.23994472503, 0.156375, 0.9201250000000001, -0.35787500000000005, 192.0, 2.0, 104.0, 14.5, 0.0, 122.5, 8.0, 0.0, 0.0, 0.0, 1.662677438163644E9, 0.0, 2022-09-08 18:50:38.163
108.0, -2063.1777719471183, -7376.8579813072665, -33646.61737044065, -25285.09799064374, -13457.38183944009, 13775.53657001693, 30062.313981332063, 18449.018114688173, -11908.137727753847, -10141.679363450929, -21767.64866920098, -29704.753125280517, 2109.6917521586124, -14153.571623989537, -12718.477871236548, -10621.839537839835, 0.156375, 0.9201250000000001, -0.35787500000000005, 192.0, 0.0, 0.0, 0.0, 0.0, 0.0, 0.0, 0.0, 0.0, 0.0, 1.6626774381636481E9, 0.0, 2022-09-08 18:50:38.163
110.0, -2061.4790393685153, -7377.416774918649, -33644.65041692858, -25282.05815339782, -13453.4255806715, 13775.514218272474, 30047.60653348047, 18441.105597150996, -11912.228096989167, -10134.884433136516, -21767.179282567417, -29708.463514860097, 2117.9171941181653, -14161.126513615432, -12716.779138657945, -10624.097064029822, 0.156375, 0.9201250000000001, -0.35787500000000005, 192.0, 0.0, 0.0, 0.0, 0.0, 0.0, 0.0, 0.0, 0.0, 0.0, 1.6626774381636524E9, 0.0, 2022-09-08 18:50:38.163
112.0, -2059.8250102788224, -7382.512972654459, -33643.97986459492, -25278.52657777388, -13459.594662141164, 13773.01082289348, 30057.50835627417, 18435.383550570437, -11918.486585436653, -10145.613270475063, -21767.31339303415, -29716.577198097373, 2116.8890138732213, -14152.185815833309, -12715.348627012805, -10621.571316906371, 0.156375, 0.9201250000000001, -0.35787500000000005, 192.0, 0.0, 0.0, 0.0, 0.0, 0.0, 0.0, 0.0, 0.0, 0.0, 1.6626774381636567E9, 0.0, 2022-09-08 18:50:38.163
114.0, -2056.136972443697, -7375.6286353622245, -33629.9876725659, -25266.590746234746, -13462.880368576094, 13784.611378265785, 30049.32761780353, 18443.36312334098, -11914.195050501234, -10143.355744285076, -21756.651610928966, -29709.223474171577, 2122.7451709205116, -14140.540556972093, -12707.100833308798, -10609.009636522489, 0.156375, 0.9201250000000001, -0.35787500000000005, 192.0, 0.0, 0.0, 0.0, 0.0, 0.0, 0.0, 0.0, 0.0, 0.0, 1.6626774381636608E9, 0.0, 2022-09-08 18:50:38.163
116.0, -2070.151516217174, -7390.5372489139145, -33635.57560867973, -25271.105798614717, -13470.85994134664, 13774.597796749807, 30058.894164430403, 18436.54584128211, -11921.079387793468, -10146.239119319811, -21762.373657509524, -29713.716174807094, 2113.089217315819, -14153.124589100433, -12711.7499961555, -10607.109738243787, 0.15618749999999998, 0.9180625, -0.3449375, 192.0, 2.0, 112.0, 14.0, 80.0, 122.5, 80.0, 0.0, 0.0, 0.0, 1.6626774381636653E9, 0.0, 2022-09-08 18:50:38.163
118.0, -2066.7540510599674, -7385.239885478007, -33630.30059698827, -25266.791911934844, -13467.95421456745, 13782.465610798075, 30047.986513136213, 18435.6517715039, -11929.327181497478, -10150.977689144336, -21763.066561587642, -29716.10781146381, 2117.581917951336, -14152.476388511228, -12714.23103979004, -10603.019369008467, 0.15618749999999998, 0.9180625, -0.3449375, 192.0, 0.0, 0.0, 0.0, 0.0, 0.0, 0.0, 0.0, 0.0, 0.0, 1.66267743816367E9, 0.0, 2022-09-08 18:50:38.163
120.0, -2090.6927693716016, -7411.793757890911, -33649.43369024202, -25287.333165089272, -13475.486752448887, 13772.653194982195, 30051.42868178233, 18423.02303588665, -11937.843196134949, -10165.3498608291, -21769.68267794641, -29735.50912565102, 2117.090179573319, -14160.791237448602, -12720.71304568208, -10604.62869460925, 0.15618749999999998, 0.9180625, -0.3449375, 192.0, 0.0, 0.0, 0.0, 0.0, 0.0, 0.0, 0.0, 0.0, 0.0, 1.662677438163674E9, 0.0, 2022-09-08 18:50:38.163
122.0, -2078.7792895769226, -7399.477946696037, -33643.51047796136, -25283.421609809593, -13456.577176639697, 13785.371337577266, 30039.60460896547, 18428.36510281147, -11938.044361835047, -10166.132171885034, -21778.913948406454, -29749.478965935585, 2121.739342420023, -14153.459865267261, -12721.249487549007, -10609.702540600603, 0.15618749999999998, 0.9180625, -0.3449375, 192.0, 0.0, 0.0, 0.0, 0.0, 0.0, 0.0, 0.0, 0.0, 0.0, 1.6626774381636784E9, 0.0, 2022-09-08 18:50:38.163
124.0, -2091.519783916448, -7405.714083399068, -33657.50266999038, -25294.753944248434, -13457.113618506626, 13772.362622304276, 30051.272219571143, 18425.414672543367, -11940.03366709157, -10171.138962643023, -21780.03153562922, -29754.84338460486, 2132.602290225302, -14143.155711073365, -12714.767481656967, -10617.838575582335, 0.15618749999999998, 0.9180625, -0.3449375, 192.0, 0.0, 0.0, 0.0, 0.0, 0.0, 0.0, 0.0, 0.0, 0.0, 1.6626774381636827E9, 0.0, 2022-09-08 18:50:38.163
126.0, -2100.1922607651068, -7425.450673753104, -33669.9972951409, -25310.69073804507, -13467.529531422799, 13757.431657008132, 30038.0399868536, 18410.93074213633, -11948.683792195772, -10174.782296989239, -21786.15591360997, -29767.382713244286, 2131.618813469269, -14166.267414840153, -12719.7519206705, -10634.53532869045, 0.15709374999999998, 0.9020312500000001, -0.33046875, 192.0, 2.0, 120.0, 13.5, 88.0, 123.0, 16.0, 0.0, 0.0, 0.0, 1.6626774381636868E9, 0.0, 2022-09-08 18:50:38.163
128.0, -2117.961897607076, -7451.043421154431, -33681.910774935575, -25328.080395231296, -13484.472153719922, 13741.092531811302, 30047.47242301374, 18398.525523963635, -11956.283385310577, -10191.501401841808, -21797.868227704555, -29789.75680944405, 2120.241775541517, -14182.42772608134, -12739.197938346619, -10654.853064400324, 0.15709374999999998, 0.9020312500000001, -0.33046875, 192.0, 0.0, 0.0, 0.0, 0.0, 0.0, 0.0, 0.0, 0.0, 0.0, 1.662677438163691E9, 0.0, 2022-09-08 18:50:38.163
130.0, -2111.9716300930536, -7444.919043173676, -33683.698914492, -25325.375834152204, -13486.550865954265, 13748.62506969274, 30026.350024503474, 18400.64893968689, -11964.754696459138, -10210.053349739714, -21808.35119585409, -29813.404955077764, 2112.8209963823556, -14190.541409318615, -12749.792665218434, -10667.72766920658, 0.15709374999999998, 0.9020312500000001, -0.33046875, 192.0, 0.0, 0.0, 0.0, 0.0, 0.0, 0.0, 0.0, 0.0, 0.0, 1.662677438163695E9, 0.0, 2022-09-08 18:50:38.163
