%OpenBCI Raw EEG Data
%Number of channels = 16
%Sample Rate = 125 Hz
%Board = OpenBCI_GUI$BoardCytonSerialDaisy
Sample Index, EXG Channel 0, EXG Channel 1, EXG Channel 2, EXG Channel 3, EXG Channel 4, EXG Channel 5, EXG Channel 6, EXG Channel 7, EXG Channel 8, EXG Channel 9, EXG Channel 10, EXG Channel 11, EXG Channel 12, EXG Channel 13, EXG Channel 14, EXG Channel 15, Accel Channel 0, Accel Channel 1, Accel Channel 2, Other, Other, Other, Other, Other, Other, Other, Analog Channel 0, Analog Channel 1, Analog Channel 2, Timestamp, Other, Timestamp (Formatted)
0.0, -16781.55562657781, -7556.230730561106, -30390.281127724786, -26499.378859922752, -19360.87988148688, -8417.488147912998, 70587.70305963792, -7820.361294789469, 0.0, 0.0, 0.0, 0.0, 0.0, 0.0, 0.0, 0.0, 0.0, 0.0, 0.0, 192.0, 0.0, 0.0, 0.0, 0.0, 0.0, 0.0, 0.0, 0.0, 0.0, 1.662506175973064E9, 0.0, 2022-09-06 19:16:15.973
14.0, -16730.012503863873, -7472.523447575981, -30347.924571981977, -26413.235236792, -19315.259971053598, -8308.411634971098, 69491.66291852748, -7795.997893333184, -15819.536545221395, -4925.385704682553, -21447.8622612789, -14068.389125870362, 10273.711117948427, -13588.094841014725, -8618.050350910467, -16128.929391971755, 0.0, 0.0, 0.0, 192.0, 0.0, 0.0, 0.0, 0.0, 0.0, 0.0, 0.0, 0.0, 0.0, 1.6625061759730716E9, 0.0, 2022-09-06 19:16:15.973
16.0, -16617.493822275857, -7364.117486967742, -30185.226224091795, -26336.50169807693, -19158.21661451061, -8200.899744141072, 67077.33924118748, -7645.213025237683, -15520.224335220379, -4625.514701070154, -21179.909548748677, -13796.144878404722, 10550.47041779404, -13255.903214919952, -8381.121859684214, -15898.460554893085, 0.0, 0.0, 0.0, 192.0, 0.0, 0.0, 0.0, 0.0, 0.0, 0.0, 0.0, 0.0, 0.0, 1.662506175973078E9, 0.0, 2022-09-06 19:16:15.973
18.0, -16657.726962295408, -7366.240902690995, -30251.32033244614, -26359.1216634657, -19243.019132974045, -8254.186302922524, 66760.52561527796, -7707.90966843482, -15663.655479390083, -4809.581316659608, -21357.695324146192, -13973.327156701942, 10427.312305845298, -13440.394513654055, -8462.996299624003, -15989.454506570639, 0.0, 0.0, 0.0, 192.0, 0.0, 0.0, 0.0, 0.0, 0.0, 0.0, 0.0, 0.0, 0.0, 1.662506175973084E9, 0.0, 2022-09-06 19:16:15.973
20.0, -16503.388166831515, -7211.008037448888, -30049.90876315937, -26214.61763556214, -19016.19363024159, -8099.623990014075, 63987.61290164148, -7531.934384338187, -15408.845592599582, -4537.247662216147, -21143.297391330885, -13748.915642370659, 10650.650936442726, -13166.630347565455, -8299.470937188977, -15832.99229538349, 0.0, 0.0, 0.0, 192.0, 0.0, 0.0, 0.0, 0.0, 0.0, 0.0, 0.0, 0.0, 0.0, 1.6625061759730904E9, 0.0, 2022-09-06 19:16:15.973
22.0, -16594.829153398176, -7278.957340593021, -30146.557706184114, -26279.370639249166, -19170.107742560835, -8201.302075541267, 64589.00893795597, -7676.080784330462, -15549.102789056635, -4687.8760681004605, -21297.099744927855, -13923.818042733437, 10551.386839316707, -13346.15955903048, -8336.798350429339, -15890.883313522734, 0.246, 0.842, 0.5640000000000001, 192.0, 3.5, 88.0, 13.0, 40.0, 8.5, 80.0, 0.0, 0.0, 0.0, 1.6625061759730964E9, 0.0, 2022-09-06 19:16:15.973
24.0, -16375.603243780524, -7051.416582037996, -29906.097639333922, -26052.2992673277, -18931.100539100236, -7990.4357183499005, 61703.19756307573, -7457.8607032132995, -15332.603792262531, -4437.134198800826, -21102.058422810846, -13705.419147660632, 10731.877175793312, -13077.312776722049, -8218.691732727497, -15766.40644865113, 0.246, 0.842, 0.5640000000000001, 192.0, 0.0, 0.0, 0.0, 0.0, 0.0, 0.0, 0.0, 0.0, 0.0, 1.6625061759731026E9, 0.0, 2022-09-06 19:16:15.973
26.0, -16538.74862655981, -7215.008999706388, -30071.366437836463, -26200.245463877378, -19130.32163743039, -8174.055299050248, 62886.40950756187, -7656.008917809596, -15452.520901265252, -4557.900674092851, -21194.81816230037, -13827.951410764625, 10661.737401692559, -13231.897441374951, -8242.116360916658, -15778.051707512344, 0.246, 0.842, 0.5640000000000001, 192.0, 0.0, 0.0, 0.0, 0.0, 0.0, 0.0, 0.0, 0.0, 0.0, 1.6625061759731088E9, 0.0, 2022-09-06 19:16:15.973
28.0, -16293.237065462718, -6968.782182786726, -29790.650879222263, -25929.74465247925, -18853.517634095864, -7891.015159012695, 59714.98754203171, -7412.777234646945, -15300.841963391538, -4378.05853820545, -21031.65042777663, -13675.55721706834, 10784.090850840908, -13050.244814186672, -8200.944447629983, -15739.383189604663, 0.246, 0.842, 0.5640000000000001, 192.0, 0.0, 0.0, 0.0, 0.0, 0.0, 0.0, 0.0, 0.0, 0.0, 1.6625061759731147E9, 0.0, 2022-09-06 19:16:15.973
30.0, -16503.87990520953, -7182.487211523916, -29971.83411977698, -26138.442890458453, -19074.48697978103, -8154.341060440667, 61337.70183774255, -7680.819354154987, -15368.478342113298, -4467.577274748955, -21076.89035855417, -13752.648383694695, 10768.064650066453, -13150.067704924073, -8164.4216971900105, -15707.934285156047, 0.246, 0.842, 0.5640000000000001, 192.0, 0.0, 0.0, 0.0, 0.0, 0.0, 0.0, 0.0, 0.0, 0.0, 1.6625061759731212E9, 0.0, 2022-09-06 19:16:15.973
32.0, -16223.097291361964, -6887.667702158416, -29677.752217978505, -25838.370721145955, -18820.01236915736, -7866.249426156214, 58184.69770964357, -7422.075560340352, -15274.466904934277, -4339.792351697964, -20965.466912444463, -13646.678763232085, 10833.443502598227, -13011.643351512355, -8176.245770006868, -15739.1149686712, 0.228, 0.78, 0.586, 192.0, 3.5, 16.0, 12.0, 48.0, 9.0, 40.0, 0.0, 0.0, 0.0, 1.6625061759731271E9, 0.0, 2022-09-06 19:16:15.973
34.0, -16452.895576106977, -7130.497053920872, -29871.92182206176, -26094.745230048327, -19048.469549235055, -8112.1186151645925, 60348.9947735065, -7648.319917716971, -15278.177294513858, -4372.917636980729, -20955.609793139673, -13659.396905827154, 10866.38997392535, -13086.834619860008, -8101.099205148126, -15643.069522746746, 0.228, 0.78, 0.586, 192.0, 0.0, 0.0, 0.0, 0.0, 0.0, 0.0, 0.0, 0.0, 0.0, 1.6625061759731333E9, 0.0, 2022-09-06 19:16:15.973
36.0, -16154.298621928529, -6816.946782701824, -29574.733027783994, -25748.71787413572, -18750.990182279373, -7784.620855405433, 57415.7529968921, -7359.937710754599, -15257.323116937056, -4316.747703164542, -20919.55642933326, -13620.46016698601, 10861.874921545377, -13014.392616080358, -8166.18748500198, -15722.619381263183, 0.228, 0.78, 0.586, 192.0, 0.0, 0.0, 0.0, 0.0, 0.0, 0.0, 0.0, 0.0, 0.0, 1.6625061759731395E9, 0.0, 2022-09-06 19:16:15.973
38.0, -16375.424429824881, -7066.660471756515, -29756.98915207257, -25992.06131602065, -18979.380307123698, -8043.007021308783, 59355.906767357206, -7599.816632248954, -15191.854857427463, -4247.926681986652, -20832.20581200192, -13536.864642723162, 10963.553007072569, -12970.270272525582, -8020.834090809119, -15549.683934412473, 0.228, 0.78, 0.586, 192.0, 0.0, 0.0, 0.0, 0.0, 0.0, 0.0, 0.0, 0.0, 0.0, 1.6625061759731457E9, 0.0, 2022-09-06 19:16:15.973
40.0, -16092.361938042874, -6765.023680332146, -29485.907195318607, -25646.838622908428, -18695.78137347476, -7732.250718146649, 56460.08181096099, -7280.387852238161, -15231.573907324542, -4261.494190871023, -20872.841283421672, -13564.15612270309, 10884.181962511775, -12972.28192952656, -8140.0582957337265, -15680.598101687207, 0.228, 0.78, 0.586, 192.0, 0.0, 0.0, 0.0, 0.0, 0.0, 0.0, 0.0, 0.0, 0.0, 1.662506175973152E9, 0.0, 2022-09-06 19:16:15.973
42.0, -16319.9026965979, -7014.625610664561, -29659.15556659169, -25904.420126011388, -18906.759489388405, -7962.116058125027, 58177.83572409579, -7500.731349078578, -15098.916303982294, -4139.00663125594, -20724.045720582693, -13429.240993170857, 11047.528510991158, -12864.837093929898, -7932.611755444022, -15451.87270067605, 0.244, 0.75, 0.596, 192.0, 3.5, 80.0, 11.5, 56.0, 9.0, 80.0, 0.0, 0.0, 0.0, 1.6625061759731584E9, 0.0, 2022-09-06 19:16:15.973
44.0, -15954.25050905353, -6598.100852739913, -29325.578132340688, -25436.911038984184, -18547.43284552489, -7577.554294771468, 54504.97472345528, -7173.32299629724, -15200.706148231764, -4205.145443099194, -20823.309817708712, -13516.502203524376, 10925.622096731913, -12911.351074141392, -8109.548164552232, -15637.638048844106, 0.244, 0.75, 0.596, 192.0, 0.0, 0.0, 0.0, 0.0, 0.0, 0.0, 0.0, 0.0, 0.0, 1.6625061759731672E9, 0.0, 2022-09-06 19:16:15.973
46.0, -16259.463579590749, -6980.561552114672, -29585.2830511669, -25881.93427108935, -18869.96851801497, -7945.285194550181, 57243.7116198196, -7471.7187847755895, -14884.227798489072, -3918.841948371166, -20528.959694976773, -13209.18806900836, 11239.485292373336, -12663.134951965209, -7751.473218378213, -15262.575776884054, 0.244, 0.75, 0.596, 192.0, 0.0, 0.0, 0.0, 0.0, 0.0, 0.0, 0.0, 0.0, 0.0, 1.6625061759731736E9, 0.0, 2022-09-06 19:16:15.973
48.0, -15937.039665822944, -6567.233093647134, -29267.26243105679, -25355.461282189048, -18504.115164770505, -7513.516546907013, 53978.92641769963, -7111.118091478121, -15269.907149065395, -4276.89454280073, -20915.175487420023, -13570.25814893939, 10841.065447457488, -13008.04472065505, -8142.5840428571755, -15668.394049214608, 0.244, 0.75, 0.596, 192.0, 0.0, 0.0, 0.0, 0.0, 0.0, 0.0, 0.0, 0.0, 0.0, 1.6625061759731812E9, 0.0, 2022-09-06 19:16:15.973
50.0, -16251.014620186643, -7004.522622170762, -29534.83516393127, -25920.401623296933, -18882.01610827638, -8003.891468511995, 56873.432621172986, -7495.232819942573, -14750.318497457327, -3781.691644393402, -20416.70923432222, -13033.279840145093, 11376.814410306743, -12494.446336561006, -7617.675676068745, -15118.787004803064, 0.244, 0.75, 0.596, 192.0, 0.0, 0.0, 0.0, 0.0, 0.0, 0.0, 0.0, 0.0, 0.0, 1.6625061759731877E9, 0.0, 2022-09-06 19:16:15.973
52.0, -16023.652675587258, -6640.233891038167, -29321.152486938536, -25371.219262030037, -18595.399689125978, -7602.990579961608, 54643.98022222283, -7218.384113119139, -15451.269203575755, -4475.4450887972225, -21111.80378339336, -13712.392891930687, 10658.786971424457, -13184.489391385245, -8312.54670769533, -15835.22746982902, 0.228, 0.704, 0.614, 192.0, 3.5, 16.0, 11.0, 0.0, 9.5, 24.0, 0.0, 0.0, 0.0, 1.662506175973194E9, 0.0, 2022-09-06 19:16:15.973
54.0, -16220.25861981614, -7010.445834451418, -29502.335727493257, -25934.550277537142, -18904.03257656486, -8057.669765671464, 56633.486644445264, -7548.720544424123, -14633.061246044785, -3676.0125966087103, -20305.241084723602, -12860.634965972302, 11459.6052717692, -12375.043317680755, -7549.525207224514, -15053.229338315647, 0.228, 0.704, 0.614, 192.0, 0.0, 0.0, 0.0, 0.0, 0.0, 0.0, 0.0, 0.0, 0.0, 1.6625061759732E9, 0.0, 2022-09-06 19:16:15.973
56.0, -16168.380220935373, -6777.853581649492, -29442.656569797586, -25452.04316998043, -18737.51208037282, -7735.223500159204, 56047.73682924949, -7389.50906866897, -15621.56714458074, -4679.762384863185, -21284.962747688623, -13857.411009956719, 10467.478390631484, -13428.70455130393, -8477.659043986683, -15980.916140188712, 0.228, 0.704, 0.614, 192.0, 0.0, 0.0, 0.0, 0.0, 0.0, 0.0, 0.0, 0.0, 0.0, 1.6625061759732063E9, 0.0, 2022-09-06 19:16:15.973
58.0, -16114.154888886796, -6909.773577424715, -29369.05227530626, -25801.199770116782, -18798.666453202542, -7956.639880733476, 55577.925512543385, -7485.822735526888, -14562.608547521657, -3598.675560793348, -20223.99249362856, -12746.462255294593, 11518.636228875665, -12274.86279903207, -7515.5058521635365, -15016.795994853497, 0.228, 0.704, 0.614, 192.0, 0.0, 0.0, 0.0, 0.0, 0.0, 0.0, 0.0, 0.0, 0.0, 1.6625061759732127E9, 0.0, 2022-09-06 19:16:15.973
60.0, -16340.220432307773, -6959.528560582228, -29596.794199561384, -25597.865950806852, -18938.208393837023, -7931.628278687987, 57740.70265778335, -7592.351149600881, -15697.093689095223, -4774.623188331508, -21376.38138251083, -13916.84429846338, 10389.001415848901, -13567.710050071484, -8515.299381649422, -15997.16585840772, 0.228, 0.704, 0.614, 192.0, 0.0, 0.0, 0.0, 0.0, 0.0, 0.0, 0.0, 0.0, 0.0, 1.6625061759732192E9, 0.0, 2022-09-06 19:16:15.973
62.0, -16018.042387728978, -6819.897212969925, -29259.014637352782, -25659.46735852568, -18692.048632150727, -7845.305841601592, 54941.28077522288, -7384.636388377713, -14582.009861708864, -3628.9398227858333, -20250.702828252655, -12754.911214698699, 11475.787934754842, -12268.157275695477, -7552.475637492614, -15051.485902248134, 0.244, 0.6880000000000001, 0.63, 192.0, 3.5, 80.0, 10.5, 64.0, 9.5, 88.0, 0.0, 0.0, 0.0, 1.6625061759732256E9, 0.0, 2022-09-06 19:16:15.973
64.0, -16611.61531348411, -7260.450096184028, -29845.971446749147, -25885.21997752428, -19207.479859290106, -8208.901668656072, 60533.374313518325, -7865.9365017338405, -15754.537672345361, -4865.348919075599, -21456.15475847182, -13969.728525844637, 10333.725551810927, -13637.380437538677, -8545.608347130817, -15992.583750794382, 0.244, 0.6880000000000001, 0.63, 192.0, 0.0, 0.0, 0.0, 0.0, 0.0, 0.0, 0.0, 0.0, 0.0, 1.662506175973232E9, 0.0, 2022-09-06 19:16:15.973
66.0, -16017.12596620631, -6788.738881199227, -29223.229494479838, -25574.77659878452, -18660.84559689112, -7796.422576477836, 55185.69710084166, -7311.121500864208, -14804.45442252808, -3825.8586914370885, -20460.272784265613, -12931.959382529187, 11265.502722919313, -12391.31538764422, -7742.599575829456, -15236.424235871344, 0.244, 0.6880000000000001, 0.63, 192.0, 0.0, 0.0, 0.0, 0.0, 0.0, 0.0, 0.0, 0.0, 0.0, 1.6625061759732382E9, 0.0, 2022-09-06 19:16:15.973
68.0, -16767.831655482252, -7419.952144617098, -29954.757387013127, -26047.001903891793, -19327.64283748184, -8367.75551649994, 62022.49223261979, -7993.386148618001, -15759.79033229236, -4893.534468833741, -21477.746543615645, -13973.036584024023, 10344.1414647271, -13653.56310052432, -8499.407291341699, -15955.189282320653, 0.244, 0.6880000000000001, 0.63, 192.0, 0.0, 0.0, 0.0, 0.0, 0.0, 0.0, 0.0, 0.0, 0.0, 1.6625061759732444E9, 0.0, 2022-09-06 19:16:15.973
70.0, -15836.702684963071, -6567.009576202581, -28981.405971217868, -25304.208732153027, -18441.999666929205, -7546.463018234136, 53304.082549105, -7136.286155734797, -14870.257958204504, -3885.5378491327588, -20512.911142457862, -12984.597740721434, 11206.494117557302, -12430.900327074567, -7808.73838767271, -15332.000295162237, 0.244, 0.6880000000000001, 0.63, 192.0, 0.0, 0.0, 0.0, 0.0, 0.0, 0.0, 0.0, 0.0, 0.0, 1.6625061759732504E9, 0.0, 2022-09-06 19:16:15.973
72.0, -16771.184417150547, -7440.269880326972, -29894.832360128446, -26088.3079276452, -19367.183073423275, -8427.412322451153, 61954.83350215358, -8045.5551201766875, -15556.79178914926, -4699.767196150684, -21283.487532554573, -13762.661965210673, 10546.491807280994, -13469.116505279126, -8296.02876854286, -15761.220843937499, 0.255, 0.6970000000000001, 0.64, 192.0, 4.0, 40.0, 11.0, 8.0, 10.0, 40.0, 0.0, 0.0, 0.0, 1.6625061759732568E9, 0.0, 2022-09-06 19:16:15.973
74.0, -15658.827502587737, -6354.377431199245, -28749.372512027327, -25047.8118715062, -18251.272231492072, -7343.531530324403, 51528.88465272006, -6939.367287083542, -14884.674833378176, -3887.8624305561107, -20515.995683192694, -12983.927188387775, 11178.755602688267, -12460.51638847785, -7847.183388135838, -15374.066278227125, 0.255, 0.6970000000000001, 0.64, 192.0, 0.0, 0.0, 0.0, 0.0, 0.0, 0.0, 0.0, 0.0, 0.0, 1.6625061759732628E9, 0.0, 2022-09-06 19:16:15.973
76.0, -16826.504984677435, -7539.578680941901, -29888.52916819205, -26208.314443625743, -19425.141146795886, -8536.444131904142, 62126.338437359154, -8148.440199904467, -15344.98665869077, -4496.276914629569, -21064.55219561484, -13542.787855003817, 10754.27362373753, -13281.875941977018, -8094.974827167372, -15555.070704826201, 0.255, 0.6970000000000001, 0.64, 192.0, 0.0, 0.0, 0.0, 0.0, 0.0, 0.0, 0.0, 0.0, 0.0, 1.6625061759732704E9, 0.0, 2022-09-06 19:16:15.973
78.0, -15675.524255695851, -6344.565015383365, -28717.96831106762, -24964.93160306592, -18245.639591889332, -7327.862957461233, 50961.08328832189, -6937.4450370603845, -15085.013518931095, -4096.024226668385, -20700.24111273779, -13167.949100488318, 10958.255643636661, -12629.428521326605, -8047.633832411031, -15575.477847513897, 0.255, 0.6970000000000001, 0.64, 192.0, 0.0, 0.0, 0.0, 0.0, 0.0, 0.0, 0.0, 0.0, 0.0, 1.6625061759732769E9, 0.0, 2022-09-06 19:16:15.973
80.0, -16796.93362676306, -7541.679744920701, -29825.586655805906, -26243.18316497602, -19429.85736487596, -8562.998004317047, 61589.360128564855, -8127.98835372786, -15183.897636401372, -4334.249119073048, -20875.344678800666, -13346.69600089741, 10899.53761095257, -13097.004663587173, -7945.508711994734, -15400.597798895575, 0.255, 0.6970000000000001, 0.64, 192.0, 0.0, 0.0, 0.0, 0.0, 0.0, 0.0, 0.0, 0.0, 0.0, 1.662506175973283E9, 0.0, 2022-09-06 19:16:15.973
82.0, -15640.946107023492, -6276.682767472597, -28653.215307380597, -24862.001819849233, -18206.7475565371, -7234.81264529379, 50514.42837887149, -6884.180830023388, -15231.573907324542, -4234.381524846736, -20808.378852412567, -13286.34629086808, 10841.423075368772, -12797.468936141604, -8170.635482148587, -15695.037328605335, 0.2575, 0.7135, 0.644, 192.0, 4.0, 16.0, 11.0, 104.0, 10.0, 32.0, 0.0, 0.0, 0.0, 1.6625061759732893E9, 0.0, 2022-09-06 19:16:15.973
84.0, -16682.045660262786, -7448.85295019781, -29682.58019478085, -26185.202739858956, -19335.622410252385, -8495.674550017662, 60509.99438881808, -8034.043971782205, -14954.524034801012, -4087.217639352994, -20619.350149554033, -13079.100916278472, 11144.7809511162, -12844.273489031017, -7737.503378093646, -15184.255264312658, 0.2575, 0.7135, 0.644, 192.0, 0.0, 0.0, 0.0, 0.0, 0.0, 0.0, 0.0, 0.0, 0.0, 1.6625061759732952E9, 0.0, 2022-09-06 19:16:15.973
86.0, -15733.035294179357, -6337.568919368854, -28736.386148498794, -24911.399175095463, -18308.112717641918, -7325.091341148775, 51127.38026706938, -6958.545083826195, -15367.271347912712, -4396.364616914346, -20955.900365817593, -13426.201155924935, 10678.702375734136, -13013.252677113138, -8303.360140724199, -15804.784393880893, 0.2575, 0.7135, 0.644, 192.0, 0.0, 0.0, 0.0, 0.0, 0.0, 0.0, 0.0, 0.0, 0.0, 1.6625061759733016E9, 0.0, 2022-09-06 19:16:15.973
88.0, -16514.631094292534, -7288.166259308608, -29511.343480508745, -26046.085482369126, -19192.79476318297, -8336.328963795777, 58901.04876769171, -7885.516629876689, -14799.134707347717, -3923.066428073219, -20445.744150369665, -12898.230600146127, 11275.918635835485, -12668.342908423294, -7616.088702212418, -15064.718134965675, 0.2575, 0.7135, 0.644, 192.0, 0.0, 0.0, 0.0, 0.0, 0.0, 0.0, 0.0, 0.0, 0.0, 1.6625061759733078E9, 0.0, 2022-09-06 19:16:15.973
90.0, -15827.60552496976, -6427.735856501563, -28818.551161116502, -24979.7955131287, -18393.20580878327, -7398.002731561987, 51790.75769075843, -7080.183277151976, -15433.186642311412, -4466.750260204108, -21017.92645668107, -13487.91432236604, 10618.86675582728, -13094.25539901917, -8332.819739916295, -15821.637609200194, 0.2575, 0.7135, 0.644, 192.0, 0.0, 0.0, 0.0, 0.0, 0.0, 0.0, 0.0, 0.0, 0.0, 1.662506175973314E9, 0.0, 2022-09-06 19:16:15.973
92.0, -16304.345882457004, -7070.929654947478, -29298.21959712739, -25812.21918013325, -18989.684461317596, -8111.6492285310305, 56635.3194874906, -7671.856304628409, -14678.748211711432, -3760.591597627592, -20308.035052780517, -12756.654650766213, 11401.177811763027, -12426.429978183507, -7540.8080268869435, -14969.209130908148, 0.26175000000000004, 0.72175, 0.632, 192.0, 4.0, 40.0, 11.0, 104.0, 9.5, 48.0, 0.0, 0.0, 0.0, 1.6625061759733205E9, 0.0, 2022-09-06 19:16:15.973
94.0, -16069.473751720638, -6711.603011083962, -29076.959678764306, -25284.449790054536, -18674.50251275331, -7679.210028554205, 53893.65451260263, -7332.467416819027, -15431.711427177363, -4487.425623825267, -21049.911802996612, -13523.833575705718, 10613.547040646916, -13137.595431518012, -8329.98106837047, -15771.279128942388, 0.26175000000000004, 0.72175, 0.632, 192.0, 0.0, 0.0, 0.0, 0.0, 0.0, 0.0, 0.0, 0.0, 0.0, 1.6625061759733264E9, 0.0, 2022-09-06 19:16:15.973
96.0, -15996.763527007524, -6716.296877419577, -28963.34576169798, -25371.10750330776, -18586.615453555045, -7665.083726058451, 53058.30276707444, -7281.997177838944, -14758.432180694603, -3829.1220461275634, -20374.352678579413, -12847.91682337723, 11322.946706169452, -12454.123789563631, -7656.120676531873, -15090.735565511653, 0.26175000000000004, 0.72175, 0.632, 192.0, 0.0, 0.0, 0.0, 0.0, 0.0, 0.0, 0.0, 0.0, 0.0, 1.6625061759733324E9, 0.0, 2022-09-06 19:16:15.973
98.0, -15941.755883903013, -6649.666327198306, -28952.6839795928, -25272.737475959955, -18601.85934327356, -7619.977905747642, 52691.935323707505, -7302.4937275044595, -15040.935878865228, -4127.763703794921, -20669.887443767482, -13151.140588657927, 11023.880365357443, -12799.592351864858, -7944.90521489444, -15372.836932282084, 0.26175000000000004, 0.72175, 0.632, 192.0, 0.0, 0.0, 0.0, 0.0, 0.0, 0.0, 0.0, 0.0, 0.0, 1.6625061759733388E9, 0.0, 2022-09-06 19:16:15.973
100.0, -16159.081895241965, -6894.350873750553, -29098.819684841597, -25547.395711826768, -18776.694688402975, -7868.350490135013, 54655.334908406134, -7502.899468290743, -14893.95080732713, -3980.4433560899924, -20510.050119167583, -12989.291607057048, 11177.570960232135, -12631.149605649663, -7790.141736285894, -15191.988967894195, 0.26175000000000004, 0.72175, 0.632, 192.0, 0.0, 0.0, 0.0, 0.0, 0.0, 0.0, 0.0, 0.0, 0.0, 1.6625061759733448E9, 0.0, 2022-09-06 19:16:15.973
102.0, -16131.566897817482, -6833.330611387564, -29102.75359186573, -25446.030550721953, -18794.53138047831, -7800.065910824051, 54533.629659846985, -7501.0666252454075, -15231.931535235828, -4312.590278695855, -20830.618838145594, -13323.293724452702, 10850.319069661984, -12964.749391645122, -8122.311010636212, -15521.274867209777, 0.280875, 0.7498750000000001, 0.614, 192.0, 4.5, 48.0, 12.0, 40.0, 9.0, 80.0, 0.0, 0.0, 0.0, 1.662506175973351E9, 0.0, 2022-09-06 19:16:15.973
104.0, -16167.732020346168, -6881.699786388849, -29096.04806852914, -25513.71163293262, -18827.991941927903, -7838.041524653617, 54655.29020491722, -7517.450453931147, -15021.06517804446, -4083.3284358177707, -20603.346300524034, -13091.752003640177, 11063.66647048789, -12718.634333447735, -7934.71281942282, -15318.07515836658, 0.280875, 0.7498750000000001, 0.614, 192.0, 0.0, 0.0, 0.0, 0.0, 0.0, 0.0, 0.0, 0.0, 0.0, 1.662506175973357E9, 0.0, 2022-09-06 19:16:15.973
106.0, -16108.47754579515, -6805.390930818431, -29102.552426165632, -25437.581591317845, -18781.589720438686, -7787.34776822898, 54630.50212031628, -7508.554459637936, -15209.132755891414, -4277.363929434291, -20788.195227169424, -13284.5357995672, 10863.730116335168, -12931.959382529187, -8116.454853588922, -15483.96980571387, 0.280875, 0.7498750000000001, 0.614, 192.0, 0.0, 0.0, 0.0, 0.0, 0.0, 0.0, 0.0, 0.0, 0.0, 1.6625061759733644E9, 0.0, 2022-09-06 19:16:15.973
108.0, -16109.23750510663, -6822.199442648822, -29066.901393759417, -25464.42603640867, -18750.341981690166, -7794.008588076662, 54181.701443398175, -7471.741136520045, -14977.009889723051, -4036.2780137393493, -20555.804140067594, -13046.981459496195, 11085.705290520822, -12679.876408562233, -7911.355246467024, -15302.227771547768, 0.280875, 0.7498750000000001, 0.614, 192.0, 0.0, 0.0, 0.0, 0.0, 0.0, 0.0, 0.0, 0.0, 0.0, 1.662506175973372E9, 0.0, 2022-09-06 19:16:15.973
110.0, -16132.125691428864, -6835.1858061773555, -29143.456118518847, -25463.733132330555, -18819.274761590335, -7808.604277205977, 54859.38398353863, -7553.168541570729, -15198.068642386037, -4265.785725806442, -20775.92411946346, -13274.72338375132, 10879.309282220518, -12948.32085947047, -8085.162411351492, -15469.77644798475, 0.280875, 0.7498750000000001, 0.614, 192.0, 0.0, 0.0, 0.0, 0.0, 0.0, 0.0, 0.0, 0.0, 0.0, 1.6625061759733782E9, 0.0, 2022-09-06 19:16:15.973
112.0, -16074.65935643427, -6794.460927779785, -29052.104538930005, -25402.26583507846, -18732.61704833711, -7743.940680496774, 53911.04416978886, -7454.127961889263, -14983.424840381724, -4029.125455513651, -20568.2540617292, -13053.329354921503, 11072.7636304812, -12665.928920022121, -7948.101514351549, -15321.159699101414, 0.2984375, 0.7739375000000001, 0.5880000000000001, 192.0, 4.5, 112.0, 12.0, 120.0, 8.5, 72.0, 0.0, 0.0, 0.0, 1.6625061759733844E9, 0.0, 2022-09-06 19:16:15.973
114.0, -16159.037191753054, -6889.724062648304, -29180.649421292477, -25475.28898421395, -18839.48073857793, -7829.346696060503, 55149.39786784624, -7552.274471792516, -15182.668290456331, -4237.8907487262195, -20761.95427917889, -13251.589328240078, 10906.265486033617, -12876.772925469033, -8066.632815198042, -15427.218726541845, 0.2984375, 0.7739375000000001, 0.5880000000000001, 192.0, 0.0, 0.0, 0.0, 0.0, 0.0, 0.0, 0.0, 0.0, 0.0, 1.6625061759733906E9, 0.0, 2022-09-06 19:16:15.973
116.0, -16068.646737175792, -6813.549317544618, -29060.531146589656, -25392.431067518126, -18705.012643934806, -7723.8911657203635, 53746.17770268652, -7437.453560525604, -15002.53558189101, -4047.1856650335394, -20583.944986336828, -13075.502285421167, 11050.367182536982, -12682.98330104152, -7964.0830116370935, -15334.995428919248, 0.2984375, 0.7739375000000001, 0.5880000000000001, 192.0, 0.0, 0.0, 0.0, 0.0, 0.0, 0.0, 0.0, 0.0, 0.0, 1.6625061759733968E9, 0.0, 2022-09-06 19:16:15.973
118.0, -16196.521067204603, -6932.70646723586, -29224.68235786943, -25522.227647570093, -18860.02199173236, -7879.9063420184075, 55408.92397271681, -7611.216021921161, -15187.786839936596, -4248.999565720506, -20760.076732644648, -13265.089781891082, 10900.744605153157, -12906.433690361226, -8055.769867392763, -15433.141938822502, 0.2984375, 0.7739375000000001, 0.5880000000000001, 192.0, 0.0, 0.0, 0.0, 0.0, 0.0, 0.0, 0.0, 0.0, 0.0, 1.6625061759734032E9, 0.0, 2022-09-06 19:16:15.973
120.0, -16049.133664266308, -6785.028491619646, -29067.6613530709, -25368.425293973127, -18699.69292875444, -7725.008752943129, 53566.581435988126, -7434.123150601763, -15032.5986781834, -4079.61804623819, -20612.4658122618, -13113.991989373208, 11019.342961233016, -12723.015275360976, -7999.957561487861, -15398.80965933915, 0.2984375, 0.7739375000000001, 0.5880000000000001, 192.0, 0.0, 0.0, 0.0, 0.0, 0.0, 0.0, 0.0, 0.0, 0.0, 1.66250617597341E9, 0.0, 2022-09-06 19:16:15.973
122.0, -16220.63859947188, -6956.3993163584855, -29270.27991655826, -25546.948676937664, -18890.88975082514, -7905.364978953002, 55481.07540381854, -7625.36467616137, -15159.422476222811, -4231.565205045367, -20732.0923485866, -13246.269613059714, 10919.721236195712, -12899.527001324535, -8034.736875860319, -15422.05547357267, 0.31321875, 0.7819687500000001, 0.5660000000000001, 192.0, 5.0, 32.0, 12.0, 88.0, 8.5, 0.0, 0.0, 0.0, 0.0, 1.662506175973416E9, 0.0, 2022-09-06 19:16:15.973
124.0, -16021.88688777529, -6750.830322603027, -29075.104483974515, -25330.762604565934, -18695.870780452584, -7693.939828150253, 53358.6431573204, -7404.6859031541235, -15042.92518412175, -4104.450834328036, -20625.742748468252, -13136.053161150594, 10996.655940610879, -12770.311566628405, -8025.550308889188, -15424.223592784834, 0.31321875, 0.7819687500000001, 0.5660000000000001, 192.0, 0.0, 0.0, 0.0, 0.0, 0.0, 0.0, 0.0, 0.0, 0.0, 1.662506175973422E9, 0.0, 2022-09-06 19:16:15.973
126.0, -16221.376207038906, -6959.863836749058, -29278.438303284445, -25548.267429860527, -18868.02391624736, -7912.673999389887, 55389.656768996334, -7623.88946102732, -15131.61690612041, -4202.798509931387, -20705.896104084983, -13223.828461626586, 10949.471408065727, -12869.21803584314, -8010.328770915124, -15393.065261014137, 0.31321875, 0.7819687500000001, 0.5660000000000001, 192.0, 0.0, 0.0, 0.0, 0.0, 0.0, 0.0, 0.0, 0.0, 0.0, 1.6625061759734282E9, 0.0, 2022-09-06 19:16:15.973
128.0, -16011.046291714465, -6737.66514511885, -29069.22597518277, -25310.57897932279, -18675.64245172053, -7694.275104317082, 53111.29875317797, -7427.887013898732, -15063.824065187464, -4126.064971216318, -20645.41228358892, -13159.947175973319, 10978.439268879803, -12756.967575188586, -8035.653297382987, -15444.206052327878, 0.31321875, 0.7819687500000001, 0.5660000000000001, 192.0, 0.0, 0.0, 0.0, 0.0, 0.0, 0.0, 0.0, 0.0, 0.0, 1.6625061759734344E9, 0.0, 2022-09-06 19:16:15.973
130.0, -16241.582184026503, -6982.148525970999, -29279.690000973944, -25560.292668377482, -18893.72842237096, -7922.307601250125, 55290.23620965913, -7630.952612275197, -15123.391464160857, -4178.390404986191, -20685.868941053028, -13202.639007882955, 10958.903844225866, -12822.949924820654, -7987.3288258706125, -15380.548284119164, 0.31321875, 0.7819687500000001, 0.5660000000000001, 192.0, 0.0, 0.0, 0.0, 0.0, 0.0, 0.0, 0.0, 0.0, 0.0, 1.6625061759734404E9, 0.0, 2022-09-06 19:16:15.973
132.0, -16010.666312058725, -6742.582528899018, -29064.12977744696, -25301.347708862748, -18654.631811932544, -7683.255694300616, 53113.66803809024, -7394.851135593789, -15100.011539460605, -4144.572215625312, -20675.676545581406, -13192.670129855887, 10935.680381736802, -12778.96169173261, -8058.630890683043, -15464.188511870923, 0.326609375, 0.7769843750000001, 0.545, 192.0, 5.0, 80.0, 12.0, 16.0, 8.0, 48.0, 0.0, 0.0, 0.0, 1.6625061759734466E9, 0.0, 2022-09-06 19:16:15.973
134.0, -16233.826128700512, -6976.448831134896, -29263.820262410674, -25558.281011376504, -18892.67789038156, -7921.592345427555, 55253.15466560778, -7607.304466641483, -15081.526646796066, -4147.701459849055, -20651.93899296987, -13178.588530849043, 11000.187516234817, -12793.624436095291, -7961.020822646717, -15351.938051216372, 0.326609375, 0.7769843750000001, 0.545, 192.0, 0.0, 0.0, 0.0, 0.0, 0.0, 0.0, 0.0, 0.0, 0.0, 1.6625061759734533E9, 0.0, 2022-09-06 19:16:15.973
0.0, -8151.591795872664, -3522.500815689661, -14556.148893374073, -12827.420273711716, -9452.910358060642, -4062.094278585229, 25561.901993978263, -3888.8906108010547, -7524.088922034374, -2052.180713675107, -10312.46904283393, -6575.726756540151, 5489.297865545495, -6376.885637865739, -4022.7328565994335, -7724.114683164917, 0.24, 0.768, 0.512, 192.0, 3.5, 64.0, 12.0, 0.0, 8.0, 0.0, 0.0, 0.0, 0.0, 1.6625061760826204E9, 0.0, 2022-09-06 19:16:16.082
2.0, -16355.151397603919, -7094.935428492478, -29195.401572632978, -25708.820010282998, -18973.255929142946, -8178.168020030024, 52084.52666813453, -7866.204722667304, -15299.746727913229, -4371.822401502419, -20879.52445501381, -13395.60161776562, 10759.816856362446, -13050.602442097956, -8147.56848187071, -15498.140811698535, 0.24, 0.768, 0.512, 192.0, 0.0, 0.0, 0.0, 0.0, 0.0, 0.0, 0.0, 0.0, 0.0, 1.662506176561808E9, 0.0, 2022-09-06 19:16:16.561
4.0, -16219.118680848918, -6964.423592617941, -29085.676859101877, -25590.44517164769, -18879.1550849861, -8039.251928240291, 50735.50948327893, -7760.235102204693, -15216.330017606024, -4268.244417696526, -20806.434250644954, -13320.745625584797, 10801.860487682878, -12957.37331597487, -8163.23705473388, -15509.920181026482, 0.24, 0.768, 0.512, 192.0, 0.0, 0.0, 0.0, 0.0, 0.0, 0.0, 0.0, 0.0, 0.0, 1.6625061765618577E9, 0.0, 2022-09-06 19:16:16.561
6.0, -16359.75585696171, -7108.279419932297, -29221.910741556974, -25746.95208632375, -19013.466717418043, -8180.403194475555, 52226.43789368128, -7920.966496582806, -15298.003291845715, -4356.891436206274, -20872.103675854647, -13405.235219625858, 10764.197798275685, -13041.795854782566, -8165.896912324061, -15492.172895928967, 0.24, 0.768, 0.512, 192.0, 0.0, 0.0, 0.0, 0.0, 0.0, 0.0, 0.0, 0.0, 0.0, 1.662506176561864E9, 0.0, 2022-09-06 19:16:16.561
8.0, -16173.72228786019, -6918.624868229016, -29061.112291945494, -25570.4850638491, -18859.73141905444, -8005.724311557331, 50829.409161735675, -7774.048480278073, -15246.191948198313, -4290.730272618565, -20817.565419383696, -13356.955451602395, 10786.661301453269, -12984.821258165986, -8182.4372032209885, -15528.472128924386, 0.198, 0.802, 0.468, 192.0, 3.0, 24.0, 12.5, 8.0, 7.0, 80.0, 0.0, 0.0, 0.0, 1.66250617656187E9, 0.0, 2022-09-06 19:16:16.561
10.0, -16321.75789138769, -7061.899550187534, -29177.96721195784, -25710.585798094966, -18982.196626925066, -8133.352772397134, 52117.763712139575, -7891.104565990516, -15254.73031458024, -4307.136453048761, -20811.575151869674, -13362.4539807384, 10810.37650232035, -13014.504374802635, -8113.817347743196, -15452.990287898814, 0.198, 0.802, 0.468, 192.0, 0.0, 0.0, 0.0, 0.0, 0.0, 0.0, 0.0, 0.0, 0.0, 1.6625061765618773E9, 0.0, 2022-09-06 19:16:16.561
12.0, -16140.217022921684, -6871.753260106238, -29029.12694562995, -25518.80783066843, -18826.896706449596, -7950.962537641828, 50392.16433670096, -7737.369267626914, -15239.195852183802, -4264.444621139124, -20796.979462740357, -13343.387942718024, 10792.47275501165, -12969.510313214101, -8162.387688444578, -15516.536297385252, 0.198, 0.802, 0.468, 192.0, 0.0, 0.0, 0.0, 0.0, 0.0, 0.0, 0.0, 0.0, 0.0, 1.6625061765618837E9, 0.0, 2022-09-06 19:16:16.561
14.0, -16238.721160736224, -6983.735499827326, -29121.05967057463, -25626.4985354541, -18902.870285853183, -8051.008945823783, 51431.051067239176, -7800.982332346718, -15190.871380671428, -4204.363132043259, -20733.858136398572, -13279.193732642381, 10862.746639579134, -12922.526946369046, -8058.273262771758, -15394.920455803927, 0.198, 0.802, 0.468, 192.0, 0.0, 0.0, 0.0, 0.0, 0.0, 0.0, 0.0, 0.0, 0.0, 1.66250617656189E9, 0.0, 2022-09-06 19:16:16.561
16.0, -16045.445626431183, -6791.801070189604, -29011.223198321248, -25442.051940208905, -18742.116539730614, -7882.208571697304, 49922.330668250404, -7665.03902256954, -15181.237778811192, -4192.024969103929, -20740.362494035067, -13282.904122221962, 10824.18988039373, -12917.050768977497, -8109.346998852134, -15472.905692208493, 0.198, 0.802, 0.468, 192.0, 0.0, 0.0, 0.0, 0.0, 0.0, 0.0, 0.0, 0.0, 0.0, 1.662506176561896E9, 0.0, 2022-09-06 19:16:16.561
18.0, -16087.735126940624, -6843.075971970078, -29030.289236341625, -25461.788530562942, -18759.461493427934, -7894.837307314552, 50436.867825611575, -7617.116882457362, -15061.74535295312, -4080.199191594028, -20620.959475154814, -13157.220263149771, 10959.50734132616, -12803.146279233251, -7966.787572716185, -15328.17814686038, 0.156, 0.81, 0.41200000000000003, 192.0, 2.0, 112.0, 12.5, 40.0, 6.0, 112.0, 0.0, 0.0, 0.0, 1.6625061765619023E9, 0.0, 2022-09-06 19:16:16.561
20.0, -15883.484886108028, -6635.2047485357225, -28889.115618361906, -25250.89982162712, -18582.54743606418, -7712.2012033702385, 48854.900760042765, -7462.800438737922, -15033.135120050327, -4042.84942660921, -20586.247216015723, -13113.813175417565, 10981.993196248199, -12753.883034453755, -7966.273482593714, -15338.616411521009, 0.156, 0.81, 0.41200000000000003, 192.0, 0.0, 0.0, 0.0, 0.0, 0.0, 0.0, 0.0, 0.0, 0.0, 1.6625061765619085E9, 0.0, 2022-09-06 19:16:16.561
22.0, -15844.99518215599, -6596.513878883587, -28820.048727995007, -25194.12639071064, -18510.75363287373, -7635.668830355267, 48773.18278231416, -7390.7160628695565, -14837.579707810844, -3865.8906657565435, -20385.41679208479, -12917.922487011254, 11184.298835313182, -12588.457773740027, -7787.817154862542, -15164.51867395862, 0.156, 0.81, 0.41200000000000003, 192.0, 0.0, 0.0, 0.0, 0.0, 0.0, 0.0, 0.0, 0.0, 0.0, 1.6625061765619147E9, 0.0, 2022-09-06 19:16:16.561
24.0, -15597.539019291286, -6352.7457538540075, -28618.07836509685, -24937.662474830446, -18292.75706920112, -7402.897763597699, 47259.567351289676, -7145.517426194839, -14750.34084920178, -3786.296103751195, -20297.574436375435, -12834.05874181494, 11253.678650102454, -12498.201429629496, -7721.231308130183, -15102.55963832851, 0.156, 0.81, 0.41200000000000003, 192.0, 0.0, 0.0, 0.0, 0.0, 0.0, 0.0, 0.0, 0.0, 0.0, 1.662506176561921E9, 0.0, 2022-09-06 19:16:16.561
26.0, -15521.386625932055, -6279.208514596047, -28482.559738464326, -24836.543182914636, -18152.857500655355, -7262.707622374013, 47115.2197855973, -6974.370118900552, -14508.942009084465, -3551.826304415024, -20053.02400028992, -12584.63562543817, 11494.384586141658, -12239.435284070407, -7483.833430270366, -14856.042248730928, 0.156, 0.81, 0.41200000000000003, 192.0, 0.0, 0.0, 0.0, 0.0, 0.0, 0.0, 0.0, 0.0, 0.0, 1.6625061765619273E9, 0.0, 2022-09-06 19:16:16.561
28.0, -15362.063391454625, -6145.701544964498, -28352.651399690083, -24710.479344186708, -18064.99279320154, -7190.064452894266, 47008.71372326776, -6919.161310095944, -14450.447493844928, -3498.5844491224825, -19993.277787360883, -12516.529860082848, 11551.716810669519, -12184.338233988075, -7403.814185120366, -14782.013271094951, 0.158, 0.8220000000000001, 0.34600000000000003, 192.0, 2.0, 120.0, 12.5, 88.0, 5.0, 104.0, 0.0, 0.0, 0.0, 1.6625061765619345E9, 0.0, 2022-09-06 19:16:16.561
30.0, -15425.542345707698, -6202.922010770084, -28334.188858769998, -24758.647353487893, -18111.126793757296, -7230.029371980354, 47750.34460429485, -6956.175798913932, -14339.292268668685, -3395.2970379945086, -19896.494733869404, -12402.424204638506, 11631.691352330608, -12089.835058431037, -7323.146739381164, -14698.462450321014, 0.158, 0.8220000000000001, 0.34600000000000003, 192.0, 0.0, 0.0, 0.0, 0.0, 0.0, 0.0, 0.0, 0.0, 0.0, 1.662506176561941E9, 0.0, 2022-09-06 19:16:16.561
32.0, -15356.095475685059, -6148.204940343492, -28263.199718379943, -24710.680509886803, -18089.892636524753, -7185.571752258748, 47950.07979274748, -7004.924953570957, -14412.784804437733, -3476.255056411631, -19978.48093253147, -12467.065449603255, 11552.320307769813, -12159.863073809514, -7385.329292455828, -14739.522604885413, 0.158, 0.8220000000000001, 0.34600000000000003, 192.0, 0.0, 0.0, 0.0, 0.0, 0.0, 0.0, 0.0, 0.0, 0.0, 1.6625061765619469E9, 0.0, 2022-09-06 19:16:16.561
34.0, -15390.025423768215, -6178.983292458451, -28240.199773335433, -24715.575541922517, -18064.299889123427, -7153.385240243107, 48132.20180656932, -6953.426534345929, -14323.288419638684, -3401.0861398084335, -19917.818298079765, -12396.478640613395, 11616.15688993417, -12103.559029526596, -7335.663716276135, -14702.351653856238, 0.158, 0.8220000000000001, 0.34600000000000003, 192.0, 0.0, 0.0, 0.0, 0.0, 0.0, 0.0, 0.0, 0.0, 0.0, 1.662506176561953E9, 0.0, 2022-09-06 19:16:16.561
36.0, -15360.722286787306, -6155.715126480476, -28264.16084339152, -24729.098347317977, -18084.572921344392, -7167.444487505494, 48346.778553340264, -7060.290224586753, -14371.098801028587, -3449.9694049321897, -19939.499490201415, -12438.07523704472, 11574.873217925218, -12148.128407970478, -7353.768629284934, -14691.28754035086, 0.158, 0.8220000000000001, 0.34600000000000003, 192.0, 0.0, 0.0, 0.0, 0.0, 0.0, 0.0, 0.0, 0.0, 0.0, 1.6625061765619607E9, 0.0, 2022-09-06 19:16:16.561
38.0, -15398.161458749946, -6191.880249009162, -28292.54755884976, -24741.928248635322, -18126.21422126463, -7116.951896780956, 48546.40198307062, -6867.573483893095, -14339.113454713042, -3413.8489858924136, -19889.252768665883, -12419.813861824736, 11600.331854859813, -12120.92633496837, -7378.266141207951, -14716.567363329812, 0.182, 0.922, 0.28400000000000003, 192.0, 2.5, 88.0, 14.0, 104.0, 4.0, 112.0, 0.0, 0.0, 0.0, 1.6625061765619667E9, 0.0, 2022-09-06 19:16:16.561
40.0, -15427.218726541845, -6238.349525731746, -28365.928335896533, -24804.44607787682, -18167.07321012893, -7183.51539176886, 49033.714715685215, -7062.860675199113, -14431.537918035738, -3480.0101494801224, -19931.877545342155, -12487.606702757681, 11529.521528425399, -12188.518010201218, -7401.444900208105, -14694.752060741434, 0.182, 0.922, 0.28400000000000003, 192.0, 0.0, 0.0, 0.0, 0.0, 0.0, 0.0, 0.0, 0.0, 0.0, 1.6625061765619729E9, 0.0, 2022-09-06 19:16:16.561
42.0, -15490.11653543908, -6284.371767565223, -28415.66096730959, -24856.726808157782, -18214.7494810521, -7241.317002930285, 49024.88577662537, -7069.4544398134285, -14425.547650521714, -3495.83518455448, -19927.80952785129, -12505.443394833017, 11500.933647267062, -12190.373204991009, -7479.899523246232, -14797.190105580105, 0.182, 0.922, 0.28400000000000003, 192.0, 0.0, 0.0, 0.0, 0.0, 0.0, 0.0, 0.0, 0.0, 0.0, 1.6625061765619788E9, 0.0, 2022-09-06 19:16:16.561
44.0, -15550.868576868605, -6358.467800434566, -28527.240875630487, -24939.003579497767, -18265.733810154656, -7318.654038745647, 49627.42175190708, -7150.591272186193, -14551.142102616084, -3618.6133168474817, -20005.9735782115, -12610.988332150977, 11426.636448697622, -12284.80932531468, -7515.327038207894, -14818.737187235021, 0.182, 0.922, 0.28400000000000003, 192.0, 0.0, 0.0, 0.0, 0.0, 0.0, 0.0, 0.0, 0.0, 0.0, 1.662506176561985E9, 0.0, 2022-09-06 19:16:16.561
46.0, -15620.628371313618, -6436.0954089278475, -28632.76346120399, -25007.131696597542, -18331.24677315316, -7337.988297699488, 49516.82532034223, -7192.634903506626, -14551.8350066942, -3651.2915672411405, -20037.087206493285, -12660.832722286312, 11390.426622680025, -12346.433084777962, -7590.898286211287, -14910.312284268413, 0.182, 0.922, 0.28400000000000003, 192.0, 0.0, 0.0, 0.0, 0.0, 0.0, 0.0, 0.0, 0.0, 0.0, 1.6625061765619917E9, 0.0, 2022-09-06 19:16:16.561
48.0, -15660.570938655252, -6466.605540109342, -28714.235569743585, -25059.43477862296, -18402.526486221133, -7376.992091773998, 49976.310131109974, -7322.297373091862, -14675.194284343039, -3749.8851120335, -20112.367881818758, -12772.859665496311, 11296.526944223278, -12444.020801069833, -7635.110036743884, -14922.136357085272, 0.306, 0.966, 0.252, 192.0, 4.5, 72.0, 15.0, 24.0, 3.5, 112.0, 0.0, 0.0, 0.0, 1.662506176561998E9, 0.0, 2022-09-06 19:16:16.561
50.0, -15719.82541320627, -6519.2886017905, -28796.422934105747, -25143.097358119176, -18436.65760000439, -7435.486607013537, 49835.71765848609, -7342.615108801736, -14671.461543019002, -3752.4555626458605, -20129.154041904694, -12831.421235969216, 11250.83997855663, -12447.306507504763, -7726.573375055001, -15008.458794171667, 0.306, 0.966, 0.252, 192.0, 0.0, 0.0, 0.0, 0.0, 0.0, 0.0, 0.0, 0.0, 0.0, 1.662506176562004E9, 0.0, 2022-09-06 19:16:16.562
52.0, -15801.632797912695, -6622.97834431867, -28889.093266617452, -25224.52476316986, -18518.912019599917, -7443.242662339529, 50622.72258075745, -7325.918355693621, -14782.102678072773, -3834.039429907731, -20200.47845846158, -12952.74650487262, 11175.358137531059, -12550.884491310657, -7731.982497213185, -14989.415107895746, 0.306, 0.966, 0.252, 192.0, 0.0, 0.0, 0.0, 0.0, 0.0, 0.0, 0.0, 0.0, 0.0, 1.66250617656201E9, 0.0, 2022-09-06 19:16:16.562
54.0, -15880.75797328448, -6721.258964688655, -29001.723706927743, -25331.25434294395, -18622.132375494526, -7549.547558968969, 50655.467886384475, -7440.8063221939, -14844.620507314266, -3896.624314382591, -20266.684325538197, -13036.029104713096, 11088.320444622093, -12620.30900958884, -7838.063876398072, -15090.89202772284, 0.306, 0.966, 0.252, 192.0, 0.0, 0.0, 0.0, 0.0, 0.0, 0.0, 0.0, 0.0, 0.0, 1.6625061765620162E9, 0.0, 2022-09-06 19:16:16.562
56.0, -16067.46209471966, -6907.314885534631, -29181.990525959794, -25522.13824059227, -18798.91232239155, -7775.6578058788555, 51894.961523409074, -7658.758182377599, -15014.136137263315, -4037.8873393401313, -20403.23113241567, -13176.733336059253, 10953.874701723422, -12758.442790322637, -7933.081142077583, -15167.960842604738, 0.306, 0.966, 0.252, 192.0, 0.0, 0.0, 0.0, 0.0, 0.0, 0.0, 0.0, 0.0, 0.0, 1.6625061765620224E9, 0.0, 2022-09-06 19:16:16.562
58.0, -16268.627794817425, -7114.672018846514, -29414.113392128158, -25763.693542920777, -19036.01962757345, -8014.553250617177, 52417.85823319653, -7894.636141614455, -15188.323281803523, -4227.340725343314, -20615.528001252176, -13380.156562347003, 10745.914071311245, -12987.078784355974, -8170.9931100598715, -15418.56860143764, 0.347, 0.979, 0.248, 192.0, 6.0, 16.0, 15.5, 0.0, 3.5, 80.0, 0.0, 0.0, 0.0, 1.6625061765620284E9, 0.0, 2022-09-06 19:16:16.562
60.0, -16446.12299753702, -7279.471430715494, -29554.281181607388, -25915.79716393914, -19188.927911392202, -8172.4012699605555, 53149.16260828527, -8062.5200942182655, -15409.158517021957, -4421.644439893298, -20824.092128764645, -13575.756678075395, 10554.873711451735, -13184.757612318708, -8338.921766152593, -15585.357318563143, 0.347, 0.979, 0.248, 192.0, 0.0, 0.0, 0.0, 0.0, 0.0, 0.0, 0.0, 0.0, 0.0, 1.6625061765620346E9, 0.0, 2022-09-06 19:16:16.562
62.0, -16555.13245524555, -7392.526554170437, -29644.425766995642, -26037.68122645393, -19312.756575674604, -8286.64103587163, 52986.01722550598, -8140.617089345109, -15504.198134445924, -4551.508075178633, -20971.099552047202, -13711.09649075228, 10424.317172088287, -13332.368532701557, -8488.521991791964, -15746.64750655264, 0.347, 0.979, 0.248, 192.0, 0.0, 0.0, 0.0, 0.0, 0.0, 0.0, 0.0, 0.0, 0.0, 1.6625061765620408E9, 0.0, 2022-09-06 19:16:16.562
64.0, -16648.33922962418, -7471.182342908663, -29688.883386717247, -26101.11547721809, -19381.421134641307, -8330.450455004031, 53507.148147481465, -8234.941450946504, -15621.187164925, -4651.733297316229, -21098.951530331557, -13814.629771069262, 10315.553583568762, -13423.340132634656, -8584.723899927605, -15813.099242818267, 0.347, 0.979, 0.248, 192.0, 0.0, 0.0, 0.0, 0.0, 0.0, 0.0, 0.0, 0.0, 0.0, 1.6625061765620468E9, 0.0, 2022-09-06 19:16:16.562
66.0, -16652.49665409287, -7497.8926775327545, -29722.50041037803, -26119.533314649263, -19396.441506915275, -8362.547560041852, 53236.15559770532, -8298.666274388584, -15614.727510777417, -4672.945102804316, -21147.231298355022, -13841.78714058246, 10287.077461132702, -13449.357563180634, -8654.818970539447, -15876.041755204411, 0.347, 0.979, 0.248, 192.0, 0.0, 0.0, 0.0, 0.0, 0.0, 0.0, 0.0, 0.0, 0.0, 1.662506176562053E9, 0.0, 2022-09-06 19:16:16.562
68.0, -16676.90475903806, -7495.881020531777, -29725.093212734846, -26077.042648439725, -19394.094573747465, -8331.03160035987, 53349.81421826056, -8206.666494210542, -15664.460142190474, -4693.911039103394, -21163.52572006294, -13855.60051865584, 10261.596472453652, -13457.895929562561, -8672.923883548247, -15866.251691132986, 0.3815, 1.0235, 0.24, 192.0, 6.5, 0.0, 16.5, 48.0, 3.5, 32.0, 0.0, 0.0, 0.0, 1.6625061765620613E9, 0.0, 2022-09-06 19:16:16.562
70.0, -16621.897115933552, -7448.964708920087, -29748.78606185747, -26045.884316669028, -19354.889613972857, -8330.495158492942, 52914.804567671374, -8187.0193108343265, -15591.906379688548, -4639.998631477193, -21085.65224238065, -13789.77463123496, 10304.355359596653, -13445.893042790061, -8651.108580959866, -15832.679370961116, 0.3815, 1.0235, 0.24, 192.0, 0.0, 0.0, 0.0, 0.0, 0.0, 0.0, 0.0, 0.0, 0.0, 1.6625061765620675E9, 0.0, 2022-09-06 19:16:16.562
72.0, -16606.47441225939, -7434.301964557406, -29744.136899010766, -25962.84758601756, -19297.311520255986, -8238.227157381434, 52736.72821959594, -8068.040975098726, -15579.165885349023, -4638.3446023875, -21048.45893960702, -13767.132314101735, 10332.451502376975, -13439.299278175746, -8640.580909321417, -15827.873745903224, 0.3815, 1.0235, 0.24, 192.0, 0.0, 0.0, 0.0, 0.0, 0.0, 0.0, 0.0, 0.0, 0.0, 1.6625061765620737E9, 0.0, 2022-09-06 19:16:16.562
74.0, -16494.805096960677, -7311.8814601756885, -29737.677244863185, -25853.5028521422, -19216.264094861042, -8185.968778844926, 52204.4214253928, -8045.443361454411, -15472.659823019485, -4529.6257173568865, -20909.431089095007, -13647.41637079911, 10411.82254693777, -13293.744718282785, -8551.062172777913, -15748.078018197779, 0.3815, 1.0235, 0.24, 192.0, 0.0, 0.0, 0.0, 0.0, 0.0, 0.0, 0.0, 0.0, 0.0, 1.66250617656208E9, 0.0, 2022-09-06 19:16:16.562
76.0, -16470.486398993304, -7264.7416311194465, -29715.616073085796, -25755.535156194586, -19110.1603639317, -8100.585115025654, 51868.206485296076, -7917.747845381242, -15415.595819425085, -4464.828010180951, -20828.294256722245, -13572.381564662644, 10457.330698648775, -13206.70702537382, -8493.193506383122, -15703.307474053798, 0.3815, 1.0235, 0.24, 192.0, 0.0, 0.0, 0.0, 0.0, 0.0, 0.0, 0.0, 0.0, 0.0, 1.662506176562086E9, 0.0, 2022-09-06 19:16:16.562
78.0, -16387.740241019757, -7218.227650907952, -29708.93290149366, -25714.452649885734, -19055.06331384937, -8067.437477998434, 51404.78776750419, -7869.8704087579745, -15335.107187641524, -4392.520116868033, -20739.379017279032, -13484.159229297547, 10546.737676470004, -13140.858786208486, -8393.147098201169, -15628.384426639608, 0.39775000000000005, 1.02075, 0.223, 192.0, 6.0, 120.0, 15.5, 104.0, 3.0, 56.0, 0.0, 0.0, 0.0, 1.6625061765620923E9, 0.0, 2022-09-06 19:16:16.562
80.0, -16336.063007839086, -7155.195731543986, -29677.282831344943, -25609.93589281272, -18955.03925741187, -7974.543628042177, 51088.46587997268, -7754.557759113045, -15276.567968913076, -4350.811761714431, -20690.205179477358, -13425.843528013651, 10576.823124506847, -13102.883172378919, -8366.861446721727, -15617.029740456313, 0.39775000000000005, 1.02075, 0.223, 192.0, 0.0, 0.0, 0.0, 0.0, 0.0, 0.0, 0.0, 0.0, 0.0, 1.6625061765620985E9, 0.0, 2022-09-06 19:16:16.562
82.0, -16251.55106205357, -7092.856716258135, -29675.91937493317, -25562.192566656184, -18894.3095677268, -7918.619563414999, 50905.762720795006, -7729.568508812012, -15172.05121184006, -4257.180304191149, -20576.50185543321, -13300.316131152646, 10692.202829385142, -12977.534589473556, -8232.236889867412, -15497.559666342697, 0.39775000000000005, 1.02075, 0.223, 192.0, 0.0, 0.0, 0.0, 0.0, 0.0, 0.0, 0.0, 0.0, 0.0, 1.6625061765621047E9, 0.0, 2022-09-06 19:16:16.562
84.0, -16241.895108448876, -7052.400058794029, -29693.823122241873, -25514.695109688655, -18862.12305571116, -7891.976284024273, 50721.51729124991, -7669.732888905155, -15128.867641552406, -4262.052984482406, -20553.837186555527, -13268.062563903639, 10700.651788789248, -12982.630787209368, -8248.44190459751, -15528.963867302404, 0.39775000000000005, 1.02075, 0.223, 192.0, 0.0, 0.0, 0.0, 0.0, 0.0, 0.0, 0.0, 0.0, 0.0, 1.662506176562111E9, 0.0, 2022-09-06 19:16:16.562
86.0, -16155.192691706741, -6991.715072597871, -29691.655003029708, -25461.386199162745, -18782.260272772346, -7828.720847215754, 50642.3027089003, -7640.496807157613, -15070.17196061277, -4186.504088223468, -20455.757731885642, -13159.611899806489, 10774.345490258394, -12881.712660993655, -8159.0796302651925, -15415.90874384746, 0.39775000000000005, 1.02075, 0.223, 192.0, 0.0, 0.0, 0.0, 0.0, 0.0, 0.0, 0.0, 0.0, 0.0, 1.662506176562117E9, 0.0, 2022-09-06 19:16:16.562
88.0, -16180.696032130247, -7005.014360548778, -29739.577143141883, -25470.505710900514, -18770.771476122318, -7818.193175577305, 50536.04251575977, -7613.987638233619, -15030.944649093706, -4199.646913963189, -20430.99199902916, -13143.943326943318, 10780.067536838955, -12896.241294889605, -8184.270046266323, -15454.934889666427, 0.387875, 0.956375, 0.1875, 192.0, 5.5, 104.0, 13.5, 112.0, 2.0, 96.0, 0.0, 0.0, 0.0, 1.6625061765621233E9, 0.0, 2022-09-06 19:16:16.562
90.0, -16123.676732024758, -6972.246703177298, -29709.268177660488, -25441.64960880871, -18729.577211091186, -7822.171786090349, 50673.68455811555, -7608.310295141971, -15020.64049489981, -4160.643119888678, -20363.132102862848, -13079.078564534017, 10819.89834545831, -12816.020884039508, -8121.841624002651, -15373.70865031584, 0.387875, 0.956375, 0.1875, 192.0, 0.0, 0.0, 0.0, 0.0, 0.0, 0.0, 0.0, 0.0, 0.0, 1.6625061765621307E9, 0.0, 2022-09-06 19:16:16.562
92.0, -16185.322843232494, -7015.586735676138, -29756.475061950096, -25486.643670397243, -18788.451705986467, -7850.357335848491, 50793.37814967372, -7637.591080378424, -15012.124480262339, -4210.733379213021, -20384.343908350937, -13116.674198707844, 10795.289074813018, -12863.138361351295, -8171.574255415709, -15456.186587355924, 0.387875, 0.956375, 0.1875, 192.0, 0.0, 0.0, 0.0, 0.0, 0.0, 0.0, 0.0, 0.0, 0.0, 1.662506176562137E9, 0.0, 2022-09-06 19:16:16.562
94.0, -16121.463909323682, -6966.547008341195, -29705.043697958434, -25439.190916918626, -18735.27690592729, -7821.389475034413, 51013.52048081404, -7598.274361881538, -15018.226506498637, -4175.9093613516525, -20340.31097177398, -13055.6315846004, 10822.781720493045, -12812.802232837945, -8109.436405829955, -15371.317013659122, 0.387875, 0.956375, 0.1875, 192.0, 0.0, 0.0, 0.0, 0.0, 0.0, 0.0, 0.0, 0.0, 0.0, 1.6625061765621428E9, 0.0, 2022-09-06 19:16:16.562
96.0, -16166.413267423306, -7009.708226884392, -29750.753015369537, -25498.870074614297, -18781.76853439433, -7866.629405811955, 51234.98156487722, -7661.127467289862, -14995.673596343231, -4230.067638166862, -20363.60148949641, -13080.4867244347, 10796.227848080141, -12915.195574187706, -8152.70938309543, -15448.274069818744, 0.387875, 0.956375, 0.1875, 192.0, 0.0, 0.0, 0.0, 0.0, 0.0, 0.0, 0.0, 0.0, 0.0, 1.6625061765621493E9, 0.0, 2022-09-06 19:16:16.562
98.0, -16111.584438274436, -6959.1038774375775, -29704.909587491704, -25450.523251357467, -18734.829871038186, -7788.353596729469, 51527.14121665254, -7613.093568455407, -15015.49959367509, -4213.683809481122, -20335.795919394008, -13026.507261575134, 10814.600982022403, -12839.423160484215, -8091.59971375462, -15357.593042563563, 0.3549375, 0.8881875, 0.12775, 192.0, 5.0, 8.0, 12.5, 80.0, 1.0, 16.0, 0.0, 0.0, 0.0, 1.6625061765621555E9, 0.0, 2022-09-06 19:16:16.562
100.0, -16180.316052474505, -7045.850997668625, -29788.66157396574, -25537.24801984406, -18846.96857297046, -7924.699237906842, 51855.06365955635, -7686.295531546537, -15050.211852814182, -4275.08405149985, -20386.40026884082, -13083.437154702802, 10781.632158950826, -12909.540582840513, -8170.076688537203, -15453.213805343368, 0.3549375, 0.8881875, 0.12775, 192.0, 0.0, 0.0, 0.0, 0.0, 0.0, 0.0, 0.0, 0.0, 0.0, 1.6625061765621629E9, 0.0, 2022-09-06 19:16:16.562
102.0, -16121.28509536804, -6987.71411034037, -29734.21272447261, -25479.46876042709, -18790.128086820616, -7843.450646811802, 52107.571316667956, -7680.819354154987, -15102.47023135069, -4269.22789445256, -20385.506199062613, -13067.925044050819, 10759.191007517697, -12916.201402688195, -8167.103906524648, -15418.367435737544, 0.3549375, 0.8881875, 0.12775, 192.0, 0.0, 0.0, 0.0, 0.0, 0.0, 0.0, 0.0, 0.0, 0.0, 1.662506176562169E9, 0.0, 2022-09-06 19:16:16.562
104.0, -16221.510317505637, -7092.633198813582, -29837.76835653405, -25611.276997480036, -18915.431966237065, -7997.63298006451, 52488.15446950847, -7818.774320933142, -15078.665623505787, -4335.679630718188, -20428.95799028373, -13119.69168420931, 10727.697399580169, -12955.56282467399, -8217.708255971464, -15514.569343873185, 0.3549375, 0.8881875, 0.12775, 192.0, 0.0, 0.0, 0.0, 0.0, 0.0, 0.0, 0.0, 0.0, 0.0, 1.6625061765621753E9, 0.0, 2022-09-06 19:16:16.562
106.0, -16176.717421617202, -7035.72565743037, -29765.058131820933, -25564.941831224183, -18853.651744562598, -7934.064618833616, 52774.279150280854, -7752.680212578799, -15155.421513965312, -4372.537657324989, -20463.24556627817, -13132.4992337822, 10679.842314701356, -12980.954406375218, -8231.007543922371, -15499.101936710113, 0.3549375, 0.8881875, 0.12775, 192.0, 0.0, 0.0, 0.0, 0.0, 0.0, 0.0, 0.0, 0.0, 0.0, 1.662506176562206E9, 0.0, 2022-09-06 19:16:16.562
108.0, -16286.88917003741, -7172.9430166415, -29867.76439759307, -25725.628522113388, -18988.47746711701, -8076.60169322511, 53258.44028692726, -7905.27557197518, -15135.506109655633, -4408.8815938093185, -20484.658537466352, -13170.497199356223, 10668.130000606776, -13034.263316901126, -8257.427305868543, -15556.568271704708, 0.32546875, 0.8580937500000001, 0.052875000000000005, 192.0, 4.5, 32.0, 12.5, 112.0, 127.5, 40.0, 0.0, 0.0, 0.0, 1.6625061765622144E9, 0.0, 2022-09-06 19:16:16.562
110.0, -16250.768750997633, -7123.813882328735, -29803.90546368426, -25675.06887615548, -18968.60676629624, -7984.244285135781, 53485.95869373783, -7824.40696053588, -15268.20841648679, -4486.956237191705, -20557.21229996828, -13242.536871735678, 10573.626825049738, -13148.301917112103, -8338.474731263486, -15595.192086123478, 0.32546875, 0.8580937500000001, 0.052875000000000005, 192.0, 0.0, 0.0, 0.0, 0.0, 0.0, 0.0, 0.0, 0.0, 0.0, 1.6625061765622227E9, 0.0, 2022-09-06 19:16:16.562
112.0, -16355.486673770747, -7258.550197905326, -29906.119991078376, -25826.881924495927, -19088.702689254606, -8176.5139909403315, 53969.91866468414, -8003.735006300808, -15218.25226762918, -4493.371187850379, -20543.130700961436, -13262.318165578625, 10605.120432987265, -13086.275826248626, -8330.852786404228, -15612.022949698325, 0.32546875, 0.8580937500000001, 0.052875000000000005, 192.0, 0.0, 0.0, 0.0, 0.0, 0.0, 0.0, 0.0, 0.0, 0.0, 1.6625061765622303E9, 0.0, 2022-09-06 19:16:16.562
114.0, -16335.146586316418, -7199.094557654209, -29863.67402835775, -25788.638089732896, -19083.897064196713, -8111.917449464495, 54095.42370980069, -7945.151084083448, -15368.880673513493, -4601.91125892535, -20638.21502187431, -13377.273187312268, 10475.815591313314, -13192.84894381153, -8447.394781994199, -15699.597084474217, 0.32546875, 0.8580937500000001, 0.052875000000000005, 192.0, 0.0, 0.0, 0.0, 0.0, 0.0, 0.0, 0.0, 0.0, 0.0, 1.6625061765622385E9, 0.0, 2022-09-06 19:16:16.562
116.0, -16401.173639437395, -7323.59377427027, -29936.987750171156, -25924.916675676905, -19158.12720753279, -8224.77140721934, 54466.73088869225, -8076.825210669663, -15296.438669733843, -4570.5964649434645, -20581.530997935653, -13365.516169728777, 10524.56474597034, -13181.404850650413, -8407.13929023019, -15677.737078396927, 0.32546875, 0.8580937500000001, 0.052875000000000005, 192.0, 0.0, 0.0, 0.0, 0.0, 0.0, 0.0, 0.0, 0.0, 0.0, 1.6625061765622468E9, 0.0, 2022-09-06 19:16:16.562
118.0, -16362.259252340706, -7248.335450689251, -29905.538845722538, -25867.83032033805, -19126.83476529536, -8120.031132701771, 54567.537256185686, -8003.377378389523, -15420.557906694165, -4677.035472039637, -20684.05844975215, -13494.373976513622, 10401.160764832588, -13281.451258832367, -8515.54525083843, -15773.98369002148, 0.324734375, 0.859046875, -0.0325625, 192.0, 5.0, 16.0, 13.0, 112.0, 126.0, 40.0, 0.0, 0.0, 0.0, 1.6625061765622537E9, 0.0, 2022-09-06 19:16:16.562
120.0, -16428.509822906235, -7350.7958472723785, -30010.36852721793, -25983.366487427535, -19213.1348506373, -8208.834613422707, 55018.55075580487, -8089.610408498098, -15340.449254566343, -4604.861689193451, -20608.55425698212, -13449.37991492509, 10456.347221892742, -13208.04813004114, -8457.184846065622, -15710.571791001772, 0.324734375, 0.859046875, -0.0325625, 192.0, 0.0, 0.0, 0.0, 0.0, 0.0, 0.0, 0.0, 0.0, 0.0, 1.66250617656226E9, 0.0, 2022-09-06 19:16:16.562
122.0, -16379.179522893373, -7297.933971635577, -29986.340401928475, -25909.85159991403, -19158.484835444073, -8083.351920050612, 54937.19040598755, -8029.663029868964, -15461.908633936482, -4714.608754469008, -20701.04577553818, -13569.520541372365, 10345.102589738679, -13324.321904697646, -8557.767696114504, -15822.978713867513, 0.324734375, 0.859046875, -0.0325625, 192.0, 0.0, 0.0, 0.0, 0.0, 0.0, 0.0, 0.0, 0.0, 0.0, 1.662506177042032E9, 0.0, 2022-09-06 19:16:17.042
124.0, -16426.073482760607, -7359.289510165395, -30057.53070801863, -26005.070031293635, -19192.213617827132, -8177.765688629829, 55074.586579154326, -8133.397475886045, -15350.775760504695, -4619.233860878213, -20581.195721768825, -13479.3312524952, 10455.319041647797, -13227.717665161808, -8447.260671527467, -15713.209296847499, 0.324734375, 0.859046875, -0.0325625, 192.0, 0.0, 0.0, 0.0, 0.0, 0.0, 0.0, 0.0, 0.0, 0.0, 1.6625061770420403E9, 0.0, 2022-09-06 19:16:17.042
126.0, -16400.704252803833, -7299.185669325075, -30033.860210640458, -25963.182862184392, -19180.546007221463, -8129.217699672902, 55031.98415422251, -8083.754251450808, -15469.642337518018, -4754.864246233016, -20707.393670963487, -13629.669085701596, 10331.289211665298, -13321.840861063107, -8569.010623575525, -15862.295432364397, 0.324734375, 0.859046875, -0.0325625, 192.0, 0.0, 0.0, 0.0, 0.0, 0.0, 0.0, 0.0, 0.0, 0.0, 1.6625061770420465E9, 0.0, 2022-09-06 19:16:17.042
128.0, -16416.082252989087, -7319.25753584594, -30057.262487085165, -26030.28279903922, -19193.197094583167, -8181.341967742678, 55193.18493523419, -8139.633612589075, -15342.080931911582, -4621.53609055711, -20566.93530880634, -13501.48183125041, 10467.970129009502, -13212.384368465468, -8445.807808137872, -15728.341427843741, 0.324734375, 0.859046875, -0.0325625, 192.0, 0.0, 0.0, 0.0, 0.0, 0.0, 0.0, 0.0, 0.0, 0.0, 1.6625061770420527E9, 0.0, 2022-09-06 19:16:17.042
130.0, -16446.6817911484, -7332.757989496946, -30072.238155870218, -26040.497546255297, -19231.195060157188, -8172.468325193921, 55716.841604333116, -8144.483941135877, -15479.767677756272, -4789.464746649832, -20723.509278715763, -13679.357013625744, 10314.883031235104, -13370.4559052534, -8603.588772247884, -15910.821069576868, 0.34, 0.86, -0.198, 192.0, 5.0, 80.0, 13.0, 112.0, 124.5, 104.0, 0.0, 0.0, 0.0, 1.662506177042059E9, 0.0, 2022-09-06 19:16:17.042
132.0, -16425.40293042695, -7342.279832634907, -30005.786419604592, -26036.72010144235, -19200.908446420246, -8159.437258176477, 56176.97461569007, -8150.585967372176, -15371.85345552605, -4643.3960966344, -20583.341489236533, -13517.619790747141, 10428.765169234894, -13214.999522566739, -8470.081802616334, -15744.747608273938, 0.34, 0.86, -0.198, 192.0, 0.0, 0.0, 0.0, 0.0, 0.0, 0.0, 0.0, 0.0, 0.0, 1.6625061770420744E9, 0.0, 2022-09-06 19:16:17.042
134.0, -16481.88578866551, -7390.134917513718, -30011.866094096436, -26085.312793888188, -19267.918976297256, -8207.515860499843, 56891.939865581975, -8249.380677864632, -15523.822966077681, -4819.885470853505, -20745.659857470975, -13688.498877107964, 10279.70138546245, -13420.322647133191, -8629.874423727326, -15944.728665915569, 0.34, 0.86, -0.198, 192.0, 0.0, 0.0, 0.0, 0.0, 0.0, 0.0, 0.0, 0.0, 0.0, 1.6625061770420809E9, 0.0, 2022-09-06 19:16:17.042
136.0, -16414.651741343947, -7318.788149212379, -29859.740121333616, -26024.560752458663, -19203.367138310332, -8146.830874303684, 57123.16866197213, -8180.0902700531815, -15409.985531566803, -4639.77511403264, -20596.93134986536, -13519.050302392281, 10400.132584587644, -13262.496979534268, -8480.654177743696, -15747.899204242136, 0.34, 0.86, -0.198, 192.0, 0.0, 0.0, 0.0, 0.0, 0.0, 0.0, 0.0, 0.0, 0.0, 1.6625061770420868E9, 0.0, 2022-09-06 19:16:17.042
138.0, -16537.452225381403, -7436.313621558384, -29916.35709003891, -26129.301026976234, -19328.894535171334, -8211.360360546156, 58033.37639968114, -8152.1505894840475, -15565.196045064456, -4819.349028986577, -20761.194319867413, -13707.944894784081, 10245.547919934741, -13412.566591807199, -8636.155263919267, -15909.547020142916, 0.34, 0.86, -0.198, 192.0, 0.0, 0.0, 0.0, 0.0, 0.0, 0.0, 0.0, 0.0, 0.0, 1.6625061770421865E9, 0.0, 2022-09-06 19:16:17.042
140.0, -16463.311489023148, -7365.8832747797105, -29801.022088649523, -26063.095159899614, -19222.388472841798, -8129.284754906268, 58047.25683298789, -8083.284864817246, -15511.551858371718, -4682.578704664553, -20652.743655770264, -13591.02291953837, 10325.924792996026, -13267.459066803345, -8512.214840914588, -15733.035294179357, 0.384, 0.98, -0.194, 192.0, 6.0, 0.0, 15.0, 80.0, 124.5, 120.0, 0.0, 0.0, 0.0, 1.6625061770422573E9, 0.0, 2022-09-06 19:16:17.042
142.0, -16573.50558918781, -7486.225066927084, -29927.68942447775, -26164.594431471163, -19336.49412828614, -8225.710180486463, 58667.294224178106, -8194.57420046022, -15578.875312671104, -4819.371380731032, -20771.476122316853, -13746.680467925129, 10228.44883542643, -13400.02726316777, -8630.85790048336, -15910.754014343504, 0.384, 0.98, -0.194, 192.0, 0.0, 0.0, 0.0, 0.0, 0.0, 0.0, 0.0, 0.0, 0.0, 1.6625061770422635E9, 0.0, 2022-09-06 19:16:17.042
144.0, -16444.62543065851, -7357.791943286889, -29846.127908960334, -26051.159328360478, -19215.928818694214, -8110.978676197372, 58198.77930865042, -8059.189684294425, -15506.075680980168, -4676.7225476172625, -20635.55516428413, -13607.40674822411, 10320.806243515759, -13288.134430424505, -8551.330393711376, -15794.212018753531, 0.384, 0.98, -0.194, 192.0, 0.0, 0.0, 0.0, 0.0, 0.0, 0.0, 0.0, 0.0, 0.0, 1.6625061770422697E9, 0.0, 2022-09-06 19:16:17.042
146.0, -16594.33741502016, -7511.348427694849, -30035.33542577451, -26208.09092618119, -19351.089817415457, -8260.44479137001, 58762.803228235636, -8205.705369198962, -15540.989105819359, -4801.735854355795, -20721.698787414884, -13729.38021771672, 10245.704382145928, -13400.496649801333, -8651.600319337884, -15954.25050905353, 0.384, 0.98, -0.194, 192.0, 0.0, 0.0, 0.0, 0.0, 0.0, 0.0, 0.0, 0.0, 0.0, 1.662506177042276E9, 0.0, 2022-09-06 19:16:17.042
148.0, -16445.832424859098, -7357.635481075702, -29936.92069493779, -26060.591764520617, -19219.348635595874, -8124.859109504117, 58120.88347922367, -8060.64254768402, -15528.829756835672, -4707.143271820935, -20650.195556902356, -13642.789559696861, 10270.89479814706, -13324.076035508639, -8618.743254988582, -15876.42173486015, 0.384, 0.98, -0.194, 192.0, 0.0, 0.0, 0.0, 0.0, 0.0, 0.0, 0.0, 0.0, 0.0, 1.6625061770422823E9, 0.0, 2022-09-06 19:16:17.042
150.0, -16608.843697171655, -7520.646753388257, -30123.021319272677, -26214.0364902063, -19328.335741559953, -8282.796535825317, 58741.68082972537, -8205.973590132427, -15513.250590950322, -4782.289836679678, -20682.85145555156, -13709.934200040603, 10266.849132400648, -13379.217789079881, -8630.209699894154, -15946.025067093977, 0.378, 0.906, -0.20800000000000002, 192.0, 5.5, 104.0, 14.0, 40.0, 124.5, 64.0, 0.0, 0.0, 0.0, 1.6625061770422902E9, 0.0, 2022-09-06 19:16:17.042
152.0, -16468.810018159154, -7383.339987199305, -30036.877696141924, -26062.4022558215, -19204.417670299732, -8156.643290119564, 58187.67049165613, -8066.431649497945, -15541.07851279718, -4750.818580486605, -20665.28298440969, -13674.171408912112, 10270.89479814706, -13325.998285531794, -8620.576098033916, -15907.96004628659, 0.378, 0.906, -0.20800000000000002, 192.0, 0.0, 0.0, 0.0, 0.0, 0.0, 0.0, 0.0, 0.0, 0.0, 1.6625061770422964E9, 0.0, 2022-09-06 19:16:17.042
154.0, -16647.020476701317, -7593.289922868004, -30255.611867381558, -26259.92462157305, -19374.93912874927, -8349.136513368669, 59110.238744048926, -8260.265977414367, -15525.812271334205, -4816.510357440753, -20709.941769831392, -13731.302467739877, 10275.454554015942, -13365.918501128972, -8634.031848196013, -15964.755828947526, 0.378, 0.906, -0.20800000000000002, 192.0, 0.0, 0.0, 0.0, 0.0, 0.0, 0.0, 0.0, 0.0, 0.0, 1.6625061770423026E9, 0.0, 2022-09-06 19:16:17.042
156.0, -16516.508640826778, -7469.260092885505, -30171.502252996237, -26133.50315493383, -19268.589528630917, -8197.256409794856, 58771.810981251125, -8101.725053992875, -15588.441859297975, -4833.162407059956, -20754.15352036399, -13749.854415637783, 10206.78999504924, -13387.711451972897, -8693.62159891386, -15976.669308742203, 0.378, 0.906, -0.20800000000000002, 192.0, 0.0, 0.0, 0.0, 0.0, 0.0, 0.0, 0.0, 0.0, 0.0, 1.6625061770423098E9, 0.0, 2022-09-06 19:16:17.042
158.0, -16758.958012933494, -7750.266224177626, -30417.416145493527, -26420.79012641789, -19493.71629878477, -8447.081857571824, 60101.538610641794, -8343.615632488207, -15566.425391009498, -4896.440195612931, -20804.802573299716, -13809.44416635563, 10219.508137644309, -13451.592737626164, -8695.879125103847, -16011.739195792581, 0.378, 0.906, -0.20800000000000002, 192.0, 0.0, 0.0, 0.0, 0.0, 0.0, 0.0, 0.0, 0.0, 0.0, 1.662506177042316E9, 0.0, 2022-09-06 19:16:17.042
160.0, -16710.097099554194, -7687.6142844694, -30376.601860118135, -26376.332506696286, -19453.23728957621, -8372.695252024561, 60359.23187246703, -8290.463184173488, -15723.245230107932, -5040.161912460556, -20967.590328167717, -13957.1444937163, 10066.823371270106, -13591.201733494012, -8843.668859442338, -16141.692238055735, 0.404, 0.79, -0.18, 192.0, 6.0, 80.0, 12.0, 88.0, 125.0, 48.0, 0.0, 0.0, 0.0, 1.6625061770423222E9, 0.0, 2022-09-06 19:16:17.042
162.0, -16970.584329436344, -7954.270595821214, -30600.76750526041, -26658.679742655724, -19678.051135307687, -8659.401078152785, 61907.045472508136, -8537.204091215623, -15738.086788426255, -5095.191907309521, -21029.54936379783, -14025.786700938548, 10046.952670449338, -13664.046068673859, -8855.336470048007, -16186.351023477439, 0.404, 0.79, -0.18, 192.0, 0.0, 0.0, 0.0, 0.0, 0.0, 0.0, 0.0, 0.0, 0.0, 1.6625061770423284E9, 0.0, 2022-09-06 19:16:17.042
164.0, -16938.420169165154, -7901.609885884511, -30533.04171956083, -26600.855779749847, -19654.02301001823, -8580.298254525454, 62331.81802413679, -8511.007846714003, -15951.903575885723, -5297.005807996489, -21254.765540929504, -14252.679258904369, 9851.196092509757, -13858.573300668395, -9041.325335660618, -16377.994880437242, 0.404, 0.79, -0.18, 192.0, 0.0, 0.0, 0.0, 0.0, 0.0, 0.0, 0.0, 0.0, 0.0, 1.6625061770423365E9, 0.0, 2022-09-06 19:16:17.042
166.0, -17139.742331474106, -8116.5219088222875, -30689.392172025702, -26800.54626471356, -19844.526928010815, -8810.588277648483, 63403.718281235495, -8713.849927645913, -15928.367188974285, -5302.124357476754, -21269.271823081, -14295.706366980836, 9880.14160157938, -13827.012637497503, -9011.776329490702, -16361.119313373485, 0.404, 0.79, -0.18, 192.0, 0.0, 0.0, 0.0, 0.0, 0.0, 0.0, 0.0, 0.0, 0.0, 1.662506177042344E9, 0.0, 2022-09-06 19:16:17.042
168.0, -16989.717422690086, -7935.85275839004, -30545.46928947798, -26630.94122778669, -19767.167540450995, -8637.161092419756, 62839.96258258374, -8564.070888050901, -16078.235635547118, -5440.191082977186, -21419.22967663165, -14456.236595658851, 9724.998143315095, -13959.938461773214, -9176.821610548688, -16501.242399363804, 0.404, 0.79, -0.18, 192.0, 0.0, 0.0, 0.0, 0.0, 0.0, 0.0, 0.0, 0.0, 0.0, 1.6625061770423503E9, 0.0, 2022-09-06 19:16:17.042
170.0, -16985.962329621594, -7930.4436362318565, -30502.956271523988, -26608.969462987123, -19703.777993175747, -8615.837528209393, 62300.36911968817, -8562.305100238931, -15850.113731636255, -5219.847586136769, -21194.304072177896, -14244.051485544622, 9960.943157785316, -13717.936124555603, -8968.481000480771, -16283.089373480008, 0.428, 0.664, -0.158, 192.0, 6.5, 48.0, 10.0, 96.0, 125.5, 8.0, 0.0, 0.0, 0.0, 1.6625061770423567E9, 0.0, 2022-09-06 19:16:17.042
172.0, -16801.113402976203, -7740.230290917193, -30307.266748817772, -26398.79600987387, -19556.077665815075, -8409.329761186811, 60944.936984173895, -8369.923635712104, -15884.714232053071, -5247.697859728081, -21216.499354422016, -14286.989186643266, 9948.180311701335, -13747.038095836413, -9004.959047431832, -16309.464431937271, 0.428, 0.664, -0.158, 192.0, 0.0, 0.0, 0.0, 0.0, 0.0, 0.0, 0.0, 0.0, 0.0, 1.6625061770423632E9, 0.0, 2022-09-06 19:16:17.042
174.0, -16720.55771595928, -7668.503542960113, -30142.333226482064, -26306.036270384346, -19419.441451959785, -8300.610876156197, 59891.56632322864, -8313.93251585156, -15618.728473034917, -4968.144591825556, -20930.62054283864, -14019.416453768785, 10222.92795454597, -13499.023139360326, -8713.335837523442, -16029.017094256533, 0.428, 0.664, -0.158, 192.0, 0.0, 0.0, 0.0, 0.0, 0.0, 0.0, 0.0, 0.0, 0.0, 1.6625061770423696E9, 0.0, 2022-09-06 19:16:17.042
176.0, -16547.46580689738, -7468.433078340659, -29871.161862750276, -26124.45069842943, -19302.452421480706, -8150.004822016338, 58773.73323127428, -8185.789964889284, -15641.124920979133, -4998.788833473782, -20923.244467168388, -14028.58066899546, 10199.548029845719, -13493.94929336897, -8706.943238609223, -16045.445626431183, 0.428, 0.664, -0.158, 192.0, 0.0, 0.0, 0.0, 0.0, 0.0, 0.0, 0.0, 0.0, 0.0, 1.662506177042376E9, 0.0, 2022-09-06 19:16:17.042
178.0, -16394.445764356347, -7322.699704492057, -29639.86601112676, -25996.95634805636, -19121.40329139272, -7997.342407386591, 57512.64780910585, -8037.664954383965, -15337.521176042697, -4684.88093434345, -20578.468808945276, -13696.634912089696, 10500.044882302867, -13184.355280918513, -8391.023682477913, -15730.129567400167, 0.428, 0.664, -0.158, 192.0, 0.0, 0.0, 0.0, 0.0, 0.0, 0.0, 0.0, 0.0, 0.0, 1.6625061770423822E9, 0.0, 2022-09-06 19:16:17.042
180.0, -16313.42069070586, -7234.834997038245, -29566.149957913156, -25974.3810861565, -19052.604621959286, -7876.84415302803, 56987.27005568386, -8014.955582017373, -15329.60865850552, -4724.085894118059, -20591.768096896183, -13747.373372003243, 10505.297542249864, -13226.309505261124, -8363.352222842244, -15739.897279727136, 0.4, 0.9480000000000001, -0.216, 192.0, 6.0, 64.0, 14.5, 80.0, 124.5, 32.0, 0.0, 0.0, 0.0, 1.6625061770423884E9, 0.0, 2022-09-06 19:16:17.042
182.0, -16296.209847475273, -7237.67366858407, -29590.558062858352, -26053.953296417392, -18967.869158729216, -7852.190178893827, 56980.251607924896, -8005.3443319015905, -15106.717062797197, -4494.2876093730465, -20391.340004365447, -13619.968428607992, 10738.448588663172, -13019.265296371615, -8139.901833522539, -15495.056270963702, 0.4, 0.9480000000000001, -0.216, 192.0, 0.0, 0.0, 0.0, 0.0, 0.0, 0.0, 0.0, 0.0, 0.0, 1.6625061770423944E9, 0.0, 2022-09-06 19:16:17.042
184.0, -16408.05797672963, -7357.7248880535235, -29937.457136804718, -26216.830458263215, -19085.461686308587, -7908.717740621298, 58631.62084002743, -7992.0226922062275, -15275.897416579417, -4675.135573760936, -20609.738899438253, -13930.054179436467, 10587.686072312126, -13214.95481907783, -8283.489439903431, -15736.812738992303, 0.4, 0.9480000000000001, -0.216, 192.0, 0.0, 0.0, 0.0, 0.0, 0.0, 0.0, 0.0, 0.0, 0.0, 1.6625061770424006E9, 0.0, 2022-09-06 19:16:17.042
186.0, -16395.205723667827, -7361.927016011121, -30178.811273433123, -26263.456197196985, -19057.834930161825, -7890.925752034874, 59041.305964148756, -7868.439897112835, -15205.377662822923, -4545.2942902200575, -20555.78178832314, -13914.98910367359, 10657.758791179514, -13089.494477450191, -8304.656541902606, -15716.405596304608, 0.4, 0.9480000000000001, -0.216, 192.0, 0.0, 0.0, 0.0, 0.0, 0.0, 0.0, 0.0, 0.0, 0.0, 1.6625061770424068E9, 0.0, 2022-09-06 19:16:17.042
188.0, -16480.343518298094, -7444.270842584472, -30331.67485376297, -26371.1245502382, -19152.11458827431, -7999.309360898657, 60217.72297832048, -7947.498017251256, -15356.743676274262, -4736.200539612834, -20723.15165080448, -14117.406501460851, 10496.647417145661, -13295.778727028219, -8487.940846436126, -15959.34670678934, 0.4, 0.9480000000000001, -0.216, 192.0, 0.0, 0.0, 0.0, 0.0, 0.0, 0.0, 0.0, 0.0, 0.0, 1.662506177042413E9, 0.0, 2022-09-06 19:16:17.042
190.0, -16385.952101463332, -7335.5966610427695, -30223.313596643642, -26301.83414242675, -19081.304261839898, -7935.04809558965, 60037.00912439932, -7806.659675438366, -15264.743896096219, -4594.28931406609, -20598.78654465515, -13969.348546188898, 10591.418813636163, -13180.331966916558, -8400.411415149143, -15878.90277849469, 0.34800000000000003, 0.784, -0.17, 192.0, 5.0, 112.0, 12.0, 64.0, 125.0, 88.0, 0.0, 0.0, 0.0, 1.6625061770424192E9, 0.0, 2022-09-06 19:16:17.042
192.0, -16531.61842007857, -7484.258113415017, -30365.850671035132, -26447.3439988308, -19268.947156542203, -8114.89023147705, 61407.10400427628, -8001.455128366367, -15395.412194181943, -4735.172359367891, -20746.82214818265, -14110.857440335447, 10472.686347089571, -13313.68247433692, -8513.891221748736, -16013.996721982567, 0.34800000000000003, 0.784, -0.17, 192.0, 0.0, 0.0, 0.0, 0.0, 0.0, 0.0, 0.0, 0.0, 0.0, 1.6625061770424252E9, 0.0, 2022-09-06 19:16:17.042
194.0, -16418.876221045997, -7360.585911343803, -30196.87148295301, -26299.800133681314, -19165.50328320304, -8015.246154695292, 60982.197342180894, -7910.572935411088, -15382.962272520337, -4668.5641608910755, -20687.031231764704, -14030.324105062975, 10458.87296901619, -13252.058714873638, -8510.270239146977, -15952.887052641756, 0.34800000000000003, 0.784, -0.17, 192.0, 0.0, 0.0, 0.0, 0.0, 0.0, 0.0, 0.0, 0.0, 0.0, 1.6625061770424314E9, 0.0, 2022-09-06 19:16:17.042
196.0, -16514.161707658972, -7444.449656540115, -30119.82501981557, -26340.480308589973, -19261.325211682943, -8091.197382354425, 61590.276550087525, -8027.338448445613, -15432.158462066469, -4729.405609298421, -20711.037005309703, -14065.706916535726, 10414.907087672602, -13308.25100043428, -8501.083672175846, -15954.384619520262, 0.34800000000000003, 0.784, -0.17, 192.0, 0.0, 0.0, 0.0, 0.0, 0.0, 0.0, 0.0, 0.0, 0.0, 1.6625061770424395E9, 0.0, 2022-09-06 19:16:17.042
198.0, -16320.662655909378, -7257.790238593846, -29769.729646412095, -26137.280599746777, -19043.95449685508, -7869.848057013519, 60314.282514367405, -7865.1765424223595, -15368.299528157655, -4603.095901381481, -20575.764247866184, -13912.441004805685, 10483.750460594949, -13179.437897138347, -8391.314255155832, -15811.959303851047, 0.34800000000000003, 0.784, -0.17, 192.0, 0.0, 0.0, 0.0, 0.0, 0.0, 0.0, 0.0, 0.0, 0.0, 1.6625061770424457E9, 0.0, 2022-09-06 19:16:17.042
200.0, -16413.847078543553, -7381.261274964962, -29795.344745557875, -26274.2520897689, -19132.73562583156, -7941.7759706706975, 60934.07403636862, -7983.1043461685595, -15342.349152845045, -4597.463261778744, -20553.390151666423, -13886.200056815154, 10519.60265870126, -13194.547676390133, -8301.393187212132, -15735.806910491814, 0.377, 0.908, -0.162, 192.0, 6.0, 88.0, 16.0, 32.0, 125.5, 24.0, 0.0, 0.0, 0.0, 1.6625061770424516E9, 0.0, 2022-09-06 19:16:17.042
202.0, -16270.79591402959, -7253.588110636248, -29668.051560884902, -26184.442780547477, -19014.964284296548, -7803.977466103729, 60447.72242876559, -7856.8393417405305, -15342.885594711972, -4550.256377489135, -20521.42715709533, -13841.138939993256, 10542.535548512406, -13133.907393682885, -8293.815945841783, -15690.231703547444, 0.377, 0.908, -0.162, 192.0, 0.0, 0.0, 0.0, 0.0, 0.0, 0.0, 0.0, 0.0, 0.0, 1.662506177042458E9, 0.0, 2022-09-06 19:16:17.042
204.0, -16399.541962092157, -7417.314638771372, -29828.157106418268, -26359.74751231045, -19150.46055918462, -7898.190068982848, 61568.61770971033, -7939.227871802792, -15350.66400178242, -4581.235895304191, -20531.619552566954, -13912.597467016873, 10554.672545751637, -13157.488484083235, -8269.743117063417, -15696.91487513958, 0.377, 0.908, -0.162, 192.0, 0.0, 0.0, 0.0, 0.0, 0.0, 0.0, 0.0, 0.0, 0.0, 1.6625061770424645E9, 0.0, 2022-09-06 19:16:17.042
206.0, -16254.389733599393, -7278.979692337477, -29726.1660964687, -26224.027719977825, -19024.776700112427, -7743.404238629847, 60974.843618255094, -7713.922287693297, -15368.85832176904, -4555.732554880686, -20524.131718174427, -13940.604202819373, 10530.040923361888, -13156.594414305022, -8303.561306424297, -15758.896262514147, 0.377, 0.908, -0.162, 192.0, 0.0, 0.0, 0.0, 0.0, 0.0, 0.0, 0.0, 0.0, 0.0, 1.6625061770424705E9, 0.0, 2022-09-06 19:16:17.042
208.0, -16375.022098424686, -7413.537193958426, -29861.841185312416, -26347.990494726957, -19100.30324462691, -7855.654699284399, 61699.77774617407, -7757.597596358967, -15325.965324159304, -4507.452786857222, -20478.690621696787, -13927.684894524205, 10594.302188670898, -13119.110538853472, -8232.48275905642, -15723.960485930502, 0.377, 0.908, -0.162, 192.0, 0.0, 0.0, 0.0, 0.0, 0.0, 0.0, 0.0, 0.0, 0.0, 1.662506177042477E9, 0.0, 2022-09-06 19:16:17.042
210.0, -16247.505396307159, -7288.568590708804, -29795.210635091145, -26225.435879878507, -19010.024548771926, -7739.157407183338, 61132.11049224264, -7598.050844436985, -15388.57256037862, -4539.28167096158, -20530.72548278874, -13979.786810849526, 10530.555013484362, -13174.98989999174, -8323.700228178528, -15804.359710736242, 0.40349999999999997, 1.06, -0.124, 192.0, 6.5, 56.0, 18.5, 112.0, 126.5, 40.0, 0.0, 0.0, 0.0, 1.662506177042483E9, 0.0, 2022-09-06 19:16:17.042
212.0, -16333.716074671278, -7382.490620910004, -29884.19292976772, -26321.50367754742, -19045.2956015224, -7843.472998556256, 61584.398041295775, -7650.2198159956715, -15282.111201537991, -4450.567597218465, -20431.61784787391, -13897.286522064987, 10628.187433265142, -13101.609122944967, -8231.745151489396, -15741.238384394454, 0.40349999999999997, 1.06, -0.124, 192.0, 0.0, 0.0, 0.0, 0.0, 0.0, 0.0, 0.0, 0.0, 0.0, 1.6625061770424893E9, 0.0, 2022-09-06 19:16:17.042
214.0, -16237.156538624353, -7273.414107968106, -29829.654673296773, -26234.80126080528, -18981.32490889131, -7769.0863930089945, 61264.85750256271, -7557.080096850407, -15350.686353526873, -4514.895917760839, -20485.61966247793, -13958.127970472333, 10562.741525500003, -13190.591417621545, -8315.675951919075, -15849.979621169523, 0.40349999999999997, 1.06, -0.124, 192.0, 0.0, 0.0, 0.0, 0.0, 0.0, 0.0, 0.0, 0.0, 0.0, 1.6625061770424953E9, 0.0, 2022-09-06 19:16:17.042
216.0, -16374.99974668023, -7393.979417560032, -29979.187843702777, -26370.856329304737, -19079.896101939215, -7900.447595172835, 61928.704312885326, -7666.46953421468, -15268.387230442433, -4445.493751227111, -20400.973606225685, -13880.813286401426, 10645.465331729094, -13100.200963044283, -8238.182453892525, -15794.346129220265, 0.40349999999999997, 1.06, -0.124, 192.0, 0.0, 0.0, 0.0, 0.0, 0.0, 0.0, 0.0, 0.0, 0.0, 1.6625061770425014E9, 0.0, 2022-09-06 19:16:17.042
218.0, -16318.829812864044, -7319.525756779404, -29983.837006549482, -26315.1110786332, -19049.52008122445, -7851.877254471452, 62000.96750270933, -7614.07704521144, -15413.248886257279, -4575.111517323437, -20529.809061266074, -14004.686654172738, 10502.03418755939, -13223.180261037382, -8381.971225973515, -15936.972610589579, 0.40349999999999997, 1.06, -0.124, 192.0, 0.0, 0.0, 0.0, 0.0, 0.0, 0.0, 0.0, 0.0, 0.0, 1.6625061770425076E9, 0.0, 2022-09-06 19:16:17.042
220.0, -16418.049206501153, -7412.374903246749, -30121.568455883084, -26415.671576937628, -19111.2108959211, -7941.753618926242, 62510.967255946074, -7676.61722619739, -15327.172318359892, -4493.170022150281, -20453.38844697338, -13925.717941012139, 10586.277912411442, -13137.483672795734, -8303.583658168753, -15859.501464307485, 0.38175, 1.107, -0.088, 192.0, 5.5, 32.0, 18.0, 8.0, 127.0, 48.0, 0.0, 0.0, 0.0, 1.6625061770425136E9, 0.0, 2022-09-06 19:16:17.042
222.0, -16408.974398252296, -7390.112565769264, -30201.766514988725, -26411.35769025775, -19126.678303084173, -7909.477699932779, 62770.76158175011, -7659.9651765781855, -15466.222520616357, -4629.023924949637, -20601.491105734243, -14064.54462582405, 10451.519245090396, -13278.657290775454, -8431.279174241921, -16004.743099778068, 0.38175, 1.107, -0.088, 192.0, 0.0, 0.0, 0.0, 0.0, 0.0, 0.0, 0.0, 0.0, 0.0, 1.6625061770425196E9, 0.0, 2022-09-06 19:16:17.042
224.0, -16435.751788109756, -7417.381694004738, -30289.877091631544, -26446.606391263773, -19122.78909954895, -7932.231775788281, 62862.403734016865, -7653.483170686147, -15370.46764736982, -4523.970726009694, -20496.504962027666, -13957.345659416398, 10541.842644434291, -13187.37276641998, -8342.095713865247, -15916.72193011307, 0.38175, 1.107, -0.088, 192.0, 0.0, 0.0, 0.0, 0.0, 0.0, 0.0, 0.0, 0.0, 0.0, 1.6625061770425255E9, 0.0, 2022-09-06 19:16:17.042
226.0, -16429.716817106822, -7392.772423359445, -30361.402673888526, -26449.109786642766, -19142.615096880807, -7950.493151008267, 63057.48975962279, -7649.191635750728, -15471.095200907614, -4645.139532701914, -20607.660187203906, -14078.045079475056, 10429.212204123998, -13292.269503148736, -8456.849569898794, -16051.234728245108, 0.38175, 1.107, -0.088, 192.0, 0.0, 0.0, 0.0, 0.0, 0.0, 0.0, 0.0, 0.0, 0.0, 1.6625061770425324E9, 0.0, 2022-09-06 19:16:17.042
228.0, -16409.980226752785, -7366.844399791289, -30376.467749651405, -26423.94172238609, -19066.9991453885, -7955.946976655362, 62817.49907940616, -7610.165489931762, -15349.3228971151, -4514.627696827376, -20485.463200266746, -13947.66735406725, 10555.790132974404, -13154.292184626125, -8363.575740286797, -15963.750000447037, 0.38175, 1.107, -0.088, 192.0, 0.0, 0.0, 0.0, 0.0, 0.0, 0.0, 0.0, 0.0, 0.0, 1.66250617704254E9, 0.0, 2022-09-06 19:16:17.042
230.0, -16401.35245339304, -7352.651042062169, -30419.91954087252, -26414.375175759218, -19113.714291300093, -7971.503790796255, 63052.99705898727, -7624.738827316622, -15422.033121828214, -4592.05413962056, -20569.036372785136, -14026.256087572108, 10497.072100290312, -13237.507729233233, -8421.80203459287, -16032.101634991364, 0.33187500000000003, 1.0445, -0.067, 192.0, 4.0, 104.0, 15.0, 88.0, 127.0, 72.0, 0.0, 0.0, 0.0, 1.6625061770425463E9, 0.0, 2022-09-06 19:16:17.042
232.0, -16341.494481741725, -7297.755157679935, -30353.11017669561, -26351.231497672976, -19045.273249777943, -7928.454330975334, 62607.57149548191, -7559.40467827376, -15319.349207800533, -4467.443164282223, -20464.09493256747, -13898.158240098744, 10592.223476436553, -13125.592544745512, -8340.55344349783, -15938.738398401547, 0.33187500000000003, 1.0445, -0.067, 192.0, 0.0, 0.0, 0.0, 0.0, 0.0, 0.0, 0.0, 0.0, 0.0, 1.6625061770425525E9, 0.0, 2022-09-06 19:16:17.042
234.0, -16383.895740973443, -7334.300259864362, -30395.958470816433, -26388.424800446606, -19107.74637553053, -7974.610683275543, 62970.11679054699, -7617.027475479541, -15388.147877233969, -4562.862761361928, -20547.466939385766, -13972.589549134917, 10525.101187837266, -13212.13849927646, -8408.592153619786, -16000.898599731756, 0.33187500000000003, 1.0445, -0.067, 192.0, 0.0, 0.0, 0.0, 0.0, 0.0, 0.0, 0.0, 0.0, 0.0, 1.6625061770425584E9, 0.0, 2022-09-06 19:16:17.042
236.0, -16319.500365197704, -7270.396622466639, -30322.577693769657, -26322.01776766989, -19042.412226487664, -7918.865432604008, 62394.49231558947, -7567.272492322028, -15320.22092583429, -4478.507277787599, -20465.436037234787, -13877.192303799666, 10572.285720382419, -13145.038562421629, -8370.527132812396, -15930.378845975263, 0.33187500000000003, 1.0445, -0.067, 192.0, 0.0, 0.0, 0.0, 0.0, 0.0, 0.0, 0.0, 0.0, 0.0, 1.6625061770425644E9, 0.0, 2022-09-06 19:16:17.042
238.0, -16369.635328010956, -7317.268230589418, -30347.14226092604, -26343.3189801358, -19072.877654180247, -7953.264767320725, 62876.30651906807, -7607.863260252865, -15366.109057201036, -4546.255415231635, -20507.144392388393, -13928.064874179945, 10536.120597853733, -13175.883969769951, -8403.495955883975, -15945.265107782498, 0.33187500000000003, 1.0445, -0.067, 192.0, 0.0, 0.0, 0.0, 0.0, 0.0, 0.0, 0.0, 0.0, 0.0, 1.6625061770425708E9, 0.0, 2022-09-06 19:16:17.042
240.0, -16301.261341722173, -7253.431648425061, -30268.911155332466, -26267.01012456538, -19002.156734723656, -7877.5594088505995, 62179.51323741832, -7542.707925165645, -15305.513477982699, -4477.859077198395, -20435.439996175766, -13842.12241674929, 10594.391595648718, -13087.572227427034, -8366.637929277174, -15874.208912159076, 0.2769375, 0.96025, -0.0475, 192.0, 3.0, 120.0, 13.5, 48.0, 127.5, 16.0, 0.0, 0.0, 0.0, 1.6625061770425768E9, 0.0, 2022-09-06 19:16:17.042
242.0, -16343.081455598052, -7296.637570457169, -30298.773085924757, -26300.91772090408, -19033.180956027623, -7909.053016788128, 62418.475737390014, -7582.292864595994, -15331.016818406204, -4529.84923480144, -20487.273691567625, -13891.27390280651, 10580.689976297615, -13127.224222090748, -8382.686481796085, -15887.441144876617, 0.2769375, 0.96025, -0.0475, 192.0, 0.0, 0.0, 0.0, 0.0, 0.0, 0.0, 0.0, 0.0, 0.0, 1.6625061775215223E9, 0.0, 2022-09-06 19:16:17.521
244.0, -16193.704747403235, -7146.724420395425, -30146.468299206295, -26137.41471021351, -18875.467047150978, -7760.950358027263, 61120.197012447956, -7452.138656632741, -15243.44268363031, -4425.108960283871, -20395.60918755641, -13784.38786082123, 10662.720878448592, -13006.055415398529, -8309.462166960499, -15810.618199183727, 0.2769375, 0.96025, -0.0475, 192.0, 0.0, 0.0, 0.0, 0.0, 0.0, 0.0, 0.0, 0.0, 0.0, 1.662506177521551E9, 0.0, 2022-09-06 19:16:17.521
246.0, -16222.49379426167, -7169.187923573008, -30178.073665866097, -26162.672181448008, -18888.498114168422, -7797.048425322584, 61009.332359949636, -7506.498099148047, -15200.773203465129, -4402.332532683913, -20363.467379029677, -13752.983659861526, 10710.486556349582, -12963.341231744436, -8242.451637083488, -15771.256777197932, 0.2769375, 0.96025, -0.0475, 192.0, 0.0, 0.0, 0.0, 0.0, 0.0, 0.0, 0.0, 0.0, 0.0, 1.6625061775215569E9, 0.0, 2022-09-06 19:16:17.521
248.0, -16059.214301015652, -7005.439043693429, -30014.74946913117, -25991.502522409264, -18743.14471997556, -7664.9496155917195, 59670.44051533229, -7380.36720518675, -15138.925926557295, -4319.698133432643, -20281.458828623156, -13656.602937770242, 10764.488370953604, -12902.544486826002, -8189.701520168963, -15723.40169231912, 0.2769375, 0.96025, -0.0475, 192.0, 0.0, 0.0, 0.0, 0.0, 0.0, 0.0, 0.0, 0.0, 0.0, 1.6625061775215628E9, 0.0, 2022-09-06 19:16:17.521
250.0, -16058.856673104368, -6999.940514557424, -29998.030364278602, -25977.152702468957, -18736.774472805795, -7674.560865707501, 59572.27165368458, -7389.330254713328, -15052.827006915451, -4248.9325104871405, -20199.360871238812, -13577.567169376276, 10847.256880671606, -12812.53401190448, -8079.753289193308, -15625.322237649232, 0.23246875, 0.905125, -0.036750000000000005, 192.0, 2.5, 112.0, 13.0, 72.0, 127.5, 24.0, 0.0, 0.0, 0.0, 1.6625061775215688E9, 0.0, 2022-09-06 19:16:17.521
252.0, -15918.800642347414, -6865.651233869939, -29857.929630032737, -25830.01116871967, -18617.192639969904, -7536.829416373899, 58374.307557857945, -7276.990387080955, -14997.975826022128, -4170.343776982281, -20119.431033066634, -13492.76465091284, 10905.371416255406, -12731.553641742903, -8034.558061904677, -15565.88894914257, 0.23246875, 0.905125, -0.036750000000000005, 192.0, 0.0, 0.0, 0.0, 0.0, 0.0, 0.0, 0.0, 0.0, 0.0, 1.6625061775215752E9, 0.0, 2022-09-06 19:16:17.521
254.0, -15977.898654687246, -6926.269164832732, -29891.703115904704, -25878.581509421052, -18658.006925345293, -7570.491143523592, 58462.12756182285, -7314.049579387854, -14950.903052199252, -4128.680125317589, -20070.346602242782, -13450.2739847033, 10968.31392864155, -12682.066879518854, -7959.053869134649, -15489.714204038884, 0.23246875, 0.905125, -0.036750000000000005, 192.0, 0.0, 0.0, 0.0, 0.0, 0.0, 0.0, 0.0, 0.0, 0.0, 1.6625061775215812E9, 0.0, 2022-09-06 19:16:17.521
0.0, -15875.795886015403, -6826.513329328696, -29781.441960506676, -25768.879147634405, -18561.179168364903, -7454.932624689654, 57555.5855102045, -7227.123645201164, -14956.893319713274, -4123.628631070689, -20063.529320183912, -13447.457664901933, 10961.474294838226, -12676.925978294132, -7970.497962295767, -15486.339090626132, 0.23246875, 0.905125, -0.036750000000000005, 192.0, 0.0, 0.0, 0.0, 0.0, 0.0, 0.0, 0.0, 0.0, 0.0, 1.662506177521587E9, 0.0, 2022-09-06 19:16:17.521
2.0, -15928.568354674382, -6871.395632194953, -29818.32233885793, -25816.10838366847, -18581.25103488577, -7501.200735712139, 57671.47930520526, -7270.955416078022, -14905.394900488247, -4072.3313775457596, -20012.90261899264, -13394.79695496523, 11014.98437106423, -12612.575306007304, -7892.266856702192, -15405.559886164652, 0.23246875, 0.905125, -0.036750000000000005, 192.0, 0.0, 0.0, 0.0, 0.0, 0.0, 0.0, 0.0, 0.0, 0.0, 1.6625061775215929E9, 0.0, 2022-09-06 19:16:17.521
4.0, -15802.951550835556, -6741.956680054269, -29713.000918984526, -25697.89000724435, -18503.936350814864, -7386.98332154552, 56874.885484562576, -7181.3919760456065, -14920.95171462914, -4073.359557790704, -20013.282598648384, -13389.611350251598, 11009.41878669486, -12617.716207232024, -7908.918906321395, -15426.861098630561, 0.19723437500000002, 0.8835625, -0.029375000000000002, 192.0, 2.5, 8.0, 13.0, 120.0, 127.5, 40.0, 0.0, 0.0, 0.0, 1.6625061775216043E9, 0.0, 2022-09-06 19:16:17.521
6.0, -15842.357676310263, -6782.681558451839, -29731.37405292679, -25732.021121027607, -18506.28328398267, -7413.425435236149, 56818.469681557384, -7216.305400884796, -14829.018989684462, -3987.8864869936097, -19923.629751638146, -13305.68054982192, 11106.894744264453, -12562.216825749496, -7804.916239370852, -15337.69998999834, 0.19723437500000002, 0.8835625, -0.029375000000000002, 192.0, 0.0, 0.0, 0.0, 0.0, 0.0, 0.0, 0.0, 0.0, 0.0, 1.6625061775216103E9, 0.0, 2022-09-06 19:16:17.521
8.0, -15718.0596253943, -6652.326184788488, -29612.99921429148, -25608.371270700845, -18404.31462577756, -7308.4169397851165, 56003.92741011708, -7122.964516039434, -14859.126789465761, -3991.619228317646, -19949.200147295018, -13316.007055760272, 11076.295206105138, -12545.162444730096, -7821.3224198010475, -15367.919548501915, 0.19723437500000002, 0.8835625, -0.029375000000000002, 192.0, 0.0, 0.0, 0.0, 0.0, 0.0, 0.0, 0.0, 0.0, 0.0, 1.662506177521616E9, 0.0, 2022-09-06 19:16:17.521
10.0, -15707.353139800209, -6636.568204947496, -29581.773827287416, -25591.69686933719, -18367.21072998175, -7289.708529676024, 55679.6930050484, -7090.576838323694, -14719.674255809101, -3852.0549359387087, -19801.768040867813, -13172.642966823933, 11218.899335729997, -12403.40768139454, -7676.192543052739, -15231.417445113355, 0.19723437500000002, 0.8835625, -0.029375000000000002, 192.0, 0.0, 0.0, 0.0, 0.0, 0.0, 0.0, 0.0, 0.0, 0.0, 1.662506177521622E9, 0.0, 2022-09-06 19:16:17.521
12.0, -15630.574897596229, -6568.797715759006, -29510.896445619637, -25521.15476383624, -18321.322598615003, -7232.555119103804, 55047.56332010786, -7025.846186381124, -14743.098883998262, -3886.901305544532, -19821.7281486664, -13202.013159038206, 11193.954788917874, -12429.894498574078, -7689.7824036815655, -15265.63796587443, 0.19723437500000002, 0.8835625, -0.029375000000000002, 192.0, 0.0, 0.0, 0.0, 0.0, 0.0, 0.0, 0.0, 0.0, 0.0, 1.662506177521628E9, 0.0, 2022-09-06 19:16:17.521
14.0, -15611.03947294229, -6558.2476923761005, -29473.658439357096, -25503.89921711674, -18265.309127010005, -7193.886601196123, 54676.502010405304, -6985.6353981060265, -14635.98932456843, -3778.65180714748, -19701.431060007937, -13088.242779760692, 11304.28299954927, -12333.737293927348, -7579.990634917097, -15153.119284286415, 0.19723437500000002, 0.8835625, -0.029375000000000002, 192.0, 0.0, 0.0, 0.0, 0.0, 0.0, 0.0, 0.0, 0.0, 0.0, 1.662506177521634E9, 0.0, 2022-09-06 19:16:17.521
16.0, -15568.392344521564, -6510.750235408573, -29435.10168017169, -25466.795321320933, -18254.46853094918, -7172.965368385955, 54483.11471737799, -6974.683043322926, -14670.835694174255, -3816.4039035324936, -19737.14914764752, -13125.525489512145, 11266.41914444198, -12380.877122983591, -7611.573649832446, -15179.941377632784, 0.136, 0.868, -0.02, 192.0, 2.0, 32.0, 13.5, 16.0, 127.5, 48.0, 0.0, 0.0, 0.0, 1.6625061775216396E9, 0.0, 2022-09-06 19:16:17.521
18.0, -15625.366941138142, -6567.3001488805, -29481.995640038927, -25531.05658662994, -18308.068014153007, -7242.211072708496, 54662.10748697609, -7021.129968301055, -14601.679396829535, -3754.556626624659, -19675.36892597305, -13061.554796881057, 11336.089531909172, -12309.239782004332, -7573.598036002879, -15120.552792615032, 0.136, 0.868, -0.02, 192.0, 0.0, 0.0, 0.0, 0.0, 0.0, 0.0, 0.0, 0.0, 0.0, 1.6625061775216455E9, 0.0, 2022-09-06 19:16:17.521
20.0, -15665.980060813436, -6620.899632084326, -29540.691320978563, -25586.77948555702, -18385.092125545994, -7286.4675267300045, 55680.96705448235, -7090.241562156864, -14728.212622191028, -3881.939218275454, -19805.478430447394, -13187.506876886711, 11213.959600205375, -12445.853644115168, -7673.711499418199, -15222.722616520241, 0.136, 0.868, -0.02, 192.0, 0.0, 0.0, 0.0, 0.0, 0.0, 0.0, 0.0, 0.0, 0.0, 1.6625061775216515E9, 0.0, 2022-09-06 19:16:17.521
22.0, -15776.867065056214, -6734.133569494912, -29619.14594401669, -25700.482809601166, -18456.193024658325, -7389.620827391247, 56690.2824271062, -7181.548438256793, -14743.568270631824, -3880.620465352591, -19808.54061943777, -13182.142458217439, 11197.665178497457, -12461.633975700615, -7696.420871784791, -15225.002494454682, 0.136, 0.868, -0.02, 192.0, 0.0, 0.0, 0.0, 0.0, 0.0, 0.0, 0.0, 0.0, 0.0, 1.6625061775216575E9, 0.0, 2022-09-06 19:16:17.521
24.0, -15893.543171112917, -6849.177998206377, -29714.610244585307, -25822.165706415857, -18591.331671635115, -7507.503927648536, 58274.127039209256, -7309.422768285605, -14923.566868730411, -4073.784240935355, -19996.5187903069, -13372.3558035321, 11024.617972924469, -12636.379913852206, -7849.284452114636, -15376.770839306217, 0.136, 0.868, -0.02, 192.0, 0.0, 0.0, 0.0, 0.0, 0.0, 0.0, 0.0, 0.0, 0.0, 1.6625061775216632E9, 0.0, 2022-09-06 19:16:17.521
26.0, -16009.280503902497, -6985.568342872661, -29775.27287903701, -25948.2742486327, -18701.92810319997, -7643.737810103633, 59542.007391692096, -7430.61392672228, -14977.993366479084, -4132.010535241429, -20049.894756066176, -13421.887269245062, 10956.489855824693, -12696.997844814998, -7919.670095404398, -15428.358665509066, 0.128, 0.906, -0.022, 192.0, 2.0, 0.0, 14.0, 40.0, 127.5, 40.0, 0.0, 0.0, 0.0, 1.6625061775216691E9, 0.0, 2022-09-06 19:16:17.521
28.0, -16194.978796837187, -7172.786554430313, -29904.48831373314, -26137.280599746777, -18904.747832387427, -7840.880196199441, 61645.30654493649, -7634.730057088144, -15196.168744107335, -4347.637814001777, -20263.264508636537, -13640.666143973607, 10750.429123691216, -12917.162527699773, -8097.008835912805, -15603.104603660657, 0.128, 0.906, -0.022, 192.0, 0.0, 0.0, 0.0, 0.0, 0.0, 0.0, 0.0, 0.0, 0.0, 1.6625061775216756E9, 0.0, 2022-09-06 19:16:17.521
30.0, -16276.22738793223, -7265.05455554182, -29928.87406693388, -26226.262894423355, -18983.98476648149, -7919.1783570263815, 62667.40711538877, -7725.43343608778, -15288.190876029836, -4427.321782984946, -20340.847413640906, -13717.042054777392, 10645.599442195826, -13018.840613226965, -8206.10770059916, -15698.814773418282, 0.128, 0.906, -0.022, 192.0, 0.0, 0.0, 0.0, 0.0, 0.0, 0.0, 0.0, 0.0, 0.0, 1.6625061775216813E9, 0.0, 2022-09-06 19:16:17.521
32.0, -16461.16572155544, -7461.727555004068, -30059.60942025297, -26411.782373402402, -19170.1747977942, -8104.809594727707, 64652.75611314251, -7914.238621501759, -15456.186587355924, -4623.43598883581, -20517.806174493573, -13900.929856411203, 10489.673672875604, -13220.90038310294, -8367.666109522117, -15844.414036800152, 0.128, 0.906, -0.022, 192.0, 0.0, 0.0, 0.0, 0.0, 0.0, 0.0, 0.0, 0.0, 0.0, 1.6625061775216873E9, 0.0, 2022-09-06 19:16:17.521
34.0, -16513.13352741403, -7495.925724020687, -30063.789196466114, -26446.539336030404, -19207.85983894585, -8131.788150285262, 65315.75355717583, -7951.230758575292, -15556.188292048968, -4705.802167153617, -20601.759326667707, -13979.786810849526, 10386.453316980997, -13284.871075734029, -8474.909779418682, -15942.940526359145, 0.128, 0.906, -0.022, 192.0, 0.0, 0.0, 0.0, 0.0, 0.0, 0.0, 0.0, 0.0, 0.0, 1.662506177521693E9, 0.0, 2022-09-06 19:16:17.521
36.0, -16609.603656483134, -7592.440556578703, -30148.1670317849, -26530.20191552662, -19285.621557905863, -8214.24373558089, 66183.62709088648, -8035.452131682889, -15634.553508109273, -4801.5793921446075, -20688.975833532317, -14081.59900684345, 10297.806298471249, -13379.530713502254, -8547.150617498233, -16016.097785961365, 0.15, 0.984, -0.006, 192.0, 2.0, 88.0, 15.0, 96.0, 127.5, 104.0, 0.0, 0.0, 0.0, 1.6625061775217001E9, 0.0, 2022-09-06 19:16:17.521
38.0, -16509.691358767912, -7485.643921571246, -30049.595838736994, -26415.60452170426, -19182.401202011253, -8112.476243075877, 65341.72628423289, -7925.414493729412, -15620.293095146788, -4770.018728973714, -20655.13529242698, -14054.955727452723, 10313.430167845509, -13346.584242175131, -8554.92902456868, -16026.536050621993, 0.15, 0.984, -0.006, 192.0, 0.0, 0.0, 0.0, 0.0, 0.0, 0.0, 0.0, 0.0, 0.0, 1.662506177521706E9, 0.0, 2022-09-06 19:16:17.521
40.0, -16512.485326824826, -7482.112345947307, -30064.683266244327, -26402.55110294236, -19186.580978224396, -8089.252780586813, 65143.28749695868, -7904.001522541228, -15566.067763098214, -4717.3133155481, -20596.03728008715, -14007.972360607668, 10365.889712082115, -13278.813752986642, -8488.611398769785, -15961.336012045862, 0.15, 0.984, -0.006, 192.0, 0.0, 0.0, 0.0, 0.0, 0.0, 0.0, 0.0, 0.0, 0.0, 1.6625061775217116E9, 0.0, 2022-09-06 19:16:17.521
42.0, -16335.99595260572, -7287.652169186136, -29911.797334170027, -26208.023870947825, -18999.899208533672, -7914.484490690767, 63294.64176829359, -7714.771653982599, -15482.695756279918, -4629.828587750028, -20506.093860398993, -13921.918144454736, 10432.654372770116, -13177.13566745945, -8444.779627892927, -15917.10190976881, 0.15, 0.984, -0.006, 192.0, 0.0, 0.0, 0.0, 0.0, 0.0, 0.0, 0.0, 0.0, 0.0, 1.6625061775217276E9, 0.0, 2022-09-06 19:16:17.521
44.0, -16256.624908044925, -7205.218935634964, -29837.097804200388, -26097.82977078316, -18912.615646435697, -7808.78309116162, 61881.38566987344, -7590.339492599905, -15327.887574182461, -4495.494603573633, -20359.51112026109, -13783.694956743117, 10580.444107108606, -13023.802700496042, -8287.222181227467, -15771.83792255377, 0.15, 0.984, -0.006, 192.0, 0.0, 0.0, 0.0, 0.0, 0.0, 0.0, 0.0, 0.0, 0.0, 1.6625061775217333E9, 0.0, 2022-09-06 19:16:17.521
46.0, -16005.21248641163, -6934.94164168139, -29575.783559773394, -25819.25997963667, -18640.460805947878, -7539.82455013091, 59252.79817018488, -7321.000971913454, -15161.009450079138, -4324.369648023802, -20185.703955376623, -13606.713844145996, 10746.204643989164, -12857.796294426476, -8142.874615535095, -15626.640990572096, 0.166, 0.968, 0.004, 192.0, 2.5, 24.0, 15.0, 32.0, 0.0, 16.0, 0.0, 0.0, 0.0, 1.6625061775217395E9, 0.0, 2022-09-06 19:16:17.521
48.0, -15899.868714793769, -6822.847643238026, -29427.815011479262, -25702.360356135414, -18543.81186292313, -7433.273784312461, 57721.10017789605, -7227.436569623539, -14973.970052477129, -4139.945404523063, -19996.362328095714, -13417.126347676081, 10939.837806205489, -12646.304088390361, -7923.604002428532, -15415.260543258257, 0.166, 0.968, 0.004, 192.0, 0.0, 0.0, 0.0, 0.0, 0.0, 0.0, 0.0, 0.0, 0.0, 1.6625061775217457E9, 0.0, 2022-09-06 19:16:17.521
50.0, -15560.949213617947, -6460.503513873043, -29102.775943610188, -25349.649828630667, -18222.974923011654, -7078.529248062283, 54649.188178680924, -6938.272051605231, -14795.133745090217, -3925.1227885631074, -19800.672805389502, -13225.370731994002, 11110.806299544132, -12433.381370709107, -7763.364346428436, -15233.4961573477, 0.166, 0.968, 0.004, 192.0, 0.0, 0.0, 0.0, 0.0, 0.0, 0.0, 0.0, 0.0, 0.0, 1.6625061775217512E9, 0.0, 2022-09-06 19:16:17.521
52.0, -15392.841743569583, -6278.247389584469, -28917.614092542422, -25207.22451296145, -18050.15123488322, -6899.759995908737, 52484.39937643998, -6798.238372592732, -14466.026659730276, -3611.3937033884176, -19485.982595203233, -12948.052638537007, 11424.580088207733, -12115.226640132267, -7445.343726318327, -14900.276351007982, 0.166, 0.968, 0.004, 192.0, 0.0, 0.0, 0.0, 0.0, 0.0, 0.0, 0.0, 0.0, 0.0, 1.6625061775217571E9, 0.0, 2022-09-06 19:16:17.521
54.0, -15209.043348913592, -6081.552038377767, -28710.748697608557, -25030.04223466423, -17872.700735652536, -6679.774126979605, 50444.82504663766, -6617.189242504745, -14316.158213157441, -3483.2735041705973, -19355.090779672955, -12910.993446230108, 11555.985993860484, -11999.824583509515, -7327.125349894208, -14781.677994928123, 0.166, 0.968, 0.004, 192.0, 0.0, 0.0, 0.0, 0.0, 0.0, 0.0, 0.0, 0.0, 0.0, 1.6625061775217628E9, 0.0, 2022-09-06 19:16:17.521
56.0, -15079.64910026182, -5942.3230221656595, -28606.61192019128, -24886.365221305517, -17688.611768318628, -6488.644360142274, 48545.59732027022, -6399.259734065501, -14082.068393477011, -3252.223521736088, -19120.330407658865, -12745.255261094006, 11796.267246755035, -11750.736743299574, -7093.661379058526, -14537.798111176267, 0.32, 1.12, 0.034, 192.0, 5.0, 0.0, 17.5, 0.0, 0.5, 8.0, 0.0, 0.0, 0.0, 1.6625061775217688E9, 0.0, 2022-09-06 19:16:17.521
58.0, -15047.037905101528, -5933.941117994919, -28795.46180909417, -24960.528309408226, -17655.374724313584, -6491.058348543447, 48309.78641626673, -6395.437585763644, -13994.516610445573, -3166.3928230277093, -19092.748355001015, -12754.061848409397, 11886.054204232003, -11694.052719360914, -7078.797468995746, -14482.276377949283, 0.32, 1.12, 0.034, 192.0, 0.0, 0.0, 0.0, 0.0, 0.0, 0.0, 0.0, 0.0, 0.0, 1.6625061775217745E9, 0.0, 2022-09-06 19:16:17.521
60.0, -15356.296641385155, -6266.8703516567175, -29161.091644894084, -25356.91414557864, -17961.347754162285, -6822.5123670711955, 51198.0341312926, -6647.632318452874, -14107.370568200418, -3277.3692342483087, -19245.299010908486, -12920.627048090346, 11791.349862974866, -11842.401247310789, -7210.963333959978, -14614.71046384698, 0.32, 1.12, 0.034, 192.0, 0.0, 0.0, 0.0, 0.0, 0.0, 0.0, 0.0, 0.0, 0.0, 1.6625061775217805E9, 0.0, 2022-09-06 19:16:17.521
62.0, -15576.058992869735, -6482.676444372707, -29408.63721473661, -25595.40725891677, -18220.873859032854, -7040.3971720215295, 53949.62328071872, -6788.828288177048, -14472.039278988754, -3620.513215126183, -19629.45844286185, -13260.597081255566, 11427.619925453655, -12186.305187500142, -7547.44649499017, -14996.545314376988, 0.32, 1.12, 0.034, 192.0, 0.0, 0.0, 0.0, 0.0, 0.0, 0.0, 0.0, 0.0, 0.0, 1.6625061775217862E9, 0.0, 2022-09-06 19:16:17.521
64.0, -15787.528847161395, -6678.3436153344655, -29614.988519548002, -25813.87320922294, -18453.108483923494, -7254.43747692555, 56523.583116958514, -6923.095217120078, -14640.213804270483, -3773.488554178304, -19804.58436066918, -13403.424728324979, 11244.93911802043, -12361.654622752027, -7725.232270387683, -15156.226176765702, 0.32, 1.12, 0.034, 192.0, 0.0, 0.0, 0.0, 0.0, 0.0, 0.0, 0.0, 0.0, 0.0, 1.662506177521792E9, 0.0, 2022-09-06 19:16:17.521
66.0, -15952.529424730472, -6808.453119808808, -29759.179623029187, -25958.46664410432, -18622.735872594818, -7421.382656262238, 58862.91669165096, -7125.937298051989, -14885.94888281213, -4007.019580247352, -20058.366067214738, -13631.434873513565, 10982.216713692751, -12607.032073382386, -7932.477644977289, -15377.240225939779, 0.338, 0.89, 0.022, 192.0, 5.0, 72.0, 13.5, 104.0, 0.0, 88.0, 0.0, 0.0, 0.0, 1.662506177521798E9, 0.0, 2022-09-06 19:16:17.521
68.0, -16093.971263643654, -6930.2254236013205, -29869.798406338505, -26082.898805487017, -18783.802543139762, -7578.02368140503, 60568.265386613064, -7317.5140997784265, -14980.116782202338, -4088.134060875662, -20152.779835793954, -13700.054728991357, 10877.789363597556, -12684.883199320222, -8022.577526876632, -15470.670517762963, 0.338, 0.89, 0.022, 192.0, 0.0, 0.0, 0.0, 0.0, 0.0, 0.0, 0.0, 0.0, 0.0, 1.662506177521806E9, 0.0, 2022-09-06 19:16:17.521
70.0, -16199.24798002815, -7028.573099204672, -29947.73893925416, -26169.333001295687, -18903.049099808824, -7700.1089096199175, 62252.379924342626, -7492.818831541399, -15161.43413322379, -4267.551513618411, -20325.715282644665, -13857.902748334736, 10688.179515383186, -12875.789448713, -8198.552810973264, -15630.776063296327, 0.338, 0.89, 0.022, 192.0, 0.0, 0.0, 0.0, 0.0, 0.0, 0.0, 0.0, 0.0, 0.0, 1.662506177521812E9, 0.0, 2022-09-06 19:16:17.521
72.0, -16245.896070706378, -7079.110393418121, -29918.078174361966, -26199.46315282144, -18941.42704503859, -7767.834695319498, 63140.995876907815, -7569.9770534011195, -15183.025918367615, -4276.000473022517, -20314.137079016815, -13826.655009586217, 10666.341861050352, -12888.865219219353, -8210.734511701407, -15625.433996371508, 0.338, 0.89, 0.022, 192.0, 0.0, 0.0, 0.0, 0.0, 0.0, 0.0, 0.0, 0.0, 0.0, 1.662506177521818E9, 0.0, 2022-09-06 19:16:17.521
74.0, -16347.462397511292, -7194.221877362952, -29959.40654985983, -26287.283156786343, -19072.564729757873, -7873.960777993296, 64424.254229575905, -7716.939773194764, -15318.477489766776, -4418.403436947279, -20444.17952825779, -13929.718903269639, 10543.1390456127, -13027.58014530899, -8319.922783365582, -15728.54259354384, 0.338, 0.89, 0.022, 192.0, 0.0, 0.0, 0.0, 0.0, 0.0, 0.0, 0.0, 0.0, 0.0, 1.6625061775218236E9, 0.0, 2022-09-06 19:16:17.521
76.0, -16384.342775862548, -7219.233479408441, -29949.63883753286, -26312.138296620644, -19105.175924918167, -7904.113281263505, 64846.59044105893, -7759.028108004107, -15338.169376631902, -4426.897099840296, -20446.213537003227, -13896.906542409248, 10524.497690736973, -13038.756017536643, -8345.98491740047, -15737.863270981703, 0.358, 0.94, 0.013, 192.0, 5.5, 104.0, 15.0, 120.0, 0.0, 16.0, 0.0, 0.0, 0.0, 1.6625061775218296E9, 0.0, 2022-09-06 19:16:17.521
78.0, -16488.45720153537, -7314.630724743692, -30040.409271765864, -26405.434477977095, -19197.153353351754, -7997.744738786786, 65876.33530811493, -7847.406905580391, -15443.446093016399, -4532.4196854138, -20564.20839598279, -13999.545752948017, 10419.131567374656, -13146.290260111125, -8425.221851494534, -15809.478260216507, 0.358, 0.94, 0.013, 192.0, 0.0, 0.0, 0.0, 0.0, 0.0, 0.0, 0.0, 0.0, 0.0, 1.6625061775218356E9, 0.0, 2022-09-06 19:16:17.521
80.0, -16458.885843621, -7298.82804141379, -30016.336442987496, -26362.921460023103, -19143.2185939811, -7954.695278965864, 65794.61733038632, -7795.506154955167, -15447.491758762808, -4519.880356774373, -20565.370686694467, -13998.025834325057, 10420.472672041973, -13151.073533424562, -8437.76118013396, -15819.670655688127, 0.358, 0.94, 0.013, 192.0, 0.0, 0.0, 0.0, 0.0, 0.0, 0.0, 0.0, 0.0, 0.0, 1.6625061775218413E9, 0.0, 2022-09-06 19:16:17.521
82.0, -16514.11700417006, -7362.038774733398, -30106.10104872001, -26401.187646530587, -19169.101914060346, -7999.085843454104, 66176.60864312752, -7835.649887996899, -15471.877511963548, -4549.451714688744, -20607.615483715, -14038.594250511438, 10396.779822919349, -13210.238600997758, -8430.563918419351, -15835.540394251395, 0.358, 0.94, 0.013, 192.0, 0.0, 0.0, 0.0, 0.0, 0.0, 0.0, 0.0, 0.0, 0.0, 1.6625061775218472E9, 0.0, 2022-09-06 19:16:17.521
84.0, -16425.20176472685, -7258.930177561067, -30040.766899677146, -26300.805962181803, -19067.803808188895, -7919.737150637764, 65495.66274829659, -7722.572412797501, -15431.174985310434, -4506.290496145546, -20565.705962861295, -13997.020005824568, 10431.961468692001, -13136.544899528611, -8410.04501700938, -15836.725036707527, 0.358, 0.94, 0.013, 192.0, 0.0, 0.0, 0.0, 0.0, 0.0, 0.0, 0.0, 0.0, 0.0, 1.662506177521853E9, 0.0, 2022-09-06 19:16:17.521
86.0, -16469.54762572618, -7304.30421880534, -30089.784275267637, -26341.44143360155, -19124.197259449633, -7968.57571227261, 65542.53435641938, -7738.822131016509, -15411.796022867684, -4502.580106565965, -20538.414482881366, -13979.071555026956, 10467.88072203168, -13111.756814927676, -8377.65733929364, -15825.616219713238, 0.362, 0.975, 0.0235, 192.0, 5.5, 56.0, 15.5, 72.0, 0.5, 8.0, 0.0, 0.0, 0.0, 1.6625061775218587E9, 0.0, 2022-09-06 19:16:17.521
88.0, -16350.479883012758, -7179.469726022449, -29976.393875645863, -26214.90820824006, -19006.1353452367, -7844.702344501298, 64666.88241563826, -7614.144100444806, -15379.788324807683, -4467.59962649341, -20489.039479379593, -13929.51773756954, 10488.69019611957, -13077.580997655512, -8355.774981471895, -15818.821289398826, 0.362, 0.975, 0.0235, 192.0, 0.0, 0.0, 0.0, 0.0, 0.0, 0.0, 0.0, 0.0, 0.0, 1.662506177521865E9, 0.0, 2022-09-06 19:16:17.521
90.0, -16360.694630228834, -7193.953656429489, -29990.98956477518, -26214.774097773327, -19033.96326708356, -7850.737315504231, 64648.174005529174, -7619.732036558633, -15317.181088588368, -4412.927259555729, -20422.56539136951, -13867.692812406161, 10557.712382997559, -13023.556831307034, -8283.467088158975, -15742.087750683755, 0.362, 0.975, 0.0235, 192.0, 0.0, 0.0, 0.0, 0.0, 0.0, 0.0, 0.0, 0.0, 0.0, 1.662506177521871E9, 0.0, 2022-09-06 19:16:17.521
92.0, -16289.45962064977, -7120.1705479825205, -29917.027642372566, -26122.461393172907, -18935.772053691395, -7789.44883220778, 63839.62200160289, -7559.918768396231, -15295.052861577615, -4386.2839801650025, -20395.02804220057, -13829.650143343228, 10574.923226228146, -12984.508333743614, -8282.014224769382, -15725.793328975837, 0.362, 0.975, 0.0235, 192.0, 0.0, 0.0, 0.0, 0.0, 0.0, 0.0, 0.0, 0.0, 0.0, 1.6625061775218773E9, 0.0, 2022-09-06 19:16:17.521
94.0, -16340.66746719688, -7174.664100964559, -29958.758349270625, -26151.60806794263, -18991.51730436293, -7828.653791982388, 63882.71616491272, -7588.350187343382, -15268.342526953522, -4382.0595004629495, -20377.12429489187, -13819.122471704779, 10604.695749842615, -12971.99135684864, -8239.523558559842, -15679.033479575335, 0.362, 0.975, 0.0235, 192.0, 0.0, 0.0, 0.0, 0.0, 0.0, 0.0, 0.0, 0.0, 0.0, 1.6625061775218832E9, 0.0, 2022-09-06 19:16:17.521
96.0, -16265.252681404672, -7111.274553689308, -29916.91588365029, -26073.466369326874, -18940.823547938293, -7752.568453856523, 63330.20339372199, -7506.296933447949, -15255.847901803007, -4371.062442190939, -20367.445989542724, -13806.672550043173, 10598.079633483843, -12974.85238013892, -8238.607137037176, -15662.515540422863, 0.376, 0.9915, 0.057749999999999996, 192.0, 6.0, 24.0, 15.5, 64.0, 1.0, 112.0, 0.0, 0.0, 0.0, 1.6625061775218892E9, 0.0, 2022-09-06 19:16:17.521
98.0, -16316.840507607521, -7176.474592265438, -30002.724230614214, -26130.083338032167, -18971.065458186324, -7797.450756722779, 63567.802437281905, -7544.160788555239, -15223.840203743006, -4340.708773220632, -20348.715227689176, -13781.280968341944, 10647.745209663535, -12933.903984296798, -8194.350683015668, -15624.405816126564, 0.376, 0.9915, 0.057749999999999996, 192.0, 0.0, 0.0, 0.0, 0.0, 0.0, 0.0, 0.0, 0.0, 0.0, 1.6625061775218952E9, 0.0, 2022-09-06 19:16:17.521
100.0, -16277.054402477075, -7136.464969690439, -30016.671719154325, -26109.184456966457, -18951.53003353239, -7749.863892777431, 63180.89374076054, -7521.160843510729, -15252.606898856986, -4377.767965527531, -20401.331234136967, -13821.558811850407, 10605.545116131916, -12973.75714466061, -8248.687773786518, -15677.826485374748, 0.376, 0.9915, 0.057749999999999996, 192.0, 0.0, 0.0, 0.0, 0.0, 0.0, 0.0, 0.0, 0.0, 0.0, 1.6625061775219023E9, 0.0, 2022-09-06 19:16:17.521
102.0, -16286.442135148303, -7147.1714552845315, -30029.143992560388, -26123.42251818449, -18915.32020751479, -7741.9066717513415, 63302.66604455305, -7471.852895242321, -15193.687700472798, -4320.9498311221405, -20357.499463260112, -13766.573520490352, 10660.798628425435, -12906.70191129469, -8164.689918123475, -15612.291170631788, 0.376, 0.9915, 0.057749999999999996, 192.0, 0.0, 0.0, 0.0, 0.0, 0.0, 0.0, 0.0, 0.0, 0.0, 1.6625061775219083E9, 0.0, 2022-09-06 19:16:17.521
104.0, -16262.615175558947, -7110.849870544657, -30019.30922500005, -26110.07852674467, -18920.326998272776, -7718.929078451286, 63053.891128765485, -7449.836426953844, -15220.912125219362, -4354.768020483019, -20400.057184703015, -13793.194448136623, 10632.255450756009, -12930.148891228306, -8155.972737785904, -15629.99375224039, 0.376, 0.9915, 0.057749999999999996, 192.0, 0.0, 0.0, 0.0, 0.0, 0.0, 0.0, 0.0, 0.0, 0.0, 1.662506177521914E9, 0.0, 2022-09-06 19:16:17.521
106.0, -16326.429405978848, -7165.812810160257, -30086.878548488447, -26169.60122222915, -18924.685588441564, -7773.9590733002515, 63077.7404400993, -7505.313456691916, -15197.442793541288, -4327.185967825171, -20393.351661366425, -13760.806770420882, 10650.449770742629, -12911.999274730597, -8133.688048563964, -15598.857772214149, 0.379, 0.9617500000000001, 0.111875, 192.0, 5.5, 120.0, 14.5, 16.0, 2.5, 24.0, 0.0, 0.0, 0.0, 1.6625061780031135E9, 0.0, 2022-09-06 19:16:18.003
108.0, -16300.523734155147, -7128.954783553456, -30067.410179067872, -26135.55951542372, -18901.328015485768, -7741.2584711621375, 62793.51565760561, -7482.157049436218, -15253.25509944619, -4378.952607983662, -20467.224176791213, -13808.393634366232, 10587.216685678564, -12978.071031340485, -8192.249619036867, -15643.494205891397, 0.379, 0.9617500000000001, 0.111875, 192.0, 0.0, 0.0, 0.0, 0.0, 0.0, 0.0, 0.0, 0.0, 0.0, 1.6625061780032272E9, 0.0, 2022-09-06 19:16:18.003
110.0, -16299.026167276643, -7126.943126552478, -30069.757112235682, -26122.30493096172, -18908.815849878294, -7726.126340165894, 62526.2558491535, -7453.010374666497, -15192.950092905772, -4309.349275749836, -20425.560525126522, -13747.775703403438, 10655.523616733983, -12913.429786375737, -8123.920336236994, -15582.898626673059, 0.379, 0.9617500000000001, 0.111875, 192.0, 0.0, 0.0, 0.0, 0.0, 0.0, 0.0, 0.0, 0.0, 0.0, 1.6625061780032334E9, 0.0, 2022-09-06 19:16:18.003
112.0, -16259.731800524212, -7081.747899263847, -30049.975818392733, -26073.354610604598, -18898.3105299843, -7691.391729282347, 62112.32389358567, -7428.199938321107, -15222.67791303133, -4335.053781873439, -20466.330107013, -13774.150761860701, 10618.844404082824, -12957.75329563061, -8164.622862890109, -15613.296999132277, 0.379, 0.9617500000000001, 0.111875, 192.0, 0.0, 0.0, 0.0, 0.0, 0.0, 0.0, 0.0, 0.0, 0.0, 1.662506178003239E9, 0.0, 2022-09-06 19:16:18.003
114.0, -16224.460747773737, -7042.498236000328, -30000.533759657596, -26043.269162567754, -18843.548756068798, -7642.12848450285, 61541.84031985287, -7385.329292455828, -15137.09308351196, -4240.371792360758, -20380.07472515997, -13668.203493142546, 10708.609009815336, -12839.154939550752, -8081.496725260821, -15532.651905137529, 0.379, 0.9617500000000001, 0.111875, 192.0, 0.0, 0.0, 0.0, 0.0, 0.0, 0.0, 0.0, 0.0, 0.0, 1.6625061780032444E9, 0.0, 2022-09-06 19:16:18.003
116.0, -16217.621113970414, -7035.904471386012, -29992.956518287247, -26044.47615676834, -18867.152198213604, -7638.1275222453505, 61004.68319710293, -7385.038719777909, -15157.343763988467, -4272.401842165214, -20408.729661551675, -13691.203438187056, 10693.54393405246, -12860.50085550557, -8103.736710993852, -15557.484693227374, 0.3785, 0.8938750000000001, 0.1409375, 192.0, 5.5, 104.0, 12.5, 104.0, 2.5, 40.0, 0.0, 0.0, 0.0, 1.662506178003251E9, 0.0, 2022-09-06 19:16:18.003
118.0, -16193.190657280764, -6995.090186010621, -29972.348209899454, -26030.05928159467, -18825.376787826634, -7614.211155678172, 60095.07895649421, -7362.798734044878, -15111.790908788553, -4208.654666978678, -20355.331344047947, -13617.487384973454, 10744.12593175482, -12788.52823835948, -8066.990443109327, -15515.239896206844, 0.3785, 0.8938750000000001, 0.1409375, 192.0, 0.0, 0.0, 0.0, 0.0, 0.0, 0.0, 0.0, 0.0, 0.0, 1.6625061780032568E9, 0.0, 2022-09-06 19:16:18.003
120.0, -16185.971043821699, -6984.607217861083, -29967.408474374828, -26032.830897907126, -18842.252354890392, -7614.658190567278, 59563.7109355582, -7379.786059830912, -15132.198051476247, -4241.422324350157, -20387.741373508143, -13639.637963728663, 10730.22314670362, -12815.551497405946, -8088.26930383078, -15540.340905230154, 0.3785, 0.8938750000000001, 0.1409375, 192.0, 0.0, 0.0, 0.0, 0.0, 0.0, 0.0, 0.0, 0.0, 0.0, 1.6625061780032623E9, 0.0, 2022-09-06 19:16:18.003
122.0, -16140.48524385515, -6937.7356097383035, -29901.023793342567, -26003.214836503845, -18779.84628437117, -7575.632044748312, 58679.14064873942, -7330.813387729334, -15064.628727987854, -4169.360300226248, -20315.433480195225, -13563.507922113888, 10793.724452701146, -12750.9102524412, -8033.194605492903, -15479.790029500728, 0.3785, 0.8938750000000001, 0.1409375, 192.0, 0.0, 0.0, 0.0, 0.0, 0.0, 0.0, 0.0, 0.0, 0.0, 1.662506178003268E9, 0.0, 2022-09-06 19:16:18.003
124.0, -16155.77383706258, -6943.412952829952, -29894.988822339634, -26021.05152857918, -18786.641214685587, -7580.8400012063985, 58283.6041788583, -7369.07957423682, -15088.165114899293, -4204.653704721178, -20337.896983372808, -13597.706091130507, 10778.167638560253, -12818.390168951772, -8049.779599878741, -15504.913390268493, 0.3785, 0.8938750000000001, 0.1409375, 192.0, 0.0, 0.0, 0.0, 0.0, 0.0, 0.0, 0.0, 0.0, 0.0, 1.6625061780032735E9, 0.0, 2022-09-06 19:16:18.003
126.0, -16127.923563471266, -6909.080673346601, -29832.403937864776, -25985.311089195144, -18768.871577843616, -7574.179181358717, 57382.51595288706, -7360.451800877071, -15047.619050457366, -4141.577081868301, -20271.199377918172, -13535.009447933371, 10822.737017004136, -12735.599307489314, -8016.564907618154, -15462.556834525685, 0.34525, 0.8489375000000001, 0.14746874999999998, 192.0, 4.5, 96.0, 12.5, 16.0, 2.0, 104.0, 0.0, 0.0, 0.0, 1.662506178003279E9, 0.0, 2022-09-06 19:16:18.003
128.0, -16133.131519929353, -6902.218687798821, -29807.2358736081, -25982.226548460312, -18776.5829296807, -7580.6611872507565, 57179.18213357713, -7387.676225623635, -15072.474190291667, -4169.717928137533, -20295.138096229806, -13565.899558770605, 10808.476604041649, -12769.216331150095, -8036.614422394565, -15487.859009249094, 0.34525, 0.8489375000000001, 0.14746874999999998, 192.0, 0.0, 0.0, 0.0, 0.0, 0.0, 0.0, 0.0, 0.0, 0.0, 1.6625061780032847E9, 0.0, 2022-09-06 19:16:18.003
130.0, -16053.22403350163, -6823.182919404855, -29678.713342990082, -25894.898282873426, -18687.3100623262, -7509.627343371791, 56262.1794655537, -7311.523832264404, -15009.554029649977, -4078.835735182254, -20215.074147590894, -13479.24184551738, 10871.10619200542, -12699.858868105277, -7973.984834430795, -15422.234287528312, 0.34525, 0.8489375000000001, 0.14746874999999998, 192.0, 0.0, 0.0, 0.0, 0.0, 0.0, 0.0, 0.0, 0.0, 0.0, 1.66250617800329E9, 0.0, 2022-09-06 19:16:18.003
