%OpenBCI Raw EEG Data
%Number of channels = 16
%Sample Rate = 125 Hz
%Board = OpenBCI_GUI$BoardCytonSerialDaisy
Sample Index, EXG Channel 0, EXG Channel 1, EXG Channel 2, EXG Channel 3, EXG Channel 4, EXG Channel 5, EXG Channel 6, EXG Channel 7, EXG Channel 8, EXG Channel 9, EXG Channel 10, EXG Channel 11, EXG Channel 12, EXG Channel 13, EXG Channel 14, EXG Channel 15, Accel Channel 0, Accel Channel 1, Accel Channel 2, Other, Other, Other, Other, Other, Other, Other, Analog Channel 0, Analog Channel 1, Analog Channel 2, Timestamp, Other, Timestamp (Formatted)
180.0, -31588.40168576261, -27310.03192782783, -33672.52304226435, -25938.059501416625, -30065.487929044717, -27930.069319018046, -33948.835307220856, -28657.842118482844, -25313.507057846437, -3366.060956246967, -32955.54613537146, -34708.72756346793, -18432.477823791247, -17983.475981173036, -31676.065227516323, -30757.676751336665, -0.278, 0.89, -0.216, 192.0, 123.5, 40.0, 13.5, 104.0, 124.5, 32.0, 0.0, 0.0, 0.0, 1.6731203571184847E9, 0.0, 2023-01-07 14:39:17.118
182.0, -31577.67284842406, -27309.763706894366, -33645.72330066244, -25952.31991437911, -30042.219763066743, -27944.933229080827, -33952.27747586697, -28689.179264209186, -25282.393429564647, -3431.283346567553, -32941.777460786994, -34783.270631226376, -18422.374835297447, -17988.438068442116, -31671.438416414076, -30800.033307079473, -0.278, 0.89, -0.216, 192.0, 0.0, 0.0, 0.0, 0.0, 0.0, 0.0, 0.0, 0.0, 0.0, 1.6731203571184914E9, 0.0, 2023-01-07 14:39:17.118
184.0, -31603.355002803208, -27331.26608506037, -33679.85441444569, -25951.783472512183, -30047.405367780375, -27946.453147703785, -33978.94310700215, -28676.639935569758, -25318.826773026798, -3391.2066687591873, -32967.10198725486, -34730.81108698977, -18436.344675582015, -17992.439030699617, -31688.291631733377, -30772.13832999925, -0.278, 0.89, -0.216, 192.0, 0.0, 0.0, 0.0, 0.0, 0.0, 0.0, 0.0, 0.0, 0.0, 1.6731203571184974E9, 0.0, 2023-01-07 14:39:17.118
186.0, -31586.479435739453, -27323.755898923388, -33642.482297716415, -25975.05163849016, -30029.456916982763, -27955.63971467492, -33953.48447006756, -28698.656403858236, -25290.440057568558, -3447.1307333863656, -32953.98151325959, -34797.4639889555, -18419.31264630707, -18002.65377791569, -31679.75326535145, -30813.801981663943, -0.278, 0.89, -0.216, 192.0, 0.0, 0.0, 0.0, 0.0, 0.0, 0.0, 0.0, 0.0, 0.0, 1.673120357118503E9, 0.0, 2023-01-07 14:39:17.118
188.0, -31592.20148232001, -27319.46436398797, -33664.40935902707, -25941.054635173638, -30037.838821153502, -27918.021728756637, -33943.582647273855, -28653.61763878079, -25306.846237998754, -3403.2095555316873, -32962.676341852704, -34749.67595931005, -18421.324303308047, -17989.17567600914, -31671.728989091993, -30775.53579515646, -0.278, 0.89, -0.216, 192.0, 0.0, 0.0, 0.0, 0.0, 0.0, 0.0, 0.0, 0.0, 0.0, 1.6731203571185088E9, 0.0, 2023-01-07 14:39:17.118
190.0, -31582.590232204228, -27317.497410475902, -33639.71068140396, -25969.48605412079, -30026.32767275902, -27936.506621421177, -33940.76632747249, -28691.749714821544, -25274.86089168321, -3420.286288295542, -32941.442184620166, -34774.01700902188, -18402.97352111024, -17975.429353169126, -31654.942829006057, -30785.862301094807, -0.279, 0.894, -0.218, 192.0, 123.5, 32.0, 14.0, 8.0, 124.5, 16.0, 0.0, 0.0, 0.0, 1.6731203571185143E9, 0.0, 2023-01-07 14:39:17.118
192.0, -31621.661081512106, -27347.82872770175, -33691.9020047071, -25957.214946414824, -30049.238210825708, -27928.616455628453, -33969.77889177548, -28667.989810465555, -25312.031842712386, -3416.8888231383353, -32974.32160071392, -34765.232773450945, -18430.868498190463, -17992.394327210706, -31677.138111250177, -30785.057638294416, -0.279, 0.894, -0.218, 192.0, 0.0, 0.0, 0.0, 0.0, 0.0, 0.0, 0.0, 0.0, 0.0, 1.6731203571185203E9, 0.0, 2023-01-07 14:39:17.118
194.0, -31590.703915441507, -27330.461422259978, -33652.7417484214, -25975.319859423624, -30027.69112917079, -27943.413310457865, -33939.06759489389, -28698.365831180316, -25304.164028664116, -3435.8878059253466, -32972.399350690765, -34780.811939336294, -18431.673160990853, -17997.33406273533, -31681.250832229955, -30805.777705404485, -0.279, 0.894, -0.218, 192.0, 0.0, 0.0, 0.0, 0.0, 0.0, 0.0, 0.0, 0.0, 0.0, 1.673120357118526E9, 0.0, 2023-01-07 14:39:17.118
196.0, -31610.46285754, -27340.69852122051, -33689.44331281702, -25948.72128352181, -30059.318847575054, -27927.565923639053, -33959.22886839257, -28662.96066796311, -25296.318566360304, -3418.542852228028, -32962.00578951905, -34765.47864263995, -18427.023998144152, -17985.88996957421, -31674.18768098208, -30792.210196520115, -0.279, 0.894, -0.218, 192.0, 0.0, 0.0, 0.0, 0.0, 0.0, 0.0, 0.0, 0.0, 0.0, 1.6731203571185317E9, 0.0, 2023-01-07 14:39:17.118
198.0, -31588.133464829145, -27330.12614609315, -33651.2441815429, -25972.727057066808, -30046.734815446714, -27958.321924009553, -33946.77894673097, -28708.021784785007, -25306.10863043173, -3421.180358073754, -32966.8337663214, -34760.51655537088, -18435.629419759443, -17991.701423132592, -31689.94566082307, -30799.38510649027, -0.279, 0.894, -0.218, 192.0, 0.0, 0.0, 0.0, 0.0, 0.0, 0.0, 0.0, 0.0, 0.0, 1.6731203571185372E9, 0.0, 2023-01-07 14:39:17.118
200.0, -31615.246130853433, -27346.93465792354, -33682.6483825026, -25948.006027699237, -30071.56760353656, -27949.649447160897, -33964.43682485066, -28677.936336748164, -25297.793781494354, -3433.674983224271, -32960.888202296286, -34775.46987241148, -18431.539050524123, -17998.026966813442, -31690.97384106801, -30804.593062948356, -0.28250000000000003, 0.901, -0.215, 192.0, 123.5, 8.0, 14.0, 48.0, 124.5, 48.0, 0.0, 0.0, 0.0, 1.6731203571185431E9, 0.0, 2023-01-07 14:39:17.118
202.0, -31595.755409688405, -27337.41281478558, -33650.01483559785, -25967.317934908624, -30050.847536426492, -27968.58137471454, -33958.98299920357, -28717.275406989505, -25314.646996813655, -3417.58172721645, -32970.164176245235, -34747.485488353435, -18444.21248963028, -18015.37192051076, -31702.395582484674, -30789.684449396667, -0.28250000000000003, 0.901, -0.215, 192.0, 0.0, 0.0, 0.0, 0.0, 0.0, 0.0, 0.0, 0.0, 0.0, 1.6731203571185489E9, 0.0, 2023-01-07 14:39:17.118
204.0, -31619.40355532212, -27353.863698704685, -33681.19551911301, -25939.333550850577, -30064.683266244327, -27948.688322149315, -33967.65547605223, -28684.708915318122, -25295.6703657711, -3447.7789339755695, -32963.749225586565, -34785.997544049926, -18434.578887770043, -18011.438013486626, -31696.450018459564, -30798.4686849676, -0.28250000000000003, 0.901, -0.215, 192.0, 0.0, 0.0, 0.0, 0.0, 0.0, 0.0, 0.0, 0.0, 0.0, 1.6731203571185555E9, 0.0, 2023-01-07 14:39:17.118
206.0, -31598.839950423237, -27341.65964623209, -33645.54448670679, -25951.33643762308, -30046.019559624146, -27958.67955192084, -33953.28330436746, -28707.462991173627, -25314.646996813655, -3411.5914597024275, -32971.505280912555, -34729.2464648779, -18443.60899252999, -17996.46234470157, -31694.170140525122, -30766.729207841065, -0.28250000000000003, 0.901, -0.215, 192.0, 0.0, 0.0, 0.0, 0.0, 0.0, 0.0, 0.0, 0.0, 0.0, 1.6731203571185615E9, 0.0, 2023-01-07 14:39:17.118
208.0, -31604.338479559243, -27338.396291541612, -33660.34134153621, -25923.709681476317, -30040.789251421604, -27936.10429002098, -33947.762423487, -28672.661325056713, -25289.72480174599, -3456.362003846408, -32957.98247551709, -34785.23758473845, -18435.98704767073, -17994.540094678414, -31684.60359389825, -30794.646536665743, -0.28250000000000003, 0.901, -0.215, 192.0, 0.0, 0.0, 0.0, 0.0, 0.0, 0.0, 0.0, 0.0, 0.0, 1.6731203571185672E9, 0.0, 2023-01-07 14:39:17.118
210.0, -31574.92358385606, -27317.899741876096, -33628.780678365314, -25937.634818271974, -30020.31505350054, -27938.58533365552, -33927.9587778996, -28686.9217380192, -25296.34091810476, -3388.703273380193, -32950.6287515913, -34698.468112762945, -18429.39328305641, -17973.32828919033, -31668.84561405726, -30745.338588397335, -0.27825, 0.9055, -0.2135, 192.0, 123.5, 56.0, 14.0, 56.0, 124.5, 48.0, 0.0, 0.0, 0.0, 1.6731203571185727E9, 0.0, 2023-01-07 14:39:17.118
212.0, -31593.4084765206, -27331.131974593638, -33649.344283264196, -25941.121690407002, -30029.009882093655, -27936.976008054735, -33943.62735076277, -28680.43973212716, -25270.85992942571, -3454.149181145332, -32943.0738619654, -34783.85177658222, -18420.430233529834, -17990.203856254084, -31666.185756467075, -30803.497827470044, -0.27825, 0.9055, -0.2135, 192.0, 0.0, 0.0, 0.0, 0.0, 0.0, 0.0, 0.0, 0.0, 0.0, 1.6731203571185825E9, 0.0, 2023-01-07 14:39:17.118
214.0, -31579.125711813656, -27321.185448311026, -33633.69806214548, -25950.665885289418, -30021.81262037905, -27933.4444324308, -33931.17742910116, -28686.63116534128, -25295.6703657711, -3381.6401221323163, -32954.33914117088, -34697.93167089602, -18425.034692887628, -17974.200007224084, -31663.816471554816, -30751.731187311554, -0.27825, 0.9055, -0.2135, 192.0, 0.0, 0.0, 0.0, 0.0, 0.0, 0.0, 0.0, 0.0, 0.0, 1.6731203571185882E9, 0.0, 2023-01-07 14:39:17.118
216.0, -31601.030421379855, -27338.061015374784, -33666.555126494786, -25961.86410926153, -30051.13810910441, -27953.918630351858, -33961.709912027116, -28702.903235304744, -25271.910461415107, -3459.223027136687, -32953.08744348138, -34795.429980210065, -18424.520602765155, -17993.936597578122, -31675.34997169375, -30810.404516506736, -0.27825, 0.9055, -0.2135, 192.0, 0.0, 0.0, 0.0, 0.0, 0.0, 0.0, 0.0, 0.0, 0.0, 1.673120357118594E9, 0.0, 2023-01-07 14:39:17.118
218.0, -31595.286023054843, -27335.26704731787, -33671.67367597505, -25972.436484388887, -30053.954428905778, -27957.986647842725, -33963.25218239453, -28708.602930140845, -25318.379738137693, -3398.5380409405284, -32982.21176650665, -34715.656604249074, -18455.79069325813, -17996.015309812465, -31703.73668715199, -30774.217042233595, -0.27825, 0.9055, -0.2135, 192.0, 0.0, 0.0, 0.0, 0.0, 0.0, 0.0, 0.0, 0.0, 0.0, 1.6731203571185997E9, 0.0, 2023-01-07 14:39:17.118
220.0, -31594.861339910192, -27333.41185252808, -33673.93120216503, -25969.173129698414, -30055.809623695568, -27955.527955952643, -33964.10154868383, -28708.8264475854, -25275.866720183698, -3464.6992045282373, -32958.988304017585, -34804.05775356982, -18439.87625120595, -18009.29224601892, -31700.875663861712, -30820.462801511625, -0.274125, 0.8987499999999999, -0.21775, 192.0, 123.5, 72.0, 13.5, 112.0, 124.5, 8.0, 0.0, 0.0, 0.0, 1.6731203571186051E9, 0.0, 2023-01-07 14:39:17.118
222.0, -31603.06443012529, -27340.966742153974, -33680.54731852381, -25969.441350631878, -30052.702731216283, -27963.596935701007, -33980.73124655858, -28715.286101732985, -25316.524543347903, -3398.6945031517153, -32980.46833043913, -34714.31549958175, -18460.350449127014, -18004.196048283105, -31717.348899525274, -30772.317143954893, -0.274125, 0.8987499999999999, -0.21775, 192.0, 0.0, 0.0, 0.0, 0.0, 0.0, 0.0, 0.0, 0.0, 0.0, 1.6731203571186109E9, 0.0, 2023-01-07 14:39:17.118
224.0, -31608.048869138824, -27349.21453585798, -33669.1479288516, -25969.508405865243, -30042.55503923357, -27964.312191523575, -33968.14721443024, -28723.288026247985, -25292.56347329181, -3483.4970216151505, -32972.08642626839, -34816.73119267597, -18451.6556205339, -18021.742167680524, -31716.812457658347, -30837.986569164583, -0.274125, 0.8987499999999999, -0.21775, 192.0, 0.0, 0.0, 0.0, 0.0, 0.0, 0.0, 0.0, 0.0, 0.0, 1.6731203571186163E9, 0.0, 2023-01-07 14:39:17.118
226.0, -31600.002241134913, -27334.417681028568, -33667.60565848418, -25942.08281541858, -30053.79796669459, -27940.284066234122, -33941.59334201734, -28687.748752564046, -25318.87147651571, -3391.4972414371064, -32974.88039432531, -34711.92386292504, -18459.121103181973, -17990.762649865468, -31705.83775113079, -30768.09266425284, -0.274125, 0.8987499999999999, -0.21775, 192.0, 0.0, 0.0, 0.0, 0.0, 0.0, 0.0, 0.0, 0.0, 0.0, 1.6731203571186223E9, 0.0, 2023-01-07 14:39:17.118
228.0, -31602.34917430272, -27339.02214038636, -33655.558068222774, -25960.835929016583, -30046.131318346423, -27950.811737872573, -33961.48639458256, -28711.5757121534, -25283.77923772088, -3453.7244980006813, -32954.87558303781, -34795.76525637689, -18446.782940242643, -17997.736394135525, -31696.22650101501, -30817.37826077679, -0.274125, 0.8987499999999999, -0.21775, 192.0, 0.0, 0.0, 0.0, 0.0, 0.0, 0.0, 0.0, 0.0, 0.0, 1.6731203571186278E9, 0.0, 2023-01-07 14:39:17.118
230.0, -31606.2607295824, -27341.03379738734, -33668.5444317513, -25943.200402641345, -30046.08661485751, -27932.796231841592, -33966.7167027851, -28685.53592986297, -25323.475935873503, -3396.0122938170784, -32975.52859491451, -34725.73724099842, -18465.84897826302, -17994.763612122966, -31701.859140617747, -30770.260783465004, -0.2770625, 0.895375, -0.220875, 192.0, 123.5, 32.0, 13.5, 112.0, 124.5, 0.0, 0.0, 0.0, 0.0, 1.6731203571186335E9, 0.0, 2023-01-07 14:39:17.118
232.0, -31600.516331257386, -27342.374902054657, -33648.31610301925, -25969.03901923168, -30043.225591567232, -27959.417159487864, -33960.90524922672, -28718.907084334744, -25284.718010988, -3453.545684045039, -32952.70746382564, -34798.648631411634, -18441.50792855119, -17998.764574380468, -31688.73866662248, -30806.00122284904, -0.2770625, 0.895375, -0.220875, 192.0, 0.0, 0.0, 0.0, 0.0, 0.0, 0.0, 0.0, 0.0, 0.0, 1.6731203571186392E9, 0.0, 2023-01-07 14:39:17.118
234.0, -31607.423020294074, -27343.380730555145, -33665.72811194994, -25942.172222396403, -30053.507394016673, -27935.411385942865, -33955.80905149091, -28676.259955914018, -25315.272845658405, -3411.8820323803466, -32964.75505408705, -34737.002520203896, -18456.32713512506, -18001.51383894847, -31687.1293410217, -30763.108225239306, -0.2770625, 0.895375, -0.220875, 192.0, 0.0, 0.0, 0.0, 0.0, 0.0, 0.0, 0.0, 0.0, 0.0, 1.6731203571186447E9, 0.0, 2023-01-07 14:39:17.118
236.0, -31604.02555513687, -27346.822899201263, -33643.666940172545, -25974.917528023427, -30024.137201802398, -27959.95360135479, -33953.21624913409, -28715.464915688626, -25290.842388968755, -3454.864436967902, -32950.91932426922, -34792.434846453056, -18442.513757051678, -18009.359301252283, -31676.378151938698, -30797.172283789194, -0.2770625, 0.895375, -0.220875, 192.0, 0.0, 0.0, 0.0, 0.0, 0.0, 0.0, 0.0, 0.0, 0.0, 1.6731203571186504E9, 0.0, 2023-01-07 14:39:17.118
238.0, -31622.53279954586, -27358.17758538456, -33681.03905690182, -25952.94576322386, -30047.695940458292, -27944.128566280433, -33957.977170703074, -28683.92660426219, -25331.410805155137, -3435.0384396360446, -32985.02808630801, -34768.227907207955, -18467.03362071915, -18027.57597298336, -31697.70171614906, -30792.00903082002, -0.2770625, 0.895375, -0.220875, 192.0, 0.0, 0.0, 0.0, 0.0, 0.0, 0.0, 0.0, 0.0, 0.0, 1.673120357118656E9, 0.0, 2023-01-07 14:39:17.118
240.0, -31589.206348563, -27333.054224616793, -33638.190762781, -25961.350019139056, -30027.735832659702, -27948.285990749122, -33916.671146949666, -28702.657366115734, -25291.401182580135, -3443.8226752069804, -32953.64623709276, -34782.443616681536, -18443.22901287425, -18003.212571527074, -31671.617230369717, -30792.14314128675, -0.28053125, 0.8926875000000001, -0.2224375, 192.0, 123.5, 16.0, 13.5, 104.0, 124.5, 0.0, 0.0, 0.0, 0.0, 1.673120357118662E9, 0.0, 2023-01-07 14:39:17.118
242.0, -31619.02357566638, -27353.21549811548, -33690.80676922879, -25942.08281541858, -30061.91164993187, -27934.830240587027, -33955.02674043497, -28670.15792967772, -25306.309796131827, -3423.192015074732, -32965.33619944289, -34761.052997237806, -18458.763475270687, -18003.860772116277, -31686.436436943586, -30781.369600459293, -0.28053125, 0.8926875000000001, -0.2224375, 192.0, 0.0, 0.0, 0.0, 0.0, 0.0, 0.0, 0.0, 0.0, 0.0, 1.6731203571186674E9, 0.0, 2023-01-07 14:39:17.118
244.0, -31608.92058717258, -27355.02598941636, -33665.16931833855, -25972.727057066808, -30038.0399868536, -27959.05953157658, -33952.612752033805, -28719.756450624045, -25310.69073804507, -3443.0403641510447, -32969.270106467025, -34778.95674454651, -18461.021001460675, -18009.69457741911, -31701.970899340024, -30801.19559779115, -0.28053125, 0.8926875000000001, -0.2224375, 192.0, 0.0, 0.0, 0.0, 0.0, 0.0, 0.0, 0.0, 0.0, 0.0, 1.6731203571186745E9, 0.0, 2023-01-07 14:39:17.118
246.0, -31623.53862804635, -27360.70333250801, -33707.68233629255, -25952.85635624604, -30074.518033804663, -27947.704845393284, -33969.935353986664, -28692.68848808867, -25316.792764281367, -3443.5991577624272, -32975.17096700322, -34783.31533471529, -18468.598242831024, -18012.019158842464, -31711.89507387818, -30800.927376857686, -0.28053125, 0.8926875000000001, -0.2224375, 192.0, 0.0, 0.0, 0.0, 0.0, 0.0, 0.0, 0.0, 0.0, 0.0, 1.6731203571186802E9, 0.0, 2023-01-07 14:39:17.118
248.0, -31612.92154943008, -27360.457463319002, -33674.89232717661, -25976.41509490193, -30059.36355106396, -27975.935098640337, -33984.57574660489, -28745.10332883636, -25316.368081136716, -3437.161855359299, -32973.65104838026, -34770.64189560913, -18474.633213833957, -18014.589609454826, -31728.256550819464, -30807.968176361108, -0.28053125, 0.8926875000000001, -0.2224375, 192.0, 0.0, 0.0, 0.0, 0.0, 0.0, 0.0, 0.0, 0.0, 0.0, 1.673120357118686E9, 0.0, 2023-01-07 14:39:17.118
250.0, -31649.421948125597, -27384.351478141725, -33719.5064091094, -25953.392798112967, -30082.587013553028, -27970.280107293143, -34016.91872083172, -28727.087822805384, -25335.38941566818, -3464.408631850318, -32988.31379274294, -34800.57088143479, -18491.53113264217, -18026.637199716235, -31735.38675730071, -30826.073089369907, -0.280265625, 0.89634375, -0.22221875000000002, 192.0, 123.5, 32.0, 14.0, 16.0, 124.5, 8.0, 0.0, 0.0, 0.0, 1.6731203571186917E9, 0.0, 2023-01-07 14:39:17.118
252.0, -31615.134372131157, -27353.640181260133, -33667.76212069537, -25948.296600377154, -30049.014693381156, -27963.44047348982, -33970.27063015349, -28736.788479898987, -25344.911258806143, -3422.7896836745363, -32986.391542719786, -34751.84407852222, -18491.598187875534, -18004.218400027563, -31728.949454897578, -30800.301528012937, -0.280265625, 0.89634375, -0.22221875000000002, 192.0, 0.0, 0.0, 0.0, 0.0, 0.0, 0.0, 0.0, 0.0, 0.0, 1.6731203571186972E9, 0.0, 2023-01-07 14:39:17.118
254.0, -31634.982721207467, -27360.03278017435, -33688.37042908316, -25916.64653022844, -30058.536536519117, -27930.873981818437, -33962.96160971661, -28688.665174086713, -25327.141621964172, -3438.190035604243, -32973.78515884699, -34781.19191899204, -18483.305690682613, -17986.09113527431, -31705.56953019733, -30795.697068655143, -0.280265625, 0.89634375, -0.22221875000000002, 192.0, 0.0, 0.0, 0.0, 0.0, 0.0, 0.0, 0.0, 0.0, 0.0, 1.673120357118703E9, 0.0, 2023-01-07 14:39:17.118
0.0, -31617.88363669916, -27351.807338214796, -33659.58138222473, -25941.61342878502, -30037.81646940905, -27932.77388009714, -33946.39896707523, -28707.261825473528, -25340.575020381813, -3384.255276233587, -32975.88622282579, -34716.841246705204, -18482.299862182124, -17982.045469527897, -31691.957317824046, -30749.65247507721, -0.280265625, 0.89634375, -0.22221875000000002, 192.0, 0.0, 0.0, 0.0, 0.0, 0.0, 0.0, 0.0, 0.0, 0.0, 1.6731203571187084E9, 0.0, 2023-01-07 14:39:17.118
2.0, -31646.806794024327, -27371.499225079922, -33695.88061522014, -25939.288847361666, -30057.106024873978, -27928.370586439443, -33960.94995271563, -28682.473740872592, -25324.660578329633, -3436.7148204701925, -32970.521804156524, -34787.539814417345, -18474.99084174524, -17984.101830017786, -31681.54140490787, -30776.80984459041, -0.280265625, 0.89634375, -0.22221875000000002, 192.0, 0.0, 0.0, 0.0, 0.0, 0.0, 0.0, 0.0, 0.0, 0.0, 1.673120357118714E9, 0.0, 2023-01-07 14:39:17.118
4.0, -31627.427831581575, -27353.5060707934, -33677.97686791144, -25958.287830148678, -30046.913629402356, -27938.875906333436, -33950.17641188818, -28701.897406804255, -25368.20177652857, -3390.9831513146346, -33001.23310103811, -34728.91118871107, -18504.271626981692, -17985.979376552034, -31709.011698843446, -30756.827385047363, -0.280265625, 0.89634375, -0.22221875000000002, 192.0, 0.0, 0.0, 0.0, 0.0, 0.0, 0.0, 0.0, 0.0, 0.0, 1.6731203571187196E9, 0.0, 2023-01-07 14:39:17.118
6.0, -31638.067261942302, -27356.590611528234, -33699.52394956636, -25951.98463821228, -30064.124472632942, -27936.14899350989, -33962.98396146107, -28693.224929955595, -25336.127023235207, -3445.7449252301367, -32987.33031598691, -34803.63307042517, -18492.26874020919, -17989.823876598344, -31709.592844199284, -30806.403554249235, -0.272, 0.898, -0.222, 192.0, 123.5, 64.0, 14.0, 8.0, 124.5, 8.0, 0.0, 0.0, 0.0, 1.6731203571187253E9, 0.0, 2023-01-07 14:39:17.118
8.0, -31622.264578612398, -27346.442919545523, -33680.61437375717, -25963.764007540227, -30053.954428905778, -27943.592124413506, -33949.05882466541, -28702.076220759896, -25354.768378110934, -3366.440935902707, -32990.21369102164, -34708.77226695684, -18495.509743155213, -17968.36620192125, -31706.41889648663, -30756.290943180436, -0.272, 0.898, -0.222, 192.0, 0.0, 0.0, 0.0, 0.0, 0.0, 0.0, 0.0, 0.0, 0.0, 1.6731203571187308E9, 0.0, 2023-01-07 14:39:17.118
10.0, -31629.35008160473, -27348.342817824225, -33684.45887380349, -25958.265478404224, -30067.00784766768, -27933.846763830992, -33934.37372855827, -28681.95965075012, -25332.10370923325, -3449.3435560874414, -32986.2350805086, -34816.15004732014, -18496.60497863352, -17989.868580087255, -31707.26826277593, -30818.62995846629, -0.272, 0.898, -0.222, 192.0, 0.0, 0.0, 0.0, 0.0, 0.0, 0.0, 0.0, 0.0, 0.0, 1.6731203571187363E9, 0.0, 2023-01-07 14:39:17.118
12.0, -31605.63488073765, -27325.16405882407, -33661.12365259214, -25943.155699152434, -30041.90683864437, -27910.131562963914, -33915.3076905379, -28664.72645577508, -25344.01718902793, -3349.677127561227, -32978.65783913825, -34695.56238598375, -18491.061746008607, -17950.618916823736, -31687.196396255065, -30742.075233706862, -0.272, 0.898, -0.222, 192.0, 0.0, 0.0, 0.0, 0.0, 0.0, 0.0, 0.0, 0.0, 0.0, 1.6731203571187418E9, 0.0, 2023-01-07 14:39:17.118
14.0, -31620.92347394508, -27334.954122895495, -33671.83013818623, -25949.861222489028, -30033.65904494036, -27918.513467134653, -33932.8091064464, -28679.657421071224, -25312.5235810904, -3421.3144685404864, -32964.03979826448, -34789.015029551396, -18478.231844691258, -17957.547957604882, -31680.021486284913, -30799.13923730126, -0.272, 0.898, -0.222, 192.0, 0.0, 0.0, 0.0, 0.0, 0.0, 0.0, 0.0, 0.0, 0.0, 1.6731203571187472E9, 0.0, 2023-01-07 14:39:17.118
16.0, -31613.05565989681, -27326.46046000248, -33666.24220207241, -25940.965228195815, -30026.66294892585, -27906.51058036215, -33942.107432139805, -28671.789607022954, -25358.523471179426, -3354.3039386634755, -32989.92311834373, -34699.60805173017, -18498.169600745394, -17953.055256969365, -31691.286765490386, -30750.41243438869, -0.272, 0.892, -0.23, 192.0, 123.5, 64.0, 13.5, 112.0, 124.0, 104.0, 0.0, 0.0, 0.0, 1.6731203571187532E9, 0.0, 2023-01-07 14:39:17.118
18.0, -31626.48905831445, -27343.98422765544, -33667.292734061804, -25963.85341451805, -30039.068167098543, -27937.601856899484, -33962.42516784968, -28708.49117141857, -25322.134831206185, -3435.708991969704, -32974.38865594729, -34795.76525637689, -18487.351356429026, -17985.46528642956, -31688.89512883367, -30811.209179307127, -0.272, 0.892, -0.23, 192.0, 0.0, 0.0, 0.0, 0.0, 0.0, 0.0, 0.0, 0.0, 0.0, 1.6731203571187587E9, 0.0, 2023-01-07 14:39:17.118
20.0, -31614.55322677532, -27330.081442604238, -33657.01093161236, -25930.99635016875, -30033.03319609561, -27903.917778005336, -33933.323196568876, -28670.739075033558, -25355.908317078152, -3365.502162635584, -32988.202034020665, -34704.92776691053, -18500.09185076855, -17972.52362638994, -31689.006887555945, -30757.632047847757, -0.272, 0.892, -0.23, 192.0, 0.0, 0.0, 0.0, 0.0, 0.0, 0.0, 0.0, 0.0, 0.0, 1.6731203571187656E9, 0.0, 2023-01-07 14:39:17.118
22.0, -31613.68150874156, -27333.344797294714, -33642.81757388324, -25949.794167255663, -30032.09442282849, -27915.853609544472, -33934.12785936926, -28689.112208975817, -25311.54010433437, -3418.0064103611007, -32957.98247551709, -34777.88386081265, -18475.571987101077, -17962.778265807425, -31660.039026741866, -30789.751504630032, -0.272, 0.892, -0.23, 192.0, 0.0, 0.0, 0.0, 0.0, 0.0, 0.0, 0.0, 0.0, 0.0, 1.6731203571187713E9, 0.0, 2023-01-07 14:39:17.118
24.0, -31625.729099002972, -27339.580933997746, -33667.449196272995, -25943.736844508272, -30031.826201895026, -27914.66896708834, -33971.410569120715, -28685.49122637406, -25349.202793741562, -3363.9598922681685, -32980.580089161405, -34712.527360025335, -18492.402850675924, -17966.30984143136, -31675.685247860583, -30758.36965541478, -0.272, 0.892, -0.23, 192.0, 0.0, 0.0, 0.0, 0.0, 0.0, 0.0, 0.0, 0.0, 0.0, 1.6731203571187768E9, 0.0, 2023-01-07 14:39:17.118
26.0, -31612.854494196716, -27332.540134494324, -33647.176164052034, -25964.389856384976, -30027.89229487089, -27927.141240494402, -33952.56804854489, -28708.178246996195, -25322.6265695842, -3426.477721509662, -32967.8842983108, -34789.12678827367, -18480.288205181147, -17980.95023404959, -31673.78534958188, -30808.43756299467, -0.29, 0.892, -0.234, 192.0, 123.0, 120.0, 13.5, 112.0, 124.0, 88.0, 0.0, 0.0, 0.0, 1.6731203571187823E9, 0.0, 2023-01-07 14:39:17.118
28.0, -31622.935130946058, -27336.78696594083, -33680.56967026826, -25947.536641065675, -30054.870850428448, -27913.32786242102, -33960.994656204544, -28679.657421071224, -25348.91222106364, -3373.258217961576, -32980.24481299458, -34726.094868909706, -18502.148211258438, -17975.876388058234, -31689.833902100792, -30771.288963709947, -0.29, 0.892, -0.234, 192.0, 0.0, 0.0, 0.0, 0.0, 0.0, 0.0, 0.0, 0.0, 0.0, 1.673120357118788E9, 0.0, 2023-01-07 14:39:17.118
30.0, -31604.1596656036, -27326.92984663604, -33651.40064375408, -25973.95640301185, -30034.419004251842, -27936.77484235464, -33956.18903114665, -28715.06258428843, -25316.971578237008, -3408.86454687888, -32960.26235345154, -34775.581631133755, -18487.396059917934, -17974.714097346558, -31688.626907900205, -30805.15185655974, -0.29, 0.892, -0.234, 192.0, 0.0, 0.0, 0.0, 0.0, 0.0, 0.0, 0.0, 0.0, 0.0, 1.6731203571187935E9, 0.0, 2023-01-07 14:39:17.118
32.0, -31628.277197870877, -27342.46430903248, -33687.4540075605, -25957.438463859376, -30048.791175936603, -27923.699071848285, -33976.931450001175, -28688.084028730875, -25342.318456449328, -3377.90738080828, -32977.652010637765, -34741.13759292813, -18503.489315925755, -17977.23984447001, -31707.290614520385, -30788.499806940534, -0.29, 0.892, -0.234, 192.0, 0.0, 0.0, 0.0, 0.0, 0.0, 0.0, 0.0, 0.0, 0.0, 1.6731203571187994E9, 0.0, 2023-01-07 14:39:17.118
34.0, -31594.906043399104, -27317.318596520257, -33641.297655260285, -25965.61920233002, -30029.076937327023, -27922.179153225323, -33932.876161679764, -28697.360002679827, -25321.129002705697, -3397.711026395682, -32962.274010452515, -34768.96551477498, -18492.179333231372, -17970.690783344602, -31696.651184159662, -30803.631937936778, -0.29, 0.892, -0.234, 192.0, 0.0, 0.0, 0.0, 0.0, 0.0, 0.0, 0.0, 0.0, 0.0, 1.6731203571188047E9, 0.0, 2023-01-07 14:39:17.118
36.0, -31610.619319751182, -27323.487677989924, -33679.407379556586, -25937.210135127323, -30068.639525012917, -27894.15006567837, -33942.55446702892, -28652.6118102803, -25333.176592967106, -3371.425374916241, -32967.10198725486, -34744.84798250771, -18506.70796712732, -17973.976489779532, -31697.41114347114, -30777.033362034963, -0.294, 0.886, -0.23600000000000002, 192.0, 123.0, 104.0, 13.5, 88.0, 124.0, 80.0, 0.0, 0.0, 0.0, 1.6731203571188111E9, 0.0, 2023-01-07 14:39:17.118
38.0, -31599.510502756897, -27322.861829145175, -33654.172260066545, -25968.212004686833, -30047.65123696938, -27921.866228802948, -33955.607885790814, -28703.305566704938, -25318.782069537887, -3374.554619139984, -32955.32261792691, -34748.78188953184, -18504.5174961707, -17969.304975188374, -31691.04089630138, -30775.178167245173, -0.294, 0.886, -0.23600000000000002, 192.0, 0.0, 0.0, 0.0, 0.0, 0.0, 0.0, 0.0, 0.0, 0.0, 1.6731203571188169E9, 0.0, 2023-01-07 14:39:17.118
40.0, -31630.758241505417, -27344.654779989098, -33699.07691467725, -25949.45889108883, -30070.181795380333, -27915.116001977447, -33969.55537433093, -28676.01408672501, -25335.791747068375, -3389.7314536251374, -32975.081560025406, -34768.384369419146, -18519.537868444666, -17978.715059604056, -31698.23815801599, -30781.838987092855, -0.294, 0.886, -0.23600000000000002, 192.0, 0.0, 0.0, 0.0, 0.0, 0.0, 0.0, 0.0, 0.0, 0.0, 1.6731203571188228E9, 0.0, 2023-01-07 14:39:17.118
42.0, -31610.19463660653, -27335.289399062327, -33655.37925426713, -25967.36263839753, -30046.779518935626, -27931.321016707545, -33959.452385837125, -28713.341499965372, -25342.519622149423, -3383.405909944285, -32975.72976061461, -34752.291113411324, -18526.601019692545, -17977.306899703373, -31698.17110278262, -30777.502748668525, -0.294, 0.886, -0.23600000000000002, 192.0, 0.0, 0.0, 0.0, 0.0, 0.0, 0.0, 0.0, 0.0, 0.0, 1.6731203571188295E9, 0.0, 2023-01-07 14:39:17.118
44.0, -31656.93213426258, -27372.683867536052, -33700.038039688836, -25958.354885382043, -30069.511243046672, -27927.320054450043, -33990.54366237446, -28690.25214794304, -25338.54101163638, -3407.38933174483, -32975.99798154807, -34778.576764890764, -18519.89549635595, -17977.37395493674, -31686.0788090323, -30777.99448704654, -0.294, 0.886, -0.23600000000000002, 192.0, 0.0, 0.0, 0.0, 0.0, 0.0, 0.0, 0.0, 0.0, 0.0, 1.673120357118837E9, 0.0, 2023-01-07 14:39:17.118
44.0, -15723.424044063575, -13774.217817094066, -16802.119231476692, -12973.175999304773, -14992.946683519684, -13921.873440965825, -16887.033508662404, -14271.477075991283, -25338.54101163638, -3407.38933174483, -32975.99798154807, -34778.576764890764, -18519.89549635595, -17977.37395493674, -31686.0788090323, -30777.99448704654, -0.296, 0.889, -0.21900000000000003, 192.0, 123.0, 88.0, 13.5, 112.0, 124.5, 88.0, 0.0, 0.0, 0.0, 1.6731203576805532E9, 0.0, 2023-01-07 14:39:17.680
2.0, -31465.042408113768, -27565.49001520753, -33620.21996023893, -25926.548353022143, -29986.85449205095, -27835.1191085719, -33799.100971114756, -28518.79191622638, -25288.361345334215, -3341.51874083504, -32833.93029379014, -34675.401112485066, -18142.7321604171, -18010.499240219502, -31559.925563326546, -30695.36008779527, -0.296, 0.889, -0.21900000000000003, 192.0, 0.0, 0.0, 0.0, 0.0, 0.0, 0.0, 0.0, 0.0, 0.0, 1.6731203576805797E9, 0.0, 2023-01-07 14:39:17.680
4.0, -31503.465056832443, -27602.83978019235, -33648.986655352914, -25976.124522224014, -29993.537663643085, -27889.09857143147, -33863.56340212386, -28591.300975239395, -25345.738273350988, -3319.256403357554, -32871.07889307486, -34625.24379792736, -18170.22480609713, -18029.677036962155, -31582.43376999304, -30669.812043882856, -0.296, 0.889, -0.21900000000000003, 192.0, 0.0, 0.0, 0.0, 0.0, 0.0, 0.0, 0.0, 0.0, 0.0, 1.6731203576806064E9, 0.0, 2023-01-07 14:39:17.680
6.0, -31505.99080395589, -27595.977794644572, -33639.37540523713, -25974.291679178677, -29971.007105232133, -27886.595176052473, -33853.03573048541, -28570.8938325517, -25334.405938912147, -3390.9831513146346, -32881.49480599103, -34724.57495028674, -18172.616442753846, -18065.663345535202, -31593.25201430941, -30746.32206515337, -0.296, 0.889, -0.21900000000000003, 192.0, 0.0, 0.0, 0.0, 0.0, 0.0, 0.0, 0.0, 0.0, 0.0, 1.67312035768064E9, 0.0, 2023-01-07 14:39:17.680
8.0, -31494.814931728237, -27584.623108461277, -33638.48133545892, -25977.309164680144, -29975.9244890123, -27881.208405638747, -33836.02605295492, -28562.80250105888, -25365.7877881274, -3316.6636010007387, -32890.07787586187, -34642.16406848002, -18181.467733558147, -18029.6546852177, -31584.28896478283, -30686.777017924433, -0.292, 0.894, -0.188, 192.0, 123.0, 112.0, 13.5, 120.0, 125.0, 16.0, 0.0, 0.0, 0.0, 1.6731203576806612E9, 0.0, 2023-01-07 14:39:17.680
10.0, -31496.17838814001, -27596.022498133483, -33634.860352857155, -25996.688127122896, -29975.566861101015, -27891.51255983264, -33841.56928557983, -28582.449684435094, -25325.219371941017, -3381.5283634100397, -32876.08568383285, -34727.68184276603, -18165.21801533914, -18045.18914761414, -31583.372543260164, -30750.099509966316, -0.292, 0.894, -0.188, 192.0, 0.0, 0.0, 0.0, 0.0, 0.0, 0.0, 0.0, 0.0, 0.0, 1.673120357680684E9, 0.0, 2023-01-07 14:39:17.680
12.0, -31526.71087106596, -27623.582199046876, -33675.2499550879, -26013.161362786457, -29998.522102656618, -27898.66511805834, -33858.51190787696, -28584.19312050261, -25378.997669100485, -3352.582854340417, -32912.45197206163, -34673.72473165092, -18192.285977874515, -18042.261069090495, -31607.78064820536, -30717.331852594838, -0.292, 0.894, -0.188, 192.0, 0.0, 0.0, 0.0, 0.0, 0.0, 0.0, 0.0, 0.0, 0.0, 1.673120357680707E9, 0.0, 2023-01-07 14:39:17.680
14.0, -31530.935350768013, -27622.28579786847, -33680.39085631262, -26030.81924090615, -29993.582367131996, -27902.442562871285, -33850.688797317605, -28593.826722362846, -25365.631325916213, -3404.1706805432655, -32923.29256812246, -34752.73814830043, -18189.31319586196, -18059.67307802118, -31626.422003081087, -30784.051809793928, -0.292, 0.894, -0.188, 192.0, 0.0, 0.0, 0.0, 0.0, 0.0, 0.0, 0.0, 0.0, 0.0, 1.6731203576807387E9, 0.0, 2023-01-07 14:39:17.680
16.0, -31522.62050183064, -27607.243073850048, -33692.77372274086, -26002.678394636918, -29989.827274063504, -27860.64480073986, -33830.41576509664, -28542.060082204353, -25393.660413463167, -3348.3807263828194, -32939.341120641366, -34677.12219680812, -18206.926370492743, -18046.262031347997, -31627.69605251504, -30727.948931211107, -0.292, 0.894, -0.188, 192.0, 0.0, 0.0, 0.0, 0.0, 0.0, 0.0, 0.0, 0.0, 0.0, 1.6731203576807454E9, 0.0, 2023-01-07 14:39:17.680
18.0, -31492.84797821617, -27586.120675339782, -33668.58913524022, -26010.300339496178, -29978.137311713377, -27856.867355926915, -33801.671421727115, -28544.764643283444, -25332.77426156691, -3359.221322443643, -32901.54432076744, -34714.2931478373, -18170.627137497322, -18024.200859570607, -31603.62322373667, -30743.326931396357, -0.28400000000000003, 0.894, -0.186, 192.0, 123.5, 16.0, 13.5, 120.0, 125.0, 24.0, 0.0, 0.0, 0.0, 1.6731203576807525E9, 0.0, 2023-01-07 14:39:17.680
20.0, -31511.846961003183, -27599.84464643534, -33703.167283912575, -26003.99714755978, -30017.02934706561, -27856.532079760087, -33825.05134642737, -28521.585884283293, -25373.521491708936, -3334.187368653699, -32923.44903033364, -34674.79761538477, -18199.23737040012, -18042.439883046136, -31623.940959446547, -30717.75653573949, -0.28400000000000003, 0.894, -0.186, 192.0, 0.0, 0.0, 0.0, 0.0, 0.0, 0.0, 0.0, 0.0, 0.0, 1.6731203576807592E9, 0.0, 2023-01-07 14:39:17.680
22.0, -31493.965565438935, -27585.45012300612, -33665.23637357192, -26013.496638953286, -29994.83406482149, -27870.412513066833, -33805.717087473524, -28547.26803866244, -25338.563363380836, -3356.3379474089083, -32906.79698071444, -34717.73531648342, -18169.621308996833, -18041.61286850129, -31614.799095964325, -30750.546544855424, -0.28400000000000003, 0.894, -0.186, 192.0, 0.0, 0.0, 0.0, 0.0, 0.0, 0.0, 0.0, 0.0, 0.0, 1.6731203576807659E9, 0.0, 2023-01-07 14:39:17.680
24.0, -31498.525321307818, -27580.75625667051, -33688.25867036088, -25979.656097847954, -30016.738774387693, -27849.73714944567, -33822.927930704114, -28507.63839574318, -25356.623572900724, -3308.549917763462, -32910.395611571745, -34669.29908624877, -18184.954605693176, -18015.193106555118, -31609.233511594954, -30709.106410635282, -0.28400000000000003, 0.894, -0.186, 192.0, 0.0, 0.0, 0.0, 0.0, 0.0, 0.0, 0.0, 0.0, 0.0, 1.6731203576807733E9, 0.0, 2023-01-07 14:39:17.680
26.0, -31484.84605370117, -27569.558032698398, -33664.498766004894, -26019.643368678495, -29992.1295037424, -27878.32503060401, -33825.6324917832, -28559.18151845712, -25332.43898540008, -3341.317575134942, -32904.47239929109, -34699.5409964968, -18163.720448460634, -18029.319409050873, -31612.094534885233, -30738.789527271932, -0.28400000000000003, 0.894, -0.186, 192.0, 0.0, 0.0, 0.0, 0.0, 0.0, 0.0, 0.0, 0.0, 0.0, 1.673120357680781E9, 0.0, 2023-01-07 14:39:17.680
28.0, -31508.561254568252, -27581.13623632625, -33704.7542577689, -26008.601606917575, -30019.46568721124, -27867.37267582091, -33835.288445387894, -28526.525619807915, -25354.902488577663, -3332.198063397177, -32922.912588466716, -34692.90252839357, -18160.74766644808, -18026.592496227324, -31616.073145398277, -30729.04416668942, -0.276, 0.896, -0.18, 192.0, 123.5, 48.0, 14.0, 0.0, 125.0, 48.0, 0.0, 0.0, 0.0, 1.673120357680787E9, 0.0, 2023-01-07 14:39:17.680
30.0, -31470.406826783044, -27566.98758208604, -33661.28011480333, -26037.569467731653, -29999.50557941265, -27884.672926029318, -33832.293311630885, -28562.735445825514, -25351.259154231448, -3337.7636477665483, -32923.31491986691, -34712.303842580775, -18147.291916285983, -18025.69842644911, -31617.34719483223, -30745.159774441694, -0.276, 0.896, -0.18, 192.0, 0.0, 0.0, 0.0, 0.0, 0.0, 0.0, 0.0, 0.0, 0.0, 1.6731203576807928E9, 0.0, 2023-01-07 14:39:17.680
32.0, -31496.51366430684, -27584.086666594347, -33689.48801630593, -26022.43733673541, -30022.84080062399, -27880.98488819419, -33845.994930981986, -28537.187401913096, -25319.407918382636, -3327.414790083741, -32915.022422673996, -34713.2426158479, -18146.420198252225, -18023.597362470315, -31623.762145490906, -30748.04314947643, -0.276, 0.896, -0.18, 192.0, 0.0, 0.0, 0.0, 0.0, 0.0, 0.0, 0.0, 0.0, 0.0, 1.6731203576807983E9, 0.0, 2023-01-07 14:39:17.680
34.0, -31501.878082976116, -27597.162437100702, -33658.17322232404, -26054.467386539865, -30006.144047515878, -27898.75452503616, -33836.24957039947, -28571.720847096545, -25356.265944989438, -3336.0425634434896, -32933.887294994274, -34716.28245309382, -18159.31715480294, -18037.455444032603, -31629.193619393543, -30756.961495514097, -0.276, 0.896, -0.18, 192.0, 0.0, 0.0, 0.0, 0.0, 0.0, 0.0, 0.0, 0.0, 0.0, 1.6731203576808035E9, 0.0, 2023-01-07 14:39:17.680
36.0, -31537.149135726588, -27623.313978113412, -33702.83200774575, -26042.598610234098, -30029.971007105236, -27883.376524850908, -33846.37491063773, -28541.121308937232, -25361.183328769606, -3364.0716509904446, -32946.09134746687, -34741.89755223961, -18157.484311757602, -18046.798473214923, -31626.131430403166, -30767.735036341553, -0.276, 0.896, -0.18, 192.0, 0.0, 0.0, 0.0, 0.0, 0.0, 0.0, 0.0, 0.0, 0.0, 1.6731203576808093E9, 0.0, 2023-01-07 14:39:17.680
38.0, -31514.372708126633, -27609.612358762308, -33670.198460841, -26062.178738376944, -30008.40157370586, -27888.13744641989, -33820.960977192044, -28569.709190095567, -25370.88398586321, -3354.683918319216, -32961.156423229746, -34716.640081005105, -18172.862311942856, -18029.09589160632, -31632.50167757293, -30759.353132170814, -0.28800000000000003, 0.892, -0.194, 192.0, 123.5, 0.0, 13.5, 112.0, 124.5, 120.0, 0.0, 0.0, 0.0, 1.6731203576808164E9, 0.0, 2023-01-07 14:39:17.680
40.0, -31532.231751946423, -27619.447126322644, -33696.23824313143, -26044.967895146357, -30019.778611633614, -27870.032533411093, -33828.67232902913, -28532.068852432833, -25345.335941950794, -3384.2329244891316, -32942.80564103194, -34747.194915675514, -18158.646602469278, -18036.13669110974, -31621.862247212204, -30770.931335798665, -0.28800000000000003, 0.892, -0.194, 192.0, 0.0, 0.0, 0.0, 0.0, 0.0, 0.0, 0.0, 0.0, 0.0, 1.673120357680822E9, 0.0, 2023-01-07 14:39:17.680
42.0, -31506.437838845, -27606.37135581629, -33659.64843745809, -26065.419741322967, -29997.337460200484, -27887.57865280851, -33821.05038416987, -28566.93757378311, -25361.362142725247, -3357.5672933539504, -32949.80173704645, -34700.03273487482, -18167.40848629576, -18062.690563522647, -31628.634825782163, -30754.391044901735, -0.28800000000000003, 0.892, -0.194, 192.0, 0.0, 0.0, 0.0, 0.0, 0.0, 0.0, 0.0, 0.0, 0.0, 1.6731203576808271E9, 0.0, 2023-01-07 14:39:17.680
44.0, -31498.078286418713, -27598.74941095703, -33651.55710596527, -26030.48396473932, -29994.007050276647, -27849.200707578744, -33779.61024994973, -28504.84442768627, -25315.429307869592, -3411.345590513419, -32916.94467269715, -34749.34068314322, -18143.44741623967, -18068.792589758945, -31605.768991204382, -30771.512481154503, -0.28800000000000003, 0.892, -0.194, 192.0, 0.0, 0.0, 0.0, 0.0, 0.0, 0.0, 0.0, 0.0, 0.0, 1.6731203576808329E9, 0.0, 2023-01-07 14:39:17.680
46.0, -31481.56034726624, -27589.831064919363, -33632.2899022448, -26053.90859292848, -29989.760218830135, -27867.395027565366, -33802.05140138285, -28542.060082204353, -25329.01916849842, -3352.1134677068553, -32917.54816979745, -34671.28839150529, -18145.92845987421, -18055.38154308576, -31588.133464829145, -30716.30367234989, -0.28800000000000003, 0.892, -0.194, 192.0, 0.0, 0.0, 0.0, 0.0, 0.0, 0.0, 0.0, 0.0, 0.0, 1.673120357680838E9, 0.0, 2023-01-07 14:39:17.680
48.0, -31502.839207987694, -27602.616262747797, -33664.7446351939, -26061.575241276652, -29991.593061875472, -27876.961574192235, -33839.20000066757, -28548.74325379649, -25301.414764096113, -3410.540927713028, -32918.151666897735, -34754.63804657913, -18154.288012300494, -18075.118133439795, -31602.63974698064, -30774.08293176686, -0.29000000000000004, 0.889, -0.201, 192.0, 123.0, 112.0, 13.5, 88.0, 124.5, 64.0, 0.0, 0.0, 0.0, 1.6731203576808436E9, 0.0, 2023-01-07 14:39:17.680
50.0, -31483.66141124504, -27597.296547567435, -33652.98761761041, -26078.607270551598, -29981.914756526323, -27892.741905777682, -33833.52265757593, -28568.03280926142, -25339.569191881325, -3363.266988190054, -32934.69195779466, -34687.11342657965, -18167.430838040214, -18074.9169677397, -31610.86518894019, -30730.251160890006, -0.29000000000000004, 0.889, -0.201, 192.0, 0.0, 0.0, 0.0, 0.0, 0.0, 0.0, 0.0, 0.0, 0.0, 1.673120357680849E9, 0.0, 2023-01-07 14:39:17.680
52.0, -31508.67301329053, -27615.04383266495, -33673.68533297603, -26092.68886955844, -29992.956518287247, -27902.219045426733, -33840.65286405717, -28570.290335451406, -25303.180551908084, -3441.5651490169944, -32931.093326937356, -34774.240526466434, -18149.348276775872, -18097.06754649491, -31606.372488304674, -30776.51927191249, -0.29000000000000004, 0.889, -0.201, 192.0, 0.0, 0.0, 0.0, 0.0, 0.0, 0.0, 0.0, 0.0, 0.0, 1.6731203576808543E9, 0.0, 2023-01-07 14:39:17.680
54.0, -31491.61863227113, -27599.12939061277, -33667.82917592874, -26096.48866611584, -29994.811713077037, -27909.103382718968, -33836.070756443834, -28577.398190188193, -25334.607104612245, -3388.591514657917, -32956.73077782759, -34700.65858371957, -18170.895358430786, -18092.239569692563, -31625.68439551406, -30738.789527271932, -0.29000000000000004, 0.889, -0.201, 192.0, 0.0, 0.0, 0.0, 0.0, 0.0, 0.0, 0.0, 0.0, 0.0, 1.67312035768086E9, 0.0, 2023-01-07 14:39:17.680
56.0, -31494.926690450513, -27597.207140589613, -33670.48903351892, -26099.97553825087, -30002.992451547678, -27920.122792735434, -33841.859858257754, -28585.80244610339, -25304.566360064313, -3435.552529758517, -32932.65794904923, -34778.84498582423, -18148.02952385301, -18093.088935981865, -31616.073145398277, -30789.505635441023, -0.29000000000000004, 0.889, -0.201, 192.0, 0.0, 0.0, 0.0, 0.0, 0.0, 0.0, 0.0, 0.0, 0.0, 1.6731203576808653E9, 0.0, 2023-01-07 14:39:17.680
58.0, -31491.171597382025, -27587.260614307, -33670.15375735208, -26083.055267698204, -29998.656213123348, -27910.37743215292, -33835.579018065815, -28578.158149499675, -25346.520584406924, -3359.958930010668, -32959.43533890669, -34692.25432780437, -18162.513454260046, -18085.824619033887, -31625.59498853624, -30742.70108255161, -0.29000000000000004, 0.8935, -0.20450000000000002, 192.0, 123.0, 120.0, 14.0, 8.0, 124.5, 64.0, 0.0, 0.0, 0.0, 1.6731203576808708E9, 0.0, 2023-01-07 14:39:17.680
60.0, -31485.360143823644, -27589.94282364164, -33656.943876379, -26079.322526374166, -29987.88267229589, -27905.124772205923, -33827.86766622873, -28586.47299843705, -25299.805438495332, -3414.4748347371624, -32940.883391008785, -34775.156947989104, -18139.938192360187, -18081.466028865103, -31611.49103778494, -30786.309335983915, -0.29000000000000004, 0.8935, -0.20450000000000002, 192.0, 0.0, 0.0, 0.0, 0.0, 0.0, 0.0, 0.0, 0.0, 0.0, 1.6731203576808765E9, 0.0, 2023-01-07 14:39:17.680
62.0, -31497.094809662678, -27596.17896034467, -33667.516251506364, -26063.564546533176, -29997.806846834046, -27890.640841798886, -33829.298177873876, -28567.76458832796, -25336.641113357677, -3337.875406488825, -32956.93194352769, -34686.57698471272, -18152.58927972189, -18063.09289492284, -31613.793267463836, -30729.55825681189, -0.29000000000000004, 0.8935, -0.20450000000000002, 192.0, 0.0, 0.0, 0.0, 0.0, 0.0, 0.0, 0.0, 0.0, 0.0, 1.6731203576808817E9, 0.0, 2023-01-07 14:39:17.680
64.0, -31499.66526027504, -27602.75037321453, -33661.97301888144, -26075.34391586112, -30004.490018426182, -27908.276368174123, -33827.2865208729, -28591.122161283754, -25300.520694317904, -3415.1006835819107, -32952.37218765881, -34777.90621255711, -18152.72339018862, -18082.449505621138, -31629.618302538194, -30793.596004676343, -0.29000000000000004, 0.8935, -0.20450000000000002, 192.0, 0.0, 0.0, 0.0, 0.0, 0.0, 0.0, 0.0, 0.0, 0.0, 1.6731203576808872E9, 0.0, 2023-01-07 14:39:17.680
66.0, -31502.32511786522, -27593.630861476766, -33666.957457894976, -26034.172002574447, -30007.909835327846, -27873.89938520186, -33801.89493917167, -28541.88126824871, -25324.168839951617, -3340.9599472236573, -32956.70842608314, -34681.413731743545, -18159.250099569574, -18046.194976114628, -31627.159610648112, -30726.384309099238, -0.29000000000000004, 0.8935, -0.20450000000000002, 192.0, 0.0, 0.0, 0.0, 0.0, 0.0, 0.0, 0.0, 0.0, 0.0, 1.6731203576808927E9, 0.0, 2023-01-07 14:39:17.680
68.0, -31496.670126518027, -27593.65321322122, -33643.33166400572, -26045.48198526883, -30002.45600968075, -27881.65544052785, -33788.595651220756, -28559.203870201574, -25291.53529304687, -3376.0968895074, -32935.362510128325, -34733.38153760213, -18154.82445416742, -18040.09294987833, -31616.63193900966, -30757.743806570033, -0.28500000000000003, 0.9027499999999999, -0.20725, 192.0, 123.5, 32.0, 14.0, 64.0, 124.5, 56.0, 0.0, 0.0, 0.0, 1.6731203576808982E9, 0.0, 2023-01-07 14:39:17.680
70.0, -31535.115126981156, -27624.811544991917, -33686.448179060004, -26038.48588925432, -30015.97881507621, -27885.18701615179, -33838.14946867817, -28554.778224799422, -25334.29418018987, -3332.0416011859897, -32956.08257723839, -34674.03765607329, -18175.656279999766, -18037.90247892171, -31630.490020571953, -30722.539809052923, -0.28500000000000003, 0.9027499999999999, -0.20725, 192.0, 0.0, 0.0, 0.0, 0.0, 0.0, 0.0, 0.0, 0.0, 0.0, 1.6731203576809056E9, 0.0, 2023-01-07 14:39:17.680
72.0, -31525.928560010027, -27620.274140867492, -33658.486146746414, -26056.054360396192, -29980.752465814647, -27903.738964049695, -33834.05909944286, -28590.719829883557, -25332.148412722163, -3399.5662211854724, -32966.2302692211, -34743.26100865138, -18178.606710267868, -18075.833389262367, -31642.671721300096, -30778.285059724458, -0.28500000000000003, 0.9027499999999999, -0.20725, 192.0, 0.0, 0.0, 0.0, 0.0, 0.0, 0.0, 0.0, 0.0, 0.0, 1.6731203576809113E9, 0.0, 2023-01-07 14:39:17.680
74.0, -31538.222019460445, -27624.47626882509, -33688.14691163861, -26020.068051823146, -30002.567768403027, -27884.158835906845, -33838.0377099559, -28551.31370440885, -25347.772282096423, -3351.6440810732943, -32972.77933034651, -34685.81702540124, -18184.35110859288, -18070.67013629319, -31633.149878162134, -30736.867277248777, -0.28500000000000003, 0.9027499999999999, -0.20725, 192.0, 0.0, 0.0, 0.0, 0.0, 0.0, 0.0, 0.0, 0.0, 0.0, 1.6731203576809165E9, 0.0, 2023-01-07 14:39:17.680
76.0, -31505.00732719986, -27602.70566972562, -33645.27626577333, -26026.035967592714, -29983.658192593837, -27900.117981447936, -33826.97359645052, -28586.294184481405, -25322.313645161827, -3367.9608545256683, -32954.69676908216, -34704.65954597706, -18175.298652088484, -18061.438865833148, -31625.2150088805, -30750.501841366513, -0.28500000000000003, 0.9027499999999999, -0.20725, 192.0, 0.0, 0.0, 0.0, 0.0, 0.0, 0.0, 0.0, 0.0, 0.0, 1.673120357680922E9, 0.0, 2023-01-07 14:39:17.680
78.0, -31527.33671991071, -27621.011748434514, -33693.82425473026, -26008.825124362127, -30009.541512673084, -27896.13937093489, -33854.26507643045, -28561.215527202552, -25327.186325453084, -3347.777229282526, -32958.630676106295, -34684.140644567095, -18182.898245203287, -18053.593403529336, -31630.579427549772, -30735.07913769235, -0.2755, 0.911375, -0.213625, 192.0, 123.5, 88.0, 14.0, 96.0, 124.5, 16.0, 0.0, 0.0, 0.0, 1.6731203576809275E9, 0.0, 2023-01-07 14:39:17.680
80.0, -31502.928614965513, -27606.438411049654, -33669.30439106278, -26033.255581051777, -29995.79518983307, -27919.04990900158, -33840.988140224, -28602.23097827804, -25334.07066274532, -3365.9268457802355, -32962.676341852704, -34699.42923777452, -18180.238387613106, -18065.19395890164, -31637.64257879765, -30751.977056500564, -0.2755, 0.911375, -0.213625, 192.0, 0.0, 0.0, 0.0, 0.0, 0.0, 0.0, 0.0, 0.0, 0.0, 1.6731203576809328E9, 0.0, 2023-01-07 14:39:17.680
82.0, -31501.29693762028, -27594.12259985478, -33698.74163851042, -25993.313013710143, -30006.054640538056, -27883.42122833982, -33842.575114080326, -28553.817099787844, -25322.38070039519, -3360.4953718775955, -32961.938734285686, -34699.809217430266, -18184.93225394872, -18064.277537378974, -31638.15666892012, -30745.204477930605, -0.2755, 0.911375, -0.213625, 192.0, 0.0, 0.0, 0.0, 0.0, 0.0, 0.0, 0.0, 0.0, 0.0, 1.6731203576809385E9, 0.0, 2023-01-07 14:39:17.680
84.0, -31485.449550801462, -27590.769838186487, -33672.254821330884, -26025.253656536777, -29996.64455612237, -27912.389089153898, -33832.27095988643, -28594.18435027413, -25316.546895092357, -3345.3408891368977, -32951.65693183624, -34674.060007817745, -18175.5892247664, -18053.593403529336, -31629.30537811582, -30734.31917838087, -0.2755, 0.911375, -0.213625, 192.0, 0.0, 0.0, 0.0, 0.0, 0.0, 0.0, 0.0, 0.0, 0.0, 1.673120357680944E9, 0.0, 2023-01-07 14:39:17.680
86.0, -31496.312498606745, -27599.79994294643, -33702.8543594902, -25997.269272478734, -30022.66198666835, -27890.126751676413, -33846.41961412664, -28558.354503912273, -25317.91035150413, -3365.3009969354866, -32953.15449871475, -34709.77809545733, -18186.7427452496, -18074.80520901742, -31632.233456639467, -30752.401739645215, -0.2755, 0.911375, -0.213625, 192.0, 0.0, 0.0, 0.0, 0.0, 0.0, 0.0, 0.0, 0.0, 0.0, 1.6731203576809494E9, 0.0, 2023-01-07 14:39:17.680
88.0, -31473.826643684704, -27585.22660556157, -33665.32578054974, -26006.545246427686, -30001.137256757887, -27897.99456572468, -33823.88905571569, -28581.220338490053, -25334.897677290166, -3338.6353658003054, -32953.48977488158, -34667.26507750333, -18192.129515663328, -18055.314487852393, -31632.07699442828, -30732.32987312435, -0.26775000000000004, 0.9086875000000001, -0.21481250000000002, 192.0, 123.5, 112.0, 14.0, 40.0, 124.5, 32.0, 0.0, 0.0, 0.0, 1.6731203576809547E9, 0.0, 2023-01-07 14:39:17.680
90.0, -31494.680821261507, -27593.586157987855, -33688.683353505534, -25971.408304143944, -30010.547341173573, -27875.195786380267, -33824.71607026053, -28540.40605311466, -25304.90163623114, -3353.8569037743696, -32937.62003631831, -34706.55944425576, -18176.662108500255, -18039.824728944866, -31613.413287808096, -30742.499916851513, -0.26775000000000004, 0.9086875000000001, -0.21481250000000002, 192.0, 0.0, 0.0, 0.0, 0.0, 0.0, 0.0, 0.0, 0.0, 0.0, 1.6731203576809602E9, 0.0, 2023-01-07 14:39:17.680
92.0, -31481.828568199704, -27587.595890473833, -33658.150870579586, -25984.23820546129, -29982.607660604437, -27885.410533596343, -33814.54602653337, -28563.42834990363, -25317.91035150413, -3306.0465223844676, -32941.97862648709, -34645.6285888706, -18178.964338179154, -18027.12893809425, -31609.25586333941, -30707.541788523413, -0.26775000000000004, 0.9086875000000001, -0.21481250000000002, 192.0, 0.0, 0.0, 0.0, 0.0, 0.0, 0.0, 0.0, 0.0, 0.0, 1.6731203576809657E9, 0.0, 2023-01-07 14:39:17.680
94.0, -31522.19581868599, -27616.85432396583, -33701.89323447862, -25982.740638582785, -30007.641614394382, -27888.62918479791, -33835.9366459771, -28553.593582343292, -25306.10863043173, -3365.122182979844, -32943.85617302134, -34723.65852876408, -18177.734992234113, -18048.787778471444, -31610.239340095442, -30750.41243438869, -0.26775000000000004, 0.9086875000000001, -0.21481250000000002, 192.0, 0.0, 0.0, 0.0, 0.0, 0.0, 0.0, 0.0, 0.0, 0.0, 1.6731203576809723E9, 0.0, 2023-01-07 14:39:17.680
96.0, -31498.011231185348, -27601.006937147016, -33670.15375735208, -25978.158530969446, -29990.900157797358, -27881.56603355003, -33810.07567764231, -28558.622724845736, -25345.693569862076, -3315.456606800152, -32963.23513546409, -34658.30202797676, -18193.180047652728, -18047.04434240393, -31620.431735567065, -30713.241483359518, -0.26775000000000004, 0.9086875000000001, -0.21481250000000002, 192.0, 0.0, 0.0, 0.0, 0.0, 0.0, 0.0, 0.0, 0.0, 0.0, 1.673120357680978E9, 0.0, 2023-01-07 14:39:17.680
98.0, -31532.76819381335, -27631.919399728704, -33705.06718219128, -25978.024420502716, -30014.79417262008, -27887.869225486425, -33841.6363408132, -28559.025056245933, -25294.463371570513, -3363.490505634607, -32937.105946195836, -34730.25229337839, -18174.91867243274, -18051.939374439644, -31600.516331257386, -30744.198649430116, -0.264875, 0.9073437500000001, -0.22040625000000003, 192.0, 123.5, 104.0, 14.0, 40.0, 124.0, 120.0, 0.0, 0.0, 0.0, 1.6731203576809838E9, 0.0, 2023-01-07 14:39:17.680
100.0, -31528.81193504476, -27640.23424866608, -33705.8047897583, -25996.665775378442, -30003.193617247776, -27906.488228617698, -33859.42832939963, -28588.238786249018, -25359.082264790806, -3323.033848170501, -32979.328391471914, -34675.93755435199, -18203.55125707999, -18068.01027870301, -31635.49681132994, -30724.640873031723, -0.264875, 0.9073437500000001, -0.22040625000000003, 192.0, 0.0, 0.0, 0.0, 0.0, 0.0, 0.0, 0.0, 0.0, 0.0, 1.6731203576809895E9, 0.0, 2023-01-07 14:39:17.680
102.0, -31524.922731509538, -27635.13805093027, -33709.22460665996, -25974.62695534551, -30013.251902252665, -27887.55630106405, -33838.931779734114, -28562.55663186987, -25323.699453318055, -3396.9734188286566, -32965.827937820904, -34767.98203801895, -18190.676652273734, -18070.558377570913, -31628.88069497117, -30768.606754375312, -0.264875, 0.9073437500000001, -0.22040625000000003, 192.0, 0.0, 0.0, 0.0, 0.0, 0.0, 0.0, 0.0, 0.0, 0.0, 1.6731203576809962E9, 0.0, 2023-01-07 14:39:17.680
104.0, -31503.465056832443, -27612.674547752686, -33695.92531870906, -25951.85052774555, -29989.402590918853, -27875.151082891356, -33830.08048892981, -28552.31953290934, -25346.900564062664, -3300.5703449929174, -32962.98926627508, -34648.5790191387, -18193.872951730842, -18038.0589411329, -31614.9108546866, -30691.672049960143, -0.264875, 0.9073437500000001, -0.22040625000000003, 192.0, 0.0, 0.0, 0.0, 0.0, 0.0, 0.0, 0.0, 0.0, 0.0, 1.673120357681002E9, 0.0, 2023-01-07 14:39:17.681
106.0, -31528.521362366842, -27645.509260357532, -33720.48988586544, -25980.058429248147, -29996.376335188907, -27905.147123950377, -33860.36710266675, -28584.640155391713, -25312.657691557135, -3384.1658692557658, -32949.33235041289, -34740.6011510612, -18184.88755045981, -18060.23187163256, -31612.787438963347, -30750.099509966316, -0.264875, 0.9073437500000001, -0.22040625000000003, 192.0, 0.0, 0.0, 0.0, 0.0, 0.0, 0.0, 0.0, 0.0, 0.0, 1.6731203576810076E9, 0.0, 2023-01-07 14:39:17.681
108.0, -31521.346452396687, -27640.435414366177, -33729.184714458555, -25978.069123991627, -29991.682468853294, -27899.805057025562, -33859.98712301101, -28578.292259966405, -25348.219316985527, -3311.5003480315627, -32968.487795411085, -34651.57415289571, -18207.015777470562, -18065.8645112353, -31628.67952927107, -30708.726430979543, -0.2534375, 0.902671875, -0.223203125, 192.0, 124.0, 56.0, 14.0, 8.0, 124.0, 120.0, 0.0, 0.0, 0.0, 1.673120357681013E9, 0.0, 2023-01-07 14:39:17.681
110.0, -31530.153039712077, -27654.181737206192, -33729.29647318083, -25997.023403289724, -30002.27719572511, -27913.70784207676, -33859.16010846617, -28594.407867718684, -25321.39722363916, -3402.449596220207, -32959.36828367332, -34757.43201463604, -18196.577512809934, -18072.52533108298, -31628.634825782163, -30774.015876533496, -0.2534375, 0.902671875, -0.223203125, 192.0, 0.0, 0.0, 0.0, 0.0, 0.0, 0.0, 0.0, 0.0, 0.0, 1.6731203576810188E9, 0.0, 2023-01-07 14:39:17.681
112.0, -31514.640929060097, -27639.31782714341, -33717.8076765308, -25962.869937762018, -29995.303451455053, -27877.162739892334, -33840.474050101526, -28554.711169566057, -25349.381607697203, -3323.0114964260456, -32963.81628081993, -34664.51581293533, -18209.362710638372, -18054.353362840815, -31626.712575759004, -30705.306614077883, -0.2534375, 0.902671875, -0.223203125, 192.0, 0.0, 0.0, 0.0, 0.0, 0.0, 0.0, 0.0, 0.0, 0.0, 1.6731203576810243E9, 0.0, 2023-01-07 14:39:17.681
114.0, -31527.515533866354, -27653.645295339265, -33722.07685972177, -25993.804752088163, -30011.32965222951, -27905.28123441711, -33853.14748920769, -28592.575024673348, -25319.05029047135, -3392.7265873821484, -32946.471327122614, -34749.430090121044, -18203.68536754672, -18066.736229269056, -31618.911816944103, -30755.106300724306, -0.2534375, 0.902671875, -0.223203125, 192.0, 0.0, 0.0, 0.0, 0.0, 0.0, 0.0, 0.0, 0.0, 0.0, 1.67312035768103E9, 0.0, 2023-01-07 14:39:17.681
116.0, -31515.780868027316, -27635.18275441918, -33727.30716792431, -25950.107091678037, -30003.819466092526, -27870.12194038891, -33844.20679142556, -28550.866669519746, -25364.9384218381, -3320.932784191702, -32969.04658902247, -34670.90841184955, -18220.38212065484, -18060.790665243945, -31633.127526417677, -30714.917864193663, -0.2534375, 0.902671875, -0.223203125, 192.0, 0.0, 0.0, 0.0, 0.0, 0.0, 0.0, 0.0, 0.0, 0.0, 1.6731203576810358E9, 0.0, 2023-01-07 14:39:17.681
118.0, -31523.827496031226, -27650.918382515716, -33716.42186837457, -25981.690106593385, -29999.818503835024, -27900.922644248327, -33844.29619840338, -28591.65860315068, -25310.958958978532, -3374.7557848400816, -32937.50827759603, -34716.95300542748, -18193.02358544154, -18049.95006918312, -31608.02651739437, -30738.834230760844, -0.2534375, 0.902671875, -0.223203125, 192.0, 0.0, 0.0, 0.0, 0.0, 0.0, 0.0, 0.0, 0.0, 0.0, 1.6731203576810424E9, 0.0, 2023-01-07 14:39:17.681
120.0, -31515.62440581613, -27632.724062529098, -33722.188618444045, -25935.489050804266, -29988.93320428529, -27856.666190226817, -33832.96386396454, -28538.59556181378, -25363.26204100395, -3318.4964440460735, -32961.04466450747, -34664.694626890974, -18208.245123415607, -18063.361115856304, -31616.363718076198, -30707.07240188985, -0.234, 0.896, -0.23800000000000002, 192.0, 124.0, 88.0, 14.0, 0.0, 124.0, 72.0, 0.0, 0.0, 0.0, 1.6731203581614225E9, 0.0, 2023-01-07 14:39:18.161
122.0, -31512.1375336811, -27640.524821344, -33702.63084204565, -25971.34124891058, -29985.73690482818, -27887.84687374197, -33837.8365442558, -28588.28348973793, -25320.54785734986, -3346.972566482135, -32934.91547523921, -34698.02107787384, -18184.909902204265, -18053.14636864023, -31591.06154335279, -30722.94214045312, -0.234, 0.896, -0.23800000000000002, 192.0, 0.0, 0.0, 0.0, 0.0, 0.0, 0.0, 0.0, 0.0, 0.0, 1.6731203581614783E9, 0.0, 2023-01-07 14:39:18.161
124.0, -31523.603978586674, -27643.51995510101, -33734.996168016936, -25946.66492303192, -30007.41809694983, -27863.818748452515, -33856.5896578538, -28554.688817821603, -25321.285464916884, -3324.3749528378194, -32940.883391008785, -34669.76847288233, -18201.852524501388, -18049.033647660453, -31605.34430805973, -30705.753648966987, -0.234, 0.896, -0.23800000000000002, 192.0, 0.0, 0.0, 0.0, 0.0, 0.0, 0.0, 0.0, 0.0, 0.0, 1.6731203581614976E9, 0.0, 2023-01-07 14:39:18.161
126.0, -31520.340623896198, -27650.672513326706, -33714.94665324052, -25989.468513663833, -30002.925396314313, -27901.481437859708, -33859.003646254976, -28605.293167268417, -25326.24755218596, -3349.90064500578, -32939.341120641366, -34706.358278555665, -18206.36757688136, -18057.415551831193, -31614.10619188621, -30732.955721969098, -0.234, 0.896, -0.23800000000000002, 192.0, 0.0, 0.0, 0.0, 0.0, 0.0, 0.0, 0.0, 0.0, 0.0, 1.6731203581615632E9, 0.0, 2023-01-07 14:39:18.161
128.0, -31513.545693581786, -27630.89121948376, -33728.827086547266, -25942.820422985606, -30012.55899817455, -27856.062693126525, -33847.49249786049, -28547.960942740556, -25343.30193320536, -3329.1582261512553, -32945.420795133214, -34688.96862136944, -18214.928295007743, -18055.806226230412, -31619.939997189045, -30722.249236375006, -0.234, 0.896, -0.23800000000000002, 192.0, 0.0, 0.0, 0.0, 0.0, 0.0, 0.0, 0.0, 0.0, 0.0, 1.6731203581615887E9, 0.0, 2023-01-07 14:39:18.161
130.0, -31486.2318618574, -27613.635672764263, -33692.99724018541, -25967.094417464068, -30003.774762603614, -27870.479568300198, -33808.46635204153, -28572.927841297133, -25314.91521774712, -3322.6762202592163, -32917.19054188616, -34674.082359562206, -18192.55419880798, -18035.33202830935, -31602.885616169646, -30707.988823412517, -0.25, 0.892, -0.24, 192.0, 124.0, 24.0, 13.5, 112.0, 124.0, 64.0, 0.0, 0.0, 0.0, 1.673120358161595E9, 0.0, 2023-01-07 14:39:18.161
132.0, -31480.822739699215, -27599.21879759059, -33713.33732763974, -25922.435632042365, -30018.571617433026, -27834.672073682796, -33826.75007900597, -28527.46439307504, -25303.269958885903, -3314.8978131887693, -32911.84847496134, -34676.11636830764, -18198.097431432896, -18035.5555457539, -31601.879787669157, -30701.663279731667, -0.25, 0.892, -0.24, 192.0, 0.0, 0.0, 0.0, 0.0, 0.0, 0.0, 0.0, 0.0, 0.0, 1.6731203581616032E9, 0.0, 2023-01-07 14:39:18.161
134.0, -31486.388324068586, -27614.865018709304, -33704.508388579896, -25969.62016458752, -29985.35692517244, -27886.70693477475, -33851.29229441789, -28602.007460833487, -25298.620796039202, -3292.5684204779177, -32901.90194867873, -34646.589713882175, -18189.447306328693, -18027.777138683457, -31607.288909827344, -30695.829474428832, -0.25, 0.892, -0.24, 192.0, 0.0, 0.0, 0.0, 0.0, 0.0, 0.0, 0.0, 0.0, 0.0, 1.673120358161618E9, 0.0, 2023-01-07 14:39:18.161
136.0, -31515.065612204748, -27638.08848119837, -33753.12343277019, -25958.488995848777, -30020.18094303381, -27877.31920210352, -33861.238820700506, -28574.715980853558, -25338.764529080934, -3347.7325257936154, -32933.9767019721, -34706.06770587775, -18204.780603025032, -18058.711953009602, -31635.653273541127, -30740.08592845034, -0.25, 0.892, -0.24, 192.0, 0.0, 0.0, 0.0, 0.0, 0.0, 0.0, 0.0, 0.0, 0.0, 1.6731203581616247E9, 0.0, 2023-01-07 14:39:18.161
138.0, -31503.219187643434, -27636.680321297685, -33721.33925215474, -25990.206121230858, -30000.913739313335, -27899.402725625365, -33858.869535788246, -28613.630367950245, -25329.063871987328, -3321.7597987365484, -32928.41111760272, -34661.61008615614, -18203.12657393534, -18046.507900537003, -31633.30634037332, -30717.13068689474, -0.25, 0.892, -0.24, 192.0, 0.0, 0.0, 0.0, 0.0, 0.0, 0.0, 0.0, 0.0, 0.0, 1.673120358161631E9, 0.0, 2023-01-07 14:39:18.161
140.0, -31539.227847960934, -27668.48685365759, -33765.595706176246, -25993.11184801005, -30023.399594235372, -27901.36967913743, -33889.960812325575, -28607.28247252494, -25343.6819128611, -3379.7625755980703, -32946.38192014479, -34742.74691852891, -18211.284960661527, -18080.929586998176, -31643.141107933654, -30769.52317589798, -0.254, 0.894, -0.244, 192.0, 124.0, 8.0, 13.5, 120.0, 124.0, 48.0, 0.0, 0.0, 0.0, 1.673120358161638E9, 0.0, 2023-01-07 14:39:18.161
142.0, -31508.024812701326, -27646.068053968917, -33725.22845568996, -25996.218740489334, -29997.717439856227, -27894.99943196767, -33850.01824498394, -28614.23386505054, -25342.139642493683, -3326.431313327708, -32944.68318756619, -34678.01626658634, -18208.46864086016, -18073.329993883373, -31632.524029317385, -30725.713756765577, -0.254, 0.894, -0.244, 192.0, 0.0, 0.0, 0.0, 0.0, 0.0, 0.0, 0.0, 0.0, 0.0, 1.6731203581616445E9, 0.0, 2023-01-07 14:39:18.161
144.0, -31520.340623896198, -27649.510222615034, -33748.51897341239, -25971.90004252196, -30006.36756496043, -27871.597155522963, -33851.42640488463, -28579.722771611545, -25341.24557271547, -3390.4020059587965, -32945.75607130004, -34754.99567449041, -18203.68536754672, -18071.743020027046, -31624.298587357833, -30756.089777480338, -0.254, 0.894, -0.244, 192.0, 0.0, 0.0, 0.0, 0.0, 0.0, 0.0, 0.0, 0.0, 0.0, 1.673120358161651E9, 0.0, 2023-01-07 14:39:18.161
146.0, -31502.056896931757, -27644.726949301596, -33730.88344703716, -25990.80961833115, -29987.010954262136, -27885.455237085254, -33850.197058939586, -28606.18723704663, -25325.755813807944, -3298.7598536920377, -32931.31684438191, -34651.082414517696, -18189.402602839782, -18030.325237551362, -31610.64167149564, -30692.387305782715, -0.254, 0.894, -0.244, 192.0, 0.0, 0.0, 0.0, 0.0, 0.0, 0.0, 0.0, 0.0, 0.0, 1.6731203581616573E9, 0.0, 2023-01-07 14:39:18.161
148.0, -31525.503876865376, -27658.026237252503, -33763.9193253421, -25992.016612531737, -30010.435582451297, -27888.85270224246, -33864.658637602166, -28605.98607134653, -25321.7772032949, -3395.520555439062, -32943.63265557679, -34764.316351928275, -18203.08187044643, -18064.14342691224, -31628.903046715626, -30765.56691712939, -0.254, 0.894, -0.244, 192.0, 0.0, 0.0, 0.0, 0.0, 0.0, 0.0, 0.0, 0.0, 0.0, 1.673120358161664E9, 0.0, 2023-01-07 14:39:18.161
150.0, -31497.899472463072, -27636.456803853132, -33739.77944133037, -25987.32274619612, -29992.531835142596, -27879.50967306014, -33842.06102395785, -28603.437972478627, -25358.948154324076, -3295.7647199350263, -32950.941676013674, -34655.01632154183, -18202.590132068413, -18039.869432433778, -31629.35008160473, -30706.22303560055, -0.254, 0.896, -0.248, 192.0, 124.0, 8.0, 14.0, 0.0, 124.0, 32.0, 0.0, 0.0, 0.0, 1.6731203581616704E9, 0.0, 2023-01-07 14:39:18.161
152.0, -31517.837228517204, -27658.339161674878, -33754.889220582154, -26001.583159158607, -30013.69893714177, -27887.17632140831, -33847.55955309386, -28605.293167268417, -25308.455563599535, -3385.328159967442, -32928.74639376955, -34750.68178781054, -18183.524094048036, -18059.203691387618, -31622.912779201604, -30755.352169913313, -0.254, 0.896, -0.248, 192.0, 0.0, 0.0, 0.0, 0.0, 0.0, 0.0, 0.0, 0.0, 0.0, 1.6731203581616771E9, 0.0, 2023-01-07 14:39:18.161
154.0, -31500.447571330977, -27640.793042277463, -33737.65602560712, -25989.75908634175, -29998.656213123348, -27871.1277688894, -33825.05134642737, -28590.18338801663, -25355.43893044459, -3295.9211821462136, -32941.933922998185, -34642.38758592458, -18183.144114392297, -18056.163854141698, -31621.16934313409, -30690.286241803915, -0.254, 0.896, -0.248, 192.0, 0.0, 0.0, 0.0, 0.0, 0.0, 0.0, 0.0, 0.0, 0.0, 1.6731203581616836E9, 0.0, 2023-01-07 14:39:18.161
156.0, -31511.221112158433, -27655.2769726845, -33742.64046462065, -25999.392688201988, -30008.692146383783, -27884.427056840308, -33833.477954087015, -28602.543902700414, -25315.362252636227, -3388.256238491087, -32930.78040251498, -34747.23961916442, -18167.184968851205, -18071.318336882396, -31619.87294195568, -30749.00427448801, -0.254, 0.896, -0.248, 192.0, 0.0, 0.0, 0.0, 0.0, 0.0, 0.0, 0.0, 0.0, 0.0, 1.6731203581616905E9, 0.0, 2023-01-07 14:39:18.161
158.0, -31502.459228331954, -27642.20120217815, -33738.81831631879, -25979.94667052587, -29999.483227668195, -27869.51844328862, -33830.97455870802, -28586.763571114967, -25326.31460741933, -3292.0766820999006, -32929.975739714595, -34633.245722442356, -18188.50853306157, -18035.17556609816, -31618.464782054998, -30677.50104397548, -0.254, 0.896, -0.248, 192.0, 0.0, 0.0, 0.0, 0.0, 0.0, 0.0, 0.0, 0.0, 0.0, 1.673120358161697E9, 0.0, 2023-01-07 14:39:18.161
160.0, -31512.830437759214, -27657.3780366633, -33744.763880343904, -26006.43348770541, -30003.2830242256, -27890.931414476803, -33839.5352768344, -28616.312577284883, -25325.331130663293, -3382.9588750551793, -32936.92713224019, -34743.93156098504, -18167.252024084573, -18051.62645001727, -31620.20821812251, -30743.014006973986, -0.248, 0.9, -0.246, 192.0, 124.0, 32.0, 14.0, 16.0, 124.0, 40.0, 0.0, 0.0, 0.0, 1.6731203581617033E9, 0.0, 2023-01-07 14:39:18.161
162.0, -31496.42425732902, -27638.244943409558, -33744.18273498806, -25977.197405957868, -29998.522102656618, -27859.75073096165, -33826.6830237726, -28577.75581809948, -25334.49534588997, -3299.765682192526, -32938.625864818794, -34643.304007447245, -18201.47254484565, -18033.543888752924, -31617.123677387677, -30686.419390013147, -0.248, 0.9, -0.246, 192.0, 0.0, 0.0, 0.0, 0.0, 0.0, 0.0, 0.0, 0.0, 0.0, 1.67312035816171E9, 0.0, 2023-01-07 14:39:18.161
164.0, -31494.211434627945, -27637.99907422055, -33728.268292935885, -26002.365470214543, -29990.98956477518, -27875.620469524918, -33816.848256212266, -28602.678013167148, -25302.889979230164, -3365.166886468755, -32916.3188238524, -34721.19983687399, -18166.670878728735, -18039.690618478136, -31603.1091336142, -30734.699158036612, -0.248, 0.9, -0.246, 192.0, 0.0, 0.0, 0.0, 0.0, 0.0, 0.0, 0.0, 0.0, 0.0, 1.6731203581617167E9, 0.0, 2023-01-07 14:39:18.161
166.0, -31488.42233281402, -27627.672568282196, -33736.180810473066, -25979.56669087013, -29990.341364185973, -27851.949972146747, -33823.95611094905, -28569.306858695374, -25331.522563877414, -3281.750176161549, -32924.83483848987, -34635.95028352145, -18166.55912000646, -18022.971513625565, -31600.78455219085, -30680.56323296586, -0.248, 0.9, -0.246, 192.0, 0.0, 0.0, 0.0, 0.0, 0.0, 0.0, 0.0, 0.0, 0.0, 1.6731203581617248E9, 0.0, 2023-01-07 14:39:18.161
168.0, -31492.71386774944, -27638.826088765396, -33725.25080743442, -26018.637540178006, -29973.488148866672, -27880.1802253938, -33820.87157021422, -28609.696460926112, -25313.48470610198, -3363.512857379062, -32920.29743436544, -34718.58468277272, -18144.766169162533, -18043.57982201336, -31595.978927132957, -30729.915884723174, -0.248, 0.9, -0.246, 192.0, 0.0, 0.0, 0.0, 0.0, 0.0, 0.0, 0.0, 0.0, 0.0, 1.6731203581617315E9, 0.0, 2023-01-07 14:39:18.161
170.0, -31491.104542148656, -27628.968969460606, -33743.13220299866, -25981.28777519319, -29983.70289608275, -27847.27845755559, -33827.59944529527, -28566.93757378311, -25348.576944896813, -3305.197156095166, -32940.65987356423, -34653.00466454085, -18148.54361397548, -18037.6566097327, -31603.73498245895, -30684.586546967814, -0.246, 0.9, -0.246, 192.0, 124.0, 40.0, 14.0, 16.0, 124.0, 40.0, 0.0, 0.0, 0.0, 1.673120358161738E9, 0.0, 2023-01-07 14:39:18.161
172.0, -31498.100638163167, -27645.106928957335, -33736.87371455118, -26032.67443569594, -29988.799093818558, -27893.94889997827, -33847.246628671484, -28630.707100714102, -25303.471124586, -3341.764610024048, -32909.769762726995, -34691.00263011487, -18132.49506145657, -18039.556508011403, -31592.067371853278, -30706.98299491203, -0.246, 0.9, -0.246, 192.0, 0.0, 0.0, 0.0, 0.0, 0.0, 0.0, 0.0, 0.0, 0.0, 1.6731203581617444E9, 0.0, 2023-01-07 14:39:18.161
174.0, -31503.263891132345, -27636.61326606432, -33772.14476730165, -26008.2886824952, -30003.774762603614, -27876.000449180658, -33864.301009690884, -28597.80533287589, -25360.937459580597, -3332.3992290972747, -32953.35566441485, -34679.78205439831, -18165.463884528148, -18062.779970500465, -31632.300511872832, -30714.8508089603, -0.246, 0.9, -0.246, 192.0, 0.0, 0.0, 0.0, 0.0, 0.0, 0.0, 0.0, 0.0, 0.0, 1.673120358161751E9, 0.0, 2023-01-07 14:39:18.161
176.0, -31467.970486637416, -27612.540437285956, -33723.239150433445, -26027.01944434875, -29978.472587880206, -27881.56603355003, -33823.129096404205, -28615.84319065132, -25322.38070039519, -3330.2758133740203, -32915.89414070775, -34682.86659513314, -18143.29095402848, -18039.981191156054, -31608.294738327833, -30713.777925226444, -0.246, 0.9, -0.246, 192.0, 0.0, 0.0, 0.0, 0.0, 0.0, 0.0, 0.0, 0.0, 0.0, 1.6731203581617577E9, 0.0, 2023-01-07 14:39:18.161
178.0, -31489.718733992428, -27623.89512346925, -33763.11466254171, -26002.588987659095, -30004.400611448364, -27853.872222169906, -33839.80349776787, -28576.57117564335, -25320.704319561046, -3314.94251667768, -32916.16236164121, -34667.846222859174, -18149.817663409434, -18037.746016710524, -31613.323880830278, -30694.868349417255, -0.246, 0.9, -0.246, 192.0, 0.0, 0.0, 0.0, 0.0, 0.0, 0.0, 0.0, 0.0, 0.0, 1.673120358161765E9, 0.0, 2023-01-07 14:39:18.161
180.0, -31463.2766203018, -27606.013727905003, -33713.583196828746, -26019.978644845327, -29977.35500065744, -27863.729341474696, -33811.17091312062, -28603.750896901, -25321.82190678381, -3311.098016631367, -32908.33925108186, -34665.90162109156, -18143.11214007284, -18031.129900351752, -31609.88171218416, -30691.806160426877, -0.26, 0.892, -0.256, 192.0, 123.5, 112.0, 13.5, 112.0, 124.0, 0.0, 0.0, 0.0, 0.0, 1.6731203581617715E9, 0.0, 2023-01-07 14:39:18.161
182.0, -31496.446609073475, -27626.197353148145, -33755.53742117136, -25995.27996722221, -30009.832085351, -27847.94900988925, -33841.34576813528, -28573.08430350832, -25326.11344171923, -3325.1796156382106, -32916.050602918935, -34684.3865137561, -18141.21224179414, -18053.503996551513, -31610.0605261398, -30694.68953546161, -0.26, 0.892, -0.256, 192.0, 0.0, 0.0, 0.0, 0.0, 0.0, 0.0, 0.0, 0.0, 0.0, 1.6731203581617782E9, 0.0, 2023-01-07 14:39:18.161
184.0, -31471.144434350066, -27611.80282971893, -33722.68035682206, -26020.67154892344, -29984.73107632769, -27877.118036403423, -33835.26609364344, -28617.810144163388, -25338.093976747274, -3300.905621159747, -32928.65698679173, -34664.359350724146, -18135.35608474685, -18026.972475883063, -31614.55322677532, -30693.21432032756, -0.26, 0.892, -0.256, 192.0, 0.0, 0.0, 0.0, 0.0, 0.0, 0.0, 0.0, 0.0, 0.0, 1.673120358161785E9, 0.0, 2023-01-07 14:39:18.161
186.0, -31481.582699010694, -27609.679413995676, -33750.26240947991, -25980.75133332626, -29998.879730567904, -27843.769233676107, -33838.104765189266, -28572.257288963472, -25307.673252543602, -3316.7530079785597, -32912.04964066144, -34690.376781270126, -18123.17438401871, -18027.039531116432, -31611.044002895833, -30703.965509410562, -0.26, 0.892, -0.256, 192.0, 0.0, 0.0, 0.0, 0.0, 0.0, 0.0, 0.0, 0.0, 0.0, 1.6731203581617913E9, 0.0, 2023-01-07 14:39:18.161
188.0, -31476.575908252707, -27614.08270765337, -33733.498601138424, -26015.396537231987, -29977.243241935164, -27865.159853119836, -33833.612064553745, -28613.585664461338, -25327.58865685328, -3280.4090714942304, -32924.43250708968, -34643.84044931417, -18152.186948321694, -18016.400100755705, -31610.284043584354, -30679.669163187646, -0.26, 0.892, -0.256, 192.0, 0.0, 0.0, 0.0, 0.0, 0.0, 0.0, 0.0, 0.0, 0.0, 1.673120358161798E9, 0.0, 2023-01-07 14:39:18.161
190.0, -31494.636117772596, -27624.45391708063, -33766.42272072109, -25995.14585675548, -29991.32484094201, -27840.282361541078, -33838.440041356094, -28577.688762866113, -25306.041575198364, -3335.573176809928, -32929.30518738094, -34716.75183972738, -18148.40950350875, -18031.71104570759, -31614.575578519773, -30714.806105471387, -0.262, 0.89, -0.259, 192.0, 123.5, 96.0, 13.5, 96.0, 123.5, 104.0, 0.0, 0.0, 0.0, 1.6731203581618054E9, 0.0, 2023-01-07 14:39:18.161
192.0, -31484.331963578697, -27625.973835703593, -33743.24396172094, -26024.180772802923, -29965.352113884943, -27850.78768143507, -33822.0338609259, -28600.46519046607, -25339.658598859143, -3283.65007444025, -32940.99514973106, -34654.05519653025, -18151.426989010215, -18019.19406881262, -31608.250034838922, -30674.17063405164, -0.262, 0.89, -0.259, 192.0, 0.0, 0.0, 0.0, 0.0, 0.0, 0.0, 0.0, 0.0, 0.0, 1.673120358161812E9, 0.0, 2023-01-07 14:39:18.161
194.0, -31514.730336037916, -27647.967952247614, -33780.59372670576, -26023.398461746987, -29985.334573427986, -27851.45823376873, -33838.59650356728, -28586.495350181503, -25327.990988253474, -3367.513819636562, -32940.54811484196, -34748.044281964816, -18144.766169162533, -18050.307697094406, -31598.527026000862, -30718.091811906317, -0.262, 0.89, -0.259, 192.0, 0.0, 0.0, 0.0, 0.0, 0.0, 0.0, 0.0, 0.0, 0.0, 1.6731203581618187E9, 0.0, 2023-01-07 14:39:18.161
196.0, -31485.561309523742, -27625.45974558112, -33754.620999648694, -26032.428566506933, -29970.872994765403, -27860.04130363957, -33825.587788294295, -28602.923882356154, -25353.7849013549, -3285.6617314412274, -32952.7298155701, -34655.73157736439, -18151.73991343259, -18037.90247892171, -31602.77385744737, -30672.56130845086, -0.262, 0.89, -0.259, 192.0, 0.0, 0.0, 0.0, 0.0, 0.0, 0.0, 0.0, 0.0, 0.0, 1.6731203581618254E9, 0.0, 2023-01-07 14:39:18.161
198.0, -31508.27068189033, -27643.341141145367, -33776.95039235955, -26039.71523519936, -29997.404515433853, -27871.41834156732, -33846.50902110446, -28602.09686781131, -25324.951151007554, -3384.612904144872, -32934.446088605655, -34755.666226824076, -18143.425064495215, -18067.943223469643, -31609.479380783963, -30734.43093710315, -0.262, 0.89, -0.259, 192.0, 0.0, 0.0, 0.0, 0.0, 0.0, 0.0, 0.0, 0.0, 0.0, 1.6731203581618335E9, 0.0, 2023-01-07 14:39:18.161
200.0, -31484.89075719008, -27626.912608970717, -33758.599610161735, -26038.016502620758, -29979.16549195832, -27873.65351601285, -33842.37394838023, -28608.645928936712, -25347.705226863054, -3295.7200164461156, -32947.34304515637, -34651.99883604036, -18179.098448645884, -18057.214386131094, -31615.894331442636, -30684.340677778804, -0.265, 0.893, -0.2575, 192.0, 123.5, 80.0, 14.0, 0.0, 124.0, 0.0, 0.0, 0.0, 0.0, 1.6731203581618412E9, 0.0, 2023-01-07 14:39:18.161
202.0, -31488.824664214215, -27629.304245627434, -33768.814357377814, -26035.937790386415, -30004.400611448364, -27879.241452126676, -33850.50998336196, -28612.289263282928, -25317.150392192652, -3385.1046425228888, -32931.294492637455, -34747.23961916442, -18156.00909662355, -18070.424267104183, -31615.268482597887, -30742.477565107056, -0.265, 0.893, -0.2575, 192.0, 0.0, 0.0, 0.0, 0.0, 0.0, 0.0, 0.0, 0.0, 0.0, 1.6731203581618476E9, 0.0, 2023-01-07 14:39:18.161
204.0, -31465.020056369314, -27606.259597094013, -33748.58602864576, -26015.70946165436, -29990.94486128627, -27858.543736761065, -33834.72965177651, -28596.95596658659, -25330.15910746564, -3280.6325889387836, -32930.06514669242, -34631.61404509712, -18161.999364137577, -18043.71393248009, -31617.2130843655, -30677.054009086372, -0.265, 0.893, -0.2575, 192.0, 0.0, 0.0, 0.0, 0.0, 0.0, 0.0, 0.0, 0.0, 0.0, 1.6731203581618545E9, 0.0, 2023-01-07 14:39:18.161
206.0, -31480.442760043476, -27619.80475423393, -33750.10594726872, -26023.890200125006, -29994.69995435476, -27866.70212348725, -33840.406994868164, -28608.37770800325, -25304.499304830948, -3358.684880576716, -32916.16236164121, -34729.89466546711, -18144.87792788481, -18053.61575527379, -31612.787438963347, -30731.301692879402, -0.265, 0.893, -0.2575, 192.0, 0.0, 0.0, 0.0, 0.0, 0.0, 0.0, 0.0, 0.0, 0.0, 1.6731203581618607E9, 0.0, 2023-01-07 14:39:18.161
208.0, -31471.166786094524, -27613.3674518308, -33739.82414481928, -26008.065165050648, -29991.436599664285, -27848.574858734, -33831.9356837196, -28585.17659725864, -25317.552723592846, -3271.5130772010184, -32921.929111710684, -34630.22823694089, -18158.78071293601, -18030.66051371819, -31618.710651244004, -30671.957811350563, -0.265, 0.893, -0.2575, 192.0, 0.0, 0.0, 0.0, 0.0, 0.0, 0.0, 0.0, 0.0, 0.0, 1.6731203581618676E9, 0.0, 2023-01-07 14:39:18.161
210.0, -31493.71969624993, -27633.93105672968, -33753.68222638157, -26047.270124825256, -30001.36077420244, -27879.08498991549, -33844.3409018923, -28618.27953079695, -25303.71699377501, -3359.1095637213666, -32924.23134138958, -34738.54479057131, -18132.606820178848, -18039.556508011403, -31618.800058221826, -30734.833268503342, -0.2695, 0.8925000000000001, -0.25675000000000003, 192.0, 123.5, 56.0, 13.5, 112.0, 124.0, 0.0, 0.0, 0.0, 0.0, 1.6731203581618743E9, 0.0, 2023-01-07 14:39:18.161
212.0, -31484.46607404543, -27619.42477457819, -33761.21476426301, -26029.09815658309, -30001.60664339145, -27857.247335582655, -33837.4342128556, -28582.13676001272, -25351.326209464816, -3287.449870997652, -32949.1758882017, -34646.83558307119, -18172.281166587018, -18035.019103886974, -31633.283988628864, -30695.06951511735, -0.2695, 0.8925000000000001, -0.25675000000000003, 192.0, 0.0, 0.0, 0.0, 0.0, 0.0, 0.0, 0.0, 0.0, 0.0, 1.6731203581618807E9, 0.0, 2023-01-07 14:39:18.161
214.0, -31478.721675720415, -27619.067146666905, -33748.51897341239, -26058.043665652713, -29986.943899028767, -27881.923661461315, -33837.948302978075, -28607.595396947316, -25297.190284394062, -3349.3418513943975, -32921.41502158821, -34721.57981652973, -18155.07032335643, -18031.88985966323, -31616.96721517649, -30740.041224961427, -0.2695, 0.8925000000000001, -0.25675000000000003, 192.0, 0.0, 0.0, 0.0, 0.0, 0.0, 0.0, 0.0, 0.0, 0.0, 1.6731203581618876E9, 0.0, 2023-01-07 14:39:18.161
216.0, -31469.08807386018, -27606.4160593052, -33759.29251423985, -26034.172002574447, -29971.141215698866, -27854.676884970297, -33826.772430750425, -28560.54497486889, -25330.516735376925, -3292.0319786109903, -32941.53159159799, -34647.48378366039, -18159.31715480294, -18031.576935240857, -31621.951654190023, -30696.209454084572, -0.2695, 0.8925000000000001, -0.25675000000000003, 192.0, 0.0, 0.0, 0.0, 0.0, 0.0, 0.0, 0.0, 0.0, 0.0, 1.673120358161894E9, 0.0, 2023-01-07 14:39:18.161
218.0, -31466.405864525543, -27611.288739596457, -33738.684205852056, -26075.72389551686, -29969.55424184254, -27880.1802253938, -33807.326413074305, -28588.261137993475, -25304.7228222755, -3349.7218310501376, -32914.95536744063, -34709.28635707931, -18135.087863813384, -18033.454481775105, -31599.510502756897, -30725.35612885429, -0.2695, 0.8925000000000001, -0.25675000000000003, 192.0, 0.0, 0.0, 0.0, 0.0, 0.0, 0.0, 0.0, 0.0, 0.0, 1.6731203581619005E9, 0.0, 2023-01-07 14:39:18.161
220.0, -31477.559385008743, -27614.574446031387, -33764.65693290913, -26049.929982415437, -29991.36954443092, -27854.967457648214, -33816.20005562306, -28543.244724660486, -25314.244665413462, -3289.685045443183, -32929.90868448123, -34655.01632154183, -18153.72921868911, -18041.590516756834, -31605.232549337456, -30690.532110992925, -0.26475000000000004, 0.89425, -0.259375, 192.0, 123.5, 112.0, 14.0, 0.0, 123.5, 104.0, 0.0, 0.0, 0.0, 1.6731203581619072E9, 0.0, 2023-01-07 14:39:18.161
222.0, -31466.070588358714, -27617.256655366025, -33743.53453439886, -26090.610157324096, -29979.724285569704, -27893.74773427817, -33834.46143084305, -28600.21932127706, -25304.029918197386, -3340.2670431455426, -32923.71725126711, -34708.07936287873, -18123.330846229896, -18047.066694148387, -31608.093572627735, -30728.59713180031, -0.26475000000000004, 0.89425, -0.259375, 192.0, 0.0, 0.0, 0.0, 0.0, 0.0, 0.0, 0.0, 0.0, 0.0, 1.673120358161914E9, 0.0, 2023-01-07 14:39:18.161
224.0, -31462.628419712597, -27598.883521423762, -33768.07674981079, -26047.068959125158, -29991.816579320024, -27856.062693126525, -33832.293311630885, -28552.855974776267, -25313.39529912416, -3307.678199729705, -32932.09915543785, -34678.418597986536, -18166.425009539726, -18044.920926680676, -31620.945825689534, -30716.638948516724, -0.26475000000000004, 0.89425, -0.259375, 192.0, 0.0, 0.0, 0.0, 0.0, 0.0, 0.0, 0.0, 0.0, 0.0, 1.6731203581619203E9, 0.0, 2023-01-07 14:39:18.161
226.0, -31436.432175210975, -27584.98073637256, -33731.24107494844, -26068.280764613246, -29978.517291369117, -27872.290059601077, -33812.020279409924, -28583.36610595776, -25295.469200071002, -3311.187423609188, -32908.94274818215, -34683.49244397789, -18140.139358060285, -18015.014292599477, -31603.712630714494, -30715.7001752496, -0.26475000000000004, 0.89425, -0.259375, 192.0, 0.0, 0.0, 0.0, 0.0, 0.0, 0.0, 0.0, 0.0, 0.0, 1.6731203581619272E9, 0.0, 2023-01-07 14:39:18.161
228.0, -31454.112405075124, -27593.69791671013, -33767.137976543665, -26038.619999721053, -29999.639689879383, -27855.436844281776, -33836.85306749977, -28549.324399152327, -25305.14750542015, -3302.5596502494395, -32920.23037913208, -34684.63238294511, -18145.526128474015, -18027.844193916822, -31617.526008787874, -30714.113201393273, -0.26475000000000004, 0.89425, -0.259375, 192.0, 0.0, 0.0, 0.0, 0.0, 0.0, 0.0, 0.0, 0.0, 0.0, 1.673120358161934E9, 0.0, 2023-01-07 14:39:18.161
230.0, -31433.749965876337, -27590.814541675394, -33722.590949844234, -26060.54706103171, -29986.20629146174, -27879.889652715883, -33828.448811584574, -28595.793675874913, -25295.513903559913, -3300.7938624374706, -32905.925262680685, -34682.84424338868, -18135.624305680314, -18024.84906015981, -31614.55322677532, -30717.37655608375, -0.261375, 0.8921250000000001, -0.2626875, 192.0, 123.5, 120.0, 13.5, 104.0, 123.5, 88.0, 0.0, 0.0, 0.0, 1.673120358161942E9, 0.0, 2023-01-07 14:39:18.161
232.0, -31458.493346988365, -27600.917530169194, -33754.4645374375, -26018.77165064474, -29996.64455612237, -27852.307600058033, -33835.55666632136, -28553.906506765667, -25305.371022864703, -3317.714132990138, -32916.072954663396, -34704.279566321326, -18137.77007314802, -18034.214441086584, -31618.82240996628, -30723.590341042323, -0.261375, 0.8921250000000001, -0.2626875, 192.0, 0.0, 0.0, 0.0, 0.0, 0.0, 0.0, 0.0, 0.0, 0.0, 1.6731203581619487E9, 0.0, 2023-01-07 14:39:18.161
234.0, -31436.722747888896, -27592.535625998455, -33720.7581067989, -26038.30707529868, -29983.36761991592, -27866.880937442893, -33820.491590558486, -28586.27183273695, -25312.233008412484, -3287.874554142303, -32923.672547778195, -34668.67323740402, -18138.17240454822, -18008.398176240706, -31610.82048545128, -30704.501951277492, -0.261375, 0.8921250000000001, -0.2626875, 192.0, 0.0, 0.0, 0.0, 0.0, 0.0, 0.0, 0.0, 0.0, 0.0, 1.673120358161955E9, 0.0, 2023-01-07 14:39:18.161
236.0, -31459.677989444495, -27605.723155227086, -33758.08552003926, -26011.887313352505, -29989.760218830135, -27849.446576767754, -33837.523619833424, -28554.912335266155, -25293.837522725764, -3313.936688177191, -32913.03311741747, -34707.96760415645, -18121.34154097337, -18010.07455707485, -31599.599909734716, -30715.722526994054, -0.261375, 0.8921250000000001, -0.2626875, 192.0, 0.0, 0.0, 0.0, 0.0, 0.0, 0.0, 0.0, 0.0, 0.0, 1.673120358161962E9, 0.0, 2023-01-07 14:39:18.161
238.0, -31463.52248949081, -27621.32467285689, -33745.255618721916, -26052.85806093908, -29994.252919465653, -27888.539777820086, -33839.20000066757, -28606.23194053554, -25323.095956217763, -3294.5353739899847, -32938.33529214088, -34677.30101076377, -18139.22293653762, -18023.150327581207, -31618.129505888166, -30708.525265279444, -0.261375, 0.8921250000000001, -0.2626875, 192.0, 0.0, 0.0, 0.0, 0.0, 0.0, 0.0, 0.0, 0.0, 0.0, 1.6731203581619685E9, 0.0, 2023-01-07 14:39:18.161
240.0, -31470.831509927695, -27619.223608878092, -33761.907668341126, -26017.274083766235, -29987.50269264015, -27854.207498336735, -33836.11545993274, -28558.488614379003, -25315.116383447217, -3348.201912427177, -32938.51410609652, -34743.95391272949, -18140.40757899375, -18034.39325504223, -31612.273348840878, -30736.956684226596, -0.2606875, 0.8880625, -0.26634375, 192.0, 123.5, 112.0, 13.5, 80.0, 123.5, 72.0, 0.0, 0.0, 0.0, 1.6731203586414988E9, 0.0, 2023-01-07 14:39:18.641
242.0, -31443.808250881226, -27605.901969182727, -33726.56956035728, -26040.899877655494, -29960.434730104775, -27872.75944623464, -33827.77825925091, -28587.45647519308, -25354.656619388657, -3282.264266284021, -32941.017501475515, -34664.202888512955, -18123.241439252073, -18040.607040000803, -31606.417191793586, -30696.276509317937, -0.2606875, 0.8880625, -0.26634375, 192.0, 0.0, 0.0, 0.0, 0.0, 0.0, 0.0, 0.0, 0.0, 0.0, 1.6731203586417391E9, 0.0, 2023-01-07 14:39:18.641
244.0, -31466.94230639247, -27621.41407983471, -33756.7667671164, -26039.2458485658, -29987.569747873516, -27875.106379402445, -33838.730614034015, -28576.682934365625, -25268.401237535625, -3354.750973552582, -32914.84360871835, -34746.90434299759, -18123.867288096822, -18043.155138868708, -31608.607662750204, -30747.37259714277, -0.2606875, 0.8880625, -0.26634375, 192.0, 0.0, 0.0, 0.0, 0.0, 0.0, 0.0, 0.0, 0.0, 0.0, 1.673120358641747E9, 0.0, 2023-01-07 14:39:18.641
246.0, -31445.909314860026, -27607.08661163886, -33735.9125895396, -26045.750206202294, -29971.990581988168, -27871.977135178702, -33823.44202082658, -28582.494387924005, -25321.553685850347, -3279.067966826912, -32932.88146649378, -34658.257324487844, -18126.05775905344, -18027.41951077217, -31622.130468145668, -30699.83043668633, -0.2606875, 0.8880625, -0.26634375, 192.0, 0.0, 0.0, 0.0, 0.0, 0.0, 0.0, 0.0, 0.0, 0.0, 1.673120358641755E9, 0.0, 2023-01-07 14:39:18.641
248.0, -31472.5302425063, -27628.65604503823, -33763.31582824181, -26048.655932981485, -30002.74658235867, -27882.191882394778, -33840.69756754608, -28583.410809446672, -25300.319528617805, -3360.674185833238, -32927.62880654679, -34756.15796520209, -18114.792479847965, -18041.232888845552, -31622.488096056954, -30753.407568145703, -0.2606875, 0.8880625, -0.26634375, 192.0, 0.0, 0.0, 0.0, 0.0, 0.0, 0.0, 0.0, 0.0, 0.0, 1.673120358641763E9, 0.0, 2023-01-07 14:39:18.641
250.0, -31452.1230998186, -27617.99426293305, -33749.43539493506, -26050.77934870474, -29990.855454308446, -27885.298774874067, -33839.31175938985, -28591.166864772662, -25322.33599690628, -3284.6111994518283, -32938.55880958543, -34659.97840881091, -18107.192886733163, -18037.969534155076, -31643.565791078305, -30708.12293387925, -0.26434375, 0.88803125, -0.270171875, 192.0, 123.5, 80.0, 13.5, 96.0, 123.5, 56.0, 0.0, 0.0, 0.0, 1.6731203586417708E9, 0.0, 2023-01-07 14:39:18.641
252.0, -31457.12989057659, -27619.00009143354, -33744.562714643806, -26039.379959032532, -29991.50365489765, -27877.498016059166, -33835.40020411017, -28585.333059469827, -25289.322470345793, -3372.297092949998, -32917.9728529421, -34758.84017453673, -18126.907125342743, -18052.833444217857, -31633.954540962524, -30760.001332760017, -0.26434375, 0.88803125, -0.270171875, 192.0, 0.0, 0.0, 0.0, 0.0, 0.0, 0.0, 0.0, 0.0, 0.0, 1.6731203586417785E9, 0.0, 2023-01-07 14:39:18.641
254.0, -31451.452547484943, -27618.262483866514, -33733.43154590506, -26027.57823796013, -29982.31708792652, -27871.865376456426, -33834.57318956532, -28581.26504197896, -25316.144563692164, -3274.3741004912977, -32923.85136173384, -34643.3263591917, -18121.810927606934, -18030.43699627364, -31628.210142637512, -30690.77798018193, -0.26434375, 0.88803125, -0.270171875, 192.0, 0.0, 0.0, 0.0, 0.0, 0.0, 0.0, 0.0, 0.0, 0.0, 1.673120358641786E9, 0.0, 2023-01-07 14:39:18.641
0.0, -31471.189137838977, -27638.490812598564, -33734.03504300535, -26035.557810730676, -29990.07314325251, -27883.555338806553, -33841.1893059241, -28599.638175921224, -25290.14948489064, -3382.8918198218134, -32921.48207682158, -34760.78477630434, -18109.83039257889, -18047.37961857076, -31624.186828635557, -30757.22971644756, -0.26434375, 0.88803125, -0.270171875, 192.0, 0.0, 0.0, 0.0, 0.0, 0.0, 0.0, 0.0, 0.0, 0.0, 1.673120358641795E9, 0.0, 2023-01-07 14:39:18.641
2.0, -31464.1259865911, -27630.533591572475, -33727.44127839104, -26009.495676695788, -29988.08383799599, -27859.99660015066, -33830.25930288545, -28575.7441610985, -25327.476898131, -3291.0932053438673, -32935.72013803961, -34652.62468488511, -18114.90423857024, -18023.016217114477, -31621.415212323096, -30685.368858023747, -0.26434375, 0.88803125, -0.270171875, 192.0, 0.0, 0.0, 0.0, 0.0, 0.0, 0.0, 0.0, 0.0, 0.0, 1.6731203586418023E9, 0.0, 2023-01-07 14:39:18.641
4.0, -31478.744027464872, -27646.403330135745, -33723.0603364778, -26031.847421151095, -29995.63872762188, -27880.962536449737, -33833.187381409094, -28603.66148992318, -25295.49155181546, -3374.912247051269, -32927.4723443356, -34752.648741322606, -18105.605912876836, -18039.08712137784, -31614.620282008684, -30740.398852872713, -0.263171875, 0.894015625, -0.2680859375, 192.0, 123.5, 104.0, 14.0, 16.0, 123.5, 88.0, 0.0, 0.0, 0.0, 1.67312035864181E9, 0.0, 2023-01-07 14:39:18.641
6.0, -31469.155129093546, -27634.154574174237, -33723.57442660027, -25995.32467071112, -29985.066352494523, -27853.738111703173, -33822.994985937476, -28571.162053485165, -25334.07066274532, -3294.9153536457247, -32943.0738619654, -34659.24080124388, -18126.147166031264, -18023.03856885893, -31613.05565989681, -30682.127855077728, -0.263171875, 0.894015625, -0.2680859375, 192.0, 0.0, 0.0, 0.0, 0.0, 0.0, 0.0, 0.0, 0.0, 0.0, 1.6731203586418316E9, 0.0, 2023-01-07 14:39:18.641
8.0, -31467.434044770485, -27635.540382330466, -33714.47726660696, -26022.05735707967, -29988.93320428529, -27875.329896847, -33823.330262104304, -28604.75672540149, -25301.213598396018, -3365.390403913308, -32928.07584143589, -34737.449555093, -18113.361968202826, -18040.495281278527, -31604.45023828152, -30730.049995189907, -0.263171875, 0.894015625, -0.2680859375, 192.0, 0.0, 0.0, 0.0, 0.0, 0.0, 0.0, 0.0, 0.0, 0.0, 1.6731203586418388E9, 0.0, 2023-01-07 14:39:18.641
10.0, -31468.573983737708, -27631.114736928314, -33742.461650665005, -25997.62690039002, -29997.583329389494, -27856.42032103781, -33838.01535821144, -28570.60325987378, -25331.231991199493, -3296.74819669106, -32940.41400437522, -34657.854993087654, -18125.63307590879, -18041.881089434755, -31613.703860486017, -30684.184215567617, -0.263171875, 0.894015625, -0.2680859375, 192.0, 0.0, 0.0, 0.0, 0.0, 0.0, 0.0, 0.0, 0.0, 0.0, 1.673120358641846E9, 0.0, 2023-01-07 14:39:18.641
12.0, -31457.576925465695, -27629.594818305355, -33721.8086387883, -26028.762880416263, -29987.59209961797, -27887.153969663857, -33841.07754720182, -28616.066708095874, -25294.888054715164, -3352.225226429132, -32923.62784428929, -34718.8976071951, -18116.602971148848, -18029.028836372952, -31616.944863432036, -30723.813858486876, -0.263171875, 0.894015625, -0.2680859375, 192.0, 0.0, 0.0, 0.0, 0.0, 0.0, 0.0, 0.0, 0.0, 0.0, 1.6731203586418533E9, 0.0, 2023-01-07 14:39:18.641
14.0, -31458.60510571064, -27622.24109437956, -33739.95825528601, -25998.23039749031, -29997.06923926702, -27861.56122226253, -33852.65575082967, -28577.577004143837, -25316.05515671434, -3310.2710020865206, -32928.008786202525, -34663.42057745702, -18104.555380887436, -18038.46127253309, -31635.67562528558, -30695.36008779527, -0.263171875, 0.894015625, -0.2680859375, 192.0, 0.0, 0.0, 0.0, 0.0, 0.0, 0.0, 0.0, 0.0, 0.0, 1.6731203586418607E9, 0.0, 2023-01-07 14:39:18.641
16.0, -31442.422442724997, -27614.529742542476, -33699.83687398874, -26030.23809555031, -29976.527986112596, -27886.863396985937, -33833.00856745346, -28615.217341806572, -25291.53529304687, -3345.8102757704587, -32908.49571329304, -34699.786865685805, -18118.793442105467, -18033.588592241835, -31622.041061167845, -30719.298806106905, -0.264, 0.89, -0.266, 192.0, 123.5, 96.0, 13.5, 104.0, 123.5, 88.0, 0.0, 0.0, 0.0, 1.6731203586418684E9, 0.0, 2023-01-07 14:39:18.641
18.0, -31438.756756634328, -27597.54241675644, -33723.708537067, -25986.987470029293, -29990.430771163796, -27850.161832590322, -33827.55474180636, -28565.8423383048, -25306.667424043113, -3308.1475863632663, -32913.10017265084, -34665.16401352454, -18110.232723979083, -18027.37480728326, -31621.146991389633, -30697.97524189654, -0.264, 0.89, -0.266, 192.0, 0.0, 0.0, 0.0, 0.0, 0.0, 0.0, 0.0, 0.0, 0.0, 1.6731203586418755E9, 0.0, 2023-01-07 14:39:18.641
20.0, -31433.21352400941, -27602.303338325422, -33707.503522336905, -26028.20408680488, -29998.432695678795, -27884.024725440115, -33835.288445387894, -28622.638120965734, -25281.946394675542, -3309.9804294086016, -32902.4160388012, -34673.61297292864, -18105.471802410102, -18021.541001980426, -31614.77674421987, -30708.413506557168, -0.264, 0.89, -0.266, 192.0, 0.0, 0.0, 0.0, 0.0, 0.0, 0.0, 0.0, 0.0, 0.0, 1.673120358641883E9, 0.0, 2023-01-07 14:39:18.641
22.0, -31449.08326257268, -27606.03607964946, -33737.410156418104, -25991.033135775702, -30014.302434242065, -27851.45823376873, -33853.30395141887, -28581.622669890246, -25306.466258343014, -3310.6733334867163, -32917.34700409735, -34674.79761538477, -18123.308494485438, -18042.81986270188, -31625.0138431804, -30705.5971867558, -0.264, 0.89, -0.266, 192.0, 0.0, 0.0, 0.0, 0.0, 0.0, 0.0, 0.0, 0.0, 0.0, 1.6731203586418903E9, 0.0, 2023-01-07 14:39:18.641
24.0, -31436.610989166616, -27607.935977928162, -33689.599775028204, -26023.823144891638, -29980.908928025834, -27873.720571246216, -33832.785050008904, -28616.558446473893, -25301.280653629383, -3307.4770340296072, -32905.34411732484, -34664.60521991315, -18109.070433267407, -18028.581801483848, -31615.760220975906, -30698.82460818584, -0.264, 0.89, -0.266, 192.0, 0.0, 0.0, 0.0, 0.0, 0.0, 0.0, 0.0, 0.0, 0.0, 1.673120358641898E9, 0.0, 2023-01-07 14:39:18.641
26.0, -31455.878192887092, -27618.262483866514, -33721.71923181048, -25999.079763779613, -30007.485152183195, -27850.921791901805, -33840.07171870133, -28573.598393630793, -25304.566360064313, -3341.071705945934, -32915.60356802983, -34701.95498489797, -18104.91300879872, -18047.446673804126, -31620.521142544883, -30719.79054448492, -0.268, 0.884, -0.27, 192.0, 123.5, 80.0, 13.5, 80.0, 123.5, 72.0, 0.0, 0.0, 0.0, 1.6731203586419053E9, 0.0, 2023-01-07 14:39:18.641
28.0, -31429.614893152106, -27600.917530169194, -33675.16054811008, -26019.553961700676, -29978.83021579149, -27871.150120633858, -33828.89584647368, -28606.969548102566, -25295.42449658209, -3295.3847402792862, -32898.48213177707, -34653.67521687451, -18100.35325292984, -18021.0045601135, -31593.900214898615, -30684.184215567617, -0.268, 0.884, -0.27, 192.0, 0.0, 0.0, 0.0, 0.0, 0.0, 0.0, 0.0, 0.0, 0.0, 1.6731203586419127E9, 0.0, 2023-01-07 14:39:18.641
30.0, -31469.80332968275, -27626.443222337155, -33719.10407770921, -26001.784324858705, -30009.429753950808, -27870.814844467026, -33856.29908517589, -28591.502140939494, -25311.651863056646, -3348.648947316283, -32919.93980645416, -34720.976319429436, -18124.11315728583, -18049.793606971933, -31611.468686040487, -30732.57574231336, -0.268, 0.884, -0.27, 192.0, 0.0, 0.0, 0.0, 0.0, 0.0, 0.0, 0.0, 0.0, 0.0, 1.6731203586419199E9, 0.0, 2023-01-07 14:39:18.641
32.0, -31440.768413635305, -27603.733849970562, -33673.66298123157, -26000.33146146911, -29978.27142218011, -27871.530100289598, -33820.133962647196, -28601.873350366754, -25319.318511404814, -3291.6296472107947, -32916.676451763684, -34651.88707731808, -18116.222991493105, -18030.124071851264, -31597.230624822456, -30686.151169079683, -0.268, 0.884, -0.27, 192.0, 0.0, 0.0, 0.0, 0.0, 0.0, 0.0, 0.0, 0.0, 0.0, 1.6731203586419277E9, 0.0, 2023-01-07 14:39:18.641
34.0, -31436.678044399985, -27593.139123098746, -33691.38791458463, -25964.367504640522, -29988.374410673907, -27844.149213331846, -33825.40897433865, -28565.909393538168, -25294.731592503977, -3332.354525608364, -32902.080762634374, -34705.06187737726, -18103.303683197937, -18042.23871734604, -31584.043095593825, -30712.146247881206, -0.268, 0.884, -0.27, 192.0, 0.0, 0.0, 0.0, 0.0, 0.0, 0.0, 0.0, 0.0, 0.0, 1.673120358641935E9, 0.0, 2023-01-07 14:39:18.641
36.0, -31443.160050292023, -27608.22655060608, -33685.91173719308, -26004.444182448886, -29994.431733421297, -27878.682658515296, -33839.982311723514, -28609.27177778146, -25305.81805775381, -3262.1476962742445, -32899.063277132904, -34614.53731233327, -18108.48928791157, -18015.818955399867, -31589.519272985373, -30668.180366537617, -0.27, 0.882, -0.266, 192.0, 123.5, 72.0, 13.5, 72.0, 123.5, 88.0, 0.0, 0.0, 0.0, 1.673120358641942E9, 0.0, 2023-01-07 14:39:18.641
38.0, -31465.198870324955, -27626.51027757052, -33708.64346130413, -25996.39755444498, -30002.567768403027, -27870.054885155547, -33851.04642522889, -28591.502140939494, -25300.20776989553, -3358.8189910434476, -32910.820294716395, -34728.64296777761, -18096.039366249963, -18051.738208739545, -31609.34527031723, -30736.442594104126, -0.27, 0.882, -0.266, 192.0, 0.0, 0.0, 0.0, 0.0, 0.0, 0.0, 0.0, 0.0, 0.0, 1.673120358641952E9, 0.0, 2023-01-07 14:39:18.641
40.0, -31444.724672403896, -27612.339271585857, -33686.247013359905, -25998.655080634962, -29982.585308859983, -27866.389199064877, -33828.15823890665, -28596.307765997382, -25320.39139513867, -3277.7715656485043, -32914.06129766242, -34633.89392303156, -18125.38720671978, -18024.737301437533, -31609.322918572776, -30675.891718374696, -0.27, 0.882, -0.266, 192.0, 0.0, 0.0, 0.0, 0.0, 0.0, 0.0, 0.0, 0.0, 0.0, 1.6731203586419594E9, 0.0, 2023-01-07 14:39:18.641
42.0, -31449.664407928518, -27612.94276868615, -33703.36844961267, -25988.99912703027, -29995.594024132974, -27857.13557686038, -33822.97263419302, -28579.253384977983, -25288.562511034314, -3354.2145316856545, -32901.41021030071, -34727.99476718841, -18109.83039257889, -18036.293153320927, -31602.68445046955, -30725.266721876473, -0.27, 0.882, -0.266, 192.0, 0.0, 0.0, 0.0, 0.0, 0.0, 0.0, 0.0, 0.0, 0.0, 1.6731203586419668E9, 0.0, 2023-01-07 14:39:18.641
44.0, -31435.202829265934, -27602.906835425718, -33692.66196401858, -25991.90485380946, -29992.889463053878, -27857.649666982852, -33824.02316618242, -28585.869501336754, -25306.28744438737, -3260.35955671782, -32902.4160388012, -34617.33128039018, -18110.83622107938, -18014.85783038829, -31601.499808013417, -30659.77611062242, -0.27, 0.882, -0.266, 192.0, 0.0, 0.0, 0.0, 0.0, 0.0, 0.0, 0.0, 0.0, 0.0, 1.673120358641974E9, 0.0, 2023-01-07 14:39:18.641
46.0, -31459.99091386687, -27629.393652605257, -33713.98552822894, -26014.077784309124, -30004.042983537078, -27877.90034745936, -33854.33213166382, -28609.584702203836, -25295.558607048824, -3366.932674280724, -32909.94857668264, -34740.31057838328, -18112.6243606358, -18057.035572175453, -31618.978872177468, -30740.108280194796, -0.272, 0.894, -0.26, 192.0, 123.5, 64.0, 13.5, 120.0, 123.5, 112.0, 0.0, 0.0, 0.0, 1.6731203586419811E9, 0.0, 2023-01-07 14:39:18.641
48.0, -31451.98898935187, -27625.32563511439, -33709.85045550471, -26004.064202793146, -29992.911814798335, -27864.221079852712, -33837.188343666596, -28592.7985421179, -25316.01045322543, -3281.7278244170934, -32921.012690188014, -34637.157277722035, -18122.77205261851, -18035.600249242812, -31625.550285047328, -30681.88198588872, -0.272, 0.894, -0.26, 192.0, 0.0, 0.0, 0.0, 0.0, 0.0, 0.0, 0.0, 0.0, 0.0, 1.6731203586419883E9, 0.0, 2023-01-07 14:39:18.641
50.0, -31456.90637313204, -27633.3722631183, -33700.61918504467, -26011.37322323003, -29991.36954443092, -27868.199690365756, -33828.18059065111, -28597.0006700755, -25283.890996443155, -3370.7548225825817, -32905.567634769395, -34740.064709194274, -18107.841087322366, -18041.52346152347, -31607.802999949814, -30727.300730621904, -0.272, 0.894, -0.26, 192.0, 0.0, 0.0, 0.0, 0.0, 0.0, 0.0, 0.0, 0.0, 0.0, 1.6731203586419957E9, 0.0, 2023-01-07 14:39:18.641
52.0, -31460.75087317835, -27634.691016041164, -33710.07397294926, -25998.990356801794, -29990.56488163053, -27859.258992583633, -33831.15337266366, -28582.404980946183, -25316.21161892553, -3297.1505280912556, -32925.97477745709, -34643.70633884744, -18129.835203866387, -18026.480737505048, -31613.59210176374, -30669.968506094043, -0.272, 0.894, -0.26, 192.0, 0.0, 0.0, 0.0, 0.0, 0.0, 0.0, 0.0, 0.0, 0.0, 1.6731203586420028E9, 0.0, 2023-01-07 14:39:18.642
54.0, -31459.387416766574, -27635.629789308285, -33690.0021064284, -26015.0389093207, -29979.70193382525, -27873.877033457404, -33822.07856441481, -28599.928748599144, -25290.90944420212, -3381.3271977099416, -32917.5705215419, -34743.17160167356, -18120.603933406346, -18045.636182503247, -31602.527988258364, -30728.17244865566, -0.272, 0.894, -0.26, 192.0, 0.0, 0.0, 0.0, 0.0, 0.0, 0.0, 0.0, 0.0, 0.0, 1.6731203586420095E9, 0.0, 2023-01-07 14:39:18.642
56.0, -31468.17165233751, -27637.61909456481, -33699.255728632896, -25990.76491484224, -29988.93320428529, -27859.61662049492, -33830.0357854409, -28574.47011166455, -25317.977406737496, -3297.038769368979, -32925.70655652363, -34644.39924292556, -18130.505756200047, -18027.061882860886, -31597.185921333545, -30668.58269793781, -0.264, 0.896, -0.254, 192.0, 123.5, 96.0, 14.0, 0.0, 124.0, 8.0, 0.0, 0.0, 0.0, 1.6731203586420171E9, 0.0, 2023-01-07 14:39:18.642
58.0, -31473.3796087956, -27650.337237159878, -33685.554109281795, -26018.794002389193, -29988.664983351828, -27880.940184705283, -33830.818096496834, -28606.36605100227, -25300.319528617805, -3383.3388547109193, -32924.723079767595, -34736.86840973716, -18133.903221357254, -18050.642973261234, -31599.577557990262, -30723.545637553412, -0.264, 0.896, -0.254, 192.0, 0.0, 0.0, 0.0, 0.0, 0.0, 0.0, 0.0, 0.0, 0.0, 1.6731203586420243E9, 0.0, 2023-01-07 14:39:18.642
60.0, -31465.288277302778, -27631.18179216168, -33697.95932745449, -25982.271251949223, -29981.69123908177, -27848.686617456275, -33827.040651683885, -28564.143605726196, -25328.01333999793, -3318.809368468448, -32936.52480084, -34661.29716173377, -18145.34731451837, -18050.017124416485, -31598.12469460067, -30674.438854985103, -0.264, 0.896, -0.254, 192.0, 0.0, 0.0, 0.0, 0.0, 0.0, 0.0, 0.0, 0.0, 0.0, 1.673120358642031E9, 0.0, 2023-01-07 14:39:18.642
62.0, -31462.4272540125, -27629.99714970555, -33690.0021064284, -26022.414984990955, -29989.201425218755, -27884.114132417933, -33827.42063133963, -28612.401022005204, -25308.030880454884, -3359.8024677994813, -32921.03504193247, -34709.442819290496, -18137.814776636933, -18036.22609808756, -31593.96727013198, -30709.575797268844, -0.264, 0.896, -0.254, 192.0, 0.0, 0.0, 0.0, 0.0, 0.0, 0.0, 0.0, 0.0, 0.0, 1.673120358642038E9, 0.0, 2023-01-07 14:39:18.642
64.0, -31454.358274264134, -27612.160457630212, -33706.452990347505, -25985.04286826168, -29995.146989243865, -27844.41743426531, -33825.856009227755, -28560.12029172424, -25315.518714847414, -3305.197156095166, -32928.83580074737, -34651.59650464016, -18141.100483071863, -18027.888897405734, -31608.317090072287, -30682.59724171129, -0.264, 0.896, -0.254, 192.0, 0.0, 0.0, 0.0, 0.0, 0.0, 0.0, 0.0, 0.0, 0.0, 1.673120358642046E9, 0.0, 2023-01-07 14:39:18.642
66.0, -31459.70034118895, -27627.046719437447, -33696.77468499836, -26031.042758350704, -30000.399649190862, -27880.694315516273, -33838.104765189266, -28617.608978463293, -25294.552778548335, -3334.9920314540905, -32915.20123662963, -34688.02984810231, -18162.960489149154, -18028.537097994937, -31610.529912773363, -30709.46403854657, -0.256, 0.894, -0.26, 192.0, 124.0, 0.0, 13.5, 120.0, 123.5, 112.0, 0.0, 0.0, 0.0, 1.6731203586420536E9, 0.0, 2023-01-07 14:39:18.642
68.0, -31470.563288994228, -27627.42669909319, -33726.949540013025, -26003.594816159584, -30010.435582451297, -27859.66132398383, -33857.05904448737, -28581.197986745596, -25333.645979600667, -3330.8793104743136, -32945.08551896638, -34680.74317940989, -18184.820495226442, -18044.518595280482, -31637.709634031016, -30708.145285623705, -0.256, 0.894, -0.26, 192.0, 0.0, 0.0, 0.0, 0.0, 0.0, 0.0, 0.0, 0.0, 0.0, 1.6731203586420608E9, 0.0, 2023-01-07 14:39:18.642
70.0, -31465.198870324955, -27633.79694626295, -33700.88740597814, -26051.941639416415, -29996.242224722177, -27897.61458606894, -33854.19802119709, -28632.227019337064, -25309.215522911018, -3334.902624476269, -32926.555922812935, -34686.46522599045, -18165.93327116171, -18040.76350221199, -31620.54349428934, -30713.308538592883, -0.256, 0.894, -0.26, 192.0, 0.0, 0.0, 0.0, 0.0, 0.0, 0.0, 0.0, 0.0, 0.0, 1.6731203586420717E9, 0.0, 2023-01-07 14:39:18.642
72.0, -31468.305762804244, -27627.404347348733, -33720.46753412098, -26010.14387728499, -29998.74562010117, -27861.181242606788, -33845.994930981986, -28581.13093151223, -25335.657636601645, -3346.5702350819392, -32950.76286205803, -34705.8441884332, -18186.161599893763, -18062.15412165572, -31634.73685201846, -30726.78664049943, -0.256, 0.894, -0.26, 192.0, 0.0, 0.0, 0.0, 0.0, 0.0, 0.0, 0.0, 0.0, 0.0, 1.67312035864208E9, 0.0, 2023-01-07 14:39:18.642
74.0, -31428.586712907163, -27602.683317981162, -33668.25385907339, -26020.313921012155, -29977.84673903546, -27868.13263513239, -33813.80841896634, -28603.14739980071, -25299.91719721761, -3311.8579759428476, -32914.97771918508, -34661.67714138951, -18154.086846600396, -18036.56137425439, -31601.2092353355, -30697.12587560724, -0.256, 0.894, -0.26, 192.0, 0.0, 0.0, 0.0, 0.0, 0.0, 0.0, 0.0, 0.0, 0.0, 1.673120358642088E9, 0.0, 2023-01-07 14:39:18.642
76.0, -31459.007437110835, -27622.442260079657, -33715.125467196165, -25999.124467268524, -30007.41809694983, -27860.242469339668, -33838.32828263382, -28577.822873332843, -25303.381717608183, -3331.683973274705, -32914.50833255152, -34686.42052250153, -18170.60478575287, -18036.85194693231, -31607.087744127246, -30711.22982635854, -0.266, 0.89, -0.266, 192.0, 123.5, 88.0, 13.5, 104.0, 123.5, 88.0, 0.0, 0.0, 0.0, 1.6731203586420984E9, 0.0, 2023-01-07 14:39:18.642
78.0, -31445.35052124864, -27620.408251334222, -33670.243164329906, -26030.551019972685, -29973.868128522412, -27882.102475416956, -33840.45169835707, -28620.402946520204, -25292.76463899191, -3300.1903653371774, -32906.57346326989, -34651.283580217794, -18144.229727295606, -18029.632333473248, -31604.584348748253, -30694.018983127953, -0.266, 0.89, -0.266, 192.0, 0.0, 0.0, 0.0, 0.0, 0.0, 0.0, 0.0, 0.0, 0.0, 1.6731203586421068E9, 0.0, 2023-01-07 14:39:18.642
80.0, -31497.1842166405, -27658.652086097252, -33720.713403309994, -26029.545191472196, -30005.786419604592, -27885.857568485448, -33870.6936086051, -28607.640100436223, -25323.38652889568, -3369.771345826548, -32939.43052761919, -34733.53799981332, -18198.343300621906, -18067.831464747367, -31621.281101856366, -30745.629161075256, -0.266, 0.89, -0.266, 192.0, 0.0, 0.0, 0.0, 0.0, 0.0, 0.0, 0.0, 0.0, 0.0, 1.6731203586421158E9, 0.0, 2023-01-07 14:39:18.642
82.0, -31466.472919758908, -27636.926190486694, -33684.88355694814, -26037.92709564294, -29989.491997896672, -27890.95376622126, -33837.14364017769, -28622.23578956554, -25337.82575581381, -3318.9211271907243, -32943.65500732124, -34670.796653127276, -18194.722318020144, -18053.705162251612, -31617.39189832114, -30704.658413488676, -0.266, 0.89, -0.266, 192.0, 0.0, 0.0, 0.0, 0.0, 0.0, 0.0, 0.0, 0.0, 0.0, 1.673120358642124E9, 0.0, 2023-01-07 14:39:18.642
84.0, -31468.529280248797, -27632.813469506917, -33704.93307172455, -26004.15360977097, -30000.958442802246, -27864.288135086077, -33841.03284371291, -28586.27183273695, -25307.896769988154, -3366.5973981138945, -32931.0709751929, -34730.900493967594, -18183.74761149259, -18058.779008242967, -31612.563921518795, -30733.51451558048, -0.266, 0.89, -0.266, 192.0, 0.0, 0.0, 0.0, 0.0, 0.0, 0.0, 0.0, 0.0, 0.0, 1.6731203586421306E9, 0.0, 2023-01-07 14:39:18.642
86.0, -31466.629381970095, -27638.64727480975, -33692.28198436284, -26031.802717662184, -29991.593061875472, -27888.09274293098, -33855.89675377569, -28624.269798310972, -25329.801479554353, -3293.551897233951, -32930.80275425944, -34643.28165570279, -18184.954605693176, -18036.270801576473, -31611.982776162957, -30682.77605566693, -0.263, 0.89, -0.268, 192.0, 123.5, 112.0, 13.5, 104.0, 123.5, 72.0, 0.0, 0.0, 0.0, 1.673120358642137E9, 0.0, 2023-01-07 14:39:18.642
88.0, -31488.71290549194, -27657.959182019138, -33722.52389461087, -26032.58502871812, -30022.147896545877, -27892.80896101105, -33872.995838284, -28620.17942907565, -25311.853028756745, -3391.9442763262127, -32939.274065408004, -34757.07438672476, -18204.11005069137, -18093.848895293344, -31635.630921796674, -30755.016893746484, -0.263, 0.89, -0.268, 192.0, 0.0, 0.0, 0.0, 0.0, 0.0, 0.0, 0.0, 0.0, 0.0, 1.673120358642144E9, 0.0, 2023-01-07 14:39:18.642
90.0, -31455.45350974244, -27632.366434617812, -33688.213966871976, -26021.00682509027, -29996.242224722177, -27879.934356204794, -33842.709224547056, -28610.411716748684, -25326.024034741407, -3299.944496148169, -32927.71821352461, -34645.203905725946, -18200.131440178327, -18059.226043132072, -31625.68439551406, -30680.809102154864, -0.263, 0.89, -0.268, 192.0, 0.0, 0.0, 0.0, 0.0, 0.0, 0.0, 0.0, 0.0, 0.0, 1.673120358642151E9, 0.0, 2023-01-07 14:39:18.642
92.0, -31493.13855089409, -27666.586955378887, -33707.32470838126, -26036.697749697894, -30012.93897783029, -27896.921681990825, -33866.08914924731, -28619.799449419912, -25316.546895092357, -3391.832517603936, -32927.02530944649, -34753.49810761191, -18175.097486388386, -18082.561264343414, -31632.38991885065, -30742.768137784977, -0.263, 0.89, -0.268, 192.0, 0.0, 0.0, 0.0, 0.0, 0.0, 0.0, 0.0, 0.0, 0.0, 1.673120358642158E9, 0.0, 2023-01-07 14:39:18.642
94.0, -31461.60023946765, -27639.250771910047, -33673.19359459801, -26012.44610696389, -29983.591137360472, -27868.89259444387, -33825.34191910528, -28593.536149684925, -25331.969598766518, -3304.392493294775, -32931.585065315376, -34648.35550169415, -18210.994387983606, -18054.733342496558, -31620.521142544883, -30677.83632014231, -0.263, 0.89, -0.268, 192.0, 0.0, 0.0, 0.0, 0.0, 0.0, 0.0, 0.0, 0.0, 0.0, 1.6731203586421647E9, 0.0, 2023-01-07 14:39:18.642
96.0, -31478.967544909425, -27658.80854830844, -33696.90879546509, -26029.85811589457, -30004.75823935965, -27886.79634175257, -33837.59067506679, -28611.52930397145, -25294.329261103783, -3384.456441933685, -32916.18471338567, -34745.85381100819, -18186.854503971877, -18061.751790255523, -31607.132447616157, -30734.60975105879, -0.2645, 0.893, -0.264, 192.0, 123.5, 88.0, 14.0, 0.0, 123.5, 112.0, 0.0, 0.0, 0.0, 1.6731203586421711E9, 0.0, 2023-01-07 14:39:18.642
98.0, -31453.55361146374, -27635.13805093027, -33687.83398721623, -26008.62395866203, -29983.658192593837, -27864.08696938598, -33830.54987556337, -28590.496312439005, -25328.706244076046, -3300.011551381535, -32931.00391995954, -34645.15920223704, -18203.618312313356, -18049.19010987164, -31609.54643601733, -30674.684724174112, -0.2645, 0.893, -0.264, 192.0, 0.0, 0.0, 0.0, 0.0, 0.0, 0.0, 0.0, 0.0, 0.0, 1.673120358642178E9, 0.0, 2023-01-07 14:39:18.642
100.0, -31472.93257390649, -27657.847423296862, -33699.30043212181, -26033.926133385437, -29988.08383799599, -27885.723458018718, -33848.431271127614, -28618.637158708236, -25287.333165089272, -3378.779098842037, -32910.17209412719, -34738.187162660026, -18188.463829572658, -18068.502017081024, -31596.44831376652, -30724.5514660539, -0.2645, 0.893, -0.264, 192.0, 0.0, 0.0, 0.0, 0.0, 0.0, 0.0, 0.0, 0.0, 0.0, 1.673120358642185E9, 0.0, 2023-01-07 14:39:18.642
102.0, -31470.965620394425, -27651.99126624957, -33709.71634503798, -26018.548133200187, -29997.94095730078, -27876.559242792042, -33850.77820429542, -28605.51668471297, -25338.02692151391, -3314.026095155012, -32942.626827076296, -34653.652865130054, -18214.972998496654, -18068.65847929221, -31618.88946519965, -30680.11619807675, -0.2645, 0.893, -0.264, 192.0, 0.0, 0.0, 0.0, 0.0, 0.0, 0.0, 0.0, 0.0, 0.0, 1.673120358642194E9, 0.0, 2023-01-07 14:39:18.642
104.0, -31477.939364664482, -27662.27306869901, -33706.29652813632, -26045.414930035466, -30003.528893414605, -27905.169475694835, -33863.384588168214, -28645.168679376686, -25299.112534417218, -3388.0103693020787, -32925.84066699036, -34738.16481091557, -18174.382230565814, -18070.58072931537, -31614.888502942147, -30730.117050423272, -0.2645, 0.893, -0.264, 192.0, 0.0, 0.0, 0.0, 0.0, 0.0, 0.0, 0.0, 0.0, 0.0, 1.6731203591237876E9, 0.0, 2023-01-07 14:39:19.123
106.0, -31473.13373960659, -27652.930039516694, -33711.86211250569, -26014.077784309124, -30010.36852721793, -27877.386257336886, -33843.37977688072, -28599.124085798754, -25342.653732616156, -3316.395380067275, -32945.62196083331, -34655.686873875486, -18227.42292015826, -18061.349458855326, -31623.181000135068, -30680.026791098928, -0.25925, 0.8975, -0.261, 192.0, 124.0, 8.0, 14.0, 24.0, 123.5, 120.0, 0.0, 0.0, 0.0, 1.673120359123858E9, 0.0, 2023-01-07 14:39:19.123
108.0, -31466.27175405881, -27652.66181858323, -33693.62308903016, -26043.604438734586, -30001.04784978007, -27902.084934960003, -33845.65965481516, -28633.165792604184, -25292.071734913796, -3378.220305230654, -32919.202198887135, -34722.518589796855, -18207.149887937296, -18053.258127362507, -31609.121752872677, -30714.336718837825, -0.25925, 0.8975, -0.261, 192.0, 0.0, 0.0, 0.0, 0.0, 0.0, 0.0, 0.0, 0.0, 0.0, 1.6731203591239102E9, 0.0, 2023-01-07 14:39:19.123
110.0, -31466.204698825444, -27643.721120801107, -33707.61528105918, -26014.1895430314, -29997.784495089592, -27876.51453930313, -33844.72088154803, -28595.90543459719, -25328.639188842677, -3326.9006999612693, -32938.55880958543, -34659.86665008863, -18221.209135199682, -18058.533139053958, -31622.130468145668, -30684.117160334252, -0.25925, 0.8975, -0.261, 192.0, 0.0, 0.0, 0.0, 0.0, 0.0, 0.0, 0.0, 0.0, 0.0, 1.6731203591239672E9, 0.0, 2023-01-07 14:39:19.123
112.0, -31443.383567736575, -27628.00784444903, -33662.04007411481, -26032.78619441822, -29974.918660511812, -27887.265728386134, -33820.84921846977, -28618.14542033022, -25285.835598210764, -3358.0143282430568, -32903.91360567971, -34695.00359237237, -18193.6941377752, -18048.541909282438, -31596.1577410886, -30698.914015163664, -0.25925, 0.8975, -0.261, 192.0, 0.0, 0.0, 0.0, 0.0, 0.0, 0.0, 0.0, 0.0, 0.0, 1.6731203591241724E9, 0.0, 2023-01-07 14:39:19.124
114.0, -31459.94621037796, -27637.03794920897, -33695.835911731236, -26012.66962440844, -29989.69316359677, -27868.691428743772, -33834.55083782087, -28583.164940257662, -25309.304929888836, -3311.746217220571, -32910.46266680511, -34640.95707427944, -18197.851562243886, -18046.28438309245, -31592.022668364367, -30665.006418824963, -0.25925, 0.8975, -0.261, 192.0, 0.0, 0.0, 0.0, 0.0, 0.0, 0.0, 0.0, 0.0, 0.0, 1.6731203591241844E9, 0.0, 2023-01-07 14:39:19.124
116.0, -31459.007437110835, -27647.252696425046, -33680.033228401335, -26058.334238330634, -29990.07314325251, -27896.80992326855, -33837.6353785557, -28634.261028082496, -25306.95799672103, -3368.407889414774, -32922.73377451107, -34697.86461566265, -18207.865143759864, -18073.37469737228, -31608.96529066149, -30708.815837957365, -0.250625, 0.89975, -0.2615, 192.0, 124.0, 56.0, 14.0, 24.0, 123.5, 104.0, 0.0, 0.0, 0.0, 1.6731203591241937E9, 0.0, 2023-01-07 14:39:19.124
118.0, -31472.79846343976, -27652.080673227392, -33719.84168527623, -26026.751223415285, -30008.446277194773, -27874.122902646413, -33853.50511711897, -28593.402039218196, -25324.146488207163, -3349.0736304609336, -32936.30128339545, -34681.39137999909, -18216.89524851981, -18066.937394969154, -31621.571674534283, -30692.856692416277, -0.250625, 0.89975, -0.2615, 192.0, 0.0, 0.0, 0.0, 0.0, 0.0, 0.0, 0.0, 0.0, 0.0, 1.6731203591242027E9, 0.0, 2023-01-07 14:39:19.124
120.0, -31461.08614934518, -27651.365417404824, -33693.19840588551, -26071.00767743679, -29992.241262464675, -27906.421173384333, -33861.238820700506, -28649.750786990022, -25308.656729299633, -3351.509970606562, -32925.3712803568, -34686.040542845796, -18214.257742674083, -18061.550624555424, -31613.189770363544, -30703.049087887895, -0.250625, 0.89975, -0.2615, 192.0, 0.0, 0.0, 0.0, 0.0, 0.0, 0.0, 0.0, 0.0, 0.0, 1.673120359124212E9, 0.0, 2023-01-07 14:39:19.124
122.0, -31466.629381970095, -27643.00586497854, -33713.47143810647, -26031.71331068436, -30006.54637891607, -27883.823559740016, -33866.066797502855, -28603.549731200903, -25317.48566835948, -3363.4234504012406, -32940.54811484196, -34705.307746566265, -18205.451155358693, -18081.62249107629, -31636.010901452413, -30725.37848059875, -0.250625, 0.89975, -0.2615, 192.0, 0.0, 0.0, 0.0, 0.0, 0.0, 0.0, 0.0, 0.0, 0.0, 1.6731203591242216E9, 0.0, 2023-01-07 14:39:19.124
124.0, -31441.93070434698, -27626.689091526165, -33663.112957848665, -26050.15349985999, -29977.73498031318, -27897.726344791216, -33831.91333197514, -28631.444708281128, -25307.852066499243, -3326.967755194635, -32913.63661451777, -34664.51581293533, -18223.109033478384, -18051.022952916974, -31607.53477901635, -30701.08213437583, -0.250625, 0.89975, -0.2615, 192.0, 0.0, 0.0, 0.0, 0.0, 0.0, 0.0, 0.0, 0.0, 0.0, 1.6731203591242304E9, 0.0, 2023-01-07 14:39:19.124
126.0, -31467.523451748308, -27638.446109109656, -33699.613356544185, -26022.347929757587, -30007.306338227554, -27871.261879356134, -33838.52944833392, -28590.51866418346, -25307.427383354592, -3352.001708984579, -32918.06225991991, -34696.12117959514, -18221.812632299978, -18062.221176889085, -31602.460933024995, -30710.022832157953, -0.2463125, 0.895875, -0.26375000000000004, 192.0, 124.0, 56.0, 13.5, 112.0, 123.5, 88.0, 0.0, 0.0, 0.0, 1.6731203591242397E9, 0.0, 2023-01-07 14:39:19.124
