%OpenBCI Raw EEG Data
%Number of channels = 16
%Sample Rate = 125 Hz
%Board = OpenBCI_GUI$BoardCytonSerialDaisy
Sample Index, EXG Channel 0, EXG Channel 1, EXG Channel 2, EXG Channel 3, EXG Channel 4, EXG Channel 5, EXG Channel 6, EXG Channel 7, EXG Channel 8, EXG Channel 9, EXG Channel 10, EXG Channel 11, EXG Channel 12, EXG Channel 13, EXG Channel 14, EXG Channel 15, Accel Channel 0, Accel Channel 1, Accel Channel 2, Other, Other, Other, Other, Other, Other, Other, Analog Channel 0, Analog Channel 1, Analog Channel 2, Timestamp, Other, Timestamp (Formatted)
164.0, -19685.248397022297, -26121.030881527768, -32178.912422527366, -19519.82313630857, -8983.367262288006, -6910.17590882491, -19968.33324054876, -3997.3412748982046, -22581.878016218903, 8026.0643990116605, -20303.40824167827, -25749.678999147298, -6971.620854332549, -4365.474506077112, -10565.870769723746, -17566.52654010374, 0.0, 0.0, 0.0, 192.0, 0.0, 0.0, 0.0, 0.0, 0.0, 0.0, 0.0, 0.0, 0.0, 1.67304458448374E9, 0.0, 2023-01-06 17:36:24.483
166.0, -19685.404859233484, -26113.900675046527, -32165.590782832, -19523.53352588815, -8997.806489206134, -6931.812397457647, -19985.99111866845, -3974.9448269539866, -22591.89159773488, 8035.921518316451, -20298.043823008993, -25770.466121490732, -6966.815229274658, -4352.734011737587, -10553.554958528872, -17549.494510828794, 0.0, 0.0, 0.0, 192.0, 0.0, 0.0, 0.0, 0.0, 0.0, 0.0, 0.0, 0.0, 0.0, 1.6730445844837472E9, 0.0, 2023-01-06 17:36:24.483
168.0, -19679.593405675103, -26099.34968940612, -32165.188451431808, -19527.86976431248, -9004.377902075996, -6918.669571717927, -19952.195281052027, -3951.5649022537355, -22608.476592120718, 8024.879756555529, -20297.19445671969, -25817.36008135797, -6931.320659079631, -4343.592148255366, -10539.607469988761, -17546.767598005248, -0.292, 0.854, -0.188, 192.0, 123.0, 112.0, 13.0, 88.0, 125.0, 16.0, 0.0, 0.0, 0.0, 1.673044584483753E9, 0.0, 2023-01-06 17:36:24.483
170.0, -19676.151237028986, -26089.02318346777, -32164.7414165427, -19521.23129620925, -8959.607357932015, -6920.904746163457, -19955.61509795369, -3936.2092538129396, -22618.37841491442, 8030.2888787137135, -20278.843674521886, -25828.62536056344, -6933.019391658234, -4335.14318885126, -10527.716341938538, -17535.770539733236, -0.292, 0.854, -0.188, 192.0, 0.0, 0.0, 0.0, 0.0, 0.0, 0.0, 0.0, 0.0, 0.0, 1.6730445844837587E9, 0.0, 2023-01-06 17:36:24.483
172.0, -19629.97253298432, -26036.094252597602, -32118.003918886654, -19467.363592071964, -8937.993221043733, -6884.113774790022, -19880.401477861582, -3905.9673435649092, -22631.588295887508, 8028.344276946102, -20264.695020281677, -25834.436814121822, -6925.419798543429, -4314.601935696833, -10517.412187744641, -17517.307998813154, -0.292, 0.854, -0.188, 192.0, 0.0, 0.0, 0.0, 0.0, 0.0, 0.0, 0.0, 0.0, 0.0, 1.6730445844837644E9, 0.0, 2023-01-06 17:36:24.483
174.0, -19591.79575345466, -25994.207083488356, -32080.944726579753, -19412.043024545077, -8918.413092900884, -6855.749411076237, -19865.246995120884, -3869.9586832474097, -22593.32210938002, 8068.376251265557, -20204.635882930266, -25776.143464582383, -6837.465684111797, -4270.658406097699, -10454.044992213845, -17476.113733782022, -0.292, 0.854, -0.188, 192.0, 0.0, 0.0, 0.0, 0.0, 0.0, 0.0, 0.0, 0.0, 0.0, 1.67304458448377E9, 0.0, 2023-01-06 17:36:24.483
176.0, -19597.383689568484, -26002.030194047715, -32076.58613641097, -19388.193713211265, -8892.663883288371, -6829.128483429967, -19852.238279847894, -3851.943177216432, -22614.489211379198, 8044.124608531548, -20203.33948175186, -25758.37382774041, -6845.266442926699, -4283.331845203858, -10468.26070168742, -17479.734716383784, -0.292, 0.854, -0.188, 192.0, 0.0, 0.0, 0.0, 0.0, 0.0, 0.0, 0.0, 0.0, 0.0, 1.6730445844837759E9, 0.0, 2023-01-06 17:36:24.483
178.0, -19615.22038164382, -26023.331406513622, -32072.518118920103, -19379.722402062704, -8907.259572417686, -6812.7670064886825, -19810.753442138845, -3844.209473634896, -22638.919668068847, 8002.617419078043, -20200.120830550295, -25759.33495275199, -6835.811655022104, -4310.310400761414, -10454.40262012513, -17462.36741094201, -0.308, 0.794, -0.152, 192.0, 123.0, 48.0, 12.0, 104.0, 125.5, 32.0, 0.0, 0.0, 0.0, 1.6730445844837816E9, 0.0, 2023-01-06 17:36:24.483
180.0, -19530.194345735832, -25938.774757239196, -31990.800141191503, -19273.931595555736, -8812.599934649461, -6794.550334757607, -19764.842959027643, -3796.4884992228153, -22634.963409300257, 7998.4376428649, -20165.296812688925, -25749.164909024825, -6802.664017994884, -4263.1929234496265, -10414.750625461415, -17434.78535828416, -0.308, 0.794, -0.152, 192.0, 0.0, 0.0, 0.0, 0.0, 0.0, 0.0, 0.0, 0.0, 0.0, 1.6730445844837873E9, 0.0, 2023-01-06 17:36:24.483
182.0, -19497.739612786725, -25910.65626271442, -31957.451338464183, -19236.067740448445, -8828.089693556987, -6745.108276022467, -19753.801197266723, -3725.2311378992963, -22601.659310061852, 8022.711637343364, -20092.07249785334, -25705.869580014896, -6740.012078286658, -4181.854925376764, -10364.90623532608, -17365.71846791726, -0.308, 0.794, -0.152, 192.0, 0.0, 0.0, 0.0, 0.0, 0.0, 0.0, 0.0, 0.0, 0.0, 1.6730445844837928E9, 0.0, 2023-01-06 17:36:24.483
184.0, -19418.726196137213, -25837.4990031122, -31889.323221364408, -19166.598518681352, -8749.724477496682, -6669.4252692967975, -19637.281553421206, -3659.8746371119782, -22605.52616185262, 8009.322942414635, -20060.087151537795, -25699.074649700484, -6685.674987515806, -4161.447782689069, -10346.533101383819, -17349.53580493162, -0.308, 0.794, -0.152, 192.0, 0.0, 0.0, 0.0, 0.0, 0.0, 0.0, 0.0, 0.0, 0.0, 1.6730445844837985E9, 0.0, 2023-01-06 17:36:24.483
186.0, -19326.502898514616, -25753.925830593806, -31813.30493847191, -19089.35088984381, -8687.407813955286, -6574.318596639467, -19537.77158710618, -3581.9788076852333, -22541.443710499254, 8065.828152397651, -19957.42558925457, -25624.77745113104, -6594.859849793894, -4072.487839756947, -10232.136873261557, -17253.89269040736, -0.308, 0.794, -0.152, 192.0, 0.0, 0.0, 0.0, 0.0, 0.0, 0.0, 0.0, 0.0, 0.0, 1.6730445844838052E9, 0.0, 2023-01-06 17:36:24.483
188.0, -19272.970470544158, -25711.546923106544, -31759.41488259016, -19042.412226487664, -8603.65582748125, -6532.878462419327, -19486.116705669967, -3518.9468883212676, -22522.109451545413, 8075.707623446897, -19901.99326300541, -25606.292558466503, -6525.189462326702, -4006.4607866359697, -10193.043672209224, -17206.059957273003, -0.304, 0.772, -0.19, 192.0, 123.0, 64.0, 12.0, 16.0, 125.0, 8.0, 0.0, 0.0, 0.0, 1.6730445844838126E9, 0.0, 2023-01-06 17:36:24.483
190.0, -19195.0299376285, -25637.83086989294, -31683.46365493103, -18988.678632817107, -8547.843521576347, -6414.7941964619395, -19429.723254409226, -3452.2045793777206, -22491.59932036392, 8080.133268849047, -19835.228602317406, -25574.64248831779, -6452.009850980026, -3972.553190297269, -10116.354836983066, -17138.58004076243, -0.304, 0.772, -0.19, 192.0, 0.0, 0.0, 0.0, 0.0, 0.0, 0.0, 0.0, 0.0, 0.0, 1.67304458448382E9, 0.0, 2023-01-06 17:36:24.483
192.0, -19184.278748545497, -25633.40522449079, -31677.115759505723, -18971.80306575335, -8500.413119842187, -6487.012682797037, -19444.207184816263, -3454.1715328897876, -22485.02790749406, 8085.229466584858, -19801.58922691217, -25519.47838300209, -6402.880716667261, -3930.5319107212918, -10110.47632819132, -17115.937723629206, -0.304, 0.772, -0.19, 192.0, 0.0, 0.0, 0.0, 0.0, 0.0, 0.0, 0.0, 0.0, 0.0, 1.6730445844838276E9, 0.0, 2023-01-06 17:36:24.483
194.0, -19141.005771280023, -25596.882474050817, -31624.276235613375, -18926.965466376005, -8545.809512830916, -6454.267377170012, -19370.98286998068, -3438.793532704536, -22477.338907401434, 8066.521056475766, -19771.973165508887, -25462.839062552343, -6379.0984605668145, -3925.033381585286, -10073.66300507343, -17088.86976109383, -0.304, 0.772, -0.19, 192.0, 0.0, 0.0, 0.0, 0.0, 0.0, 0.0, 0.0, 0.0, 0.0, 1.6730445844838355E9, 0.0, 2023-01-06 17:36:24.483
196.0, -19164.251585513543, -25637.987332104127, -31673.11479724822, -18955.08396090078, -8578.197190546654, -6514.058293587958, -19438.194565557787, -3491.566001363516, -22494.661509354297, 8025.527957144733, -19774.1189329766, -25409.574855515344, -6374.717518653574, -3946.2228353289174, -10069.930263749393, -17101.274979266524, -0.304, 0.772, -0.19, 192.0, 0.0, 0.0, 0.0, 0.0, 0.0, 0.0, 0.0, 0.0, 0.0, 1.6730445844838486E9, 0.0, 2023-01-06 17:36:24.483
198.0, -19187.47504800261, -25672.185501120748, -31717.46065824755, -18975.51345533293, -8582.734594671083, -6547.9211864377485, -19444.967144127746, -3505.0664550145216, -22525.641027169353, 7947.855645162541, -19799.041128044264, -25382.529244724425, -6403.685379467653, -3994.4802516079253, -10129.922345867437, -17137.842433195405, -0.33599999999999997, 0.8280000000000001, -0.2, 192.0, 122.0, 64.0, 13.5, 80.0, 124.5, 56.0, 0.0, 0.0, 0.0, 1.6730445844838555E9, 0.0, 2023-01-06 17:36:24.483
200.0, -19221.315589107944, -25704.52847534758, -31748.931914440625, -19003.006101012958, -8620.665505011739, -6544.814293958461, -19424.872925862423, -3527.1499785363653, -22570.70214399125, 7887.930618277863, -19837.59788722967, -25362.166805525638, -6441.593938063853, -4025.839749078721, -10147.021430375748, -17152.3487153469, -0.33599999999999997, 0.8280000000000001, -0.2, 192.0, 0.0, 0.0, 0.0, 0.0, 0.0, 0.0, 0.0, 0.0, 0.0, 1.673044584483863E9, 0.0, 2023-01-06 17:36:24.483
202.0, -19297.82561037846, -25780.233833817703, -31829.57700843537, -19108.863962753294, -8742.124884381878, -6677.807173467538, -19547.82987211107, -3684.372149034995, -22627.408519674365, 7781.715128626243, -19896.85236178069, -25410.290111337916, -6481.558857149942, -4112.251593142938, -10186.807535506194, -17218.867506845894, -0.33599999999999997, 0.8280000000000001, -0.2, 192.0, 0.0, 0.0, 0.0, 0.0, 0.0, 0.0, 0.0, 0.0, 0.0, 1.6730445844838698E9, 0.0, 2023-01-06 17:36:24.483
204.0, -19334.527174774074, -25808.4417353203, -31869.050189143443, -19156.115550531813, -8723.550584739516, -6711.312438406043, -19565.375991508485, -3721.744265764268, -22696.743630974728, 7689.245961814638, -19969.696696960535, -25455.239469437536, -6551.430410317232, -4172.422489216625, -10267.452629500942, -17285.94509195627, -0.33599999999999997, 0.8280000000000001, -0.2, 192.0, 0.0, 0.0, 0.0, 0.0, 0.0, 0.0, 0.0, 0.0, 0.0, 1.6730445844838767E9, 0.0, 2023-01-06 17:36:24.483
206.0, -19348.429959825273, -25817.33772961351, -31877.11916889181, -19209.580923268906, -8779.675815066794, -6752.394944714898, -19540.990238307746, -3763.0055860287653, -22740.441291384854, 7619.195594691706, -20000.028014186384, -25488.72238263159, -6581.515858354075, -4183.106623066262, -10300.309693850242, -17305.346406143475, -0.33599999999999997, 0.8280000000000001, -0.2, 192.0, 0.0, 0.0, 0.0, 0.0, 0.0, 0.0, 0.0, 0.0, 0.0, 1.673044584483884E9, 0.0, 2023-01-06 17:36:24.483
208.0, -19400.084841261487, -25869.774922105662, -31942.31920746794, -19325.184145591753, -8784.079108724489, -6800.093567382523, -19617.723777022813, -3824.629345492047, -22757.98741078227, 7563.8750271648205, -20000.832676986778, -25493.684469900665, -6597.54205912853, -4210.465158279558, -10313.743092267883, -17324.23363020821, -0.395, 0.9410000000000001, -0.21100000000000002, 192.0, 120.5, 104.0, 16.0, 120.0, 124.5, 8.0, 0.0, 0.0, 0.0, 1.6730445844838915E9, 0.0, 2023-01-06 17:36:24.483
210.0, -19444.60951621646, -25905.537713234153, -31999.04793489551, -19426.906934607858, -8850.486141501206, -6835.476378855274, -19625.63629455999, -3874.6301978385686, -22844.063978679656, 7445.634298996246, -20072.15709354366, -25552.894240962774, -6654.918987145304, -4311.316229261903, -10388.48732572643, -17386.997328638714, -0.395, 0.9410000000000001, -0.21100000000000002, 192.0, 0.0, 0.0, 0.0, 0.0, 0.0, 0.0, 0.0, 0.0, 0.0, 1.6730445844838989E9, 0.0, 2023-01-06 17:36:24.483
212.0, -19473.510321797174, -25917.04886162864, -32029.446307354727, -19489.581226060538, -8847.982746122212, -6829.866090996992, -19623.669341047924, -3903.0169132968085, -22899.45160143991, 7401.355493230283, -20104.65652998168, -25551.687246762187, -6702.014112712635, -4349.560064024933, -10404.938209645536, -17416.188706897345, -0.395, 0.9410000000000001, -0.21100000000000002, 192.0, 0.0, 0.0, 0.0, 0.0, 0.0, 0.0, 0.0, 0.0, 0.0, 1.673044584483907E9, 0.0, 2023-01-06 17:36:24.483
214.0, -19543.67244764238, -25968.79315004267, -32109.26438680463, -19608.60426528505, -8976.661738951414, -6926.2915165771865, -19719.983007905845, -4004.1138534681627, -22959.488387046862, 7338.435332588593, -20160.46883588658, -25589.193473958192, -6749.153941768878, -4386.038110975995, -10459.78939053886, -17470.570501157108, -0.395, 0.9410000000000001, -0.21100000000000002, 192.0, 0.0, 0.0, 0.0, 0.0, 0.0, 0.0, 0.0, 0.0, 0.0, 1.6730445844839144E9, 0.0, 2023-01-06 17:36:24.483
216.0, -19600.088250647575, -25992.150722998467, -32166.328390399027, -19706.728423443845, -9018.794777249668, -6952.6442232899935, -19754.71761878939, -4055.2099412929942, -23034.254972249862, 7240.601747107715, -20236.91180192373, -25651.353675288403, -6823.115864171489, -4481.547115033522, -10535.338286797796, -17545.650010782483, -0.395, 0.9410000000000001, -0.21100000000000002, 192.0, 0.0, 0.0, 0.0, 0.0, 0.0, 0.0, 0.0, 0.0, 0.0, 1.67304458448392E9, 0.0, 2023-01-06 17:36:24.483
218.0, -19634.30877140865, -25993.782400343705, -32192.032896522633, -19760.35025839213, -9062.648899870981, -6940.842502217592, -19784.95952903742, -4115.9172792336085, -23082.735905973426, 7179.6932434670025, -20287.314985670448, -25695.52072233209, -6860.823257067592, -4530.475083646189, -10581.584046075826, -17597.19313349642, -0.4645, 1.0145, -0.20950000000000002, 192.0, 119.5, 40.0, 17.0, 0.0, 124.5, 64.0, 0.0, 0.0, 0.0, 1.673044584483926E9, 0.0, 2023-01-06 17:36:24.483
220.0, -19632.65474231896, -25972.10120822206, -32198.55960590358, -19774.275395187786, -9025.612059308536, -7000.588715146628, -19792.91675006351, -4106.797767495843, -23096.728098002448, 7157.319147267241, -20304.279959712025, -25709.445859127743, -6870.546265905651, -4515.164138694303, -10601.655912596692, -17607.72080513487, -0.4645, 1.0145, -0.20950000000000002, 192.0, 0.0, 0.0, 0.0, 0.0, 0.0, 0.0, 0.0, 0.0, 0.0, 1.6730445844839318E9, 0.0, 2023-01-06 17:36:24.483
222.0, -19611.30882636414, -25935.980789182282, -32186.22144296425, -19790.48040991788, -9041.347687405072, -6966.368194385553, -19747.922688474977, -4102.148604649139, -23091.94482468901, 7126.563146896738, -20316.327549973437, -25738.100795519447, -6879.866943343514, -4527.547005122543, -10613.390578435728, -17622.07062507518, -0.4645, 1.0145, -0.20950000000000002, 192.0, 0.0, 0.0, 0.0, 0.0, 0.0, 0.0, 0.0, 0.0, 0.0, 1.6730445844839375E9, 0.0, 2023-01-06 17:36:24.483
224.0, -19567.387648509462, -25867.606802893497, -32177.526614371138, -19763.457150871414, -8996.934771172379, -6885.588989924073, -19723.827507952155, -4058.7191651724775, -23057.85841439467, 7148.646670418581, -20297.663843353253, -25730.255333215635, -6851.524931374184, -4507.877470001873, -10572.062202937866, -17587.33601419163, -0.4645, 1.0145, -0.20950000000000002, 192.0, 0.0, 0.0, 0.0, 0.0, 0.0, 0.0, 0.0, 0.0, 0.0, 1.673044584483944E9, 0.0, 2023-01-06 17:36:24.483
226.0, -19594.16503836692, -25861.393017934923, -32198.33608845903, -19765.826435783678, -9012.580992291092, -6891.668664415916, -19732.835260967644, -4059.166200061584, -23044.581478188215, 7143.438713960495, -20300.97190153264, -25747.06384504603, -6835.454027110819, -4494.4664233286885, -10573.693880283105, -17587.783049080736, -0.4645, 1.0145, -0.20950000000000002, 192.0, 0.0, 0.0, 0.0, 0.0, 0.0, 0.0, 0.0, 0.0, 0.0, 1.6730445844839516E9, 0.0, 2023-01-06 17:36:24.483
228.0, -19626.30684689365, -25859.157843489393, -32219.972577091765, -19773.783656809766, -9020.158233661441, -6897.74833890776, -19711.958731646388, -4064.8882466421423, -23058.90894638407, 7103.8537745301455, -20314.293541228002, -25764.609964443443, -6838.158588189911, -4532.576147624987, -10562.920339455646, -17593.795668339215, -0.49625, 0.98325, -0.18775000000000003, 192.0, 119.5, 64.0, 14.5, 96.0, 125.0, 104.0, 0.0, 0.0, 0.0, 1.673044584483961E9, 0.0, 2023-01-06 17:36:24.483
230.0, -19591.706346476836, -25795.030688647115, -32163.020332219643, -19676.352402729084, -9016.40314059295, -6829.0837799410565, -19678.52052194125, -3986.2771613928276, -23078.37731580464, 7073.947140448945, -20329.224506524148, -25780.09972335097, -6843.835931281559, -4540.108685506426, -10559.522874298438, -17599.405956197497, -0.49625, 0.98325, -0.18775000000000003, 192.0, 0.0, 0.0, 0.0, 0.0, 0.0, 0.0, 0.0, 0.0, 0.0, 1.6730445844839692E9, 0.0, 2023-01-06 17:36:24.483
232.0, -19582.0727446166, -25777.395162271878, -32153.49848908168, -19614.616884543524, -8982.383785531973, -6859.616262867005, -19695.239626793817, -3994.4802516079253, -23023.392024444584, 7122.808053828247, -20283.135209457305, -25690.33511761846, -6784.559104986085, -4476.607379508899, -10515.020551087922, -17546.38761834951, -0.49625, 0.98325, -0.18775000000000003, 192.0, 0.0, 0.0, 0.0, 0.0, 0.0, 0.0, 0.0, 0.0, 0.0, 1.6730445844839764E9, 0.0, 2023-01-06 17:36:24.483
234.0, -19573.40026776794, -25759.580821941, -32144.177811643818, -19519.711377586293, -8979.053375608131, -6779.0158723611685, -19664.88595782351, -3921.747675150356, -23030.432823948006, 7089.727472034392, -20305.576360890434, -25679.494521557634, -6778.211209560777, -4491.158365149304, -10518.395664500675, -17539.81620547965, -0.49625, 0.98325, -0.18775000000000003, 192.0, 0.0, 0.0, 0.0, 0.0, 0.0, 0.0, 0.0, 0.0, 0.0, 1.673044584483982E9, 0.0, 2023-01-06 17:36:24.483
236.0, -19582.29626206115, -25766.37575225541, -32162.863870008456, -19460.27808907963, -8967.25165453573, -6806.687331996838, -19711.869324668565, -3953.9565389104537, -23014.69719585147, 7074.081250915677, -20313.466526683158, -25679.04748666853, -6769.806953645582, -4509.129167691371, -10530.219737317531, -17546.588784049607, -0.49625, 0.98325, -0.18775000000000003, 192.0, 0.0, 0.0, 0.0, 0.0, 0.0, 0.0, 0.0, 0.0, 0.0, 1.673044584483988E9, 0.0, 2023-01-06 17:36:24.483
238.0, -19593.561541266627, -25779.272708806126, -32166.998942732687, -19387.992547511167, -8995.616018249515, -6792.002235889702, -19694.27850178224, -3937.5727102247133, -23017.84879181967, 7045.158093590509, -20319.948532575196, -25662.820120193974, -6767.974110600247, -4521.512034119611, -10540.166263600144, -17544.37596134853, -0.49612500000000004, 0.901625, -0.172875, 192.0, 120.0, 64.0, 12.5, 80.0, 125.5, 8.0, 0.0, 0.0, 0.0, 1.6730445844839935E9, 0.0, 2023-01-06 17:36:24.483
240.0, -19595.461439545328, -25791.409706045357, -32169.70350381178, -19336.963514919702, -9035.111550702042, -6835.3646201329975, -19708.874190911556, -3914.3045442467387, -23006.51645738083, 7029.467168982884, -20314.91939007275, -25639.663712938276, -6759.189875029311, -4520.9979439971385, -10544.793074702391, -17557.384676621517, -0.49612500000000004, 0.901625, -0.172875, 192.0, 0.0, 0.0, 0.0, 0.0, 0.0, 0.0, 0.0, 0.0, 0.0, 1.6730445844839995E9, 0.0, 2023-01-06 17:36:24.483
242.0, -19618.50608807875, -25816.935398213318, -32211.501265943203, -19318.858601910903, -9001.561582274626, -6837.197463178332, -19759.29972640273, -3884.4649653989036, -23019.435765675997, 7015.698494398415, -20330.409148980278, -25624.151602286292, -6783.441517763319, -4530.296269690546, -10562.763877244459, -17560.80449352318, -0.49612500000000004, 0.901625, -0.172875, 192.0, 0.0, 0.0, 0.0, 0.0, 0.0, 0.0, 0.0, 0.0, 0.0, 1.6730445844840052E9, 0.0, 2023-01-06 17:36:24.484
244.0, -19640.94723951188, -25849.25602069569, -32248.09107161654, -19307.97330236117, -9086.7440803938, -6901.548135465162, -19770.63206084157, -3883.257971198317, -23048.537736956805, 6974.437174133918, -20372.721001234175, -25649.051445609504, -6806.240297107733, -4594.579886744009, -10630.489662944039, -17612.0570435592, -0.49612500000000004, 0.901625, -0.172875, 192.0, 0.0, 0.0, 0.0, 0.0, 0.0, 0.0, 0.0, 0.0, 0.0, 1.6730445844840107E9, 0.0, 2023-01-06 17:36:24.484
246.0, -19671.345611971094, -25888.148056047925, -32284.166787167407, -19308.53209597255, -9090.186249039918, -6917.0155426282345, -19766.742857306344, -3892.9362765474652, -23070.151873845087, 6948.576205799128, -20394.17867591127, -25652.69477995572, -6814.39868383392, -4624.464169080755, -10609.479023156051, -17622.718825664382, -0.49612500000000004, 0.901625, -0.172875, 192.0, 0.0, 0.0, 0.0, 0.0, 0.0, 0.0, 0.0, 0.0, 0.0, 1.673044584484017E9, 0.0, 2023-01-06 17:36:24.484
248.0, -19675.078353295132, -25904.4648295003, -32318.29790095066, -19298.451459223208, -9083.078394303131, -6963.6189298175495, -19875.573501059236, -3921.1218263056076, -23114.520086588873, 6904.118586077522, -20441.027932289595, -25707.009518982115, -6872.535571162173, -4673.392137693422, -10671.21454134161, -17689.21526541892, -0.47406250000000005, 0.8218125000000001, -0.17343750000000002, 192.0, 120.5, 112.0, 11.5, 24.0, 125.0, 72.0, 0.0, 0.0, 0.0, 1.6730445844840226E9, 0.0, 2023-01-06 17:36:24.484
250.0, -19619.243695645775, -25862.957640046792, -32261.52447003418, -19196.840428929383, -9089.895676361999, -6899.447071486363, -19767.592223595646, -3846.9363864584434, -23088.815580465267, 6928.034952644701, -20415.032853488072, -25689.642213540345, -6860.4879809007625, -4645.58656759102, -10658.384640024262, -17657.945174925946, -0.47406250000000005, 0.8218125000000001, -0.17343750000000002, 192.0, 0.0, 0.0, 0.0, 0.0, 0.0, 0.0, 0.0, 0.0, 0.0, 1.673044584484028E9, 0.0, 2023-01-06 17:36:24.484
252.0, -19656.88403330851, -25908.13051559097, -32277.19304289735, -19208.41863255723, -9143.562214799193, -6956.175798913932, -19826.176145813006, -3885.9625322774095, -23058.32780102823, 6944.0164499302455, -20382.421658327778, -25679.22630062417, -6829.575518319073, -4616.641058521397, -10607.176793477154, -17632.0618548467, -0.47406250000000005, 0.8218125000000001, -0.17343750000000002, 192.0, 0.0, 0.0, 0.0, 0.0, 0.0, 0.0, 0.0, 0.0, 0.0, 1.673044584484034E9, 0.0, 2023-01-06 17:36:24.484
254.0, -19621.61298055804, -25872.926518073862, -32250.415653039894, -19137.98828577856, -9120.070531376665, -6920.591821741084, -19804.58436066918, -3829.5690810166698, -23077.103266370686, 6908.231307057298, -20403.09702194894, -25709.17763819428, -6818.086721669045, -4665.814896323072, -10629.372075721274, -17671.624442532593, -0.47406250000000005, 0.8218125000000001, -0.17343750000000002, 192.0, 0.0, 0.0, 0.0, 0.0, 0.0, 0.0, 0.0, 0.0, 0.0, 1.6730445844840395E9, 0.0, 2023-01-06 17:36:24.484
0.0, -19651.9890012728, -25905.3141957896, -32292.526339593693, -19146.75016960504, -9116.918935408466, -6946.855121476069, -19815.11203230763, -3857.844037752633, -23073.772856446845, 6929.152539867466, -20397.486734090657, -25696.83947525495, -6816.566803046085, -4619.591488789498, -10627.33806697584, -17663.53311103977, -0.47406250000000005, 0.8218125000000001, -0.17343750000000002, 192.0, 0.0, 0.0, 0.0, 0.0, 0.0, 0.0, 0.0, 0.0, 0.0, 1.6730445844840467E9, 0.0, 2023-01-06 17:36:24.484
2.0, -19624.250486403762, -25865.863366825983, -32284.01032495622, -19094.44708757962, -9104.312551535673, -6908.298362290664, -19734.019903423778, -3809.586621473625, -23083.741734473915, 6935.411028314952, -20403.499353349132, -25680.6121087804, -6831.54247183114, -4651.465076382766, -10626.421645453172, -17662.907262195025, -0.45003125, 0.76590625, -0.18671875000000002, 192.0, 121.0, 88.0, 11.0, 24.0, 124.5, 96.0, 0.0, 0.0, 0.0, 1.6730445844840543E9, 0.0, 2023-01-06 17:36:24.484
4.0, -19636.476890620816, -25879.855558855004, -32308.083153734584, -19091.67547126716, -9136.588470529136, -6952.934795967913, -19781.405601669027, -3810.748912185301, -23088.502656042892, 6950.677269777927, -20407.120335950895, -25673.571309276977, -6840.058486468612, -4633.5166255851545, -10639.787988637447, -17666.46118956342, -0.45003125, 0.76590625, -0.18671875000000002, 192.0, 0.0, 0.0, 0.0, 0.0, 0.0, 0.0, 0.0, 0.0, 0.0, 1.673044584484064E9, 0.0, 2023-01-06 17:36:24.484
6.0, -19690.99279534731, -25932.583324025076, -32352.965456600843, -19126.25361993952, -9181.224904206385, -6989.770470830259, -19807.937122337476, -3811.0841883521307, -23129.741624562936, 6925.911536921446, -20437.317542710014, -25692.771457764087, -6868.065222271111, -4675.582608650042, -10668.644090729249, -17692.0762887092, -0.45003125, 0.76590625, -0.18671875000000002, 192.0, 0.0, 0.0, 0.0, 0.0, 0.0, 0.0, 0.0, 0.0, 0.0, 1.6730445844840717E9, 0.0, 2023-01-06 17:36:24.484
8.0, -19701.967501874864, -25936.047844415647, -32351.60200018907, -19118.96695124709, -9185.851715308632, -7000.43225293544, -19805.478430447394, -3879.368767663094, -23172.701677406036, 6887.064205058123, -20469.66051693684, -25733.4739844172, -6909.505356491251, -4719.548489993631, -10715.046312218466, -17721.31237045674, -0.45003125, 0.76590625, -0.18671875000000002, 192.0, 0.0, 0.0, 0.0, 0.0, 0.0, 0.0, 0.0, 0.0, 0.0, 1.6730445844840777E9, 0.0, 2023-01-06 17:36:24.484
10.0, -19740.81483373819, -25972.972926255814, -32367.82936666362, -19141.005771280023, -9219.513442458325, -7036.910299886501, -19835.899154651066, -3895.8196515821996, -23178.15550305313, 6895.289647017676, -20460.04926682106, -25724.4215279128, -6918.110778106544, -4719.906117904916, -10710.59831507186, -17741.585402677705, -0.45003125, 0.76590625, -0.18671875000000002, 192.0, 0.0, 0.0, 0.0, 0.0, 0.0, 0.0, 0.0, 0.0, 0.0, 1.6730445844840837E9, 0.0, 2023-01-06 17:36:24.484
12.0, -19793.20732274143, -26020.76095590126, -32402.22870138034, -19155.80262610944, -9246.469646271426, -7058.457381541417, -19885.9447104865, -3842.868368967577, -23233.096090924275, 6856.710536087816, -20491.47581952522, -25758.418531229323, -6968.938644997913, -4762.575598070097, -10752.373725458829, -17763.735981432914, -0.45003125, 0.76590625, -0.18671875000000002, 192.0, 0.0, 0.0, 0.0, 0.0, 0.0, 0.0, 0.0, 0.0, 0.0, 1.6730445844840891E9, 0.0, 2023-01-06 17:36:24.484
14.0, -19830.512384237336, -26055.517918529265, -32406.56493980467, -19168.453713471143, -9308.428681901536, -7060.44668679794, -19896.472382124946, -3886.2754566997837, -23281.867597325756, 6816.29858211262, -20530.68077929983, -25779.183301828303, -6997.884154067535, -4812.799967861172, -10800.787603949024, -17816.48609834744, -0.434, 0.742, -0.224, 192.0, 121.0, 56.0, 11.5, 24.0, 124.5, 0.0, 0.0, 0.0, 0.0, 1.6730445844840949E9, 0.0, 2023-01-06 17:36:24.484
16.0, -19865.805788732265, -26095.236968426343, -32408.42013459446, -19172.499379217552, -9285.629902557124, -7105.776024553303, -19876.959309215465, -3898.0548260277305, -23284.303937471384, 6795.53381151364, -20524.98108446373, -25797.44467704829, -6977.2981974241975, -4815.996267318281, -10773.116144313353, -17826.611438585693, -0.434, 0.742, -0.224, 192.0, 0.0, 0.0, 0.0, 0.0, 0.0, 0.0, 0.0, 0.0, 0.0, 1.6730445844841015E9, 0.0, 2023-01-06 17:36:24.484
18.0, -19906.351853174194, -26135.55951542372, -32414.4998090863, -19156.69669588765, -9253.35398356366, -7080.630312041082, -19881.60847206217, -3848.9480434594207, -23323.37478677926, 6754.205436015777, -20554.10540748899, -25812.10742141097, -7005.4166919489735, -4850.8202851796495, -10781.028661850532, -17829.38305489815, -0.434, 0.742, -0.224, 192.0, 0.0, 0.0, 0.0, 0.0, 0.0, 0.0, 0.0, 0.0, 0.0, 1.6730445844841092E9, 0.0, 2023-01-06 17:36:24.484
20.0, -20029.644075589666, -26268.373580977153, -32526.414993574024, -19258.37478141484, -9296.425795129036, -7214.986647961932, -19990.081487903775, -4095.3760260791814, -23378.38242988377, 6700.8294702565045, -20611.817611672595, -25845.67974158284, -7065.2299601113755, -4918.255498201311, -10858.477456388171, -17873.415991475107, -0.434, 0.742, -0.224, 192.0, 0.0, 0.0, 0.0, 0.0, 0.0, 0.0, 0.0, 0.0, 0.0, 1.6730445844841173E9, 0.0, 2023-01-06 17:36:24.484
22.0, -20043.993895529973, -26282.209310794988, -32526.370290085113, -19249.925822010737, -9400.406110335125, -7231.325773158762, -20026.313665665828, -4023.0904845107184, -23435.379378244805, 6635.562376447007, -20671.56382460163, -25892.439590983344, -7095.315408148219, -4966.4011557580425, -10897.72711965169, -17956.095094215285, -0.434, 0.742, -0.224, 192.0, 0.0, 0.0, 0.0, 0.0, 0.0, 0.0, 0.0, 0.0, 0.0, 1.673044584484125E9, 0.0, 2023-01-06 17:36:24.484
24.0, -20097.526323500435, -26332.523087563884, -32565.82111904873, -19280.927691570247, -9405.122328415195, -7251.7105641020025, -20048.888927565687, -4007.578373858735, -23470.672782739734, 6599.35255042941, -20706.968987818836, -25916.668881972895, -7120.751693338358, -4991.189240358977, -10939.994268416676, -17959.246690183485, -0.47800000000000004, 0.772, -0.242, 192.0, 120.5, 8.0, 12.0, 16.0, 124.0, 56.0, 0.0, 0.0, 0.0, 1.6730445844841309E9, 0.0, 2023-01-06 17:36:24.484
26.0, -20072.872349366233, -26300.895369159625, -32536.652092534554, -19261.52637738304, -9397.746252744944, -7201.5308977998375, -19991.087316404264, -3952.011937142842, -23480.55225378898, 6572.06107044948, -20708.46655469734, -25927.84475420055, -7127.501920163861, -5010.210574890444, -10942.475312051214, -17954.619879081238, -0.47800000000000004, 0.772, -0.242, 192.0, 0.0, 0.0, 0.0, 0.0, 0.0, 0.0, 0.0, 0.0, 0.0, 1.6730445844841363E9, 0.0, 2023-01-06 17:36:24.484
28.0, -20065.630384162712, -26283.215139295477, -32509.561778254723, -19253.412694145765, -9373.762830944399, -7263.109953774208, -19965.360458536205, -3944.9487858949647, -23464.526053014524, 6581.2029339317005, -20683.387897418488, -25929.14115537896, -7099.517536105816, -4979.7227954534055, -10904.186773799274, -17922.29925659886, -0.47800000000000004, 0.772, -0.242, 192.0, 0.0, 0.0, 0.0, 0.0, 0.0, 0.0, 0.0, 0.0, 0.0, 1.6730445844841423E9, 0.0, 2023-01-06 17:36:24.484
0.0, -9269.35783259366, -12848.587375710891, -15985.565303035415, -8341.179292342578, -4318.7817119099755, -3269.9931585780573, -9644.040124897972, -1622.3790195440079, -11691.079937348359, 3311.0533131424563, -10301.427281073009, -12964.19059803374, -3504.0606265140327, -2453.5286371146008, -5413.257230908541, -8934.640459375436, -0.32, 0.838, -0.252, 192.0, 123.0, 0.0, 13.0, 24.0, 124.0, 16.0, 0.0, 0.0, 0.0, 1.6730445845946229E9, 0.0, 2023-01-06 17:36:24.594
2.0, -18566.96827017883, -25759.737284152186, -31933.780841086013, -16739.623753979653, -8630.276755127521, -6579.481849608642, -19299.747860401614, -3282.2866180284764, -22861.52069109925, 6756.082982550023, -20077.29799476838, -25672.543129032034, -6293.29011360289, -4428.171149274248, -10275.812181927227, -17235.36309425391, -0.32, 0.838, -0.252, 192.0, 0.0, 0.0, 0.0, 0.0, 0.0, 0.0, 0.0, 0.0, 0.0, 1.6730445850744736E9, 0.0, 2023-01-06 17:36:25.074
4.0, -18484.870312794486, -25644.31287578498, -31779.598507833307, -16702.20693376147, -8605.399263548763, -6586.2544281786, -19295.18810453273, -3342.5022175910735, -22888.09691525661, 6675.817868211016, -20043.52450889641, -25701.153361934827, -6519.735636679607, -4442.677431425743, -10241.524605932786, -17251.299888050544, -0.32, 0.838, -0.252, 192.0, 0.0, 0.0, 0.0, 0.0, 0.0, 0.0, 0.0, 0.0, 0.0, 1.6730445850745504E9, 0.0, 2023-01-06 17:36:25.074
6.0, -18488.37953667397, -25645.855146152397, -31816.478886184563, -16796.106612218216, -8593.441080265175, -6587.550829357008, -19289.734278885637, -3420.3309917844526, -22649.804967618584, 7076.629349783582, -19884.961233730464, -25545.160537381238, -6515.332343021911, -4416.369428201846, -10184.371195360565, -17204.40592818331, -0.32, 0.838, -0.252, 192.0, 0.0, 0.0, 0.0, 0.0, 0.0, 0.0, 0.0, 0.0, 0.0, 1.6730445850745888E9, 0.0, 2023-01-06 17:36:25.074
8.0, -18519.493164955755, -25716.643120842353, -31876.850947958344, -17017.45593755912, -8603.298199569965, -6593.362282915388, -19272.76930484406, -3467.8731522408907, -22789.36925999752, 6698.996627211169, -19979.643223243147, -25628.778413388543, -6373.957559342094, -4433.088533054416, -10217.384721921055, -17200.472021159178, -0.28200000000000003, 1.11, -0.268, 192.0, 123.5, 24.0, 17.0, 88.0, 123.5, 80.0, 0.0, 0.0, 0.0, 1.6730445850745945E9, 0.0, 2023-01-06 17:36:25.074
10.0, -18696.78720197525, -25895.390021251445, -32017.510475815594, -17370.322927275054, -8704.998636841612, -6749.220997002244, -19356.364829106908, -3619.6638488368812, -22877.39042966252, 6174.0659086782825, -20073.49819821098, -25794.24837759118, -6541.349773567888, -4633.337811629512, -10287.971530910914, -17302.261865408644, -0.28200000000000003, 1.11, -0.268, 192.0, 0.0, 0.0, 0.0, 0.0, 0.0, 0.0, 0.0, 0.0, 0.0, 1.6730445850746E9, 0.0, 2023-01-06 17:36:25.074
12.0, -18639.477329191843, -25720.398213910845, -31972.60582120488, -17301.01016771915, -8748.91981469629, -6762.609691930973, -19389.400707411853, -3680.9299803888775, -23072.454103523985, 6669.17940010779, -20156.445521884623, -25781.19495882928, -6650.2698242986, -4536.688868604764, -10368.214293505465, -17392.540561263628, -0.28200000000000003, 1.11, -0.268, 192.0, 0.0, 0.0, 0.0, 0.0, 0.0, 0.0, 0.0, 0.0, 0.0, 1.6730445850746055E9, 0.0, 2023-01-06 17:36:25.074
14.0, -18673.072001108172, -25783.072505363525, -31996.589243005426, -17387.66788097237, -8765.035422448567, -6797.120785369967, -19409.003187299157, -3726.236966399785, -22812.0339288752, 7043.995802878833, -20037.601296615758, -25568.048723703472, -6666.072507628502, -4581.928799382305, -10360.033555034823, -17348.217052008757, -0.28200000000000003, 1.11, -0.268, 192.0, 0.0, 0.0, 0.0, 0.0, 0.0, 0.0, 0.0, 0.0, 0.0, 1.6730445850746107E9, 0.0, 2023-01-06 17:36:25.074
16.0, -18827.5449070388, -25974.55990011214, -32140.69093950879, -17612.34761623712, -8881.733880249725, -6923.385789797997, -19527.91446780139, -3844.298880612717, -22980.54373032376, 6250.28535727088, -20174.729248849064, -25813.20265688928, -6714.508737863152, -4711.144234078435, -10454.670841058594, -17447.391742156953, -0.28200000000000003, 1.11, -0.268, 192.0, 0.0, 0.0, 0.0, 0.0, 0.0, 0.0, 0.0, 0.0, 0.0, 1.6730445850746164E9, 0.0, 2023-01-06 17:36:25.074
18.0, -18850.075465449747, -25947.46958583231, -32179.471216138747, -17683.11323918262, -8923.442235403329, -6957.449848347885, -19558.87163387199, -3897.965419049909, -23088.860283954178, 6298.140442149693, -20274.95447098666, -25910.27628305868, -6804.63097150695, -4844.4276862654315, -10549.889272438202, -17562.95026099089, -0.278, 1.23, -0.324, 192.0, 123.5, 40.0, 19.0, 56.0, 122.5, 112.0, 0.0, 0.0, 0.0, 1.673044585074622E9, 0.0, 2023-01-06 17:36:25.074
20.0, -18808.143592851593, -25818.678834280832, -32153.31967512604, -17532.551888531674, -8923.442235403329, -6937.825016716125, -19584.754953951237, -3924.1169600626185, -23089.039097909823, 6674.230894354689, -20250.658124763744, -25759.983153341193, -6822.82529149357, -4588.656674463353, -10549.33047882682, -17529.288533841198, -0.278, 1.23, -0.324, 192.0, 0.0, 0.0, 0.0, 0.0, 0.0, 0.0, 0.0, 0.0, 0.0, 1.6730445850746274E9, 0.0, 2023-01-06 17:36:25.074
22.0, -18864.31352666778, -25881.5095879447, -32211.43421070984, -17614.42632847146, -8980.908570397922, -6988.786994074225, -19641.573088356625, -3994.703769052478, -23106.026423695854, 6881.431565455386, -20264.180930159204, -25723.974493023696, -6855.369431420498, -4752.0926299205585, -10573.984452961024, -17533.825937965627, -0.278, 1.23, -0.324, 192.0, 0.0, 0.0, 0.0, 0.0, 0.0, 0.0, 0.0, 0.0, 0.0, 1.673044585074633E9, 0.0, 2023-01-06 17:36:25.074
24.0, -18956.46976905701, -26036.228363064332, -32314.699270093355, -17845.29749695033, -9031.222347166819, -7063.955910677423, -19698.748850673303, -4069.135078088651, -23182.26822403291, 6536.745314210095, -20356.940669648728, -25876.97218382027, -6915.450920516363, -4956.387574242065, -10642.894881116734, -17625.602200699115, -0.278, 1.23, -0.324, 192.0, 0.0, 0.0, 0.0, 0.0, 0.0, 0.0, 0.0, 0.0, 0.0, 1.6730445850746384E9, 0.0, 2023-01-06 17:36:25.074
26.0, -19013.556124395862, -26093.091200958635, -32370.35511378707, -17908.508230269937, -9060.301966703173, -7072.784849737269, -19734.86926971308, -4119.650020557645, -23282.13581825922, 6255.962700362528, -20457.56822318652, -26067.945488446414, -6981.679139337438, -4826.009848834258, -10708.988989471078, -17702.626312092103, -0.278, 1.23, -0.324, 192.0, 0.0, 0.0, 0.0, 0.0, 0.0, 0.0, 0.0, 0.0, 0.0, 1.673044585074644E9, 0.0, 2023-01-06 17:36:25.074
28.0, -19033.940915339103, -26076.394447850522, -32402.40751533598, -17849.410217930104, -9088.50986820577, -7100.5680680952155, -19748.05679894171, -4145.578044125801, -23362.937374465153, 6376.259789020991, -20518.856706482973, -26099.30498591721, -7026.919070114979, -4891.187535665934, -10749.333888212906, -17730.230716494407, -0.232, 1.168, -0.302, 192.0, 124.0, 96.0, 18.0, 64.0, 123.0, 72.0, 0.0, 0.0, 0.0, 1.673044585074649E9, 0.0, 2023-01-06 17:36:25.074
30.0, -18968.405600596143, -25962.646420317462, -32338.660340149447, -17787.920568933558, -9052.590614866092, -7045.806294179713, -19722.262885840286, -4115.29143038886, -23251.9386115001, 6740.235595731211, -20459.535176698588, -25984.014688016738, -7013.172747274965, -4823.215880777345, -10733.151225227264, -17693.104468954145, -0.232, 1.168, -0.302, 192.0, 0.0, 0.0, 0.0, 0.0, 0.0, 0.0, 0.0, 0.0, 0.0, 1.6730445850746548E9, 0.0, 2023-01-06 17:36:25.074
32.0, -19047.48607247902, -26057.976610419348, -32402.78749499172, -17921.204021120553, -9096.377682254039, -7076.428184083484, -19759.590299080646, -4150.942462795075, -23325.587609480335, 6673.873266443404, -20482.490418254187, -26043.716197456863, -7016.190232776432, -4828.557947702164, -10728.926745525212, -17694.40087013255, -0.232, 1.168, -0.302, 192.0, 0.0, 0.0, 0.0, 0.0, 0.0, 0.0, 0.0, 0.0, 0.0, 1.6730445850746603E9, 0.0, 2023-01-06 17:36:25.074
34.0, -19015.23250523001, -26017.452897721876, -32386.98481166182, -17956.40801863766, -9086.297045504696, -7065.565236278205, -19755.58933682315, -4148.617881371722, -23262.667448838645, 6652.147370832846, -20493.10749687046, -26135.917143335002, -7051.975375649378, -4825.562813945153, -10758.36399297285, -17731.705931628458, -0.232, 1.168, -0.302, 192.0, 0.0, 0.0, 0.0, 0.0, 0.0, 0.0, 0.0, 0.0, 0.0, 1.6730445850746655E9, 0.0, 2023-01-06 17:36:25.074
36.0, -19049.363619013264, -26047.873621925548, -32406.14025666002, -18012.55560070939, -9087.906371105477, -7087.916980733512, -19771.347316664138, -4151.121276750717, -23268.277736696928, 6669.402917552343, -20510.96654069025, -26183.347545069166, -7045.225148823875, -4828.245023279789, -10763.661356408758, -17742.45712071146, -0.232, 1.168, -0.302, 192.0, 0.0, 0.0, 0.0, 0.0, 0.0, 0.0, 0.0, 0.0, 0.0, 1.673044585074671E9, 0.0, 2023-01-06 17:36:25.074
38.0, -19067.110904110777, -26055.450863295897, -32406.631995038035, -18041.99284815703, -9097.092938076608, -7073.969492193401, -19781.450305157938, -4130.021229984907, -23276.100847256286, 6610.461367423698, -20535.598163079998, -26269.91585134457, -7055.462247784406, -4813.403464961465, -10773.451420480184, -17759.578556964225, -0.23600000000000002, 1.0, -0.258, 192.0, 124.0, 80.0, 15.5, 32.0, 123.5, 120.0, 0.0, 0.0, 0.0, 1.673044585074678E9, 0.0, 2023-01-06 17:36:25.074
40.0, -19033.180956027623, -26005.964101071848, -32369.21517481985, -17970.333155433316, -9079.27859774573, -7032.641116695538, -19769.313307918706, -4087.9105434311086, -23252.810329533855, 6791.465794022774, -20525.562229819567, -26247.921734800548, -7034.205738807409, -4751.84676073155, -10752.46313243665, -17730.141309516588, -0.23600000000000002, 1.0, -0.258, 192.0, 0.0, 0.0, 0.0, 0.0, 0.0, 0.0, 0.0, 0.0, 0.0, 1.6730445850746837E9, 0.0, 2023-01-06 17:36:25.074
42.0, -19053.43163650413, -26064.123340144557, -32381.21806159235, -17965.8404547978, -9086.364100738061, -7042.788808678247, -19769.33565966316, -4073.6277787241675, -23239.80161426087, 6812.811709977593, -20530.792538022106, -26214.975263473425, -7026.025000336766, -4754.551321810642, -10753.245443492586, -17722.98875129089, -0.23600000000000002, 1.0, -0.258, 192.0, 0.0, 0.0, 0.0, 0.0, 0.0, 0.0, 0.0, 0.0, 0.0, 1.6730445850746891E9, 0.0, 2023-01-06 17:36:25.074
44.0, -19181.395373510764, -26220.00440597587, -32478.29168776175, -17999.23396101403, -9117.589487742125, -7038.050238853722, -19777.426991155982, -4043.6317376651455, -23370.984002469064, 6554.693765007707, -20595.03145158666, -26281.382296250144, -7038.63138420956, -4760.116906180013, -10770.031603578522, -17740.691332899492, -0.23600000000000002, 1.0, -0.258, 192.0, 0.0, 0.0, 0.0, 0.0, 0.0, 0.0, 0.0, 0.0, 0.0, 1.6730445850746944E9, 0.0, 2023-01-06 17:36:25.074
46.0, -19055.06331384937, -26087.2573956558, -32406.162608404473, -17799.319958605764, -9077.423402955937, -6999.471127923862, -19765.759380550313, -3994.5696585857463, -23520.405414152792, 6677.60600776744, -20675.52008337022, -26301.700031960016, -6991.5586103866835, -4764.676662048896, -10799.8488306819, -17758.70683893047, -0.23600000000000002, 1.0, -0.258, 192.0, 0.0, 0.0, 0.0, 0.0, 0.0, 0.0, 0.0, 0.0, 0.0, 1.6730445850747E9, 0.0, 2023-01-06 17:36:25.074
48.0, -18931.3687600337, -25997.358679456556, -32274.33201960707, -17637.135700838055, -9015.039684181176, -6922.871699675525, -19706.348443788105, -3926.7544659083446, -23146.30426720432, 6972.917255510957, -20476.880130395908, -26113.677157601975, -6886.527763191196, -4634.969488974749, -10699.958884711134, -17655.955869669422, -0.202, 0.85, -0.232, 192.0, 124.5, 88.0, 13.0, 72.0, 124.0, 96.0, 0.0, 0.0, 0.0, 1.6730445850747054E9, 0.0, 2023-01-06 17:36:25.074
50.0, -18958.83905396927, -26000.018537046737, -32302.24934843175, -17588.453601414396, -9010.748149245757, -6906.018484356223, -19719.334807316638, -3925.7933408967665, -23014.183105728996, 7103.250277429853, -20399.967777725196, -26034.417871763453, -6922.245850830776, -4591.629456475908, -10671.818038441901, -17616.92972385046, -0.202, 0.85, -0.232, 192.0, 0.0, 0.0, 0.0, 0.0, 0.0, 0.0, 0.0, 0.0, 0.0, 1.6730445850747108E9, 0.0, 2023-01-06 17:36:25.074
52.0, -18981.861350758238, -26044.654970723986, -32319.77311608471, -17596.030842784745, -9019.55473656115, -6900.676417431405, -19720.47474628386, -3896.6019626381353, -23229.94449495608, 6949.313813366153, -20482.937453143295, -26103.97650050837, -6891.378091737997, -4608.192099117291, -10701.456451589638, -17635.459320003905, -0.202, 0.85, -0.232, 192.0, 0.0, 0.0, 0.0, 0.0, 0.0, 0.0, 0.0, 0.0, 0.0, 1.6730445850747163E9, 0.0, 2023-01-06 17:36:25.074
54.0, -19068.094380866813, -26178.050181633258, -32381.82155869264, -17723.83811758019, -9038.419608881428, -6969.720956053849, -19754.80702576721, -3900.6699801290015, -23197.48976200697, 6644.83835039596, -20469.951089614762, -26178.631326989096, -6881.36451022202, -4628.174558660336, -10701.143527167265, -17642.00838112931, -0.202, 0.85, -0.232, 192.0, 0.0, 0.0, 0.0, 0.0, 0.0, 0.0, 0.0, 0.0, 0.0, 1.6730445850747216E9, 0.0, 2023-01-06 17:36:25.074
56.0, -18983.76124903694, -26021.207990790368, -32339.465002949837, -17552.95903121937, -9062.470085915338, -6963.99890947329, -19785.652433115534, -3875.5466193612365, -23244.92016374113, 6760.530979696629, -20551.26673594317, -26262.696237885506, -6876.380071208486, -4582.28642729359, -10768.735202400114, -17729.850736838667, -0.202, 0.85, -0.232, 192.0, 0.0, 0.0, 0.0, 0.0, 0.0, 0.0, 0.0, 0.0, 0.0, 1.6730445850747273E9, 0.0, 2023-01-06 17:36:25.074
58.0, -19008.214057471047, -26080.68598278594, -32349.031549576706, -17493.279873523697, -9074.65178664348, -6936.70742949336, -19782.456133658427, -3830.172578116963, -23065.23449006492, 7192.56784827326, -20424.062958248014, -26032.428566506933, -6843.746524303738, -4588.679026207808, -10704.853916746846, -17624.261096031798, -0.188, 0.786, -0.24, 192.0, 125.0, 72.0, 11.0, 72.0, 124.0, 32.0, 0.0, 0.0, 0.0, 1.6730445850747323E9, 0.0, 2023-01-06 17:36:25.074
60.0, -18947.014981152413, -25983.05356300516, -32264.944286935843, -17385.87974141595, -9048.768466564235, -6906.17494656741, -19759.545595591735, -3786.430214217927, -23180.68125017658, 6950.2972901221865, -20466.866548879927, -26101.271939429276, -6861.002071023235, -4533.201996469736, -10717.25913491954, -17663.667221506505, -0.188, 0.786, -0.24, 192.0, 0.0, 0.0, 0.0, 0.0, 0.0, 0.0, 0.0, 0.0, 0.0, 1.673044585074738E9, 0.0, 2023-01-06 17:36:25.074
62.0, -18939.884774671173, -25954.197460913358, -32294.06860996111, -17323.85365055247, -9053.618795111037, -6905.638504700483, -19766.85461602862, -3777.757737369268, -23125.941828005532, 7195.942961686011, -20440.46913867821, -26026.52770597073, -6878.905818331936, -4555.911368836328, -10687.620721771804, -17617.846145373125, -0.188, 0.786, -0.24, 192.0, 0.0, 0.0, 0.0, 0.0, 0.0, 0.0, 0.0, 0.0, 0.0, 1.6730445850747435E9, 0.0, 2023-01-06 17:36:25.074
64.0, -18876.964614029483, -25878.201529765312, -32222.073641070565, -17212.094928275936, -9023.890974985477, -6864.354832691531, -19723.201659107406, -3718.7714837517124, -22911.34272949013, 7452.675098499668, -20334.83479438243, -25915.886570916962, -6920.167138596433, -4499.719083275686, -10641.933756105156, -17568.20292093789, -0.188, 0.786, -0.24, 192.0, 0.0, 0.0, 0.0, 0.0, 0.0, 0.0, 0.0, 0.0, 0.0, 1.6730445850747488E9, 0.0, 2023-01-06 17:36:25.074
66.0, -18995.562970109342, -26053.841537695116, -32309.558368868635, -17365.003212094693, -9013.810338236135, -6850.630861595972, -19681.98504233182, -3680.8405734110565, -23022.69912036647, 7240.512340129893, -20385.729716507165, -25990.47434216432, -6909.035969857689, -4526.541176622054, -10635.943488591134, -17563.732572046825, -0.188, 0.786, -0.24, 192.0, 0.0, 0.0, 0.0, 0.0, 0.0, 0.0, 0.0, 0.0, 0.0, 1.673044585074754E9, 0.0, 2023-01-06 17:36:25.074
68.0, -18982.263682158435, -26011.730851141318, -32336.358110470548, -17338.58345014852, -9061.330146948118, -6905.906725633947, -19727.29202834273, -3710.3225243476063, -23275.13972224471, 6706.126833692412, -20557.100541246004, -26272.687467657026, -6939.344935339086, -4464.805658436497, -10701.076471933899, -17649.58562249966, -0.179, 0.756, -0.261, 192.0, 125.0, 88.0, 11.0, 88.0, 123.5, 24.0, 0.0, 0.0, 0.0, 1.6730445850747604E9, 0.0, 2023-01-06 17:36:25.074
70.0, -18819.945313923992, -25778.57980472801, -32196.637355880423, -17026.687208019164, -8994.207858348831, -6810.308314598598, -19672.50790268277, -3645.4130584493946, -22751.21483221231, 8062.944777362916, -20306.62689287983, -25778.333935539, -6921.463539774841, -4435.636631922321, -10630.19909026612, -17535.412911821953, -0.179, 0.756, -0.261, 192.0, 0.0, 0.0, 0.0, 0.0, 0.0, 0.0, 0.0, 0.0, 0.0, 1.6730445850747674E9, 0.0, 2023-01-06 17:36:25.074
72.0, -18925.534954730865, -25961.86410926153, -32271.9180312059, -17186.166904707778, -9013.586820791581, -6848.149817961433, -19692.51271397027, -3654.1302387869646, -22887.873397812058, 7488.9743314950865, -20387.69667001923, -25905.69417544534, -6847.792190050148, -4482.441184811733, -10625.192299508131, -17530.38376931951, -0.179, 0.756, -0.261, 192.0, 0.0, 0.0, 0.0, 0.0, 0.0, 0.0, 0.0, 0.0, 0.0, 1.6730445850747728E9, 0.0, 2023-01-06 17:36:25.074
74.0, -18927.23368730947, -25898.206341052814, -32242.413728524894, -17145.687895499217, -9015.374960348006, -6845.936995260357, -19679.36988823055, -3656.4771719547716, -22789.74923965326, 7858.515722574678, -20344.133120075836, -25913.56198949361, -6957.315737881153, -4347.9507384241515, -10622.331276217852, -17544.063036926156, -0.179, 0.756, -0.261, 192.0, 0.0, 0.0, 0.0, 0.0, 0.0, 0.0, 0.0, 0.0, 0.0, 1.6730445850747783E9, 0.0, 2023-01-06 17:36:25.074
76.0, -18898.46699219549, -25892.864274127995, -32210.204864764797, -17042.04285645996, -9007.663608510926, -6823.741713016238, -19670.764466615256, -3629.2303954637523, -22741.73769256326, 7944.480531749789, -20354.83960566993, -25875.049933797116, -6897.4130627409295, -4338.3841917972795, -10612.228287724052, -17525.84636519508, -0.179, 0.756, -0.261, 192.0, 0.0, 0.0, 0.0, 0.0, 0.0, 0.0, 0.0, 0.0, 0.0, 1.6730445850747836E9, 0.0, 2023-01-06 17:36:25.074
78.0, -18870.907291282092, -25882.247195511725, -32195.698582613302, -17047.384923384776, -8974.247750550241, -6781.161639828878, -19624.004617214756, -3595.5910200585154, -22877.658650595982, 7901.676941117877, -20404.013443471606, -25906.007099867715, -6857.001108765735, -4354.030412915995, -10599.040758495423, -17517.911495913446, -0.1825, 0.765, -0.27949999999999997, 192.0, 125.0, 24.0, 12.0, 24.0, 123.0, 88.0, 0.0, 0.0, 0.0, 1.673044585074789E9, 0.0, 2023-01-06 17:36:25.074
80.0, -18799.448764258475, -25829.4970785972, -32087.583194682982, -16983.21306505359, -8928.963116283789, -6720.230784443711, -19608.87248621851, -3585.3986245868955, -22453.6013547899, 8075.841733913629, -20217.66694994771, -25822.746851771695, -6837.711553300805, -4284.471784171079, -10521.815481402336, -17452.487939892762, -0.1825, 0.765, -0.27949999999999997, 192.0, 0.0, 0.0, 0.0, 0.0, 0.0, 0.0, 0.0, 0.0, 0.0, 1.6730445850747943E9, 0.0, 2023-01-06 17:36:25.074
82.0, -18861.63131733314, -25894.160675306404, -32135.684148750803, -17024.407330084723, -8945.503407180717, -6766.230674532732, -19629.279628906206, -3608.7114940537804, -22587.80122849956, 8053.646451669509, -20254.25675562105, -25853.5028521422, -6841.153721946922, -4291.914915074696, -10530.353847784263, -17467.68712612237, -0.1825, 0.765, -0.27949999999999997, 192.0, 0.0, 0.0, 0.0, 0.0, 0.0, 0.0, 0.0, 0.0, 0.0, 1.6730445850747998E9, 0.0, 2023-01-06 17:36:25.074
84.0, -18868.158026714093, -25902.69904168833, -32142.255561620663, -17041.729932037586, -8941.234223989752, -6766.118915810456, -19618.17081191192, -3596.753310770191, -22664.557118959085, 7954.516465010222, -20302.245950966593, -25910.991538881248, -6837.376277133975, -4292.160784263705, -10549.889272438202, -17486.127315298, -0.1825, 0.765, -0.27949999999999997, 192.0, 0.0, 0.0, 0.0, 0.0, 0.0, 0.0, 0.0, 0.0, 0.0, 1.6730445850748053E9, 0.0, 2023-01-06 17:36:25.074
86.0, -18755.99697303736, -25798.986947415706, -32053.943819277745, -16938.509576142977, -8895.301389134096, -6708.831394771504, -19577.133009091976, -3565.818496444046, -22508.564294405496, 8138.001935243838, -20209.352101010336, -25810.274578365636, -6805.480337796252, -4176.311692751849, -10508.98558008499, -17433.69012280585, -0.1825, 0.765, -0.27949999999999997, 192.0, 0.0, 0.0, 0.0, 0.0, 0.0, 0.0, 0.0, 0.0, 0.0, 1.6730445850748107E9, 0.0, 2023-01-06 17:36:25.074
88.0, -18796.945368879482, -25835.86732576696, -32094.713401164223, -16971.165474792182, -8891.635703043426, -6729.819682815038, -19589.44882028685, -3601.827156761546, -22482.323346414967, 8265.898617017105, -20188.989661811553, -25765.884013877396, -6804.809785462593, -4171.662529905144, -10497.049748545856, -17429.420939614887, -0.19824999999999998, 0.8215, -0.29474999999999996, 192.0, 124.5, 40.0, 13.5, 56.0, 123.0, 40.0, 0.0, 0.0, 0.0, 1.673044585074816E9, 0.0, 2023-01-06 17:36:25.074
90.0, -18815.787889455307, -25873.708829129795, -32098.40143899935, -17008.403481054724, -8935.355715198006, -6725.975182768725, -19603.820991971614, -3622.48016863825, -22513.682843885763, 8188.785098646295, -20208.726252165587, -25787.5875577435, -6820.545413559129, -4226.625469520744, -10507.80093762886, -17441.423826387385, -0.19824999999999998, 0.8215, -0.29474999999999996, 192.0, 0.0, 0.0, 0.0, 0.0, 0.0, 0.0, 0.0, 0.0, 0.0, 1.6730445850748231E9, 0.0, 2023-01-06 17:36:25.074
92.0, -18832.082311163227, -25896.351146263023, -32105.933976880788, -17027.961257453117, -8929.76777908418, -6759.435744218319, -19609.945369952366, -3634.3936484329283, -22541.488413988165, 8160.286624465779, -20235.458938534135, -25802.876150950928, -6837.711553300805, -4212.677980980633, -10519.200327301065, -17456.265384705708, -0.19824999999999998, 0.8215, -0.29474999999999996, 192.0, 0.0, 0.0, 0.0, 0.0, 0.0, 0.0, 0.0, 0.0, 0.0, 1.6730445850748296E9, 0.0, 2023-01-06 17:36:25.074
94.0, -18773.923072090518, -25847.646695094907, -32056.29075244555, -17007.71057697661, -8890.518115820661, -6692.246400385667, -19573.221453812297, -3607.6609620643812, -22514.755727619617, 8184.828839877706, -20207.742775409555, -25772.76835116963, -6828.122654929478, -4190.6391609477, -10506.83981261728, -17435.746483295738, -0.19824999999999998, 0.8215, -0.29474999999999996, 192.0, 0.0, 0.0, 0.0, 0.0, 0.0, 0.0, 0.0, 0.0, 0.0, 1.6730445850748353E9, 0.0, 2023-01-06 17:36:25.074
96.0, -18782.32732800571, -25863.82935808055, -32055.597848367437, -17023.155632395225, -8897.290694390618, -6703.243458657677, -19573.31086079012, -3603.794110273613, -22473.941442244228, 8217.261221082357, -20164.67096384418, -25731.395272182857, -6787.6436457209165, -4157.53622740939, -10467.679556331583, -17400.386023567444, -0.19824999999999998, 0.8215, -0.29474999999999996, 192.0, 0.0, 0.0, 0.0, 0.0, 0.0, 0.0, 0.0, 0.0, 0.0, 1.6730445850748408E9, 0.0, 2023-01-06 17:36:25.074
98.0, -18805.059052116758, -25891.74668690523, -32084.699819648245, -17072.03889751898, -8933.76874134168, -6750.696212136294, -19627.044454460676, -3636.9417473008334, -22491.152285474815, 8193.814241148739, -20186.79919085493, -25740.71594962072, -6804.228640106755, -4174.702367151066, -10492.489992676974, -17420.63670404395, -0.211125, 0.88375, -0.30637499999999995, 192.0, 124.5, 0.0, 14.5, 72.0, 123.0, 8.0, 0.0, 0.0, 0.0, 1.6730445850748465E9, 0.0, 2023-01-06 17:36:25.074
100.0, -18833.35636059718, -25923.6202744985, -32119.83676193199, -17120.09514809789, -8915.507366121694, -6773.047956591601, -19633.280591163708, -3669.4411837388498, -22542.80716691103, 8136.437313131966, -20246.835976461887, -25784.368906541935, -6851.077896485079, -4233.241585879515, -10548.682278237615, -17476.672527393406, -0.211125, 0.88375, -0.30637499999999995, 192.0, 0.0, 0.0, 0.0, 0.0, 0.0, 0.0, 0.0, 0.0, 0.0, 1.673044585074852E9, 0.0, 2023-01-06 17:36:25.074
102.0, -18860.290212665823, -25944.250934630745, -32126.810506202044, -17135.74136921661, -8948.185616515353, -6794.080948124046, -19682.700298154392, -3691.2564863272296, -22550.18324258128, 8141.287641678768, -20252.53567129799, -25764.29704002107, -6864.578350136084, -4231.274632367448, -10543.809597946358, -17473.431524447387, -0.211125, 0.88375, -0.30637499999999995, 192.0, 0.0, 0.0, 0.0, 0.0, 0.0, 0.0, 0.0, 0.0, 0.0, 1.673044585074859E9, 0.0, 2023-01-06 17:36:25.074
104.0, -18863.262994678378, -25947.983675954783, -32118.383898542394, -17143.2962588425, -8969.687994681359, -6804.340398829031, -19689.629338935538, -3713.340009849073, -22599.424135616322, 8097.902905691017, -20292.321776428435, -25808.329976598023, -6889.567600437117, -4257.739097802531, -10571.95044421559, -17514.17875458941, -0.211125, 0.88375, -0.30637499999999995, 192.0, 0.0, 0.0, 0.0, 0.0, 0.0, 0.0, 0.0, 0.0, 0.0, 1.6730445850748641E9, 0.0, 2023-01-06 17:36:25.074
106.0, -18820.928790680027, -25904.88951264495, -32084.073970803496, -17125.61602897835, -8947.313898481596, -6763.43670647582, -19680.956862086878, -3690.20595433783, -22560.241527586168, 8128.770664783796, -20245.24900260556, -25766.442807488776, -6857.559902377117, -4237.287251625926, -10538.355772299263, -17477.678355893895, -0.211125, 0.88375, -0.30637499999999995, 192.0, 0.0, 0.0, 0.0, 0.0, 0.0, 0.0, 0.0, 0.0, 0.0, 1.6730445850748696E9, 0.0, 2023-01-06 17:36:25.074
108.0, -18828.930715195027, -25914.478411016276, -32095.048677331055, -17148.794787978506, -8956.545168941639, -6787.286017809632, -19689.495228468804, -3712.602402282048, -22569.33868757948, 8134.626821831086, -20235.213069345125, -25739.62071414241, -6859.325690189086, -4238.226024893049, -10542.066161878844, -17480.584082673086, -0.2195625, 0.924875, -0.32018749999999996, 192.0, 124.0, 112.0, 15.0, 24.0, 122.5, 72.0, 0.0, 0.0, 0.0, 1.673044585074875E9, 0.0, 2023-01-06 17:36:25.074
110.0, -18829.4448053175, -25916.60182673953, -32114.293529307073, -17169.961889977683, -8955.382878229962, -6808.877802953459, -19710.774089190258, -3736.1611409379416, -22602.843952517982, 8109.905792463517, -20249.89816545226, -25732.557562894533, -6881.610379411028, -4266.456278140102, -10560.171074887643, -17505.796850418672, -0.2195625, 0.924875, -0.32018749999999996, 192.0, 0.0, 0.0, 0.0, 0.0, 0.0, 0.0, 0.0, 0.0, 0.0, 1.6730445850748808E9, 0.0, 2023-01-06 17:36:25.074
112.0, -18832.127014652135, -25919.060518629616, -32140.98151218671, -17183.21647443968, -8942.977660057266, -6814.935125700847, -19704.60500772059, -3752.8578940460557, -22620.166554470845, 8114.599658799131, -20251.082807908395, -25703.142667191347, -6889.902876603946, -4258.677871069654, -10573.448011094095, -17501.37120501652, -0.2195625, 0.924875, -0.32018749999999996, 192.0, 0.0, 0.0, 0.0, 0.0, 0.0, 0.0, 0.0, 0.0, 0.0, 1.6730445850748863E9, 0.0, 2023-01-06 17:36:25.074
114.0, -18836.262087376366, -25920.55808550812, -32152.22443964773, -17189.899646031816, -8970.82793364858, -6822.691181026838, -19708.605969978093, -3762.692661606391, -22660.846729379504, 8089.118670120081, -20271.601709318365, -25699.767553778598, -6921.575298497117, -4288.405691195213, -10594.749223560004, -17517.531516257706, -0.2195625, 0.924875, -0.32018749999999996, 192.0, 0.0, 0.0, 0.0, 0.0, 0.0, 0.0, 0.0, 0.0, 0.0, 1.6730445850748918E9, 0.0, 2023-01-06 17:36:25.074
116.0, -18818.425395301034, -25905.76123067871, -32148.625808790424, -17194.369994922876, -8963.362451000507, -6832.458893353808, -19722.24053409583, -3767.922969808933, -22667.261680038177, 8089.677463731464, -20258.302421367458, -25684.300146615526, -6894.842612128569, -4270.859571797797, -10576.353737873285, -17509.864867909535, -0.2195625, 0.924875, -0.32018749999999996, 192.0, 0.0, 0.0, 0.0, 0.0, 0.0, 0.0, 0.0, 0.0, 0.0, 1.673044585074898E9, 0.0, 2023-01-06 17:36:25.074
118.0, -18818.425395301034, -25909.069288858092, -32158.013541461652, -17203.824782827473, -8951.113695038997, -6812.051750666113, -19724.18513586344, -3776.394280957494, -22691.289805327633, 8052.707678402386, -20266.63962204929, -25699.52168458959, -6902.062225587634, -4297.033464554962, -10593.922209015156, -17519.05143488067, -0.21578124999999998, 0.9214375, -0.34109375, 192.0, 124.5, 48.0, 14.0, 88.0, 122.0, 88.0, 0.0, 0.0, 0.0, 1.6730445850749035E9, 0.0, 2023-01-06 17:36:25.074
120.0, -18813.128031865126, -25911.371518536987, -32151.129204169418, -17218.93456207926, -8983.546076243649, -6848.663908083905, -19727.00145566481, -3794.342731755106, -22726.270285400187, 8000.985741732806, -20285.10216296937, -25727.14844073635, -6883.152649778444, -4309.304572260925, -10613.457633669095, -17541.89491771399, -0.21578124999999998, 0.9214375, -0.34109375, 192.0, 0.0, 0.0, 0.0, 0.0, 0.0, 0.0, 0.0, 0.0, 0.0, 1.6730445850749092E9, 0.0, 2023-01-06 17:36:25.074
122.0, -18753.80650208074, -25854.97806727625, -32080.855319601935, -17157.042581682515, -8927.934936038844, -6776.177200815345, -19660.259146721262, -3713.0270854266987, -22706.913674701893, 8001.231610921814, -20240.801005458954, -25697.84530375544, -6822.3335531155535, -4253.738135545032, -10560.372240587742, -17492.74343165677, -0.21578124999999998, 0.9214375, -0.34109375, 192.0, 0.0, 0.0, 0.0, 0.0, 0.0, 0.0, 0.0, 0.0, 0.0, 1.6730445855537972E9, 0.0, 2023-01-06 17:36:25.553
124.0, -18739.076702484694, -25841.231744436234, -32062.303371704027, -17144.413846065265, -8876.503572047182, -6755.501837194185, -19643.31652442414, -3687.7696141922015, -22680.046877866615, 8014.642657594998, -20186.486266432556, -25646.525698486057, -6768.1976280448, -4208.095873367295, -10501.207173014544, -17431.87963150497, -0.21578124999999998, 0.9214375, -0.34109375, 192.0, 0.0, 0.0, 0.0, 0.0, 0.0, 0.0, 0.0, 0.0, 0.0, 1.6730445855538404E9, 0.0, 2023-01-06 17:36:25.553
126.0, -18775.174769780013, -25885.443494968833, -32082.285831247074, -17166.78794226503, -8872.144981878399, -6767.772944900149, -19649.440902404895, -3702.432358554883, -22744.866936787002, 7921.011200071717, -20227.613476230323, -25689.79867575153, -6775.752517670694, -4251.547664588412, -10540.032153133412, -17464.848454576546, -0.21578124999999998, 0.9214375, -0.34109375, 192.0, 0.0, 0.0, 0.0, 0.0, 0.0, 0.0, 0.0, 0.0, 0.0, 1.6730445855538628E9, 0.0, 2023-01-06 17:36:25.553
128.0, -18786.99884259687, -25910.65626271442, -32079.53656667907, -17166.20679690919, -8912.176956197853, -6785.609636975484, -19658.448655420383, -3690.116547360009, -22744.330494920076, 7872.440859370335, -20199.360871238812, -25676.007649422605, -6728.076246747523, -4254.028708222951, -10505.096376549767, -17431.790224527147, -0.21578124999999998, 0.9214375, -0.34109375, 192.0, 0.0, 0.0, 0.0, 0.0, 0.0, 0.0, 0.0, 0.0, 0.0, 1.6730445855538685E9, 0.0, 2023-01-06 17:36:25.553
130.0, -18792.475019988422, -25925.788393710664, -32077.34609572245, -17171.392401622823, -8882.13621164992, -6822.624125793473, -19652.23487046181, -3704.600477767048, -22826.875487193523, 7742.778389785099, -20255.083770165893, -25745.94625782326, -6742.515473665652, -4311.271525772992, -10556.37127833024, -17487.244902520764, -0.212, 0.906, -0.326, 192.0, 124.5, 48.0, 14.0, 40.0, 122.5, 104.0, 0.0, 0.0, 0.0, 1.6730445855538743E9, 0.0, 2023-01-06 17:36:25.553
132.0, -18787.222360041425, -25926.235428599768, -32065.522022905592, -17179.72960230465, -8855.9399671483, -6796.047901636112, -19633.660570819447, -3680.7735181776907, -22811.47513526382, 7721.991267441663, -20215.38707201327, -25717.71600457621, -6694.593333553474, -4287.936304561652, -10510.281981263397, -17446.87765203448, -0.212, 0.906, -0.326, 192.0, 0.0, 0.0, 0.0, 0.0, 0.0, 0.0, 0.0, 0.0, 0.0, 1.6730445855538812E9, 0.0, 2023-01-06 17:36:25.553
134.0, -18741.80361530824, -25888.17040779238, -32029.222789910174, -17148.88419495633, -8817.092635284976, -6787.509535254185, -19616.986169455788, -3637.8805205679564, -22827.635446505006, 7657.9088160882975, -20215.05179584644, -25739.218382742212, -6681.495211302664, -4306.175328037182, -10500.648379403161, -17448.97871601328, -0.212, 0.906, -0.326, 192.0, 0.0, 0.0, 0.0, 0.0, 0.0, 0.0, 0.0, 0.0, 0.0, 1.6730445855538957E9, 0.0, 2023-01-06 17:36:25.553
136.0, -18755.43817942598, -25915.394832538943, -32036.28594115805, -17157.087285171423, -8817.69613238527, -6794.930314413347, -19593.472134288804, -3635.153607744409, -22783.758972139236, 7636.182920477739, -20155.953783506608, -25699.3652223784, -6638.356344503921, -4270.166667719683, -10454.35791663622, -17400.92246543437, -0.212, 0.906, -0.326, 192.0, 0.0, 0.0, 0.0, 0.0, 0.0, 0.0, 0.0, 0.0, 0.0, 1.6730445855539012E9, 0.0, 2023-01-06 17:36:25.553
138.0, -18773.94542383497, -25953.37044636851, -32065.790243839056, -17166.273852142556, -8808.88954506988, -6805.189765118333, -19603.910398949432, -3666.2225325372856, -22840.84532747809, 7512.9801050400865, -20193.705879891622, -25748.270839246612, -6650.247472554144, -4306.42119722619, -10496.1780305121, -17431.991390227246, -0.212, 0.906, -0.326, 192.0, 0.0, 0.0, 0.0, 0.0, 0.0, 0.0, 0.0, 0.0, 0.0, 1.673044585553907E9, 0.0, 2023-01-06 17:36:25.553
140.0, -18824.326255837233, -26021.00682509027, -32107.40919201484, -17214.4642131882, -8827.88852785689, -6844.998221993234, -19565.219529297297, -3693.5810677505815, -22867.354496402088, 7436.000697136009, -20207.519257965, -25766.5322144666, -6657.93647264677, -4337.356011552335, -10511.824251630815, -17451.25859394772, -0.242, 0.9380000000000001, -0.234, 192.0, 124.0, 56.0, 14.5, 40.0, 124.0, 88.0, 0.0, 0.0, 0.0, 1.673044585553912E9, 0.0, 2023-01-06 17:36:25.553
142.0, -18887.447582179022, -26078.987250207338, -32166.373093887938, -17277.674946507806, -8893.982636211233, -6898.485946474785, -19612.873448476013, -3664.702613914325, -22946.591430496148, 7301.44319551506, -20279.000136733073, -25854.463977153777, -6707.1103104484455, -4418.962230558662, -10551.811522461358, -17496.40911774744, -0.242, 0.9380000000000001, -0.234, 192.0, 0.0, 0.0, 0.0, 0.0, 0.0, 0.0, 0.0, 0.0, 0.0, 1.6730445855539176E9, 0.0, 2023-01-06 17:36:25.553
144.0, -18916.236629037456, -26091.481875357855, -32212.574149677057, -17339.745740860195, -8948.923224082379, -6890.55107719315, -19664.818902590145, -3692.686997972369, -23015.345396440673, 7240.959375019, -20337.27113452806, -25903.950739377826, -6785.073195108556, -4468.024309638061, -10599.688959084626, -17532.976571676325, -0.242, 0.9380000000000001, -0.234, 192.0, 0.0, 0.0, 0.0, 0.0, 0.0, 0.0, 0.0, 0.0, 0.0, 1.6730445855539231E9, 0.0, 2023-01-06 17:36:25.553
146.0, -18926.518431486897, -26100.377869651067, -32222.878303870955, -17377.497837245206, -8952.34304098404, -6905.236173300287, -19648.03274250421, -3721.3195826196174, -23051.287001524808, 7161.454219991472, -20383.89687346183, -25976.86212979104, -6804.340398829031, -4511.677266559275, -10639.273898514975, -17563.330240646632, -0.242, 0.9380000000000001, -0.234, 192.0, 0.0, 0.0, 0.0, 0.0, 0.0, 0.0, 0.0, 0.0, 0.0, 1.6730445855539284E9, 0.0, 2023-01-06 17:36:25.553
148.0, -18864.179416201045, -26034.283761296723, -32154.45961409326, -17336.169461747344, -8878.80580172608, -6836.4822073557625, -19575.478980002285, -3663.450916224828, -23020.151021498565, 7121.131672994098, -20348.64817245581, -26039.379959032532, -6774.210247303277, -4463.151629346804, -10596.917342772167, -17536.172871133433, -0.242, 0.9380000000000001, -0.234, 192.0, 0.0, 0.0, 0.0, 0.0, 0.0, 0.0, 0.0, 0.0, 0.0, 1.673044585553934E9, 0.0, 2023-01-06 17:36:25.553
150.0, -18744.217603709414, -25914.456059271823, -32034.743670790634, -17242.515652479608, -8778.088841210467, -6686.971388694214, -19468.637641505917, -3539.7787141536137, -22958.549613779738, 7142.566995926738, -20265.20911040415, -26024.15842105847, -6695.263885887133, -4356.7573257395425, -10520.94376336858, -17460.44516091885, -0.258, 0.8260000000000001, -0.16, 192.0, 123.5, 120.0, 12.5, 104.0, 125.5, 0.0, 0.0, 0.0, 0.0, 1.6730445855539396E9, 0.0, 2023-01-06 17:36:25.553
152.0, -18708.79008874775, -25882.06838155608, -32002.646565752813, -17221.84028885845, -8727.216270830188, -6652.907330144326, -19443.022542360133, -3488.5261641175944, -22887.873397812058, 7163.175304314531, -20188.810847855908, -25977.979717013804, -6601.453614408209, -4291.244362741037, -10449.887567745158, -17395.602750254006, -0.258, 0.8260000000000001, -0.16, 192.0, 0.0, 0.0, 0.0, 0.0, 0.0, 0.0, 0.0, 0.0, 0.0, 1.6730445855539453E9, 0.0, 2023-01-06 17:36:25.553
154.0, -18644.439416460922, -25807.43590681981, -31938.47470742163, -17156.126160159845, -8613.669408997228, -6553.419715573754, -19369.26178565762, -3397.040474062023, -22851.61886830555, 7039.480750498861, -20144.84496651232, -25998.09628702358, -6558.650023776296, -4234.537987057923, -10404.379416034153, -17341.891508327903, -0.258, 0.8260000000000001, -0.16, 192.0, 0.0, 0.0, 0.0, 0.0, 0.0, 0.0, 0.0, 0.0, 0.0, 1.6730445855539503E9, 0.0, 2023-01-06 17:36:25.553
156.0, -18589.09649718958, -25736.58087689649, -31882.461235816627, -17112.763775916552, -8598.89490591227, -6514.125348821324, -19288.259063751586, -3370.8665813048583, -22817.688920222394, 7166.75158342738, -20107.718718972053, -25957.99725747076, -6508.448005729677, -4204.273725065437, -10358.983023045424, -17308.162725944847, -0.258, 0.8260000000000001, -0.16, 192.0, 0.0, 0.0, 0.0, 0.0, 0.0, 0.0, 0.0, 0.0, 0.0, 1.673044585553956E9, 0.0, 2023-01-06 17:36:25.553
158.0, -18537.19574656436, -25670.285602842047, -31838.048319583933, -17060.125417724303, -8572.341033499364, -6493.964075322638, -19241.879194006826, -3341.4740373461295, -22756.869823559504, 7131.45817893245, -20037.40013091566, -25887.4104484809, -6434.553138560431, -4119.739427535466, -10280.327234307199, -17253.065675862512, -0.258, 0.8260000000000001, -0.16, 192.0, 0.0, 0.0, 0.0, 0.0, 0.0, 0.0, 0.0, 0.0, 0.0, 1.6730445855539615E9, 0.0, 2023-01-06 17:36:25.553
160.0, -18551.210290337836, -25656.092245112926, -31844.217401053596, -17051.341182153366, -8597.732615200594, -6469.310101188434, -19245.85780451987, -3280.4761267275962, -22778.79688487016, 7066.6381200120595, -20025.084319720783, -25850.84299455202, -6445.259624154523, -4143.499331891458, -10287.055109388246, -17262.56516725602, -0.242, 0.734, -0.166, 192.0, 124.0, 56.0, 11.0, 120.0, 125.0, 104.0, 0.0, 0.0, 0.0, 1.6730445855539672E9, 0.0, 2023-01-06 17:36:25.553
162.0, -18522.823574879596, -25627.929047099242, -31827.900627601222, -17013.969065424095, -8597.263228567032, -6457.664842327219, -19241.543917839994, -3199.2945908659212, -22837.51491755425, 7080.853829485635, -20029.755834311945, -25783.318374552535, -6503.485918460598, -4154.943425052575, -10298.99094092738, -17236.994771599147, -0.242, 0.734, -0.166, 192.0, 0.0, 0.0, 0.0, 0.0, 0.0, 0.0, 0.0, 0.0, 0.0, 1.6730445855539725E9, 0.0, 2023-01-06 17:36:25.553
164.0, -18484.155056971915, -25590.64633734779, -31806.24178722403, -16950.87009082676, -8567.334242741375, -6471.880551800794, -19235.15131892578, -3209.0175997039796, -22788.341079752576, 7148.870187863135, -19979.732630220966, -25665.904660928805, -6445.259624154523, -4099.868726714698, -10258.444876485453, -17188.91616927578, -0.242, 0.734, -0.166, 192.0, 0.0, 0.0, 0.0, 0.0, 0.0, 0.0, 0.0, 0.0, 0.0, 1.6730445855539784E9, 0.0, 2023-01-06 17:36:25.553
166.0, -18503.712833370308, -25613.40041320329, -31839.232962040063, -16973.870035871274, -8593.865763409825, -6493.986427067092, -19279.34071771392, -3312.6402869987833, -22722.671654542883, 7202.5814297892375, -19961.7618276789, -25609.444154434703, -6463.342185418866, -4127.227261927994, -10267.184408567478, -17198.616826369383, -0.242, 0.734, -0.166, 192.0, 0.0, 0.0, 0.0, 0.0, 0.0, 0.0, 0.0, 0.0, 0.0, 1.673044585553985E9, 0.0, 2023-01-06 17:36:25.553
168.0, -18548.796301936665, -25659.154434103304, -31889.99377369807, -17025.971952196593, -8632.131949917311, -6526.038828616003, -19288.907264340793, -3239.3489169298314, -22789.101039064055, 7120.88580380509, -20016.903581250142, -25631.639436678823, -6512.650133687274, -4176.535210196401, -10325.097778451178, -17246.98600137067, -0.242, 0.734, -0.166, 192.0, 0.0, 0.0, 0.0, 0.0, 0.0, 0.0, 0.0, 0.0, 0.0, 1.6730445855539908E9, 0.0, 2023-01-06 17:36:25.553
170.0, -18629.01671278676, -25735.686807118276, -31984.18402483273, -17115.066005595447, -8689.888857589825, -6592.736434070639, -19386.003242254646, -3325.447836571674, -22876.921043028957, 7043.995802878833, -20073.945233100087, -25651.800710177507, -6586.053262478503, -4219.249393850493, -10355.920834055047, -17267.951937669746, -0.28600000000000003, 0.78, -0.19, 192.0, 123.5, 8.0, 12.0, 48.0, 125.0, 8.0, 0.0, 0.0, 0.0, 1.6730445855539963E9, 0.0, 2023-01-06 17:36:25.553
172.0, -18645.042913561218, -25765.079351077005, -32013.218940880175, -17170.811256266985, -8717.068578847478, -6645.441847496253, -19388.84191380047, -3346.5031798485734, -23032.913867582545, 6830.648402052928, -20172.98581278155, -25745.588629911977, -6683.596275281463, -4308.678723416177, -10437.661163528104, -17344.95369731828, -0.28600000000000003, 0.78, -0.19, 192.0, 0.0, 0.0, 0.0, 0.0, 0.0, 0.0, 0.0, 0.0, 0.0, 1.6730445855540018E9, 0.0, 2023-01-06 17:36:25.554
174.0, -18610.53182012222, -25766.487510977688, -31991.738914458623, -17181.249520927613, -8742.527215782073, -6669.1346966188785, -19374.49209386016, -3322.3632958368416, -23038.032417062812, 6795.623218491462, -20145.917850246176, -25750.058978803037, -6640.524463716086, -4270.546647375422, -10401.2054683215, -17318.958618516757, -0.28600000000000003, 0.78, -0.19, 192.0, 0.0, 0.0, 0.0, 0.0, 0.0, 0.0, 0.0, 0.0, 0.0, 1.6730445855540073E9, 0.0, 2023-01-06 17:36:25.554
176.0, -18661.06911433567, -25819.1929244033, -32087.516139449614, -17264.42036204581, -8796.886658297379, -6746.71760162325, -19462.33444956952, -3429.5622622444944, -23155.826110342277, 6848.172169705888, -20223.23253431708, -25759.67022891882, -6671.369871064409, -4313.506700218523, -10454.380268380675, -17350.34046773201, -0.28600000000000003, 0.78, -0.19, 192.0, 0.0, 0.0, 0.0, 0.0, 0.0, 0.0, 0.0, 0.0, 0.0, 1.6730445855540128E9, 0.0, 2023-01-06 17:36:25.554
178.0, -18681.096277367626, -25835.64380832241, -32106.738639681178, -17444.97775375578, -8778.804097033037, -6791.823421934059, -19501.651168066404, -3483.340559403963, -22997.531056109794, 7050.63427098206, -20200.791382883952, -25687.071762927982, -6718.643810587384, -4317.753531665031, -10466.114934219711, -17359.884662614426, -0.28600000000000003, 0.78, -0.19, 192.0, 0.0, 0.0, 0.0, 0.0, 0.0, 0.0, 0.0, 0.0, 0.0, 1.6730445855540185E9, 0.0, 2023-01-06 17:36:25.554
180.0, -18727.252629667837, -25908.085812102057, -32142.344968598485, -17627.904430378014, -8856.856388670969, -6831.073085197579, -19556.457645470815, -3573.37338606994, -23166.264375002906, 6906.2196500563205, -20303.542352145, -25730.903533804838, -6716.8556710309595, -4380.137250439793, -10527.895155894179, -17419.83204124356, -0.364, 1.04, -0.178, 192.0, 122.0, 80.0, 16.0, 64.0, 125.0, 56.0, 0.0, 0.0, 0.0, 1.673044585554024E9, 0.0, 2023-01-06 17:36:25.554
182.0, -18650.764960141776, -25879.65439315491, -32064.024456027088, -17706.51551562733, -8823.664048154837, -6850.519102873695, -19553.52956694717, -3639.4451426798278, -22984.231768158887, 6871.1721147503995, -20208.770955654498, -25729.540077393067, -6792.471622523263, -4448.131257072837, -10528.409246016652, -17434.338323395055, -0.364, 1.04, -0.178, 192.0, 0.0, 0.0, 0.0, 0.0, 0.0, 0.0, 0.0, 0.0, 0.0, 1.6730445855540292E9, 0.0, 2023-01-06 17:36:25.554
184.0, -18721.552934831732, -25920.51338201921, -32131.951407426764, -17829.85244153171, -8869.37336556594, -6918.155481595455, -19596.55667502364, -3739.5362543506926, -22925.826659897168, 6842.047791725135, -20208.99447309905, -25735.440937929267, -6911.047626858667, -4422.426750949234, -10520.027341845911, -17447.190576456855, -0.364, 1.04, -0.178, 192.0, 0.0, 0.0, 0.0, 0.0, 0.0, 0.0, 0.0, 0.0, 0.0, 1.673044585554035E9, 0.0, 2023-01-06 17:36:25.554
186.0, -18772.961947078937, -25962.355847639545, -32213.75879213319, -17922.433367065594, -8903.303313649096, -6948.263281376753, -19658.091027509097, -3807.5079092392816, -23071.738847701414, 6737.821607330037, -20300.949549788184, -25813.850857478483, -6983.5790376161385, -4461.207027579192, -10590.681206069137, -17526.762786717747, -0.364, 1.04, -0.178, 192.0, 0.0, 0.0, 0.0, 0.0, 0.0, 0.0, 0.0, 0.0, 0.0, 1.6730445855540404E9, 0.0, 2023-01-06 17:36:25.554
188.0, -18751.28075495729, -25931.957475180327, -32206.986213563232, -17926.07670141181, -8888.461755330773, -6932.527653280217, -19653.240698962298, -3823.355296058094, -23076.00803089238, 6823.361733360498, -20316.886343584818, -25811.995662688692, -6917.060246117145, -4496.679246029764, -10631.33902923334, -17553.13784517501, -0.364, 1.04, -0.178, 192.0, 0.0, 0.0, 0.0, 0.0, 0.0, 0.0, 0.0, 0.0, 0.0, 1.673044585554046E9, 0.0, 2023-01-06 17:36:25.554
190.0, -18768.96098482144, -25952.074045190104, -32223.437097482336, -17970.869597300243, -8922.14583422492, -6952.1748366564325, -19666.27176597974, -3835.9393281864322, -23099.0526794258, 6802.0828726390455, -20307.275093469038, -25803.434944562312, -6956.242854147298, -4471.019443395072, -10627.025142553466, -17540.79968223568, -0.422, 1.1520000000000001, -0.184, 192.0, 121.0, 104.0, 18.0, 0.0, 125.0, 32.0, 0.0, 0.0, 0.0, 1.6730445855540516E9, 0.0, 2023-01-06 17:36:25.554
192.0, -18856.4010091306, -26037.189488075914, -32299.276566419194, -18057.23673787555, -8961.06022132161, -7028.953078860412, -19727.694359742924, -3914.7962826247553, -23185.68804093457, 6646.224158552189, -20378.35364083691, -25880.615518166487, -6948.4197435879405, -4483.3129028454905, -10665.760715694514, -17587.09014500262, -0.422, 1.1520000000000001, -0.184, 192.0, 0.0, 0.0, 0.0, 0.0, 0.0, 0.0, 0.0, 0.0, 0.0, 1.673044585554057E9, 0.0, 2023-01-06 17:36:25.554
194.0, -18811.04931963078, -25994.47530442182, -32300.997650742254, -18049.19010987164, -8952.655965406415, -6996.587752889127, -19716.89846717101, -3921.5241577058027, -23315.70813843109, 6682.769260736616, -20438.926868310795, -25910.20922782531, -6993.436156920929, -4513.577164837976, -10704.764509769024, -17620.930686107957, -0.422, 1.1520000000000001, -0.184, 192.0, 0.0, 0.0, 0.0, 0.0, 0.0, 0.0, 0.0, 0.0, 0.0, 1.6730445855540624E9, 0.0, 2023-01-06 17:36:25.554
196.0, -18854.769331785363, -26017.274083766235, -32370.10924459806, -18093.62537784879, -8982.786116932168, -7015.072645553666, -19731.225935366863, -3944.2782335613056, -23127.14882220612, 6851.435524396364, -20409.17669644078, -25891.657279927407, -6933.131150380511, -4485.972760435672, -10690.437041573172, -17606.96084582339, -0.422, 1.1520000000000001, -0.184, 192.0, 0.0, 0.0, 0.0, 0.0, 0.0, 0.0, 0.0, 0.0, 0.0, 1.6730445855540683E9, 0.0, 2023-01-06 17:36:25.554
198.0, -18806.15428759507, -25965.08276046309, -32333.92177032492, -18124.604895663848, -8939.177863499865, -6956.801647758681, -19691.32807151414, -3894.2773812147834, -23438.955657357652, 6650.001603365136, -20533.58650607902, -26007.0369848057, -6881.36451022202, -4525.065961488004, -10713.146413939765, -17627.256229788807, -0.422, 1.1520000000000001, -0.184, 192.0, 0.0, 0.0, 0.0, 0.0, 0.0, 0.0, 0.0, 0.0, 0.0, 1.6730445855540752E9, 0.0, 2023-01-06 17:36:25.554
200.0, -18748.978525278395, -25902.967262621794, -32234.545914476625, -18118.34640721636, -8882.672653516847, -6888.31590274762, -19656.727571097323, -3841.0802294111527, -23188.83963690277, 6929.644278245482, -20405.220437672193, -25946.486109076275, -6922.4693682753295, -4374.661073048243, -10652.260262043508, -17573.008545995777, -0.405, 1.112, -0.176, 192.0, 121.5, 112.0, 16.5, 64.0, 125.0, 96.0, 0.0, 0.0, 0.0, 1.6730445855540807E9, 0.0, 2023-01-06 17:36:25.554
202.0, -18658.185739300938, -25784.793589686586, -32139.97568368622, -18022.211554314086, -8837.723295417225, -6830.06725669709, -19641.349570912073, -3806.6361912055245, -22870.774313303747, 6911.315847792131, -20272.518130841032, -25937.076024660593, -6871.21681823931, -4363.5299043095, -10569.75997325897, -17508.79198417568, -0.405, 1.112, -0.176, 192.0, 0.0, 0.0, 0.0, 0.0, 0.0, 0.0, 0.0, 0.0, 0.0, 1.6730445855540864E9, 0.0, 2023-01-06 17:36:25.554
204.0, -18618.28787544821, -25710.764612050607, -32084.45395045924, -17977.03867876991, -8809.60480089245, -6777.317139782565, -19615.68976827738, -3767.297120964184, -22878.44096165192, 7321.649172502658, -20251.90982245324, -25850.485366640733, -6957.85217974808, -4415.609468890366, -10521.36844651323, -17460.60162313004, -0.405, 1.112, -0.176, 192.0, 0.0, 0.0, 0.0, 0.0, 0.0, 0.0, 0.0, 0.0, 0.0, 1.6730445855540917E9, 0.0, 2023-01-06 17:36:25.554
206.0, -18739.344923418157, -25789.37569729992, -32207.477951941248, -18066.937394969154, -8861.840827684502, -6832.59300382054, -19685.427210977938, -3808.044351106209, -22951.151186365034, 7203.877830967645, -20308.839715580907, -25909.762192936207, -6955.1699704134435, -4377.522096338523, -10524.56474597034, -17470.637556390473, -0.405, 1.112, -0.176, 192.0, 0.0, 0.0, 0.0, 0.0, 0.0, 0.0, 0.0, 0.0, 0.0, 1.6730445855540972E9, 0.0, 2023-01-06 17:36:25.554
208.0, -18684.5607977582, -25764.989944099183, -32145.943599455786, -18018.679978690147, -8859.449191027785, -6829.73198053026, -19685.024879577744, -3773.7791268562232, -23011.679710350003, 7199.742758243413, -20384.232149628657, -25928.492954789755, -6962.009604216767, -4401.684332094709, -10588.446031623607, -17519.923152914424, -0.405, 1.112, -0.176, 192.0, 0.0, 0.0, 0.0, 0.0, 0.0, 0.0, 0.0, 0.0, 0.0, 1.673044585554103E9, 0.0, 2023-01-06 17:36:25.554
210.0, -18705.370271846088, -25792.594348501487, -32158.438224606303, -17992.349623721795, -8840.070228585033, -6814.331628600554, -19688.891731368512, -3745.146542208975, -22744.621067597996, 7229.202357435508, -20276.697907054175, -25870.333715717046, -6995.961904044379, -4371.800049757963, -10530.80088267337, -17478.125390783, -0.36350000000000005, 0.998, -0.16299999999999998, 192.0, 122.5, 120.0, 13.5, 80.0, 125.5, 40.0, 0.0, 0.0, 0.0, 1.6730445855541084E9, 0.0, 2023-01-06 17:36:25.554
212.0, -18770.547958677766, -25798.785781715607, -32234.456507498802, -17920.913448442632, -8916.647305088914, -6854.654175597928, -19767.10048521763, -3779.9705600703433, -22911.58859867914, 7235.5726046052705, -20391.407059598812, -25932.762137980717, -7005.796671604714, -4369.587227056888, -10587.32844440084, -17532.887164698503, -0.36350000000000005, 0.998, -0.16299999999999998, 192.0, 0.0, 0.0, 0.0, 0.0, 0.0, 0.0, 0.0, 0.0, 0.0, 1.6730445855541136E9, 0.0, 2023-01-06 17:36:25.554
214.0, -18737.199155950446, -25774.78000817061, -32216.843332868022, -17814.697958791014, -8897.514211835172, -6831.408361364408, -19765.826435783678, -3747.426420143416, -22645.356970471978, 7442.214482094584, -20338.209907795183, -25862.957640046792, -6986.976502773346, -4368.581398556399, -10587.708424056582, -17528.0368361517, -0.36350000000000005, 0.998, -0.16299999999999998, 192.0, 0.0, 0.0, 0.0, 0.0, 0.0, 0.0, 0.0, 0.0, 0.0, 1.673044585554119E9, 0.0, 2023-01-06 17:36:25.554
216.0, -18834.33983735321, -25850.328904429545, -32319.21432247333, -17800.66106327308, -8968.05631733612, -6888.718234147816, -19818.06246257573, -3761.3515569390725, -22867.71212431337, 7373.616978361247, -20453.209633017737, -25903.45900099981, -6830.693105541838, -4390.463756378145, -10639.519767703983, -17568.269976171254, -0.36350000000000005, 0.998, -0.16299999999999998, 192.0, 0.0, 0.0, 0.0, 0.0, 0.0, 0.0, 0.0, 0.0, 0.0, 1.6730445855541248E9, 0.0, 2023-01-06 17:36:25.554
218.0, -18732.549993103745, -25798.67402299333, -32146.100061666973, -17689.952872985945, -8945.503407180717, -6852.30724243012, -19814.664997418524, -3723.8676814875225, -22608.56599909854, 7405.13293804323, -20344.98248636514, -25856.050951010104, -7020.302953756208, -4373.878761992307, -10612.42945342415, -17555.596537065096, -0.36350000000000005, 0.998, -0.16299999999999998, 192.0, 0.0, 0.0, 0.0, 0.0, 0.0, 0.0, 0.0, 0.0, 0.0, 1.6730445855541303E9, 0.0, 2023-01-06 17:36:25.554
220.0, -18779.06397331524, -25840.270619424657, -32204.438114695327, -17664.851863962635, -8956.321651497085, -6892.406271982941, -19853.557032770757, -3736.1611409379416, -22532.12303306139, 7409.8491561232995, -20318.518020930056, -25836.26965716716, -7037.91612838699, -4370.749517768564, -10605.545116131916, -17564.29136565821, -0.32275000000000004, 0.902, -0.15649999999999997, 192.0, 123.5, 24.0, 12.5, 24.0, 125.5, 40.0, 0.0, 0.0, 0.0, 1.6730445855541356E9, 0.0, 2023-01-06 17:36:25.554
222.0, -18794.754897922863, -25863.516433658177, -32219.793763136124, -17629.737273423347, -8944.8105031026, -6889.567600437117, -19869.44912307848, -3739.022164228221, -22577.430019072297, 7401.8472316083, -20355.3536957924, -25839.577715346542, -7017.441930465929, -4381.567762084933, -10624.007657052, -17573.433229140428, -0.32275000000000004, 0.902, -0.15649999999999997, 192.0, 0.0, 0.0, 0.0, 0.0, 0.0, 0.0, 0.0, 0.0, 0.0, 1.6730445855541413E9, 0.0, 2023-01-06 17:36:25.554
224.0, -18806.19899108398, -25885.443494968833, -32233.584789465047, -17613.420499970973, -8972.750183671735, -6895.870792373514, -19888.492809354404, -3748.767524810735, -22558.319277563012, 7408.485699711526, -20358.572346993966, -25845.389168904923, -7007.316590227675, -4383.311198152447, -10623.694732629625, -17570.773371550247, -0.32275000000000004, 0.902, -0.15649999999999997, 192.0, 0.0, 0.0, 0.0, 0.0, 0.0, 0.0, 0.0, 0.0, 0.0, 1.6730445855541465E9, 0.0, 2023-01-06 17:36:25.554
226.0, -18802.175677082025, -25883.208320523303, -32239.41859476788, -17587.29131070272, -8975.16417207291, -6907.851327401559, -19904.161382217575, -3745.884149776, -22552.753693193637, 7407.211650277573, -20373.03392565655, -25856.20741322129, -7010.445834451418, -4369.833096245897, -10629.10385478781, -17577.300080931196, -0.32275000000000004, 0.902, -0.15649999999999997, 192.0, 0.0, 0.0, 0.0, 0.0, 0.0, 0.0, 0.0, 0.0, 0.0, 1.673044585554152E9, 0.0, 2023-01-06 17:36:25.554
228.0, -18781.455609971956, -25864.522262158665, -32232.780126664657, -17561.13976969001, -8954.466456707294, -6891.646312671461, -19913.862039311178, -3744.274824175218, -22528.882030115372, 7435.352496546805, -20357.633573726842, -25847.378474161444, -6999.918162812968, -4354.857427460841, -10623.20299425161, -17568.292327915708, -0.32275000000000004, 0.902, -0.15649999999999997, 192.0, 0.0, 0.0, 0.0, 0.0, 0.0, 0.0, 0.0, 0.0, 0.0, 1.6730445855541575E9, 0.0, 2023-01-06 17:36:25.554
230.0, -18770.883234844594, -25858.554346389097, -32227.594521951025, -17551.014429451756, -8953.035945062154, -6887.243019013766, -19892.98550998992, -3716.849233728556, -22514.711024130705, 7443.957918162098, -20342.41203575278, -25841.052930480593, -6990.530430141739, -4356.422049572712, -10615.223421481065, -17555.350667876086, -0.29137500000000005, 0.8220000000000001, -0.17225, 192.0, 123.5, 112.0, 11.5, 24.0, 125.0, 16.0, 0.0, 0.0, 0.0, 1.6730445855541644E9, 0.0, 2023-01-06 17:36:25.554
232.0, -18771.48673194489, -25856.945020788316, -32230.343786519028, -17536.552850789172, -8957.8639218645, -6868.199332737843, -19903.043794994806, -3726.371076866517, -22521.774175378585, 7442.23683383904, -20348.6034689669, -25857.526166144155, -6997.392415689518, -4361.808819986441, -10619.850232583312, -17559.91042374497, -0.29137500000000005, 0.8220000000000001, -0.17225, 192.0, 0.0, 0.0, 0.0, 0.0, 0.0, 0.0, 0.0, 0.0, 0.0, 1.67304458555417E9, 0.0, 2023-01-06 17:36:25.554
234.0, -18752.66656311352, -25842.46109038128, -32205.399239706905, -17507.786155675192, -8942.754142612714, -6861.382050678975, -19900.585103104724, -3707.752073735246, -22512.3640909629, 7454.686755500646, -20328.46454721267, -25848.74193057322, -6989.166973729965, -4349.29184309147, -10608.920229544668, -17556.155330676476, -0.29137500000000005, 0.8220000000000001, -0.17225, 192.0, 0.0, 0.0, 0.0, 0.0, 0.0, 0.0, 0.0, 0.0, 0.0, 1.6730445855541754E9, 0.0, 2023-01-06 17:36:25.554
236.0, -18749.17969097849, -25840.650599080396, -32179.337105672017, -17476.65017564895, -8949.213796760298, -6859.616262867005, -19897.61232109217, -3688.0378351256654, -22501.83641932445, 7469.416555096693, -20302.000081777584, -25831.93341874283, -6976.918217768457, -4326.984802125073, -10592.357586903285, -17533.401254820976, -0.29137500000000005, 0.8220000000000001, -0.17225, 192.0, 0.0, 0.0, 0.0, 0.0, 0.0, 0.0, 0.0, 0.0, 0.0, 1.6730445855541809E9, 0.0, 2023-01-06 17:36:25.554
238.0, -18761.316688217725, -25862.868233068973, -32168.541213100103, -17466.45778017733, -8957.48394220876, -6859.88448380047, -19904.317844428762, -3704.7122364893244, -22521.528306189575, 7458.128924146763, -20300.189590476704, -25837.54370660111, -6968.71512755336, -4328.102389347839, -10597.09615672781, -17542.990153192302, -0.29137500000000005, 0.8220000000000001, -0.17225, 192.0, 0.0, 0.0, 0.0, 0.0, 0.0, 0.0, 0.0, 0.0, 0.0, 1.673044585554186E9, 0.0, 2023-01-06 17:36:25.554
240.0, -18751.973659035404, -25865.25986972569, -32149.721044268736, -17453.002030015236, -8909.04771197411, -6869.5851408940725, -19898.528742614835, -3688.7530909482352, -22513.325215974477, 7468.656595785213, -20271.087619195892, -25819.461145336765, -6961.562569327662, -4317.775883409487, -10580.198237919598, -17525.019350650233, -0.27468750000000003, 0.789, -0.193125, 192.0, 123.5, 120.0, 11.5, 80.0, 124.5, 40.0, 0.0, 0.0, 0.0, 1.6730445855541916E9, 0.0, 2023-01-06 17:36:25.554
242.0, -18799.649929958574, -25929.834059457073, -32173.16802420235, -17485.434411219885, -8964.547093456638, -6900.095272075567, -19948.79781589482, -3733.0318967141984, -22554.340667049964, 7435.531310502447, -20289.617215349343, -25844.07041598206, -6975.28654042322, -4338.3841917972795, -10598.772537561958, -17545.76176950476, -0.27468750000000003, 0.789, -0.193125, 192.0, 0.0, 0.0, 0.0, 0.0, 0.0, 0.0, 0.0, 0.0, 0.0, 1.6730445860339203E9, 0.0, 2023-01-06 17:36:26.033
244.0, -18765.183540008493, -25913.60669298252, -32125.670567234825, -17448.017591001702, -8925.990334271233, -6866.098268759045, -19906.687129341022, -3712.669457515414, -22590.23756864519, 7406.60815317728, -20298.87083755384, -25865.282221470145, -6969.273921164742, -4366.547389810967, -10606.752110332503, -17557.384676621517, -0.27468750000000003, 0.789, -0.193125, 192.0, 0.0, 0.0, 0.0, 0.0, 0.0, 0.0, 0.0, 0.0, 0.0, 1.6730445860339625E9, 0.0, 2023-01-06 17:36:26.033
246.0, -18765.608223153144, -25946.106129420536, -32110.761953683133, -17437.333457152065, -8914.322723665562, -6845.981698749269, -19901.70269032749, -3699.213707353319, -22581.878016218903, 7431.373886033761, -20260.44818883517, -25830.100575697492, -6928.146711366977, -4330.114046348816, -10559.969909187545, -17516.212763334843, -0.27468750000000003, 0.789, -0.193125, 192.0, 0.0, 0.0, 0.0, 0.0, 0.0, 0.0, 0.0, 0.0, 0.0, 1.6730445860339794E9, 0.0, 2023-01-06 17:36:26.033
248.0, -18726.64913256754, -25932.60567576953, -32065.320857205494, -17389.567779251072, -8894.09439493351, -6823.831119994059, -19855.903965938567, -3671.274026784185, -22573.2278911147, 7417.649914938202, -20232.03912163247, -25816.935398213318, -6892.987417338779, -4319.675781688187, -10548.034077648412, -17501.907646883446, -0.27468750000000003, 0.789, -0.193125, 192.0, 0.0, 0.0, 0.0, 0.0, 0.0, 0.0, 0.0, 0.0, 0.0, 1.673044586034015E9, 0.0, 2023-01-06 17:36:26.034
250.0, -18699.22354212088, -25930.370501324, -32032.977882978666, -17344.99840080719, -8836.203376794265, -6771.975072857746, -19815.40260498555, -3625.117674483976, -22571.19388236927, 7432.357362789794, -20191.80598161292, -25777.641031460887, -6840.97490799128, -4260.443658881624, -10510.393739985675, -17455.59483237205, -0.26734375, 0.8035000000000001, -0.20156249999999998, 192.0, 123.5, 112.0, 12.5, 72.0, 124.5, 56.0, 0.0, 0.0, 0.0, 1.673044586034021E9, 0.0, 2023-01-06 17:36:26.034
252.0, -18682.973823901873, -25949.481242833288, -32015.409411836794, -17323.607781363462, -8793.757414073636, -6736.994592785191, -19787.39586918305, -3601.1119009389763, -22572.60204226995, 7408.150423544696, -20172.538777892445, -25774.467083748234, -6797.143137114423, -4249.267786653971, -10489.092527519766, -17434.941820495347, -0.26734375, 0.8035000000000001, -0.20156249999999998, 192.0, 0.0, 0.0, 0.0, 0.0, 0.0, 0.0, 0.0, 0.0, 0.0, 1.6730445860340264E9, 0.0, 2023-01-06 17:36:26.034
254.0, -18620.97008478285, -25918.211152340315, -31953.22685876213, -17262.386353300375, -8757.905215967325, -6698.996627211169, -19729.683664999448, -3560.0293946301217, -22541.086082587968, 7410.139728801219, -20118.089928399317, -25739.3748449534, -6736.033467773613, -4209.816957690354, -10441.773884507882, -17391.44532578532, -0.26734375, 0.8035000000000001, -0.20156249999999998, 192.0, 0.0, 0.0, 0.0, 0.0, 0.0, 0.0, 0.0, 0.0, 0.0, 1.6730445860340319E9, 0.0, 2023-01-06 17:36:26.034
0.0, -18609.905971277472, -25920.93806516386, -31950.27642849403, -17252.573937484496, -8671.806296325482, -6706.484461603697, -19708.427156022448, -3559.1129731074543, -22532.100681316937, 7389.866696580255, -20075.21928253404, -25707.031870726572, -6698.70605453325, -4184.313617266848, -10414.325942316764, -17360.53286320363, -0.26734375, 0.8035000000000001, -0.20156249999999998, 192.0, 0.0, 0.0, 0.0, 0.0, 0.0, 0.0, 0.0, 0.0, 0.0, 1.673044586034037E9, 0.0, 2023-01-06 17:36:26.034
2.0, -18618.042006259206, -25962.46760636182, -31945.873134836333, -17255.166739841312, -8727.931526652757, -6715.46986287473, -19702.57099897516, -3573.8204209590463, -22568.243452101167, 7339.30705062235, -20076.560387201356, -25697.33121363297, -6694.772147509116, -4188.7616144134545, -10415.130605117156, -17363.61740393846, -0.26734375, 0.8035000000000001, -0.20156249999999998, 192.0, 0.0, 0.0, 0.0, 0.0, 0.0, 0.0, 0.0, 0.0, 0.0, 1.6730445860340428E9, 0.0, 2023-01-06 17:36:26.034
4.0, -18657.35872475609, -26027.689996682406, -31979.13253058583, -17290.10251642496, -8781.687472067772, -6793.745671957216, -19718.19486834942, -3669.530590716671, -22633.845822077492, 7248.268395455885, -20107.785774205422, -25712.619806840397, -6697.119080676924, -4224.971440431052, -10429.480425057463, -17395.692157231828, -0.276671875, 0.83575, -0.20078125, 192.0, 123.5, 8.0, 13.5, 16.0, 124.5, 96.0, 0.0, 0.0, 0.0, 1.6730445860340483E9, 0.0, 2023-01-06 17:36:26.034
6.0, -18659.906823623995, -26074.986287949836, -31979.17723407474, -17293.298815882066, -8758.39695434534, -6772.466811235763, -19714.819754936667, -3615.3946656459175, -22681.38798253393, 7158.392031001095, -20118.134631888228, -25749.455481702746, -6674.700280988251, -4259.862513525786, -10431.02269542488, -17413.752366751716, -0.276671875, 0.83575, -0.20078125, 192.0, 0.0, 0.0, 0.0, 0.0, 0.0, 0.0, 0.0, 0.0, 0.0, 1.6730445860340612E9, 0.0, 2023-01-06 17:36:26.034
8.0, -18644.148843783005, -26068.325468102154, -31968.157824058275, -17271.75173422715, -8730.591384242938, -6789.297674810609, -19704.76146993178, -3642.239110736741, -22712.009872437702, 7113.152100223554, -20108.389271305714, -25729.294208204057, -6665.245493083656, -4257.98496699154, -10419.042160396833, -17385.030375126647, -0.276671875, 0.83575, -0.20078125, 192.0, 0.0, 0.0, 0.0, 0.0, 0.0, 0.0, 0.0, 0.0, 0.0, 1.673044586034067E9, 0.0, 2023-01-06 17:36:26.034
10.0, -18665.271242293267, -26072.929927459947, -32004.948795431712, -17323.42896740782, -8779.340538899964, -6824.367561860987, -19746.53688031875, -3650.2186835072857, -22744.330494920076, 7076.6740532724925, -20107.674015483146, -25712.843324284953, -6655.053097612035, -4269.98785376404, -10419.153919119111, -17384.516285004174, -0.276671875, 0.83575, -0.20078125, 192.0, 0.0, 0.0, 0.0, 0.0, 0.0, 0.0, 0.0, 0.0, 0.0, 1.6730445860340724E9, 0.0, 2023-01-06 17:36:26.034
12.0, -18718.714263285907, -26106.435192398454, -32063.465662415703, -17396.005081654203, -8806.274390968609, -6883.420870711908, -19794.30255821974, -3713.049437171154, -22838.18546988791, 6960.646147804993, -20185.726307121076, -25777.953955883262, -6707.199717426267, -4387.021587732028, -10494.367539211218, -17468.13416101148, -0.276671875, 0.83575, -0.20078125, 192.0, 0.0, 0.0, 0.0, 0.0, 0.0, 0.0, 0.0, 0.0, 0.0, 1.6730445860340776E9, 0.0, 2023-01-06 17:36:26.034
14.0, -18743.122368231103, -26102.300119674223, -32105.64340420287, -17436.26057341821, -8835.689286671792, -6903.917420377425, -19821.370520755117, -3753.953129524366, -22900.971520062867, 6892.69684466086, -20233.33552281088, -25813.06854642255, -6743.275432977132, -4419.5433759145, -10537.305240309865, -17506.55680973015, -0.2783359375, 0.848875, -0.209390625, 192.0, 123.5, 32.0, 13.0, 120.0, 124.5, 24.0, 0.0, 0.0, 0.0, 1.6730445860340831E9, 0.0, 2023-01-06 17:36:26.034
16.0, -18778.259310514844, -26116.515829147796, -32145.854192477967, -17488.40719323244, -8881.443307571806, -6969.720956053849, -19847.790282701288, -3805.6080109605805, -22934.34267453464, 6858.029289010678, -20250.00992417454, -25805.692470752296, -6781.541619484618, -4442.766838403563, -10559.724039998537, -17520.683112225906, -0.2783359375, 0.848875, -0.209390625, 192.0, 0.0, 0.0, 0.0, 0.0, 0.0, 0.0, 0.0, 0.0, 0.0, 1.6730445860340889E9, 0.0, 2023-01-06 17:36:26.034
18.0, -18785.836551885193, -26111.173762222978, -32165.926058998833, -17517.687978468894, -8915.417959143873, -6984.450755649896, -19859.189672373497, -3834.128836885552, -22992.636024074083, 6786.011968375679, -20299.20611372067, -25849.814814307072, -6801.1440993719225, -4515.454711372222, -10613.904668558202, -17581.636319355526, -0.2783359375, 0.848875, -0.209390625, 192.0, 0.0, 0.0, 0.0, 0.0, 0.0, 0.0, 0.0, 0.0, 0.0, 1.673044586034094E9, 0.0, 2023-01-06 17:36:26.034
20.0, -18867.532177869343, -26180.821797945715, -32244.917123903888, -17595.58380789564, -8982.383785531973, -7047.862654669601, -19908.162344475073, -3905.363846464616, -23054.32683877073, 6728.433874658808, -20337.204079294694, -25848.40665440639, -6835.0740474550785, -4568.04836607556, -10655.367154522795, -17607.63139815705, -0.2783359375, 0.848875, -0.209390625, 192.0, 0.0, 0.0, 0.0, 0.0, 0.0, 0.0, 0.0, 0.0, 0.0, 1.6730445860340996E9, 0.0, 2023-01-06 17:36:26.034
22.0, -18897.997605561926, -26199.731373754905, -32287.385438368972, -17632.799462413725, -9005.607248021037, -7079.937407962967, -19929.240039496428, -3950.581425497702, -23137.654142100113, 6635.830597380472, -20414.250542432135, -25899.234521297756, -6902.93394362139, -4670.419355680866, -10734.69349559468, -17689.148210185554, -0.2783359375, 0.848875, -0.209390625, 192.0, 0.0, 0.0, 0.0, 0.0, 0.0, 0.0, 0.0, 0.0, 0.0, 1.6730445860341053E9, 0.0, 2023-01-06 17:36:26.034
24.0, -18898.60110266222, -26195.193969630476, -32282.356295866528, -17631.950096124423, -9008.512974800227, -7114.73907407988, -19897.500562369893, -3994.4131963745594, -23160.20705225552, 6609.030855778558, -20419.52555412359, -25875.87694834196, -6907.113719834533, -4704.93044911986, -10738.515643896539, -17699.094736468167, -0.2783359375, 0.848875, -0.209390625, 192.0, 0.0, 0.0, 0.0, 0.0, 0.0, 0.0, 0.0, 0.0, 0.0, 1.6730445860341108E9, 0.0, 2023-01-06 17:36:26.034
26.0, -18886.1064775117, -26195.171617886022, -32262.8655747015, -17613.509906948795, -8993.06791938161, -7044.554596490217, -19859.770817729335, -3925.838044385677, -23169.415970971106, 6573.290416394522, -20418.05033898954, -25894.98768985125, -6930.001906156767, -4722.856548173017, -10723.763492556036, -17695.58551258868, -0.28, 0.882, -0.258, 192.0, 123.5, 32.0, 13.5, 72.0, 123.5, 120.0, 0.0, 0.0, 0.0, 1.673044586034116E9, 0.0, 2023-01-06 17:36:26.034
28.0, -18835.837404231715, -26160.392303513567, -32220.352556747504, -17587.224255469355, -8943.938785068845, -7079.6691870295035, -19824.946799867965, -4014.485062895425, -23143.689113103046, 6567.210741902679, -20381.527588549565, -25898.340451519543, -6863.706632102327, -4686.69142564433, -10678.389451311761, -17653.139549868054, -0.28, 0.882, -0.258, 192.0, 0.0, 0.0, 0.0, 0.0, 0.0, 0.0, 0.0, 0.0, 0.0, 1.6730445860341218E9, 0.0, 2023-01-06 17:36:26.034
30.0, -18773.67720290151, -26104.1106109751, -32155.398387360383, -17534.921173443934, -8853.190702580298, -6983.5790376161385, -19729.258981854797, -3833.391229318527, -23112.039042954333, 6571.614035560374, -20337.092320572418, -25897.111105574502, -6804.765081973682, -4662.395079421411, -10641.464369471594, -17602.311682976688, -0.28, 0.882, -0.258, 192.0, 0.0, 0.0, 0.0, 0.0, 0.0, 0.0, 0.0, 0.0, 0.0, 1.6730445860341272E9, 0.0, 2023-01-06 17:36:26.034
32.0, -18772.604319167654, -26129.882172332073, -32146.390634344894, -17566.57124359265, -8834.526995960117, -6981.835601548624, -19678.49817019679, -3886.2531049553286, -23070.442446523008, 6607.645047622329, -20278.86602626634, -25837.275485667647, -6783.10624159649, -4612.304820097068, -10563.590891789305, -17527.187469862398, -0.28, 0.882, -0.258, 192.0, 0.0, 0.0, 0.0, 0.0, 0.0, 0.0, 0.0, 0.0, 0.0, 1.6730445860341327E9, 0.0, 2023-01-06 17:36:26.034
34.0, -18787.445877485978, -26172.484597263887, -32163.37796013093, -17621.690645419436, -8830.190757535787, -6997.392415689518, -19679.772219630744, -3902.1228435185963, -23076.209196592474, 6590.59066660293, -20282.509360612556, -25823.372700616444, -6811.8282332215595, -4665.770192834162, -10565.915473212657, -17539.74915024628, -0.28, 0.882, -0.258, 192.0, 0.0, 0.0, 0.0, 0.0, 0.0, 0.0, 0.0, 0.0, 0.0, 1.6730445860341384E9, 0.0, 2023-01-06 17:36:26.034
36.0, -18825.801470971284, -26201.921844711527, -32204.795742606613, -17677.324137368698, -8868.971034165745, -7019.364180489085, -19706.303740299194, -3935.8739776461102, -23112.15080167661, 6538.086418877414, -20313.935913316716, -25839.197735690803, -6799.400663304408, -4694.201611781313, -10591.32940665834, -17564.067848213657, -0.302, 0.9480000000000001, -0.264, 192.0, 123.0, 72.0, 14.5, 80.0, 123.5, 96.0, 0.0, 0.0, 0.0, 1.6730445860341437E9, 0.0, 2023-01-06 17:36:26.034
38.0, -18820.325293579735, -26186.0297544038, -32198.8501785815, -17695.138477699576, -8873.32962433453, -7023.409846235496, -19710.058833367686, -3935.5610532237356, -23132.62499959767, 6493.137060777791, -20331.057349569484, -25867.87502382696, -6844.685297570861, -4708.3055625326115, -10613.502337158006, -17579.95993852138, -0.302, 0.9480000000000001, -0.264, 192.0, 0.0, 0.0, 0.0, 0.0, 0.0, 0.0, 0.0, 0.0, 0.0, 1.6730445860341508E9, 0.0, 2023-01-06 17:36:26.034
40.0, -18837.692599021506, -26177.200815343956, -32233.137754575942, -17711.678768596503, -8879.208133126276, -7026.852014881613, -19712.025786879753, -3947.9215679075205, -23143.39854042513, 6465.890284286772, -20336.73469266113, -25874.73700937474, -6842.226605680777, -4713.692332946341, -10620.118453516776, -17572.85208378459, -0.302, 0.9480000000000001, -0.264, 192.0, 0.0, 0.0, 0.0, 0.0, 0.0, 0.0, 0.0, 0.0, 0.0, 1.673044586034156E9, 0.0, 2023-01-06 17:36:26.034
42.0, -18783.668432673032, -26108.268035443787, -32130.431488803806, -17652.536052767762, -8788.862382037923, -6947.592729043095, -19648.233908204307, -3893.8526980701326, -23108.015728952378, 6571.010538460081, -20310.98548304862, -25848.272543939656, -6813.191689633333, -4712.910021890405, -10602.23705795253, -17560.96095573437, -0.302, 0.9480000000000001, -0.264, 192.0, 0.0, 0.0, 0.0, 0.0, 0.0, 0.0, 0.0, 0.0, 0.0, 1.6730445860341616E9, 0.0, 2023-01-06 17:36:26.034
44.0, -18859.64201207662, -26195.70805975295, -32216.888036356933, -17740.55722243276, -8898.296522891107, -7005.371988460063, -19713.255132824797, -3939.7408294368784, -23123.349025648717, 6454.759115548029, -20305.26343646806, -25886.78459963615, -6834.1129224435, -4698.850774628017, -10598.90664802869, -17542.431359580918, -0.302, 0.9480000000000001, -0.264, 192.0, 0.0, 0.0, 0.0, 0.0, 0.0, 0.0, 0.0, 0.0, 0.0, 1.6730445860341673E9, 0.0, 2023-01-06 17:36:26.034
46.0, -18775.95708083595, -26100.243759184334, -32149.54223031309, -17668.9198814535, -8848.675650200326, -6952.823037245636, -19657.711047853358, -3918.9313553489874, -23142.59387762474, 6455.474371370598, -20336.801747894497, -25942.52985030769, -6808.58723027554, -4704.572821208575, -10616.273953470463, -17571.443923883908, -0.276, 0.9440000000000001, -0.24, 192.0, 123.5, 48.0, 14.5, 64.0, 124.0, 64.0, 0.0, 0.0, 0.0, 1.6730445860341728E9, 0.0, 2023-01-06 17:36:26.034
48.0, -18849.471968349455, -26246.424167922043, -32214.71991714477, -17761.903138387577, -8840.651373940871, -6961.51786583875, -19645.41758840294, -3913.745750635356, -23084.81461820777, 6286.875162944218, -20289.59486360489, -25944.76502475322, -6774.411413003375, -4664.071460255559, -10555.432505063118, -17517.151536601967, -0.276, 0.9440000000000001, -0.24, 192.0, 0.0, 0.0, 0.0, 0.0, 0.0, 0.0, 0.0, 0.0, 0.0, 1.6730445860341783E9, 0.0, 2023-01-06 17:36:26.034
50.0, -18757.583946893687, -26041.3469125446, -32158.79585251759, -17644.422369530486, -8815.03627479509, -6925.732722965804, -19630.39721612897, -3902.3016574742387, -23200.708413208537, 6273.888799415684, -20369.658812243797, -26057.127244130046, -6756.664127905861, -4673.950931304805, -10611.356569690297, -17565.319545903152, -0.276, 0.9440000000000001, -0.24, 192.0, 0.0, 0.0, 0.0, 0.0, 0.0, 0.0, 0.0, 0.0, 0.0, 1.6730445860341835E9, 0.0, 2023-01-06 17:36:26.034
52.0, -18718.758966774818, -26078.808436251693, -32065.410264183316, -17610.872401103068, -8727.305677808008, -6834.06821895459, -19579.725811448792, -3803.909278381977, -22979.40379135654, 6765.247197776699, -20187.626205399778, -25872.16655876238, -6678.008339167636, -4603.900564181872, -10487.1255740077, -17447.905832279426, -0.276, 0.9440000000000001, -0.24, 192.0, 0.0, 0.0, 0.0, 0.0, 0.0, 0.0, 0.0, 0.0, 0.0, 1.6730445860341892E9, 0.0, 2023-01-06 17:36:26.034
54.0, -18754.36529569212, -26141.25921025982, -32121.915474166333, -17740.289001499295, -8722.924735894769, -6836.281041655665, -19543.337171475552, -3799.8636126355664, -23127.81937453978, 5949.877911791553, -20253.697962009664, -26102.344823163134, -6682.478688058697, -4662.484486399232, -10489.31604496432, -17461.0710097636, -0.276, 0.9440000000000001, -0.24, 192.0, 0.0, 0.0, 0.0, 0.0, 0.0, 0.0, 0.0, 0.0, 0.0, 1.6730445860341947E9, 0.0, 2023-01-06 17:36:26.034
56.0, -18681.565664001188, -25996.95634805636, -32109.9796426272, -17673.21141638892, -8720.197823071221, -6821.640649037439, -19512.603522849506, -3802.1881940589187, -23107.032252196343, 6466.426726153699, -20266.19258716018, -26068.951316946903, -6567.076631435947, -4576.1173458239255, -10483.303425705843, -17450.275117191686, -0.26, 0.886, -0.202, 192.0, 123.5, 112.0, 13.5, 88.0, 124.5, 88.0, 0.0, 0.0, 0.0, 1.6730445860342E9, 0.0, 2023-01-06 17:36:26.034
58.0, -18595.15381993697, -25914.478411016276, -31983.66993471026, -17607.43023245695, -8659.959871764167, -6783.86620090797, -19495.258569152185, -3788.3077607521727, -22888.901578057, 6562.539227311519, -20156.579632351357, -26016.96115934386, -6658.964652891714, -4579.179534814302, -10431.603840780717, -17430.806747771116, -0.26, 0.886, -0.202, 192.0, 0.0, 0.0, 0.0, 0.0, 0.0, 0.0, 0.0, 0.0, 0.0, 1.6730445860342057E9, 0.0, 2023-01-06 17:36:26.034
60.0, -18522.197726034847, -25822.813907005064, -31940.978102800622, -17492.92224561241, -8610.383702562298, -6689.6759497733065, -19486.675499281348, -3721.6325070419916, -22861.744208543805, 6981.254456192787, -20090.776096674934, -25851.044160252117, -6578.565428085974, -4402.846622806385, -10387.503848970397, -17364.06443882757, -0.26, 0.886, -0.202, 192.0, 0.0, 0.0, 0.0, 0.0, 0.0, 0.0, 0.0, 0.0, 0.0, 1.673044586034211E9, 0.0, 2023-01-06 17:36:26.034
62.0, -18471.481617865757, -25764.34174350998, -31889.434980086684, -17482.104001296044, -8574.017414333513, -6597.631466106352, -19363.182111165777, -3631.309107698096, -22791.93971060988, 6824.792245005638, -20039.121215238716, -25887.70102115882, -6514.237107543601, -4399.650323349277, -10349.52823514083, -17319.562115617053, -0.26, 0.886, -0.202, 192.0, 0.0, 0.0, 0.0, 0.0, 0.0, 0.0, 0.0, 0.0, 0.0, 1.6730445860342164E9, 0.0, 2023-01-06 17:36:26.034
64.0, -18395.88801811791, -25672.744294732132, -31821.0609937979, -17418.55799180961, -8505.375207111265, -6517.0981308338805, -19268.366011186365, -3553.480333504717, -22754.25466945823, 6814.197518133822, -19978.257415086915, -25918.70289071833, -6441.459827597121, -4329.242328315059, -10253.84041712766, -17251.635164217372, -0.26, 0.886, -0.202, 192.0, 0.0, 0.0, 0.0, 0.0, 0.0, 0.0, 0.0, 0.0, 0.0, 1.673044586034222E9, 0.0, 2023-01-06 17:36:26.034
66.0, -18367.568357893033, -25661.970753904672, -31786.259327680986, -17380.15769483539, -8449.004107594981, -6427.869966968295, -19187.94443463617, -3471.002396464634, -22701.92923568836, 6809.101320398012, -19907.424736908048, -25884.951756590817, -6344.609718872276, -4236.326126614347, -10189.892076241025, -17184.982262251648, -0.23, 0.8280000000000001, -0.20400000000000001, 192.0, 124.0, 104.0, 12.5, 112.0, 124.5, 80.0, 0.0, 0.0, 0.0, 1.6730445860342271E9, 0.0, 2023-01-06 17:36:26.034
68.0, -18331.492642342168, -25572.072037705428, -31766.120405926755, -17323.831298808014, -8423.031380537914, -6399.8185276768845, -19161.144693034257, -3448.2930240980418, -22759.88730906097, 6688.781879995094, -19915.33725444523, -25907.772887679683, -6343.715649094063, -4181.609056187756, -10155.269224079755, -17152.326363602446, -0.23, 0.8280000000000001, -0.20400000000000001, 192.0, 0.0, 0.0, 0.0, 0.0, 0.0, 0.0, 0.0, 0.0, 0.0, 1.673044586034234E9, 0.0, 2023-01-06 17:36:26.034
70.0, -18297.696804725743, -25566.908784736253, -31688.805721855846, -17257.916004409315, -8429.222813752034, -6398.611533476297, -19140.514032902007, -3437.9218146707794, -22680.650374966906, 7012.122215285566, -19830.802956915257, -25744.4263392003, -6244.384496734679, -4158.564407654334, -10124.893203364993, -17107.91344736975, -0.23, 0.8280000000000001, -0.20400000000000001, 192.0, 0.0, 0.0, 0.0, 0.0, 0.0, 0.0, 0.0, 0.0, 0.0, 1.6730445860342407E9, 0.0, 2023-01-06 17:36:26.034
72.0, -18257.351905983916, -25478.507635415514, -31665.179927966587, -17204.40592818331, -8398.891496526181, -6420.672705253685, -19132.087425242356, -3446.281367097064, -22662.098427069002, 6831.788341020148, -19809.188820026975, -25733.585743139476, -6317.809977270363, -4137.1067329772395, -10090.985607026292, -17093.876551851816, -0.23, 0.8280000000000001, -0.20400000000000001, 192.0, 0.0, 0.0, 0.0, 0.0, 0.0, 0.0, 0.0, 0.0, 0.0, 1.6730445860342462E9, 0.0, 2023-01-06 17:36:26.034
74.0, -18290.834819177966, -25518.49490624606, -31692.09142829078, -17191.732489077152, -8410.134423987201, -6408.491004525543, -19153.880376086283, -3467.806097007525, -22594.75262102516, 7228.040066723832, -19768.598052096135, -25565.813549257942, -6337.568919368854, -4059.389717506137, -10086.783479068694, -17053.3751908988, -0.23, 0.8280000000000001, -0.20400000000000001, 192.0, 0.0, 0.0, 0.0, 0.0, 0.0, 0.0, 0.0, 0.0, 0.0, 1.6730445860342517E9, 0.0, 2023-01-06 17:36:26.034
76.0, -18268.259557278107, -25472.629126623768, -31682.681343875094, -17183.127067461857, -8433.491996942998, -6432.787350748462, -19157.300192987943, -3506.0722835150104, -22754.07585550259, 7215.254868895397, -19859.055561906764, -25576.408276129758, -6384.507582724998, -4118.152453679139, -10128.223613288834, -17104.09129906789, -0.268, 0.932, -0.22, 192.0, 123.5, 80.0, 14.5, 16.0, 124.5, 16.0, 0.0, 0.0, 0.0, 1.6730445860342572E9, 0.0, 2023-01-06 17:36:26.034
78.0, -18312.404252577337, -25538.030330899994, -31708.02822208741, -17222.64495165884, -8455.10613383128, -6442.286842141967, -19195.924007406713, -3536.314193763041, -22508.02785253857, 7211.52212757136, -19782.52318889179, -25534.163479109226, -6388.776765915963, -4087.6646742421003, -10115.728988138317, -17095.4858774526, -0.268, 0.932, -0.22, 192.0, 0.0, 0.0, 0.0, 0.0, 0.0, 0.0, 0.0, 0.0, 0.0, 1.6730445860342624E9, 0.0, 2023-01-06 17:36:26.034
80.0, -18307.732737986178, -25522.406461525734, -31699.132227794198, -17223.807242370516, -8470.81941018336, -6449.03706896747, -19172.141751306266, -3533.1402460503873, -22712.613369537994, 7150.725382652925, -19883.798943018788, -25595.474314150135, -6392.554210728909, -4096.7171307465, -10149.144846099001, -17127.448872023688, -0.268, 0.932, -0.22, 192.0, 0.0, 0.0, 0.0, 0.0, 0.0, 0.0, 0.0, 0.0, 0.0, 1.673044586034268E9, 0.0, 2023-01-06 17:36:26.034
82.0, -18419.044425373606, -25638.25555303759, -31770.90367924019, -17323.1383947299, -8505.308151877898, -6497.160374779746, -19206.697548234173, -3573.9098279368673, -22647.838014106514, 7121.958687538945, -19854.540509526792, -25584.544311111487, -6472.193476223169, -4070.1409065891394, -10136.67257269294, -17123.20204057718, -0.268, 0.932, -0.22, 192.0, 0.0, 0.0, 0.0, 0.0, 0.0, 0.0, 0.0, 0.0, 0.0, 1.6730445860342734E9, 0.0, 2023-01-06 17:36:26.034
84.0, -18478.32125166908, -25688.144646661836, -31865.473910030596, -17413.171221395878, -8594.581019232395, -6590.21068694719, -19313.49418324163, -3671.7657651622017, -22796.32065252312, 6814.532794300651, -20005.90652297813, -25729.271856459603, -6518.819215156939, -4164.979358313008, -10239.669411142995, -17218.286361490056, -0.268, 0.932, -0.22, 192.0, 0.0, 0.0, 0.0, 0.0, 0.0, 0.0, 0.0, 0.0, 0.0, 1.6730445860342789E9, 0.0, 2023-01-06 17:36:26.034
86.0, -18476.153132456915, -25662.440140538234, -31869.564279265916, -17425.643494801938, -8636.51289183055, -6645.486550985164, -19394.005166769646, -3758.98227202681, -22811.43043177491, 7213.153804916597, -20019.228162673495, -25658.059198624993, -6597.720873084173, -4200.183355830116, -10301.717853750928, -17271.930548182794, -0.28400000000000003, 0.996, -0.23, 192.0, 123.5, 16.0, 15.5, 16.0, 124.0, 104.0, 0.0, 0.0, 0.0, 1.6730445860342844E9, 0.0, 2023-01-06 17:36:26.034
88.0, -18513.301731741634, -25675.98529767815, -31927.924684038724, -17451.862091048013, -8686.737261621627, -6688.759528250638, -19431.064359076543, -3821.455397779393, -22632.974104043737, 7296.101128590242, -20003.403127599136, -25628.621951177356, -6682.724557247706, -4203.938448898608, -10336.81009254576, -17312.05192948007, -0.28400000000000003, 0.996, -0.23, 192.0, 0.0, 0.0, 0.0, 0.0, 0.0, 0.0, 0.0, 0.0, 0.0, 1.6730445860342898E9, 0.0, 2023-01-06 17:36:26.034
90.0, -18678.70464071091, -25857.39205567742, -32102.380049512394, -17625.624552443573, -8787.387166903874, -6804.63097150695, -19553.283697758165, -3942.3559835381493, -22863.979382989335, 6993.100880754099, -20181.792400096943, -25746.90738283484, -6658.182341835778, -4305.460072214612, -10441.058628685312, -17403.984654424745, -0.28400000000000003, 0.996, -0.23, 192.0, 0.0, 0.0, 0.0, 0.0, 0.0, 0.0, 0.0, 0.0, 0.0, 1.673044586034295E9, 0.0, 2023-01-06 17:36:26.034
92.0, -18788.47405773092, -25947.71545502132, -32185.349724930493, -17755.0411528398, -8884.125516906442, -6890.528725448696, -19645.55169886967, -4026.2420804789167, -23048.582440445716, 7084.273646387297, -20300.010776521063, -25866.22099473727, -6870.479210672285, -4426.740637629108, -10552.61618526175, -17521.51012677075, -0.28400000000000003, 0.996, -0.23, 192.0, 0.0, 0.0, 0.0, 0.0, 0.0, 0.0, 0.0, 0.0, 0.0, 1.6730445860343008E9, 0.0, 2023-01-06 17:36:26.034
94.0, -18753.113598002627, -25891.858445627506, -32178.487739382716, -17697.999500989856, -8913.249839931708, -6876.9835683087795, -19655.07354200763, -4036.32271722826, -23035.28315249481, 7070.370861336096, -20378.04071641454, -25932.382158324977, -6871.239169983765, -4448.466533239667, -10594.123374715255, -17568.158217448978, -0.28400000000000003, 0.996, -0.23, 192.0, 0.0, 0.0, 0.0, 0.0, 0.0, 0.0, 0.0, 0.0, 0.0, 1.6730445860343063E9, 0.0, 2023-01-06 17:36:26.034
96.0, -18764.3788772081, -25928.828230956584, -32204.41576295087, -17739.529042187816, -8937.277965221163, -6905.683208189394, -19683.102629554585, -4068.419822266081, -22746.92329727689, 7244.759171576402, -20268.718334283632, -25849.434834651332, -6928.906670678458, -4497.439205341245, -10578.857133252279, -17542.878394470026, -0.275, 0.996, -0.226, 192.0, 123.5, 88.0, 15.5, 16.0, 124.5, 8.0, 0.0, 0.0, 0.0, 1.6730445860343127E9, 0.0, 2023-01-06 17:36:26.034
98.0, -18952.714675988518, -26131.670311888494, -32410.40943985098, -17957.682068071612, -9047.69558283038, -7044.085209856655, -19808.20534327094, -4155.256349474949, -23062.306411541274, 6802.753424972704, -20520.62249429494, -26062.73753198833, -6832.905928242913, -4577.838430146984, -10706.954980725644, -17664.40482907353, -0.275, 0.996, -0.226, 192.0, 0.0, 0.0, 0.0, 0.0, 0.0, 0.0, 0.0, 0.0, 0.0, 1.6730445860343184E9, 0.0, 2023-01-06 17:36:26.034
100.0, -18916.258980781913, -26050.354665560088, -32390.426980307937, -17896.25947430843, -9041.750018805269, -7031.34471551713, -19767.72633406238, -4197.478794751024, -23070.04011512281, 6940.060191161656, -20553.390151666423, -26147.4729952184, -6979.242799191809, -4558.861799104428, -10751.859635336355, -17716.21617272093, -0.275, 0.996, -0.226, 192.0, 0.0, 0.0, 0.0, 0.0, 0.0, 0.0, 0.0, 0.0, 0.0, 1.6730445860343237E9, 0.0, 2023-01-06 17:36:26.034
102.0, -18899.808096862806, -26037.144784587003, -32359.045131092684, -17899.031090620887, -9034.373943135017, -7028.148416060021, -19801.63393040108, -4202.396178531191, -22815.99018764379, 7355.310899652351, -20509.424270322834, -26003.125429526026, -6920.770635696726, -4552.200979256747, -10717.505004108549, -17673.01025068882, -0.275, 0.996, -0.226, 192.0, 0.0, 0.0, 0.0, 0.0, 0.0, 0.0, 0.0, 0.0, 0.0, 1.6730445860343304E9, 0.0, 2023-01-06 17:36:26.034
104.0, -18890.3086054693, -26047.15836610298, -32346.617561175535, -17969.506140888472, -9069.242664485297, -7028.1931195489315, -19821.97401785541, -4219.763483972965, -22886.800514078204, 7280.9466458495435, -20548.070436486058, -26115.39824192503, -7166.4833624939165, -4604.772282215629, -10780.983958361621, -17749.967306848444, -0.275, 0.996, -0.226, 192.0, 0.0, 0.0, 0.0, 0.0, 0.0, 0.0, 0.0, 0.0, 0.0, 1.673044586034336E9, 0.0, 2023-01-06 17:36:26.034
106.0, -18887.3581752012, -26056.188470862922, -32334.033529047196, -17922.656884510146, -9062.090106259599, -7032.641116695538, -19828.29956153626, -4226.469007309557, -22559.436864785777, 7265.121610775186, -20369.07766688796, -26095.4604858709, -7117.555393881249, -4553.027993801594, -10708.877230748802, -17678.084096680177, -0.2575, 0.968, -0.21400000000000002, 192.0, 124.0, 64.0, 14.5, 48.0, 124.5, 88.0, 0.0, 0.0, 0.0, 1.6730445860953236E9, 0.0, 2023-01-06 17:36:26.095
108.0, -18907.54180044434, -26052.34397081661, -32387.83417795112, -17975.60816712477, -9079.636225657014, -7046.409791280007, -19845.868032678132, -4247.770219775465, -22776.293489491163, 7324.487844048482, -20502.808153964063, -26113.565398879695, -7132.21813824393, -4579.090127836482, -10779.50874322757, -17732.756463617858, -0.2575, 0.968, -0.21400000000000002, 192.0, 0.0, 0.0, 0.0, 0.0, 0.0, 0.0, 0.0, 0.0, 0.0, 1.6730445860953307E9, 0.0, 2023-01-06 17:36:26.095
110.0, -18872.315451182778, -25996.57636840062, -32354.12774731252, -17912.799765205356, -9026.684943042392, -7004.746139615315, -19792.313252963217, -4177.764556141443, -22576.535949294084, 7713.922287693297, -20459.155197042848, -26073.44401758242, -7109.084082732687, -4527.167025466803, -10766.634138421314, -17718.65251286656, -0.2575, 0.968, -0.21400000000000002, 192.0, 0.0, 0.0, 0.0, 0.0, 0.0, 0.0, 0.0, 0.0, 0.0, 1.6730445860953364E9, 0.0, 2023-01-06 17:36:26.095
112.0, -18901.417422463586, -26030.953351372882, -32370.399817275982, -17937.74431201748, -9066.068716772643, -7037.491445242339, -19805.25491300284, -4173.115393294739, -22636.036293034114, 7605.73984452961, -20469.2805372811, -26083.010564209293, -7108.12295772111, -4628.688648782808, -10747.545748656483, -17690.757535786335, -0.2575, 0.968, -0.21400000000000002, 192.0, 0.0, 0.0, 0.0, 0.0, 0.0, 0.0, 0.0, 0.0, 0.0, 1.673044586095342E9, 0.0, 2023-01-06 17:36:26.095
114.0, -18925.80317566433, -26043.00094163429, -32396.5960617776, -17967.427428654126, -9072.729536620323, -7028.617802693582, -19839.45308201946, -4167.34864322527, -22660.131473556936, 7572.122820868829, -20496.795534705583, -26138.241724758354, -7115.253164202352, -4603.364122314945, -10770.188065789707, -17713.08692849719, -0.2575, 0.968, -0.21400000000000002, 192.0, 0.0, 0.0, 0.0, 0.0, 0.0, 0.0, 0.0, 0.0, 0.0, 1.6730445860953476E9, 0.0, 2023-01-06 17:36:26.095
116.0, -18931.70403620053, -26044.543212001707, -32395.344364088105, -17980.972585794043, -9124.585583756636, -7012.189270518932, -19859.748465984878, -4154.362279696737, -22670.949717873304, 7610.9478009876975, -20515.25807562567, -26144.857841117126, -7133.693353377981, -4577.2349330466905, -10794.95379864619, -17731.325951972718, -0.22175, 0.9199999999999999, -0.21500000000000002, 192.0, 125.0, 24.0, 13.5, 32.0, 124.5, 32.0, 0.0, 0.0, 0.0, 1.6730445860953543E9, 0.0, 2023-01-06 17:36:26.095
118.0, -18909.59816093423, -26016.514124454752, -32379.072294124642, -17961.79478905139, -9086.498211204793, -7017.218413021375, -19853.78055021531, -4120.1417589356615, -22643.792348360104, 7653.438467197236, -20498.80719170656, -26144.254344016834, -7092.5214400913055, -4531.592670868954, -10786.147211330797, -17726.989713548388, -0.22175, 0.9199999999999999, -0.21500000000000002, 192.0, 0.0, 0.0, 0.0, 0.0, 0.0, 0.0, 0.0, 0.0, 0.0, 1.6730445865628796E9, 0.0, 2023-01-06 17:36:26.562
120.0, -18928.105405343224, -26026.617112948552, -32391.253994852785, -17981.531379405427, -9115.197851085408, -7030.607107950104, -19855.523986282824, -4101.254534870927, -22639.165537257857, 7692.419909527292, -20492.2357788367, -26123.2660559733, -7102.669132074015, -4523.0543044870265, -10786.862467153367, -17723.949876302468, -0.22175, 0.9199999999999999, -0.21500000000000002, 192.0, 0.0, 0.0, 0.0, 0.0, 0.0, 0.0, 0.0, 0.0, 0.0, 1.673044586562943E9, 0.0, 2023-01-06 17:36:26.562
122.0, -18912.16861154659, -26001.449048691877, -32374.46783476685, -17973.730620590522, -9103.32907477964, -6999.113500012577, -19858.206195617462, -4071.705528701011, -22638.249115735187, 7711.016560914107, -20492.571055003533, -26140.02986431478, -7082.463155086417, -4527.2787841890795, -10794.529115501538, -17736.198632263975, -0.22175, 0.9199999999999999, -0.21500000000000002, 192.0, 0.0, 0.0, 0.0, 0.0, 0.0, 0.0, 0.0, 0.0, 0.0, 1.6730445865629594E9, 0.0, 2023-01-06 17:36:26.562
124.0, -18910.40282373462, -25985.869882806528, -32377.50767201277, -17964.90168153068, -9093.471955474848, -7023.990991591334, -19869.382067845116, -4053.891188370131, -22627.408519674365, 7769.734593598198, -20475.24845305067, -26101.294291173734, -7091.090928446166, -4496.723949518675, -10769.27164426704, -17713.08692849719, -0.22175, 0.9199999999999999, -0.21500000000000002, 192.0, 0.0, 0.0, 0.0, 0.0, 0.0, 0.0, 0.0, 0.0, 0.0, 1.6730445865630312E9, 0.0, 2023-01-06 17:36:26.563
126.0, -18906.08893705475, -25971.318897166122, -32367.985828874807, -17959.157283205663, -9089.448641472894, -7024.5497852027165, -19849.77958795781, -4025.0574380227854, -22633.06351102156, 7783.503268182668, -20474.75671467265, -26105.809343553705, -7111.095739733665, -4500.32258037598, -10774.658414680769, -17719.926562300512, -0.21687499999999998, 0.875, -0.2315, 192.0, 124.5, 48.0, 12.5, 120.0, 124.0, 32.0, 0.0, 0.0, 0.0, 1.6730445865630372E9, 0.0, 2023-01-06 17:36:26.563
