%OpenBCI Raw EEG Data
%Number of channels = 16
%Sample Rate = 125 Hz
%Board = OpenBCI_GUI$BoardCytonSerialDaisy
Sample Index, EXG Channel 0, EXG Channel 1, EXG Channel 2, EXG Channel 3, EXG Channel 4, EXG Channel 5, EXG Channel 6, EXG Channel 7, EXG Channel 8, EXG Channel 9, EXG Channel 10, EXG Channel 11, EXG Channel 12, EXG Channel 13, EXG Channel 14, EXG Channel 15, Accel Channel 0, Accel Channel 1, Accel Channel 2, Other, Other, Other, Other, Other, Other, Other, Analog Channel 0, Analog Channel 1, Analog Channel 2, Timestamp, Other, Timestamp (Formatted)
44.0, -21384.495065748106, -8650.952118748679, -5885.817812182643, -7492.461203630114, 11678.495905220021, 22744.151680964434, 63544.22134688155, -4055.2769965263606, -11772.797915076962, 5038.396124648586, -24885.58291024958, -8302.622533157175, 14399.70903393138, -7124.596193384671, -856.2059231049924, -11334.837834219676, 0.0, 0.0, 0.0, 192.0, 0.0, 0.0, 0.0, 0.0, 0.0, 0.0, 0.0, 0.0, 0.0, 1.6625068125378327E9, 0.0, 2022-09-06 19:26:52.537
46.0, -21858.016772033785, -9141.684668264947, -6412.760187716507, -7911.288191233658, 11096.612941815012, 22160.43587451409, 70902.39326982418, -4458.5024665001, -11750.334411899377, 4516.549946850532, -25688.65873678431, -8925.029209259656, 13887.943492882669, -7952.14718009796, -1548.215931441299, -12012.14039470439, 0.121, 0.446, -0.139, 192.0, 3.5, 72.0, 13.5, 112.0, 123.5, 40.0, 0.0, 0.0, 0.0, 1.662506812537841E9, 0.0, 2022-09-06 19:26:52.537
48.0, -21306.331015387896, -8574.755021900537, -5814.292229925661, -7387.586818645814, 11754.402429390244, 22759.1720532384, 62653.01259195955, -3970.5638850407468, -11870.385631368832, 4956.02994633078, -24931.7839660387, -8361.832304219282, 14309.430338076394, -7176.586350987715, -902.0046474939165, -11392.304169214269, 0.121, 0.446, -0.139, 192.0, 0.0, 0.0, 0.0, 0.0, 0.0, 0.0, 0.0, 0.0, 0.0, 1.6625068125378468E9, 0.0, 2022-09-06 19:26:52.537
50.0, -21935.01853168232, -9210.840965609666, -6462.023432496004, -7985.361872358546, 11029.84828112701, 22009.852172118684, 71995.23711147752, -4567.824848631007, -11644.811826325873, 4597.887944923395, -25622.609331918877, -8842.998307108677, 13932.445816093186, -7873.22317042627, -1488.089738856523, -11924.007466317114, 0.121, 0.446, -0.139, 192.0, 0.0, 0.0, 0.0, 0.0, 0.0, 0.0, 0.0, 0.0, 0.0, 1.6625068125378523E9, 0.0, 2022-09-06 19:26:52.537
52.0, -21246.83067164787, -8524.195375942632, -5774.439069561848, -7321.4480068025605, 11715.733911482563, 22830.31765583964, 62016.25609591676, -3879.458174640915, -11959.859664423426, 4865.840657453616, -25015.111269368088, -8446.366601749254, 14271.521779480194, -7247.150808233119, -985.0413781453823, -11471.876379475163, 0.121, 0.446, -0.139, 192.0, 0.0, 0.0, 0.0, 0.0, 0.0, 0.0, 0.0, 0.0, 0.0, 1.6625068125378575E9, 0.0, 2022-09-06 19:26:52.537
54.0, -22010.00863432987, -9284.60172231218, -6549.329346338433, -8064.956434363894, 11037.403170752905, 22071.31946937078, 72715.99146318334, -4629.493311583199, -11565.172560831614, 4674.30855921609, -25552.24604037357, -8756.899387466836, 14068.478532848185, -7792.533372942612, -1415.446569376775, -11836.835662941416, 0.121, 0.446, -0.139, 192.0, 0.0, 0.0, 0.0, 0.0, 0.0, 0.0, 0.0, 0.0, 0.0, 1.6625068125378633E9, 0.0, 2022-09-06 19:26:52.537
56.0, -21218.57806665636, -8501.195430898122, -5772.539171283147, -7267.58030266527, 11861.802561497994, 22665.428836992844, 61711.288894568555, -3829.882005439044, -12076.11108733548, 4740.22385361479, -25141.97977089641, -8564.495571195552, 14050.77595123958, -7362.083478222308, -1118.525996032476, -11580.684671483597, 0.1885, 0.669, -0.20850000000000002, 192.0, 4.0, 0.0, 13.5, 112.0, 123.5, 40.0, 0.0, 0.0, 0.0, 1.6625068125378685E9, 0.0, 2022-09-06 19:26:52.537
58.0, -22045.45850103599, -9310.775615069344, -6558.784134243028, -8128.234222916869, 11000.634551123923, 22235.78360507293, 73055.13448180372, -4677.303692973101, -11495.904504764618, 4764.542551582164, -25446.902268755708, -8659.646947341795, 14159.9418711593, -7676.527819219568, -1318.037667040547, -11742.019562962005, 0.1885, 0.669, -0.20850000000000002, 192.0, 0.0, 0.0, 0.0, 0.0, 0.0, 0.0, 0.0, 0.0, 0.0, 1.662506812537876E9, 0.0, 2022-09-06 19:26:52.537
60.0, -21195.600473356306, -8480.810639954881, -5753.204912329306, -7243.149845975619, 11746.892243253262, 22686.327718058554, 61735.24996462464, -3812.693513952913, -12133.823291519082, 4634.768323274651, -25241.825013378268, -8667.470057901151, 14057.414419342807, -7527.754608125045, -1223.199215316679, -11706.346178811335, 0.1885, 0.669, -0.20850000000000002, 192.0, 0.0, 0.0, 0.0, 0.0, 0.0, 0.0, 0.0, 0.0, 0.0, 1.6625068125378833E9, 0.0, 2022-09-06 19:26:52.537
62.0, -22045.056169635795, -9300.806737042278, -6558.493561565109, -8136.951403254438, 10931.969992157221, 22099.03563249536, 73015.66130109565, -4712.910021890405, -11430.92798363304, 4871.383890078532, -25321.710148061535, -8541.585033128862, 14267.565520711605, -7556.387192772293, -1201.003933072559, -11636.564032621865, 0.1885, 0.669, -0.20850000000000002, 192.0, 0.0, 0.0, 0.0, 0.0, 0.0, 0.0, 0.0, 0.0, 0.0, 1.6625068125378904E9, 0.0, 2022-09-06 19:26:52.537
64.0, -21210.15145899671, -8503.609419299295, -5790.778194758677, -7231.839863281234, 11738.063304193414, 22541.019027354603, 62161.94476627646, -3810.9053743964882, -12175.129315272488, 4560.627586916397, -25346.855860573753, -8756.742925255649, 13947.488540111606, -7599.749577015588, -1349.710088933717, -11798.234200267101, 0.1885, 0.669, -0.20850000000000002, 192.0, 0.0, 0.0, 0.0, 0.0, 0.0, 0.0, 0.0, 0.0, 0.0, 1.6625068125378983E9, 0.0, 2022-09-06 19:26:52.537
66.0, -22036.160175342582, -9298.929190508032, -6545.887177692316, -8151.189464472469, 11036.956135863798, 22309.3655478198, 72585.92666219792, -4689.083062301047, -11415.058245069773, 4935.667507131995, -25218.42273693356, -8465.454991514087, 14332.095006954076, -7476.278540644472, -1158.7367843075735, -11538.238708762969, 0.23225, 0.7805, -0.24325000000000002, 192.0, 4.0, 80.0, 13.5, 112.0, 123.5, 40.0, 0.0, 0.0, 0.0, 1.6625068125379052E9, 0.0, 2022-09-06 19:26:52.537
68.0, -21251.34572402784, -8547.016507031502, -5823.210575963328, -7250.14594199013, 11714.012827159504, 22380.935833565694, 62859.34154502649, -3855.3182906291836, -12210.579181978606, 4453.473323997656, -25457.787568305444, -8867.115839375954, 13808.930076233159, -7744.857102019442, -1445.4202586913418, -11897.230076459657, 0.23225, 0.7805, -0.24325000000000002, 192.0, 0.0, 0.0, 0.0, 0.0, 0.0, 0.0, 0.0, 0.0, 0.0, 1.662506812537913E9, 0.0, 2022-09-06 19:26:52.537
70.0, -21964.25461342986, -9222.642686682068, -6434.84371123835, -8076.758155436297, 11032.03875208363, 22345.75418779304, 71804.66613825156, -4648.067611225559, -11399.210858250959, 5024.046304708279, -25095.085811029174, -8369.297786867355, 14493.34049145466, -7320.956268424544, -1013.0704656923373, -11434.794835423809, 0.23225, 0.7805, -0.24325000000000002, 192.0, 0.0, 0.0, 0.0, 0.0, 0.0, 0.0, 0.0, 0.0, 0.0, 1.6625068125379195E9, 0.0, 2022-09-06 19:26:52.537
72.0, -21332.75077733407, -8633.361295862353, -5916.082074175129, -7335.864881976233, 11542.418484976111, 22328.85626898483, 63888.79583940457, -3913.4328262129816, -12194.932960859891, 4389.234410433103, -25565.992363213583, -8950.711363638802, 13803.29743663042, -7830.799559450097, -1523.8972334739249, -11986.972330447714, 0.23225, 0.7805, -0.24325000000000002, 192.0, 0.0, 0.0, 0.0, 0.0, 0.0, 0.0, 0.0, 0.0, 0.0, 1.662506812537927E9, 0.0, 2022-09-06 19:26:52.537
74.0, -21903.413165022514, -9153.173464914975, -6395.750510186018, -8029.215994979859, 11129.24648871976, 22441.844337206407, 70737.10211957719, -4581.213543559736, -11427.843442898207, 5055.137581245611, -25025.594237517624, -8319.587507198752, 14482.254026204828, -7286.176954052085, -965.8188779138181, -11376.143857973082, 0.23225, 0.7805, -0.24325000000000002, 192.0, 0.0, 0.0, 0.0, 0.0, 0.0, 0.0, 0.0, 0.0, 0.0, 1.6625068125379338E9, 0.0, 2022-09-06 19:26:52.537
76.0, -21438.18395592975, -8728.624430730872, -6044.850473982153, -7442.169778605674, 11588.686595998597, 22278.430733493657, 65138.5265753897, -4002.258658678372, -12181.968949075814, 4343.14511336626, -25670.442065053234, -9013.206841135841, 13730.073121794836, -7917.211403514315, -1653.626758292527, -12051.300650990088, 0.26012500000000005, 0.8362499999999999, -0.261625, 192.0, 4.5, 0.0, 13.5, 112.0, 123.5, 32.0, 0.0, 0.0, 0.0, 1.6625068125379443E9, 0.0, 2022-09-06 19:26:52.537
78.0, -21823.37156812806, -9062.917120804444, -6300.956761951061, -7950.2249300748035, 11189.886771427009, 22516.11918403139, 69438.46576672385, -4518.60630734042, -11498.787879799353, 5071.633168653628, -24970.407780457474, -8290.954922551504, 14472.039278988754, -7242.09931398622, -924.5352059048661, -11331.90975569603, 0.26012500000000005, 0.8362499999999999, -0.261625, 192.0, 0.0, 0.0, 0.0, 0.0, 0.0, 0.0, 0.0, 0.0, 0.0, 1.6625068125379505E9, 0.0, 2022-09-06 19:26:52.537
80.0, -21518.694939457768, -8803.368664189418, -6111.324561992235, -7514.902355063243, 11352.830988506197, 22129.724577632496, 66540.83031902675, -4109.994066952952, -12114.041997676135, 4342.0275261434945, -25717.760708065118, -9041.280632171707, 13813.40042512422, -7938.982002613784, -1649.4916855682952, -12086.415241529376, 0.26012500000000005, 0.8362499999999999, -0.261625, 192.0, 0.0, 0.0, 0.0, 0.0, 0.0, 0.0, 0.0, 0.0, 0.0, 1.662506812537957E9, 0.0, 2022-09-06 19:26:52.537
82.0, -21711.21051445133, -8950.130218282964, -6225.541976158855, -7828.318515815558, 11334.770778986309, 22614.75743231266, 68010.90455185229, -4382.148907440771, -11556.433028749589, 5101.29393354582, -24904.716003503323, -8245.826750496239, 14515.267552765317, -7149.294871007785, -882.7374437734418, -11279.047880059228, 0.26012500000000005, 0.8362499999999999, -0.261625, 192.0, 0.0, 0.0, 0.0, 0.0, 0.0, 0.0, 0.0, 0.0, 0.0, 1.6625068125379665E9, 0.0, 2022-09-06 19:26:52.537
84.0, -21615.768565627168, -8893.8485257445, -6210.253382951425, -7612.914754499764, 11413.337160746714, 22153.082150588292, 68050.04245639354, -4175.931713096108, -12039.074246773034, 4358.500761807056, -25759.55847019654, -9032.764617534234, 13687.85067651876, -7989.832221249608, -1710.1319682755434, -12083.598921728006, 0.26012500000000005, 0.8362499999999999, -0.261625, 192.0, 0.0, 0.0, 0.0, 0.0, 0.0, 0.0, 0.0, 0.0, 0.0, 1.662506812537972E9, 0.0, 2022-09-06 19:26:52.537
86.0, -21596.03197527313, -8838.393847750885, -6077.6851865869985, -7708.244944601649, 11375.830933550707, 22662.098427069002, 66590.04886031734, -4254.252225667504, -11621.722474303542, 5097.382378266141, -24863.20881404982, -8228.280631098824, 14562.854416710667, -7095.896553504057, -842.2584345648808, -11259.780676338754, 0.27306250000000004, 0.854125, -0.2718125, 192.0, 4.0, 120.0, 13.5, 32.0, 123.5, 24.0, 0.0, 0.0, 0.0, 1.6625068125379777E9, 0.0, 2022-09-06 19:26:52.537
88.0, -21737.563221164135, -9009.16117538943, -6320.559241838365, -7741.347878139959, 11181.147239344984, 22038.21653583247, 69514.57345659417, -4298.531031433467, -11943.207614804223, 4379.578456828411, -25763.358266753945, -9022.482815084793, 13834.701637590128, -8014.955582017373, -1679.532430116228, -12078.033337358635, 0.27306250000000004, 0.854125, -0.2718125, 192.0, 0.0, 0.0, 0.0, 0.0, 0.0, 0.0, 0.0, 0.0, 0.0, 1.662506812537983E9, 0.0, 2022-09-06 19:26:52.537
90.0, -21488.654194909835, -8727.171567341276, -5998.023569348285, -7581.979940173619, 11525.5205661679, 22689.456962282296, 65198.16102959646, -4136.346773665759, -11732.117740168303, 5045.794552063293, -24892.31078533063, -8274.124058976658, 14381.313548244661, -7105.820728042213, -896.8860980136512, -11282.870028361087, 0.27306250000000004, 0.854125, -0.2718125, 192.0, 0.0, 0.0, 0.0, 0.0, 0.0, 0.0, 0.0, 0.0, 0.0, 1.6625068125379887E9, 0.0, 2022-09-06 19:26:52.537
92.0, -21848.383170173547, -9108.246458559806, -6399.7067689546075, -7862.516684832179, 11063.062973387596, 22028.158250827582, 70757.10693086468, -4418.4928439251, -11823.603430223875, 4462.54813224651, -25725.583818624476, -8954.801732874124, 13933.42929284922, -7974.38716583099, -1654.5878833041054, -12014.33086566101, 0.27306250000000004, 0.854125, -0.2718125, 192.0, 0.0, 0.0, 0.0, 0.0, 0.0, 0.0, 0.0, 0.0, 0.0, 1.6625068125379958E9, 0.0, 2022-09-06 19:26:52.537
94.0, -21433.981827972155, -8671.985110281124, -5935.170463939961, -7518.188061498173, 11635.178224465637, 22751.527756634685, 63984.05897427309, -4050.6278336796563, -11863.881273732339, 4960.187370799466, -24955.141538994496, -8353.718620982007, 14374.65272839698, -7166.840990405201, -967.1376308366813, -11369.326575914214, 0.27306250000000004, 0.854125, -0.2718125, 192.0, 0.0, 0.0, 0.0, 0.0, 0.0, 0.0, 0.0, 0.0, 0.0, 1.6625068125380032E9, 0.0, 2022-09-06 19:26:52.538
96.0, -21922.970941420906, -9178.877971038577, -6439.582281062875, -7949.777895185697, 11006.088376771018, 22021.251561790894, 71876.0129065529, -4513.778330538074, -11746.959298486627, 4518.852176529429, -25696.90653048832, -8915.663828332881, 13949.924880257235, -7953.018898131717, -1590.0360453171786, -11986.480592069698, 0.28153125, 0.8590625000000001, -0.27690625, 192.0, 4.5, 8.0, 13.5, 0.0, 123.5, 24.0, 0.0, 0.0, 0.0, 1.66250681253801E9, 0.0, 2022-09-06 19:26:52.538
98.0, -21308.990872978076, -8562.774486872493, -5815.610982848523, -7376.075670251331, 11685.64846344572, 22766.03403878618, 63052.30415490916, -3938.332669536194, -11929.774216386584, 4910.454739386409, -24980.443713717905, -8399.42793839311, 14351.36221067455, -7199.496889054405, -985.2201921010247, -11409.783233378319, 0.28153125, 0.8590625000000001, -0.27690625, 192.0, 0.0, 0.0, 0.0, 0.0, 0.0, 0.0, 0.0, 0.0, 0.0, 1.6625068125380175E9, 0.0, 2022-09-06 19:26:52.538
100.0, -21989.847360831187, -9252.392858552083, -6518.126311078824, -8021.72816058733, 11050.478941259258, 21977.889177547597, 72649.09269202861, -4586.197982573269, -11634.105340731781, 4627.816930749051, -25613.623930647842, -8815.639771895381, 13977.082249770434, -7821.680047712332, -1536.6153760689947, -11866.384669111332, 0.28153125, 0.8590625000000001, -0.27690625, 192.0, 0.0, 0.0, 0.0, 0.0, 0.0, 0.0, 0.0, 0.0, 0.0, 1.662506812538025E9, 0.0, 2022-09-06 19:26:52.538
102.0, -21241.24273553404, -8508.862079246293, -5751.2603105616945, -7295.58703846777, 11698.545419996432, 22682.97495639026, 62350.23586156796, -3862.3814418770603, -12009.122909202923, 4817.069151052136, -25066.29676417074, -8505.35285536681, 14301.003730416744, -7287.58511395277, -1085.1548415607026, -11483.275769147369, 0.28153125, 0.8590625000000001, -0.27690625, 192.0, 0.0, 0.0, 0.0, 0.0, 0.0, 0.0, 0.0, 0.0, 0.0, 1.662506812538032E9, 0.0, 2022-09-06 19:26:52.538
104.0, -22006.72292789494, -9270.45306807197, -6517.679276189719, -8071.460792000389, 10886.573599168492, 22068.12316991367, 73105.6047207838, -4634.075419196537, -11511.729539838976, 4743.867187961005, -25488.342402975846, -8713.179375312255, 14217.899944531911, -7705.853307944931, -1394.033598188591, -11744.254737407535, 0.28153125, 0.8590625000000001, -0.27690625, 192.0, 0.0, 0.0, 0.0, 0.0, 0.0, 0.0, 0.0, 0.0, 0.0, 1.6625068125380392E9, 0.0, 2022-09-06 19:26:52.538
106.0, -21277.318451084906, -8549.184626243667, -5819.477834639291, -7306.8299659287895, 11673.198541784113, 22635.969237800746, 62025.42031114344, -3865.5777413341693, -12123.988523958746, 4681.505820930698, -25194.841646533212, -8644.537168090006, 14178.09148765701, -7456.09491540133, -1228.2730613080337, -11603.103471172271, 0.28153125, 0.8590625000000001, -0.27690625, 192.0, 0.0, 0.0, 0.0, 0.0, 0.0, 0.0, 0.0, 0.0, 0.0, 1.6625068125380468E9, 0.0, 2022-09-06 19:26:52.538
108.0, -22085.04344046634, -9330.378094956648, -6596.245657950122, -8141.332345167679, 11000.79101333511, 22115.955903048027, 73188.41793399071, -4689.798318123618, -11532.42725520459, 4764.587255071075, -25459.531004372955, -8677.841267328415, 14181.265435369663, -7697.38199679637, -1381.6060282714402, -11692.59985597132, 0.298, 0.884, -0.276, 192.0, 4.5, 40.0, 13.5, 80.0, 123.5, 48.0, 0.0, 0.0, 0.0, 1.6625068125380552E9, 0.0, 2022-09-06 19:26:52.538
110.0, -21249.468177493596, -8519.277992162466, -5787.738357512755, -7258.594901394236, 11709.65423699072, 22545.444672756752, 62099.136364357044, -3837.2580811092953, -12196.162306804932, 4603.498232781677, -25316.792764281367, -8727.059808619, 14081.64371033236, -7518.456282431636, -1347.2066935547225, -11702.881658420762, 0.298, 0.884, -0.276, 192.0, 0.0, 0.0, 0.0, 0.0, 0.0, 0.0, 0.0, 0.0, 0.0, 1.6625068125380616E9, 0.0, 2022-09-06 19:26:52.538
112.0, -22042.977457401452, -9288.379167125126, -6519.534470979509, -8126.535490338265, 10892.96619808271, 22156.85959540124, 72957.03267538938, -4688.859544856495, -11449.748152464408, 4889.689968787428, -25332.10370923325, -8552.068001278401, 14422.820737698166, -7552.766210170533, -1216.2254710466232, -11591.4358605666, 0.298, 0.884, -0.276, 192.0, 0.0, 0.0, 0.0, 0.0, 0.0, 0.0, 0.0, 0.0, 0.0, 1.6625068125380673E9, 0.0, 2022-09-06 19:26:52.538
114.0, -21245.914250125203, -8527.078750977367, -5806.424415877392, -7260.450096184028, 11690.722309437075, 22520.41071896681, 62523.86421249679, -3804.423368504449, -12177.275082740198, 4547.261243732124, -25390.754686683977, -8798.965370531723, 14033.028666142067, -7573.978015658619, -1390.770243498116, -11775.2789587115, 0.298, 0.884, -0.276, 192.0, 0.0, 0.0, 0.0, 0.0, 0.0, 0.0, 0.0, 0.0, 0.0, 1.6625068125380745E9, 0.0, 2022-09-06 19:26:52.538
116.0, -22001.805544114774, -9249.710649217444, -6477.915522803727, -8116.544260566743, 10938.809625960545, 22267.679544410654, 72394.55102617157, -4667.3348149460335, -11414.365340991657, 4967.094059836157, -25214.578236887246, -8469.366546793764, 14379.078373799131, -7459.961767192098, -1153.1264964492914, -11481.912312735596, 0.298, 0.884, -0.276, 192.0, 0.0, 0.0, 0.0, 0.0, 0.0, 0.0, 0.0, 0.0, 0.0, 1.6625068125380816E9, 0.0, 2022-09-06 19:26:52.538
118.0, -21277.363154573817, -8574.330338755886, -5835.839311580577, -7293.418919255605, 11594.475697812522, 22419.87257240684, 63286.125753656124, -3865.756555289812, -12183.98060607679, 4460.759992690086, -25496.27727225748, -8904.845584016513, 13908.484746037097, -7736.989287971174, -1503.6242012529615, -11879.706308806695, 0.294, 0.89, -0.28800000000000003, 192.0, 4.5, 24.0, 13.5, 104.0, 123.5, 0.0, 0.0, 0.0, 0.0, 1.6625068125380888E9, 0.0, 2022-09-06 19:26:52.538
120.0, -21918.56764776321, -9181.761346073312, -6383.92643736916, -8050.718373145864, 11097.372901126493, 22364.37319092431, 71476.00608778073, -4606.560421772054, -11393.511163414856, 5047.850912553181, -25088.82732258169, -8380.09367943927, 14458.561177082203, -7301.77847168189, -1041.211311961569, -11390.58308489121, 0.294, 0.89, -0.28800000000000003, 192.0, 0.0, 0.0, 0.0, 0.0, 0.0, 0.0, 0.0, 0.0, 0.0, 1.662506812538096E9, 0.0, 2022-09-06 19:26:52.538
122.0, -21339.94803904868, -8645.431237868219, -5901.5310885347235, -7355.512065352448, 11525.498214423444, 22292.132352844757, 64311.82495496571, -3927.849701386655, -12142.16049220091, 4415.520061912544, -25576.49768310758, -8965.239997534753, 13845.631640628773, -7813.1640330748605, -1580.469498690307, -11942.179434559279, 0.294, 0.89, -0.28800000000000003, 192.0, 0.0, 0.0, 0.0, 0.0, 0.0, 0.0, 0.0, 0.0, 0.0, 1.6625068125381036E9, 0.0, 2022-09-06 19:26:52.538
124.0, -21837.855498535097, -9093.85193513059, -6292.10547114676, -7969.134505883993, 11127.972439285808, 22433.328322568934, 70365.63847847444, -4530.117455734904, -11423.842480640707, 5083.0996135592, -25023.850801450113, -8335.278431806379, 14501.141250269564, -7255.577415892771, -994.5185177944325, -11333.742598741364, 0.294, 0.89, -0.28800000000000003, 192.0, 0.0, 0.0, 0.0, 0.0, 0.0, 0.0, 0.0, 0.0, 0.0, 1.6625068125381107E9, 0.0, 2022-09-06 19:26:52.538
126.0, -21449.873918279878, -8752.071410664488, -6015.279116067782, -7448.405915308705, 11465.170856138571, 22227.960494513572, 65568.64119394317, -4013.881565795132, -12106.978846428257, 4382.014796974039, -25661.635477737844, -9019.442977838871, 13787.181828878145, -7897.675978860377, -1633.0855051381, -11991.196810149768, 0.294, 0.89, -0.28800000000000003, 192.0, 0.0, 0.0, 0.0, 0.0, 0.0, 0.0, 0.0, 0.0, 0.0, 1.6625068125381176E9, 0.0, 2022-09-06 19:26:52.538
128.0, -21765.25703254426, -9021.029951695198, -6234.728543129986, -7891.5292491351665, 11270.889493333041, 22549.333876291978, 69064.29756454201, -4437.4694749676555, -11501.581847856265, 5077.466973956463, -24975.168702026454, -8315.608896685708, 14434.555403537202, -7194.154822129586, -968.8140116708294, -11282.7135661499, 0.308, 0.9, -0.28600000000000003, 192.0, 4.5, 80.0, 14.0, 16.0, 123.5, 8.0, 0.0, 0.0, 0.0, 1.6625068125381231E9, 0.0, 2022-09-06 19:26:52.538
130.0, -21546.67932351581, -8846.395772265885, -6106.943620078996, -7544.272547277516, 11317.828156689187, 22124.874249085697, 66941.53004187703, -4103.489709316457, -12054.295784747099, 4363.306386864947, -25725.114431990914, -9055.026955011721, 13701.418185403132, -7963.077183136605, -1665.495534598295, -12015.336694161499, 0.308, 0.9, -0.28600000000000003, 192.0, 0.0, 0.0, 0.0, 0.0, 0.0, 0.0, 0.0, 0.0, 0.0, 1.6625068125381286E9, 0.0, 2022-09-06 19:26:52.538
132.0, -21656.605202747014, -8912.199307942308, -6124.154463309582, -7773.7802593446095, 11301.62314195909, 22577.586481283484, 67665.16776861761, -4335.456113273634, -11560.746915429463, 5089.089881073222, -24912.673224529415, -8297.414576699088, 14467.233653930862, -7115.40962641354, -901.1999846935255, -11253.298670446715, 0.308, 0.9, -0.28600000000000003, 192.0, 0.0, 0.0, 0.0, 0.0, 0.0, 0.0, 0.0, 0.0, 0.0, 1.6625068125381343E9, 0.0, 2022-09-06 19:26:52.538
134.0, -21622.116461052476, -8923.844566803524, -6177.329263368758, -7629.298583185504, 11226.677742800444, 22058.5566232868, 68381.65293713247, -4202.6420477202, -11952.014202119613, 4400.63380010531, -25722.164001722813, -9042.062943227642, 13748.848587137294, -7966.809924460641, -1684.4498138963957, -12014.844955783481, 0.308, 0.9, -0.28600000000000003, 192.0, 0.0, 0.0, 0.0, 0.0, 0.0, 0.0, 0.0, 0.0, 0.0, 1.6625068125381398E9, 0.0, 2022-09-06 19:26:52.538
136.0, -21538.811509467545, -8801.826393822003, -6006.874860152586, -7670.6493104278225, 11410.677303156532, 22705.885494456947, 66263.2887081252, -4206.531251255423, -11632.719532575553, 5077.779898378837, -24869.0202676082, -8293.726538863963, 14470.876988277078, -7106.133652464588, -894.5168131013886, -11243.150978464006, 0.308, 0.9, -0.28600000000000003, 192.0, 0.0, 0.0, 0.0, 0.0, 0.0, 0.0, 0.0, 0.0, 0.0, 1.6625068125381453E9, 0.0, 2022-09-06 19:26:52.538
138.0, -21739.083139787097, -9025.992038964278, -6285.802279210363, -7771.656843621355, 11156.627375677512, 21960.141892450083, 69772.13260795268, -4323.609688712321, -11866.407020855788, 4431.389800475812, -25723.594513367956, -9027.064922698131, 13747.708648170072, -7981.718538012331, -1663.1262496860327, -12006.95478999076, 0.316, 0.888, -0.294, 192.0, 4.5, 112.0, 13.5, 96.0, 123.0, 104.0, 0.0, 0.0, 0.0, 1.6625068125381508E9, 0.0, 2022-09-06 19:26:52.538
140.0, -21430.919638981777, -8689.128898278344, -5899.966466422852, -7572.458097035658, 11505.60516185822, 22692.67561348386, 64952.984744666195, -4102.662694771611, -11737.66097279322, 5032.361153645654, -24889.69563122936, -8343.146245854647, 14365.823789337133, -7113.621486857115, -912.2417464544471, -11288.837944130653, 0.316, 0.888, -0.294, 192.0, 0.0, 0.0, 0.0, 0.0, 0.0, 0.0, 0.0, 0.0, 0.0, 1.6625068125381582E9, 0.0, 2022-09-06 19:26:52.538
142.0, -21823.50567859479, -9108.246458559806, -6341.726343837541, -7884.913132776396, 11033.737484662233, 21977.576253125222, 71008.2064280756, -4428.819349863452, -11742.444246106656, 4500.702560031719, -25680.4109430803, -8980.752108186736, 13896.191286586678, -7956.438715033379, -1620.5908799875833, -11968.934472672281, 0.316, 0.888, -0.294, 192.0, 0.0, 0.0, 0.0, 0.0, 0.0, 0.0, 0.0, 0.0, 0.0, 1.6625068125381653E9, 0.0, 2022-09-06 19:26:52.538
144.0, -21372.872158631344, -8632.914260973246, -5864.1366200609955, -7489.935456506665, 11615.888669000706, 22723.521020832184, 63845.23228946117, -4007.93600177002, -11838.82496819794, 4949.83851311666, -24934.466175373338, -8418.851604324771, 14316.001750946254, -7151.12771405312, -975.1842588405918, -11341.431598833991, 0.316, 0.888, -0.294, 192.0, 0.0, 0.0, 0.0, 0.0, 0.0, 0.0, 0.0, 0.0, 0.0, 1.6625068125381725E9, 0.0, 2022-09-06 19:26:52.538
146.0, -21910.09633661465, -9182.72247108489, -6424.494853555543, -7970.319148340124, 11008.681179127834, 21979.811427570752, 72040.27587655495, -4506.424606612278, -11656.88176833174, 4568.070717820015, -25641.58596296143, -8927.62201161647, 13861.434323958674, -7915.624429657988, -1603.3353332680863, -11889.228151944657, 0.316, 0.888, -0.294, 192.0, 0.0, 0.0, 0.0, 0.0, 0.0, 0.0, 0.0, 0.0, 0.0, 1.66250681253818E9, 0.0, 2022-09-06 19:26:52.538
148.0, -21302.039480452477, -8560.65107114924, -5784.609113289012, -7384.41287093316, 11592.24052336699, 22648.91089784037, 62969.04390681314, -3925.323954263205, -11931.942335598747, 4870.221599366856, -25001.18613257243, -8497.507393062997, 14272.25938704722, -7225.603726578203, -1030.5495298563874, -11402.854192597175, 0.326, 0.87, -0.29, 192.0, 5.0, 24.0, 13.5, 24.0, 123.0, 120.0, 0.0, 0.0, 0.0, 1.6625068125381873E9, 0.0, 2022-09-06 19:26:52.538
150.0, -21969.037886743296, -9227.917698373521, -6463.833923796884, -8028.4113321794675, 10890.708671892724, 21981.577215382724, 72774.01659178932, -4574.329206267501, -11558.444685750566, 4669.078251013548, -25554.995304941574, -8825.116911544432, 14039.533023778562, -7768.460544164246, -1479.4396137523192, -11798.122441544825, 0.326, 0.87, -0.29, 192.0, 0.0, 0.0, 0.0, 0.0, 0.0, 0.0, 0.0, 0.0, 0.0, 1.6625068125381937E9, 0.0, 2022-09-06 19:26:52.538
152.0, -21250.1163780828, -8511.432529858654, -5756.155342597407, -7309.5345270078815, 11682.116887821781, 22639.18788900231, 62417.089929233785, -3838.4427235654266, -12015.247287183678, 4786.290798937178, -25074.9692410194, -8568.049498563945, 14115.819527604524, -7296.369349523706, -1121.5434815339424, -11474.22331264297, 0.326, 0.87, -0.29, 192.0, 0.0, 0.0, 0.0, 0.0, 0.0, 0.0, 0.0, 0.0, 0.0, 1.6625068125382E9, 0.0, 2022-09-06 19:26:52.538
154.0, -22030.236963061925, -9285.428736857026, -6505.676389417218, -8107.871783718084, 10897.145974295852, 22040.988152144928, 73207.7298412001, -4626.565233059554, -11497.044443731838, 4745.722382750796, -25474.149045246726, -8740.873186692379, 14079.475591120196, -7746.354668897948, -1398.3921883573757, -11701.384091542255, 0.326, 0.87, -0.29, 192.0, 0.0, 0.0, 0.0, 0.0, 0.0, 0.0, 0.0, 0.0, 0.0, 1.662506812538207E9, 0.0, 2022-09-06 19:26:52.538
156.0, -21244.260221035507, -8508.571506568374, -5751.707345450801, -7291.7425384214575, 11659.698088133107, 22613.192810200788, 62212.191487811986, -3803.3728365150496, -12110.845698219026, 4657.701213085797, -25202.08361173673, -8692.1016802909, 14022.29982880352, -7407.390464233215, -1238.0184218905476, -11585.803220963862, 0.326, 0.87, -0.29, 192.0, 0.0, 0.0, 0.0, 0.0, 0.0, 0.0, 0.0, 0.0, 0.0, 1.6625068125382135E9, 0.0, 2022-09-06 19:26:52.538
158.0, -22047.201937103502, -9284.668777545545, -6508.917392363238, -8136.929051509983, 10989.525734129636, 22211.82253501684, 73266.06789422846, -4634.120122685447, -11434.660724957077, 4830.48019772532, -25367.21829977254, -8642.525511089028, 14179.387888835417, -7616.043998723508, -1317.322411217977, -11591.391157077689, 0.328, 0.87, -0.28800000000000003, 192.0, 5.0, 32.0, 13.5, 24.0, 123.5, 0.0, 0.0, 0.0, 0.0, 1.6625068125382187E9, 0.0, 2022-09-06 19:26:52.538
160.0, -21245.333104769365, -8509.800852513416, -5737.268118532672, -7264.406354952616, 11602.790546749897, 22435.004703403083, 62357.85780642722, -3821.2318803348403, -12150.162416715912, 4574.66448243433, -25296.29621461585, -8780.793402289559, 13964.073534497446, -7539.779846642, -1318.194129251734, -11683.770916911473, 0.328, 0.87, -0.28800000000000003, 192.0, 0.0, 0.0, 0.0, 0.0, 0.0, 0.0, 0.0, 0.0, 0.0, 1.6625068125382245E9, 0.0, 2022-09-06 19:26:52.538
162.0, -22023.620846703154, -9253.01870739683, -6457.866008027317, -8119.785263512763, 10914.535631482082, 22163.498063504467, 72929.47297447598, -4655.175465962347, -11387.96793078994, 4914.321591177177, -25252.576202461267, -8546.524768653486, 14321.634390548992, -7480.503020346525, -1193.3819882132993, -11509.42731016008, 0.328, 0.87, -0.28800000000000003, 192.0, 0.0, 0.0, 0.0, 0.0, 0.0, 0.0, 0.0, 0.0, 0.0, 1.66250681253823E9, 0.0, 2022-09-06 19:26:52.538
164.0, -21288.82959947939, -8550.771600099994, -5791.739319770256, -7294.670616945103, 11617.29682890139, 22344.99422848156, 62849.99851584417, -3842.6895550119348, -12175.464591439319, 4493.728815761664, -25402.98109090103, -8873.441383056806, 13844.871681317292, -7673.242112784638, -1439.9440812997916, -11786.119554772326, 0.328, 0.87, -0.28800000000000003, 192.0, 0.0, 0.0, 0.0, 0.0, 0.0, 0.0, 0.0, 0.0, 0.0, 1.6625068125382369E9, 0.0, 2022-09-06 19:26:52.538
0.0, -11111.879183277988, -4335.009078384528, -3001.3028384808113, -3737.2116729273407, 5482.815859653457, 9946.503930867188, 31794.216548707074, -1980.6327796736693, -6046.772724005309, 2123.7286476765453, -12915.530850354535, -4593.708168710252, 6836.459855611308, -4032.679382882045, -897.958981747506, -6062.977738735407, 0.30600000000000005, 0.89, -0.262, 192.0, 4.0, 112.0, 14.0, 56.0, 124.0, 80.0, 0.0, 0.0, 0.0, 1.6625068130939896E9, 0.0, 2022-09-06 19:26:53.093
2.0, -22545.109396589924, -8948.431485704361, -6212.354446930224, -7939.2502235472475, 10706.820870258913, 20020.05517721834, 67070.6784213398, -4425.466588195156, -11706.100309622325, 4631.728486028729, -25089.564930148714, -8886.159525651876, 13905.713129724638, -7833.235899595726, -1240.9912039031035, -11391.231285480415, 0.30600000000000005, 0.89, -0.262, 192.0, 0.0, 0.0, 0.0, 0.0, 0.0, 0.0, 0.0, 0.0, 0.0, 1.6625068130940578E9, 0.0, 2022-09-06 19:26:53.094
4.0, -22751.863032801513, -9182.00721526232, -6484.8222118404165, -8034.088675271115, 10432.497910558928, 19507.082641969042, 70058.07847476941, -4529.581013867976, -11990.123926415912, 3855.1841801624514, -25997.80571434566, -9690.598808598377, 13117.83648941952, -8776.948902243246, -2087.7870425924116, -12225.063112385646, 0.30600000000000005, 0.89, -0.262, 192.0, 0.0, 0.0, 0.0, 0.0, 0.0, 0.0, 0.0, 0.0, 0.0, 1.662506813094188E9, 0.0, 2022-09-06 19:26:53.094
6.0, -22481.764552803583, -8883.700833761792, -6140.225367572948, -7855.78880975113, 10777.921769371243, 20058.58958465929, 65755.99351596755, -4325.3531247798355, -11818.462528999155, 4555.084354291482, -25123.986616609887, -8951.985413072754, 13786.555980033396, -7862.874312743464, -1273.9153234857708, -11432.850233656196, 0.30600000000000005, 0.89, -0.262, 192.0, 0.0, 0.0, 0.0, 0.0, 0.0, 0.0, 0.0, 0.0, 0.0, 1.6625068130942004E9, 0.0, 2022-09-06 19:26:53.094
8.0, -22883.425400665452, -9300.024425986341, -6589.87541078036, -8175.329348484201, 10336.966554756948, 19418.055643803556, 71302.69066127428, -4645.720678057752, -11902.728605595661, 3851.719659771879, -25999.593853902086, -9684.96616899564, 13096.11059380896, -8776.747736543148, -2070.062109239353, -12206.958199376846, 0.272, 0.926, -0.188, 192.0, 4.0, 64.0, 14.0, 120.0, 125.0, 16.0, 0.0, 0.0, 0.0, 1.6625068130942075E9, 0.0, 2022-09-06 19:26:53.094
10.0, -22389.317737736434, -8780.92751275629, -6035.730962244387, -7748.701602065755, 10900.67754991979, 20118.98399817753, 64564.66788824414, -4213.527347269935, -11931.182376287268, 4447.013669850072, -25177.87667249163, -9037.637297825491, 13674.640795545674, -7927.761426897219, -1319.2670129855887, -11500.866592033695, 0.272, 0.926, -0.188, 192.0, 0.0, 0.0, 0.0, 0.0, 0.0, 0.0, 0.0, 0.0, 0.0, 1.6625068130942156E9, 0.0, 2022-09-06 19:26:53.094
12.0, -22960.158939380522, -9351.724010911466, -6641.865568383404, -8271.01716649737, 10293.492411791374, 19420.76020488265, 72345.06426394753, -4721.828367928072, -11778.609368635342, 3936.075143346208, -25921.094527375048, -9599.47074645409, 13148.368972345468, -8694.470965203163, -1964.3607097102058, -12125.35198037052, 0.272, 0.926, -0.188, 192.0, 0.0, 0.0, 0.0, 0.0, 0.0, 0.0, 0.0, 0.0, 0.0, 1.662506813094222E9, 0.0, 2022-09-06 19:26:53.094
14.0, -22324.341216604855, -8702.696407162715, -5981.527981940268, -7677.824220397976, 10956.065172680042, 20130.36103610528, 63610.49426919154, -4110.709322775522, -12026.780787322616, 4362.233503131092, -25242.89789711212, -9116.76247319728, 13541.044418936304, -7973.716613497331, -1384.51175505063, -11575.141438858682, 0.272, 0.926, -0.188, 192.0, 0.0, 0.0, 0.0, 0.0, 0.0, 0.0, 0.0, 0.0, 0.0, 1.6625068130942276E9, 0.0, 2022-09-06 19:26:53.094
16.0, -23032.355073971165, -9404.496479570447, -6699.376606866909, -8364.939196698571, 10219.351675433121, 19405.94099830878, 73117.00411045601, -4809.916592826437, -11676.484248219043, 4021.1235309986514, -25847.892564283917, -9517.328085580837, 13192.5136676447, -8614.652885753261, -1898.132490889131, -12055.703944647783, 0.272, 0.926, -0.188, 192.0, 0.0, 0.0, 0.0, 0.0, 0.0, 0.0, 0.0, 0.0, 0.0, 1.6625068130942333E9, 0.0, 2022-09-06 19:26:53.094
18.0, -22255.4531401936, -8623.66063876875, -5912.796367740199, -7575.922617426231, 11011.765719862668, 20169.834216813353, 62989.04871810064, -4020.050647264796, -12100.854468447504, 4280.068490513384, -25316.993929981465, -9192.981921789877, 13424.480071601876, -8053.825265625152, -1471.2588752816769, -11661.262710244979, 0.258, 0.916, -0.162, 192.0, 4.0, 8.0, 14.0, 80.0, 125.0, 120.0, 0.0, 0.0, 0.0, 1.662506813094239E9, 0.0, 2022-09-06 19:26:53.094
20.0, -23100.86317072668, -9455.592567395279, -6735.631136373418, -8423.389008449198, 10170.446058564909, 19411.148954766864, 73630.26721838322, -4862.554951018686, -11590.094755899281, 4138.626651600201, -25737.452594930244, -9398.394453334147, 13277.852627975062, -8499.451994830608, -1786.5972860571487, -11932.054094321025, 0.258, 0.916, -0.162, 192.0, 0.0, 0.0, 0.0, 0.0, 0.0, 0.0, 0.0, 0.0, 0.0, 1.6625068130942447E9, 0.0, 2022-09-06 19:26:53.094
22.0, -22262.35982923029, -8630.455569083164, -5918.987800954318, -7552.632099703801, 11002.288580213617, 20091.983090875518, 62738.48566275665, -4049.063211567785, -12215.429510525408, 4153.91524480763, -25449.584478090346, -9319.582202384736, 13269.828351715607, -8181.364319487134, -1605.6152112025275, -11784.286711726989, 0.258, 0.916, -0.162, 192.0, 0.0, 0.0, 0.0, 0.0, 0.0, 0.0, 0.0, 0.0, 0.0, 1.6625068130942504E9, 0.0, 2022-09-06 19:26:53.094
24.0, -23129.87573502967, -9479.128954306718, -6742.381363198921, -8466.416116525665, 10167.2497591078, 19434.059492833556, 73740.2601528478, -4882.492707072819, -11537.031714562383, 4228.1453881437055, -25641.518907728067, -9310.88737379162, 13361.559910960188, -8403.09362448378, -1691.557668633183, -11841.44012229921, 0.258, 0.916, -0.162, 192.0, 0.0, 0.0, 0.0, 0.0, 0.0, 0.0, 0.0, 0.0, 0.0, 1.6625068130942557E9, 0.0, 2022-09-06 19:26:53.094
26.0, -22257.73301812804, -8628.198042893177, -5923.525205078746, -7536.941175096175, 10997.952341789287, 20081.36601225925, 62854.69238217979, -3984.6901875365006, -12262.345822137097, 4061.8931128851314, -25557.11872066483, -9419.203927422039, 13166.093905698528, -8296.989893554437, -1705.4604536843842, -11869.558616823986, 0.258, 0.916, -0.162, 192.0, 0.0, 0.0, 0.0, 0.0, 0.0, 0.0, 0.0, 0.0, 0.0, 1.6625068130942614E9, 0.0, 2022-09-06 19:26:53.094
28.0, -23125.71831056098, -9471.708175147554, -6734.245328217188, -8487.739680736027, 10177.665672023973, 19507.999063491712, 73516.58624608353, -4897.289561902233, -11492.685853563054, 4322.447398000646, -25533.403519797746, -9215.065445311719, 13443.076722988693, -8306.444681459032, -1594.372283741508, -11742.578356573387, 0.246, 0.902, -0.152, 192.0, 3.5, 88.0, 14.0, 24.0, 125.5, 32.0, 0.0, 0.0, 0.0, 1.662506813094267E9, 0.0, 2022-09-06 19:26:53.094
30.0, -22291.84178016684, -8668.542941635007, -5972.564932413689, -7565.7525736990665, 10962.144847171885, 20006.241799144962, 63293.59123630419, -3974.7883647428, -12293.280636463242, 3955.6329197446016, -25679.315707601992, -9525.821748473852, 13063.34293643748, -8421.422054937131, -1817.755617827847, -11996.248304396666, 0.246, 0.902, -0.152, 192.0, 0.0, 0.0, 0.0, 0.0, 0.0, 0.0, 0.0, 0.0, 0.0, 1.6625068130942724E9, 0.0, 2022-09-06 19:26:53.094
32.0, -23080.90306292809, -9424.14366294666, -6682.299874103055, -8456.402535009687, 10224.492576657842, 19559.385723994463, 72938.32426528029, -4859.537465517219, -11471.898731219619, 4416.30237296848, -25424.774041744953, -9114.482595262838, 13536.574070045242, -8177.318653740723, -1491.4201487803637, -11650.332707206335, 0.246, 0.902, -0.152, 192.0, 0.0, 0.0, 0.0, 0.0, 0.0, 0.0, 0.0, 0.0, 0.0, 1.662506813094278E9, 0.0, 2022-09-06 19:26:53.094
34.0, -22338.534574333975, -8718.990828870634, -6026.700857484443, -7600.844812493899, 10898.755299896635, 19929.575315663256, 64074.4717805948, -4028.0749235242515, -12292.721842851859, 3892.9362765474652, -25780.502054751167, -9595.738005130053, 13001.80858395202, -8524.754169554017, -1910.202432894997, -12093.232523588244, 0.246, 0.902, -0.152, 192.0, 0.0, 0.0, 0.0, 0.0, 0.0, 0.0, 0.0, 0.0, 0.0, 1.6625068130942836E9, 0.0, 2022-09-06 19:26:53.094
36.0, -23003.83424804619, -9343.6550311631, -6604.158175487301, -8389.57081908832, 10305.741167752883, 19659.18626298741, 72051.69761797161, -4818.544366186186, -11476.480838832957, 4493.035911683549, -25315.652825314144, -9023.935678474389, 13636.039332871358, -8073.3159867901795, -1395.41940634482, -11557.885892139184, 0.246, 0.902, -0.152, 192.0, 0.0, 0.0, 0.0, 0.0, 0.0, 0.0, 0.0, 0.0, 0.0, 1.6625068130942893E9, 0.0, 2022-09-06 19:26:53.094
38.0, -22406.886208878306, -8782.402727890341, -6100.618076398144, -7663.049717313018, 10834.404627609805, 19828.254858047352, 65152.988154052284, -4151.702422106555, -12267.531426850728, 3845.6399852800355, -25872.121855273468, -9657.451171571156, 12960.457856709703, -8612.03773165199, -1992.4121490016162, -12165.786286090171, 0.23600000000000002, 0.898, -0.14200000000000002, 192.0, 3.5, 48.0, 14.0, 8.0, 125.5, 72.0, 0.0, 0.0, 0.0, 1.6625068130942965E9, 0.0, 2022-09-06 19:26:53.094
40.0, -22922.719767417882, -9261.26650110084, -6510.638476686297, -8306.064701803292, 10395.103442085201, 19745.262830884796, 70925.34851137978, -4734.03242040067, -11506.879211292173, 4565.097935807459, -25223.496582924916, -8950.15257002742, 13698.981845257504, -7960.730249968798, -1320.004620552614, -11483.029899958361, 0.23600000000000002, 0.898, -0.14200000000000002, 192.0, 0.0, 0.0, 0.0, 0.0, 0.0, 0.0, 0.0, 0.0, 0.0, 1.662506813094302E9, 0.0, 2022-09-06 19:26:53.094
42.0, -22509.771288606084, -8888.662921030871, -6191.477917608967, -7750.355631155448, 10728.010324002544, 19737.52912730326, 66392.66060503252, -4167.035718802896, -12233.489720045296, 3793.8286416326337, -25954.62214405801, -9717.599715900387, 12930.215946461673, -8700.684750161738, -2068.184562705107, -12223.409083295952, 0.23600000000000002, 0.898, -0.14200000000000002, 192.0, 0.0, 0.0, 0.0, 0.0, 0.0, 0.0, 0.0, 0.0, 0.0, 1.6625068130943077E9, 0.0, 2022-09-06 19:26:53.094
44.0, -22808.74822244027, -9149.105447424108, -6387.234495548546, -8184.873543366617, 10513.590039442783, 19869.784399245313, 69581.00284111535, -4595.295142566579, -11558.154113072647, 4604.906392682361, -25145.44429128698, -8904.42090087186, 13747.395723747699, -7878.3193681620805, -1255.9445209437038, -11398.629712895121, 0.23600000000000002, 0.898, -0.14200000000000002, 192.0, 0.0, 0.0, 0.0, 0.0, 0.0, 0.0, 0.0, 0.0, 0.0, 1.6625068130943131E9, 0.0, 2022-09-06 19:26:53.094
46.0, -22633.979932544225, -9015.73258825929, -6313.0043522124715, -7888.109432233505, 10608.562601633383, 19623.535230581194, 67790.6057585008, -4308.790482138453, -12159.863073809514, 3774.2261617453296, -26010.76972612974, -9749.629765704844, 12928.919545283265, -8769.528123084083, -2100.728702632034, -12253.740400521803, 0.23600000000000002, 0.898, -0.14200000000000002, 192.0, 0.0, 0.0, 0.0, 0.0, 0.0, 0.0, 0.0, 0.0, 0.0, 1.6625068130943189E9, 0.0, 2022-09-06 19:26:53.094
48.0, -22730.27124765769, -9079.904446590477, -6305.4941660754885, -8108.050597673727, 10607.66853185517, 19936.66081865559, 68203.01779544566, -4511.923135748284, -11656.188864253625, 4555.039650802571, -25140.392797040084, -8927.510252894193, 13738.1421015432, -7883.773193809176, -1247.4061545617765, -11409.44795721149, 0.234, 0.908, -0.128, 192.0, 3.5, 40.0, 14.0, 48.0, 126.0, 0.0, 0.0, 0.0, 0.0, 1.6625068130943244E9, 0.0, 2022-09-06 19:26:53.094
50.0, -22753.964096780313, -9135.895566451021, -6412.916649927694, -7995.3083986411575, 10504.045844560367, 19564.414866496907, 69260.45647388179, -4409.663904865254, -12087.599883985506, 3757.462353403849, -26057.82014820816, -9765.611262990387, 12944.185786746239, -8813.002266049656, -2124.443903499115, -12268.626662329038, 0.234, 0.908, -0.128, 192.0, 0.0, 0.0, 0.0, 0.0, 0.0, 0.0, 0.0, 0.0, 0.0, 1.66250681309433E9, 0.0, 2022-09-06 19:26:53.094
52.0, -22622.71465333875, -8972.750183671735, -6193.8472025212295, -7968.1286773835045, 10705.9268004807, 20039.545898383367, 66815.75677582703, -4376.605674815854, -11751.407295633233, 4537.940566294261, -25131.20623006895, -8935.713343109292, 13723.635819391708, -7845.998745679706, -1247.1155818838577, -11394.516991915345, 0.234, 0.908, -0.128, 192.0, 0.0, 0.0, 0.0, 0.0, 0.0, 0.0, 0.0, 0.0, 0.0, 1.6625068130943356E9, 0.0, 2022-09-06 19:26:53.094
54.0, -22883.55951113218, -9261.557073778758, -6524.653020459774, -8127.630725816575, 10388.1520495596, 19469.75522872868, 70649.9750196904, -4551.820999601006, -12006.731272546205, 3784.2844467502177, -26072.929927459947, -9757.899911153307, 12984.150705832328, -8817.293800985075, -2125.539138977425, -12252.309888876664, 0.234, 0.908, -0.128, 192.0, 0.0, 0.0, 0.0, 0.0, 0.0, 0.0, 0.0, 0.0, 0.0, 1.6625068130943413E9, 0.0, 2022-09-06 19:26:53.094
56.0, -22509.480715928166, -8859.248025327686, -6094.136070506104, -7850.64790852641, 10817.596115779414, 20080.337832014302, 65475.18855037553, -4294.4183104536905, -11859.366221352366, 4478.060242898493, -25157.11190189265, -8984.283683810674, 13680.720470037517, -7874.832496027053, -1288.2427916816225, -11441.478007015945, 0.234, 0.908, -0.128, 192.0, 0.0, 0.0, 0.0, 0.0, 0.0, 0.0, 0.0, 0.0, 0.0, 1.6625068130943468E9, 0.0, 2022-09-06 19:26:53.094
58.0, -22973.63704128707, -9342.93977534053, -6614.462329681198, -8245.267956884856, 10290.65374024555, 19408.22087624322, 71872.34722046224, -4704.237545041746, -11883.170829197268, 3861.710889543401, -26028.539362971707, -9686.284921918503, 13059.811360813543, -8775.898370253846, -2087.5188216589477, -12223.722007718326, 0.24, 0.915, -0.128, 192.0, 3.5, 88.0, 14.0, 104.0, 126.0, 0.0, 0.0, 0.0, 0.0, 1.6625068130943525E9, 0.0, 2022-09-06 19:26:53.094
60.0, -22420.63253171832, -8777.530047599084, -5997.308313525715, -7733.256546647138, 10906.913686622822, 20129.31050411588, 64308.06986189722, -4166.141649024684, -11970.342632572965, 4398.018646004039, -25205.928111783043, -9048.79081830869, 13612.79351863784, -7935.517482223211, -1354.873341902893, -11526.816967346307, 0.24, 0.915, -0.128, 192.0, 0.0, 0.0, 0.0, 0.0, 0.0, 0.0, 0.0, 0.0, 0.0, 1.662506813094358E9, 0.0, 2022-09-06 19:26:53.094
62.0, -23060.451216751484, -9430.938593261075, -6668.799420452049, -8331.188062571056, 10211.863841040593, 19375.654384571837, 72901.89092181814, -4749.231606630279, -11766.382964418288, 3931.2695182883167, -25940.89817296245, -9592.117022528295, 13175.615748836488, -8724.57876498446, -1993.4403292465604, -12133.644477563439, 0.24, 0.915, -0.128, 192.0, 0.0, 0.0, 0.0, 0.0, 0.0, 0.0, 0.0, 0.0, 0.0, 1.6625068130943637E9, 0.0, 2022-09-06 19:26:53.094
64.0, -22351.297420417955, -8721.605982971905, -5934.611670328578, -7647.9846415501415, 10955.618137790936, 20169.52129239098, 63434.65309556164, -4101.81332848231, -12070.098468077002, 4277.520391645478, -25282.214615609006, -9135.649697262013, 13529.600325775185, -8027.427855423433, -1443.0062702901687, -11616.670980056642, 0.24, 0.915, -0.128, 192.0, 0.0, 0.0, 0.0, 0.0, 0.0, 0.0, 0.0, 0.0, 0.0, 1.6625068130943692E9, 0.0, 2022-09-06 19:26:53.094
66.0, -23113.58131332175, -9483.420489242137, -6706.976199981714, -8401.730168072007, 10173.910578955481, 19408.757318110147, 73634.49169808527, -4815.236308006801, -11654.624242141754, 4014.485062895425, -25843.62338109295, -9490.148364323184, 13286.972139712829, -8642.413752366752, -1905.0168281813656, -12046.517377676651, 0.24, 0.915, -0.128, 192.0, 0.0, 0.0, 0.0, 0.0, 0.0, 0.0, 0.0, 0.0, 0.0, 1.662506813094375E9, 0.0, 2022-09-06 19:26:53.094
68.0, -22293.004070878516, -8669.235845713121, -5889.282332573215, -7561.952777141664, 11001.550972646592, 20134.674922785154, 62999.084651361074, -3994.4578998634697, -12142.004029989725, 4173.450669461568, -25365.7877881274, -9223.670866927012, 13439.500443875844, -8114.867879732595, -1531.3627161219974, -11688.196562313624, 0.248, 0.9265000000000001, -0.13, 192.0, 4.0, 0.0, 14.5, 40.0, 125.5, 112.0, 0.0, 0.0, 0.0, 1.662506813094381E9, 0.0, 2022-09-06 19:26:53.094
70.0, -23161.995191811944, -9527.319315352359, -6731.563118882552, -8459.732944933528, 10147.379058287032, 19384.617434098414, 73964.04581833433, -4891.9698467218695, -11572.973319646517, 4109.189404152561, -25725.695577346753, -9381.027147892375, 13398.17206837798, -8517.892184006236, -1792.364036126618, -11916.027893546569, 0.248, 0.9265000000000001, -0.13, 192.0, 0.0, 0.0, 0.0, 0.0, 0.0, 0.0, 0.0, 0.0, 0.0, 1.662506813094388E9, 0.0, 2022-09-06 19:26:53.094
72.0, -22266.181977532146, -8646.124141946333, -5875.603064966567, -7522.010209800031, 11013.777376863645, 20097.369861289248, 62867.164655585846, -3971.100326907674, -12215.764786692238, 4046.962147588986, -25487.649498897732, -9351.634603933646, 13332.457939679378, -8255.415648867565, -1662.5227525857392, -11817.568459220942, 0.248, 0.9265000000000001, -0.13, 192.0, 0.0, 0.0, 0.0, 0.0, 0.0, 0.0, 0.0, 0.0, 0.0, 1.6625068130943935E9, 0.0, 2022-09-06 19:26:53.094
74.0, -23138.347046178227, -9492.361187024258, -6701.477670845708, -8456.2460727985, 10177.755079001794, 19453.48315876522, 73759.59441180163, -4891.29929438821, -11482.851086002718, 4236.616699292266, -25574.418970873234, -9249.442428283981, 13536.43995957851, -8378.640816049674, -1666.5907700766052, -11788.913522829238, 0.248, 0.9265000000000001, -0.13, 192.0, 0.0, 0.0, 0.0, 0.0, 0.0, 0.0, 0.0, 0.0, 0.0, 1.6625068130943992E9, 0.0, 2022-09-06 19:26:53.094
76.0, -22294.03225112346, -8670.889874802813, -5924.106350434584, -7531.621459915813, 10989.123402729441, 20028.437081389082, 63347.05660904129, -3984.556077069769, -12236.082522402112, 3943.6970882054675, -25610.561741657468, -9452.709192360544, 13243.162720580427, -8389.704929555051, -1791.1570419260315, -11948.504978240131, 0.248, 0.9265000000000001, -0.13, 192.0, 0.0, 0.0, 0.0, 0.0, 0.0, 0.0, 0.0, 0.0, 0.0, 1.6625068130944047E9, 0.0, 2022-09-06 19:26:53.094
78.0, -23076.320955314754, -9426.892927514664, -6647.654670197328, -8415.074159511823, 10260.165960808512, 19564.571328708094, 72826.69965347048, -4862.174971362945, -11473.172780653571, 4333.086828361372, -25433.6029808048, -9120.785787199235, 13653.496045290953, -8229.15234913258, -1546.7407163072487, -11675.366660996278, 0.262, 0.92825, -0.129, 192.0, 4.0, 80.0, 14.5, 8.0, 126.0, 0.0, 0.0, 0.0, 0.0, 1.6625068130944104E9, 0.0, 2022-09-06 19:26:53.094
80.0, -22582.682679019294, -8958.266253264697, -6227.7771506043855, -7834.353486818492, 10687.464259560616, 19775.795313810744, 67142.6510384859, -4299.581563422867, -12194.620036437516, 3803.819871404156, -25832.469860609755, -9616.94981061814, 13119.848146420498, -8621.827795723415, -2005.7114369525239, -12152.866977795004, 0.262, 0.92825, -0.129, 192.0, 0.0, 0.0, 0.0, 0.0, 0.0, 0.0, 0.0, 0.0, 0.0, 1.662506813094416E9, 0.0, 2022-09-06 19:26:53.094
82.0, -22726.3149888891, -9090.409766484472, -6330.684582076619, -8012.876869783029, 10592.603456092294, 19820.074119576708, 68339.6316575565, -4474.014577152083, -11727.267411621502, 4265.383394406247, -25390.866445406253, -9146.467941578381, 13624.55053622133, -8178.2127235189355, -1545.8466465290364, -11674.45023947361, 0.262, 0.92825, -0.129, 192.0, 0.0, 0.0, 0.0, 0.0, 0.0, 0.0, 0.0, 0.0, 0.0, 1.6625068130944216E9, 0.0, 2022-09-06 19:26:53.094
84.0, -22599.29002514959, -8966.961081857811, -6250.821799137807, -7871.36797563648, 10681.295178090952, 19844.437521032993, 66949.10728324739, -4355.662090261232, -11889.54107636703, 4084.423671296081, -25592.523883882033, -9342.828016618254, 13420.210888410913, -8366.593225788263, -1762.9044369345233, -11885.07072747597, 0.262, 0.92825, -0.129, 192.0, 0.0, 0.0, 0.0, 0.0, 0.0, 0.0, 0.0, 0.0, 0.0, 1.662506813094427E9, 0.0, 2022-09-06 19:26:53.094
86.0, -22756.73571309277, -9121.344580810617, -6373.108193052793, -8039.2742799847465, 10554.739600985004, 19786.993537782855, 68640.64260013613, -4518.852176529429, -11751.697868311152, 4213.750864714488, -25472.338553945847, -9214.976038333898, 13577.12013448717, -8246.318488874256, -1631.0067929037564, -11745.439379863667, 0.262, 0.92825, -0.129, 192.0, 0.0, 0.0, 0.0, 0.0, 0.0, 0.0, 0.0, 0.0, 0.0, 1.6625068130944328E9, 0.0, 2022-09-06 19:26:53.094
88.0, -22622.021749260635, -8983.769593688201, -6278.29209307338, -7899.285304461158, 10660.038669113956, 19826.35495976865, 67575.93960475203, -4382.3500731408685, -11908.78592834305, 4066.542275731835, -25630.208925033683, -9375.349804800726, 13420.032074455272, -8403.607714606253, -1789.525364580794, -11907.780099842561, 0.273, 0.9241250000000001, -0.1355, 192.0, 4.0, 112.0, 14.0, 96.0, 125.5, 72.0, 0.0, 0.0, 0.0, 1.6625068130944383E9, 0.0, 2022-09-06 19:26:53.094
90.0, -22742.98939025276, -9102.412653256972, -6355.450314933099, -8028.366628690556, 10586.568485089361, 19821.951666110956, 68486.32615641668, -4498.467385586189, -11756.414086391222, 4225.843158464809, -25466.437693409647, -9219.178166291496, 13599.807155109305, -8243.233948139423, -1619.0933131090776, -11747.004001975538, 0.273, 0.9241250000000001, -0.1355, 192.0, 0.0, 0.0, 0.0, 0.0, 0.0, 0.0, 0.0, 0.0, 0.0, 1.662506813094444E9, 0.0, 2022-09-06 19:26:53.094
92.0, -22663.305421269586, -9023.086312185087, -6319.4640063600555, -7948.5261974961995, 10616.922154059668, 19813.480354962394, 68034.41858701927, -4423.432579449723, -11914.798547601527, 4054.4723337259693, -25650.951343888206, -9400.830793479776, 13423.876574501584, -8414.940049045092, -1803.5175566098162, -11931.003562331625, 0.273, 0.9241250000000001, -0.1355, 192.0, 0.0, 0.0, 0.0, 0.0, 0.0, 0.0, 0.0, 0.0, 0.0, 1.6625068130944495E9, 0.0, 2022-09-06 19:26:53.094
94.0, -22726.98554122276, -9086.9452460939, -6342.285137448924, -8023.605707121576, 10593.028139236945, 19850.450140291472, 68321.63850326998, -4478.239056854136, -11771.725031343107, 4222.848024707798, -25470.349248689326, -9233.930317631999, 13600.12007953168, -8242.20576789448, -1631.8785109375133, -11768.104048741347, 0.273, 0.9241250000000001, -0.1355, 192.0, 0.0, 0.0, 0.0, 0.0, 0.0, 0.0, 0.0, 0.0, 0.0, 1.6625068130944552E9, 0.0, 2022-09-06 19:26:53.094
96.0, -22701.2586833547, -9060.905463803467, -6354.690355621619, -7999.957561487861, 10576.733717529025, 19787.06059301622, 68480.7158685584, -4464.2915683140245, -11927.494338452141, 4026.7561706013885, -25668.028076652063, -9434.20194795155, 13417.998065709839, -8458.324785032843, -1825.2881557092853, -11962.2736528246, 0.273, 0.9241250000000001, -0.1355, 192.0, 0.0, 0.0, 0.0, 0.0, 0.0, 0.0, 0.0, 0.0, 0.0, 1.6625068130944605E9, 0.0, 2022-09-06 19:26:53.094
98.0, -22692.2062268503, -9049.081390986608, -6315.574802824832, -8001.097500455082, 10613.34587494682, 19872.17603590203, 68125.59135265248, -4459.374184533856, -11785.13607801629, 4221.238699107015, -25468.203481221615, -9253.063410885741, 13588.206599737001, -8257.49436110191, -1650.497514068784, -11788.801764106962, 0.2835, 0.9170625000000001, -0.13675, 192.0, 4.5, 24.0, 14.0, 56.0, 125.5, 88.0, 0.0, 0.0, 0.0, 1.6625068130944662E9, 0.0, 2022-09-06 19:26:53.094
100.0, -22722.135212675956, -9076.931664577922, -6378.8078878888955, -8027.941945545906, 10554.113752140254, 19769.53682536326, 68851.64306779421, -4484.788117979541, -11903.421509673777, 4050.6948889130226, -25651.800710177507, -9425.685933314078, 13438.606374097631, -8440.309279001865, -1807.3173531672185, -11945.59925146094, 0.2835, 0.9170625000000001, -0.13675, 192.0, 0.0, 0.0, 0.0, 0.0, 0.0, 0.0, 0.0, 0.0, 0.0, 1.6625068130944717E9, 0.0, 2022-09-06 19:26:53.094
102.0, -22696.184837363344, -9046.756809563258, -6326.616564585754, -7996.828317264119, 10621.504261673006, 19858.228547361916, 67957.30506864846, -4446.298414027502, -11815.042712097493, 4197.948181384585, -25499.786496136963, -9290.45787935947, 13564.692564570018, -8274.459335143487, -1666.4119561209627, -11806.52669746002, 0.2835, 0.9170625000000001, -0.13675, 192.0, 0.0, 0.0, 0.0, 0.0, 0.0, 0.0, 0.0, 0.0, 0.0, 1.6625068130944784E9, 0.0, 2022-09-06 19:26:53.094
104.0, -22739.033131484168, -9091.013263584766, -6399.595010232331, -8038.424913695445, 10550.872749194235, 19758.226842668875, 69041.34232298641, -4501.417815854289, -11912.764538856094, 4038.2449672514163, -25658.774454447564, -9434.291354929372, 13435.097150218147, -8446.456008727075, -1803.6069635876374, -11932.03174257657, 0.2835, 0.9170625000000001, -0.13675, 192.0, 0.0, 0.0, 0.0, 0.0, 0.0, 0.0, 0.0, 0.0, 0.0, 1.662506813094484E9, 0.0, 2022-09-06 19:26:53.094
106.0, -22673.654278952396, -9022.013428451231, -6309.092796932793, -7966.4299448049005, 10626.332238475352, 19862.92241369753, 67581.3487269102, -4455.97671937665, -11820.183613322213, 4185.20768704506, -25489.817618109897, -9292.827164271732, 13561.652727324097, -8286.462221915986, -1664.2214851643428, -11796.267246755035, 0.2835, 0.9170625000000001, -0.13675, 192.0, 0.0, 0.0, 0.0, 0.0, 0.0, 0.0, 0.0, 0.0, 0.0, 1.6625068130944896E9, 0.0, 2022-09-06 19:26:53.094
108.0, -22745.671599587393, -9087.03465307172, -6397.158670086703, -8039.363686962568, 10536.589984487295, 19766.161711950506, 69063.55995697498, -4497.349798363423, -11900.716948594683, 4047.833865622743, -25642.256515295092, -9428.904584515642, 13456.085438261682, -8450.72519191804, -1789.882992492079, -11909.59059114344, 0.28874999999999995, 0.9055312500000001, -0.13637500000000002, 192.0, 4.5, 24.0, 13.5, 120.0, 125.5, 96.0, 0.0, 0.0, 0.0, 1.6625068130944953E9, 0.0, 2022-09-06 19:26:53.094
110.0, -22640.48429018072, -8974.15834357242, -6283.321235575823, -7933.550528711145, 10658.809323168913, 19917.684187613035, 67273.81107494964, -4402.913678039751, -11811.622895195831, 4195.824765661331, -25482.843873839844, -9292.134260193618, 13569.699355328006, -8283.422384670066, -1655.0572699376667, -11777.625891879308, 0.28874999999999995, 0.9055312500000001, -0.13637500000000002, 192.0, 0.0, 0.0, 0.0, 0.0, 0.0, 0.0, 0.0, 0.0, 0.0, 1.6625068130945008E9, 0.0, 2022-09-06 19:26:53.094
112.0, -22787.447009974363, -9115.801348185701, -6441.660993297219, -8071.639605956031, 10512.785376642392, 19766.47463637288, 69144.89795504784, -4525.5129963771105, -11877.292320405522, 4072.197267079028, -25620.46356445117, -9402.507174313925, 13481.566426940732, -8410.246182709478, -1766.6148265141044, -11876.174733182757, 0.28874999999999995, 0.9055312500000001, -0.13637500000000002, 192.0, 0.0, 0.0, 0.0, 0.0, 0.0, 0.0, 0.0, 0.0, 0.0, 1.6625068130945065E9, 0.0, 2022-09-06 19:26:53.094
114.0, -22647.18981351731, -8975.387689517462, -6306.142366664692, -7940.121941581005, 10650.62858469827, 19896.40532689158, 67304.47766834231, -4393.481241879612, -11843.295317089, 4165.135820524195, -25521.15476383624, -9321.213879729972, 13532.48370080992, -8296.74402436543, -1703.9405350614234, -11800.37996773481, 0.28874999999999995, 0.9055312500000001, -0.13637500000000002, 192.0, 0.0, 0.0, 0.0, 0.0, 0.0, 0.0, 0.0, 0.0, 0.0, 1.662506813094512E9, 0.0, 2022-09-06 19:26:53.094
116.0, -22798.153495568455, -9122.775092455757, -6462.85044704085, -8097.075891146171, 10506.325722494808, 19757.44453161294, 69385.02274573121, -4569.702395165253, -11858.650965529796, 4077.2487613259273, -25608.438325934214, -9393.34295908725, 13495.29039803629, -8399.651455837662, -1763.2620648458083, -11857.153398651291, 0.28874999999999995, 0.9055312500000001, -0.13637500000000002, 192.0, 0.0, 0.0, 0.0, 0.0, 0.0, 0.0, 0.0, 0.0, 0.0, 1.6625068130945184E9, 0.0, 2022-09-06 19:26:53.094
118.0, -22660.734970657228, -8980.30507329763, -6334.149102467192, -7959.925587168406, 10639.00567758151, 19891.398536133594, 67384.94394838142, -4332.058648116427, -11858.807427740983, 4138.336078922282, -25547.66393276023, -9351.209920788995, 13510.377825543623, -8335.524300995387, -1731.6790499304593, -11832.499424517087, 0.29337499999999994, 0.8817656250000001, -0.14018750000000002, 192.0, 4.5, 40.0, 13.0, 104.0, 125.5, 64.0, 0.0, 0.0, 0.0, 1.662506813094524E9, 0.0, 2022-09-06 19:26:53.094
120.0, -22837.291400109698, -9148.61370904609, -6503.66473241624, -8136.392609643056, 10490.433632187085, 19754.9634879784, 69503.68815704444, -4516.192318939247, -11857.91335796277, 4069.7609269333993, -25616.93198882723, -9396.896886455643, 13500.140726583091, -8402.601886105764, -1765.1843148689647, -11850.671392759252, 0.29337499999999994, 0.8817656250000001, -0.14018750000000002, 192.0, 0.0, 0.0, 0.0, 0.0, 0.0, 0.0, 0.0, 0.0, 0.0, 1.662506813574854E9, 0.0, 2022-09-06 19:26:53.574
122.0, -22678.705773199294, -8988.418756534906, -6360.658271391186, -7978.835162977596, 10633.350686234318, 19871.952518457478, 67538.74630197839, -4375.398680615268, -11892.3573961684, 4086.9494184195305, -25596.92717753973, -9388.514982284902, 13478.280720505802, -8376.51740032642, -1779.3776725980847, -11873.045488959015, 0.29337499999999994, 0.8817656250000001, -0.14018750000000002, 192.0, 0.0, 0.0, 0.0, 0.0, 0.0, 0.0, 0.0, 0.0, 0.0, 1.6625068135749896E9, 0.0, 2022-09-06 19:26:53.574
124.0, -22844.846289735593, -9155.274528893773, -6498.032092813503, -8142.047600990249, 10477.111992491722, 19748.48148208636, 69499.88836048704, -4544.914310564317, -11849.374991580844, 4084.1778021070722, -25595.854293805874, -9377.026185634873, 13513.238848833902, -8387.51445859843, -1759.886951433057, -11854.337078849921, 0.29337499999999994, 0.8817656250000001, -0.14018750000000002, 192.0, 0.0, 0.0, 0.0, 0.0, 0.0, 0.0, 0.0, 0.0, 0.0, 1.662506813575055E9, 0.0, 2022-09-06 19:26:53.575
126.0, -22676.62706096495, -8985.893009411457, -6346.666079362164, -7961.445505791367, 10615.312828458886, 19872.779533002322, 67727.14915599217, -4387.066291220938, -11913.278628978567, 4056.1040110712065, -25612.752212614087, -9411.470223840503, 13455.414885928021, -8404.501784384463, -1805.395103144062, -11894.59257061393, 0.29337499999999994, 0.8817656250000001, -0.14018750000000002, 192.0, 0.0, 0.0, 0.0, 0.0, 0.0, 0.0, 0.0, 0.0, 0.0, 1.6625068135750625E9, 0.0, 2022-09-06 19:26:53.575
128.0, -22813.84442017608, -9121.791615699723, -6457.597787093853, -8095.175992867469, 10500.827193358802, 19786.81472382721, 69435.24711552229, -4530.89976679084, -11820.38477902231, 4118.711247290522, -25550.457900817146, -9336.234252003938, 13543.793683504306, -8347.191911601056, -1729.2874132737415, -11815.176822564224, 0.29337499999999994, 0.8817656250000001, -0.14018750000000002, 192.0, 0.0, 0.0, 0.0, 0.0, 0.0, 0.0, 0.0, 0.0, 0.0, 1.6625068135750704E9, 0.0, 2022-09-06 19:26:53.575
130.0, -22676.515302242675, -8981.534419242671, -6350.085896263826, -7958.919758667917, 10610.887183056735, 19856.954497927964, 67963.87648151832, -4409.082759509416, -11898.92880903826, 4074.097165357729, -25601.35282294188, -9391.107784641717, 13462.232167986891, -8404.971171018025, -1801.103568208643, -11889.608131600397, 0.32, 0.86, -0.14400000000000002, 192.0, 5.0, 0.0, 13.0, 112.0, 125.5, 64.0, 0.0, 0.0, 0.0, 1.6625068135750775E9, 0.0, 2022-09-06 19:26:53.575
132.0, -22822.919228424937, -9131.313458837683, -6459.94472026166, -8094.460737044899, 10499.128460780199, 19786.032412771274, 69303.10360230251, -4540.80158958454, -11823.759892435062, 4121.885195003176, -25549.697941505667, -9331.47333043496, 13541.513805569864, -8347.191911601056, -1727.2310527838533, -11810.259438784056, 0.32, 0.86, -0.14400000000000002, 192.0, 0.0, 0.0, 0.0, 0.0, 0.0, 0.0, 0.0, 0.0, 0.0, 1.6625068135750844E9, 0.0, 2022-09-06 19:26:53.575
134.0, -22693.323814073065, -9006.25544861024, -6367.9449400836165, -7968.419250061424, 10598.43726139513, 19832.50168949386, 68173.31232706456, -4423.633745149821, -11927.3155244965, 4031.4947404259137, -25636.82504139245, -9430.648020583156, 13432.32553390569, -8438.901119101181, -1829.3114697112405, -11906.97543704217, 0.32, 0.86, -0.14400000000000002, 192.0, 0.0, 0.0, 0.0, 0.0, 0.0, 0.0, 0.0, 0.0, 0.0, 1.662506813575096E9, 0.0, 2022-09-06 19:26:53.575
136.0, -22782.015536071725, -9094.857763631078, -6437.592975806353, -8061.983652351339, 10548.771685215437, 19806.908942092534, 69133.23034444217, -4506.514013590099, -11806.705511415663, 4148.707288349544, -25522.160592336728, -9319.984533784931, 13545.000677704893, -8327.03063810237, -1713.015343310278, -11790.254627496557, 0.32, 0.86, -0.14400000000000002, 192.0, 0.0, 0.0, 0.0, 0.0, 0.0, 0.0, 0.0, 0.0, 0.0, 1.6625068135751016E9, 0.0, 2022-09-06 19:26:53.575
138.0, -22703.06917465558, -9013.8773934695, -6385.5581147143985, -7989.362834616046, 10572.509237826973, 19802.080965290184, 68427.76458594378, -4452.892178641818, -11913.613905145396, 4038.2449672514163, -25622.02818656304, -9423.696628057556, 13424.390664624056, -8439.81754062385, -1830.8760918231121, -11908.428300431766, 0.32, 0.86, -0.14400000000000002, 192.0, 0.0, 0.0, 0.0, 0.0, 0.0, 0.0, 0.0, 0.0, 0.0, 1.6625068135751069E9, 0.0, 2022-09-06 19:26:53.575
140.0, -22782.864902361027, -9098.948132866399, -6423.354914588323, -8068.398603010011, 10513.277115020408, 19781.852636558135, 68936.89262114676, -4524.395409154345, -11806.213773037645, 4133.217529442016, -25512.459935243125, -9322.666743119567, 13536.283497367323, -8344.085019121769, -1734.3165557761856, -11813.075758585424, 0.33, 0.89, -0.148, 192.0, 5.0, 40.0, 13.5, 104.0, 125.5, 48.0, 0.0, 0.0, 0.0, 1.6625068135751123E9, 0.0, 2022-09-06 19:26:53.575
142.0, -22726.73967203375, -9044.141655461986, -6384.9099141251945, -8003.377378389523, 10543.988411902, 19783.8195900702, 68666.2576992819, -4480.295417344024, -11936.74796065664, 4007.8018913032884, -25638.68023618224, -9450.094038259273, 13412.566591807199, -8467.444296770609, -1860.5145049708492, -11934.199861788735, 0.33, 0.89, -0.148, 192.0, 0.0, 0.0, 0.0, 0.0, 0.0, 0.0, 0.0, 0.0, 0.0, 1.6625068135751178E9, 0.0, 2022-09-06 19:26:53.575
144.0, -22771.532567922186, -9089.426289728439, -6389.112042082792, -8040.034239296227, 10540.054504877866, 19790.458058173426, 68746.63457234319, -4507.9668769796945, -11815.57915396442, 4136.994974254963, -25505.10621131733, -9323.314943708772, 13537.62460203464, -8329.198757314534, -1734.2495005428198, -11810.482956228609, 0.33, 0.89, -0.148, 192.0, 0.0, 0.0, 0.0, 0.0, 0.0, 0.0, 0.0, 0.0, 0.0, 1.6625068135751235E9, 0.0, 2022-09-06 19:26:53.575
146.0, -22754.589945625063, -9064.526446405227, -6406.948734158127, -8028.232518223825, 10518.060388333844, 19750.739008276345, 68892.83733282535, -4508.168042679792, -11937.731437412673, 3997.318923153749, -25645.095186840917, -9458.230073241004, 13416.768719764796, -8474.596854996307, -1857.3405572581958, -11944.481664238176, 0.33, 0.89, -0.148, 192.0, 0.0, 0.0, 0.0, 0.0, 0.0, 0.0, 0.0, 0.0, 0.0, 1.6625068135751293E9, 0.0, 2022-09-06 19:26:53.575
148.0, -22752.667695601904, -9062.827713826622, -6377.936169855138, -8018.151881474481, 10558.427638820129, 19808.49591594886, 68542.56314546624, -4494.153498906315, -11820.3400755334, 4138.6937068335665, -25515.835048655874, -9330.646315890112, 13527.611020518663, -8345.046144133346, -1740.7091546904035, -11831.493596016599, 0.33, 0.89, -0.148, 192.0, 0.0, 0.0, 0.0, 0.0, 0.0, 0.0, 0.0, 0.0, 0.0, 1.6625068135751348E9, 0.0, 2022-09-06 19:26:53.575
150.0, -22765.74346610826, -9078.473934945338, -6412.916649927694, -8032.546404903699, 10512.40539698665, 19746.782749507758, 69084.12356187387, -4529.1563307233255, -11928.790739630549, 4013.6804000950337, -25636.042730336518, -9446.785980079887, 13423.295429145746, -8467.645462470706, -1850.947958343978, -11942.581765959474, 0.326, 0.908, -0.156, 192.0, 5.0, 24.0, 14.0, 48.0, 125.5, 16.0, 0.0, 0.0, 0.0, 1.6625068135751405E9, 0.0, 2022-09-06 19:26:53.575
152.0, -22723.856296999016, -9038.97840249281, -6339.379410669734, -7975.370642587023, 10582.61222632077, 19828.16545106953, 68376.13205625201, -4473.344024818423, -11817.188479565202, 4141.5100266349355, -25500.255882770525, -9312.362588925671, 13526.96281992946, -8328.908184636615, -1738.1163523335879, -11829.213718082157, 0.326, 0.908, -0.156, 192.0, 0.0, 0.0, 0.0, 0.0, 0.0, 0.0, 0.0, 0.0, 0.0, 1.6625068135751457E9, 0.0, 2022-09-06 19:26:53.575
154.0, -22767.397495197954, -9085.805307126679, -6399.662065465697, -8026.287916456213, 10504.336417238286, 19737.10444415861, 69255.71790405725, -4531.5032638911325, -11911.199916744223, 4019.8718333091538, -25612.282825980525, -9419.226279166494, 13444.976621267393, -8451.038116340413, -1828.3503446996624, -11909.635294632351, 0.326, 0.908, -0.156, 192.0, 0.0, 0.0, 0.0, 0.0, 0.0, 0.0, 0.0, 0.0, 0.0, 1.6625068135751512E9, 0.0, 2022-09-06 19:26:53.575
156.0, -22708.746517747226, -9028.629544810003, -6324.470797118044, -7963.725383725809, 10592.022310736456, 19822.73397716689, 68251.14110125793, -4468.583103249443, -11829.638401226808, 4130.892948018664, -25513.599874210344, -9330.020467045364, 13513.06003487826, -8350.522321524897, -1744.464247758895, -11829.884270415816, 0.326, 0.908, -0.156, 192.0, 0.0, 0.0, 0.0, 0.0, 0.0, 0.0, 0.0, 0.0, 0.0, 1.662506813575157E9, 0.0, 2022-09-06 19:26:53.575
158.0, -22784.049544817157, -9102.99379861281, -6411.106158626814, -8046.829169610641, 10484.689233862071, 19714.66329272548, 69402.2782924507, -4560.828752616496, -11906.662512619796, 4023.1128362551735, -25610.315872468458, -9421.439101867569, 13446.205967212436, -8452.714497174562, -1821.8906905520787, -11900.180506727756, 0.326, 0.908, -0.156, 192.0, 0.0, 0.0, 0.0, 0.0, 0.0, 0.0, 0.0, 0.0, 0.0, 1.6625068135751624E9, 0.0, 2022-09-06 19:26:53.575
160.0, -22686.35006980301, -9004.489660798272, -6307.081139931815, -7948.682659707387, 10588.580142090339, 19823.292770778273, 68126.44071894178, -4463.688071213731, -11833.885232673316, 4126.199081683049, -25516.416194011712, -9338.111798538184, 13506.890953408594, -8366.123839154701, -1755.4613060309061, -11842.155378121779, 0.32, 0.934, -0.17, 192.0, 5.0, 0.0, 14.5, 24.0, 125.0, 88.0, 0.0, 0.0, 0.0, 1.662506813575168E9, 0.0, 2022-09-06 19:26:53.575
162.0, -22794.59956820006, -9108.782900426735, -6418.258716852512, -8050.561910934676, 10483.951626295046, 19721.14529861752, 69435.9847230893, -4565.701432907753, -11893.899666535815, 4035.316888727771, -25595.697831594687, -9414.688875042066, 13461.449856930954, -8435.391895221699, -1814.0899317371766, -11888.468192633176, 0.32, 0.934, -0.17, 192.0, 0.0, 0.0, 0.0, 0.0, 0.0, 0.0, 0.0, 0.0, 0.0, 1.6625068135751734E9, 0.0, 2022-09-06 19:26:53.575
164.0, -22697.54829377512, -9008.714140500324, -6316.178299925125, -7947.006278873239, 10579.661796052671, 19820.78937539928, 68047.94139241474, -4459.21772232267, -11851.990145682115, 4107.133043662673, -25537.985627411086, -9360.642356949134, 13488.741336910885, -8363.642795520163, -1777.7459952528473, -11854.851168972395, 0.32, 0.934, -0.17, 192.0, 0.0, 0.0, 0.0, 0.0, 0.0, 0.0, 0.0, 0.0, 0.0, 1.6625068135751798E9, 0.0, 2022-09-06 19:26:53.575
166.0, -22801.148629325467, -9116.628362730547, -6405.31705681289, -8048.773771378252, 10483.348129194752, 19724.967446919378, 69475.25673809729, -4559.532351438088, -11876.845285516416, 4042.6035574202015, -25582.711468066154, -9406.351674360238, 13479.822990873217, -8416.683485112606, -1799.0472077187549, -11872.01730871407, 0.32, 0.934, -0.17, 192.0, 0.0, 0.0, 0.0, 0.0, 0.0, 0.0, 0.0, 0.0, 0.0, 1.6625068135751867E9, 0.0, 2022-09-06 19:26:53.575
168.0, -22695.514285029687, -9011.441053323872, -6300.867354973239, -7940.1889968143705, 10577.180752418131, 19811.803974128245, 68068.817921736, -4462.637539224332, -11857.332212606932, 4090.4586422990137, -25546.948676937664, -9381.161258359107, 13486.059127576247, -8381.635949806685, -1786.0608441902214, -11864.507122577086, 0.32, 0.934, -0.17, 192.0, 0.0, 0.0, 0.0, 0.0, 0.0, 0.0, 0.0, 0.0, 0.0, 1.6625068135751925E9, 0.0, 2022-09-06 19:26:53.575
170.0, -22811.98922538629, -9129.368857070072, -6405.004132390515, -8048.460846955878, 10479.50362914844, 19727.649656254012, 69489.33833710413, -4564.963825340727, -11864.68593653273, 4051.544255202324, -25570.038028959996, -9403.960037703519, 13493.390499757588, -8411.85550831026, -1784.49622207835, -11860.036773686024, 0.314, 0.9400000000000001, -0.17, 192.0, 4.5, 104.0, 14.5, 48.0, 125.0, 88.0, 0.0, 0.0, 0.0, 1.6625068135751977E9, 0.0, 2022-09-06 19:26:53.575
172.0, -22690.21692159378, -9007.238925366275, -6312.356151623268, -7930.577746698588, 10596.693825327615, 19808.317101993216, 68073.06475318251, -4472.561713762488, -11875.504180849097, 4058.4062407501033, -25570.529767338012, -9408.43038659458, 13465.987261055383, -8405.105281484757, -1804.657495577037, -11880.10864020689, 0.314, 0.9400000000000001, -0.17, 192.0, 0.0, 0.0, 0.0, 0.0, 0.0, 0.0, 0.0, 0.0, 0.0, 1.6625068135752037E9, 0.0, 2022-09-06 19:26:53.575
174.0, -22809.99992012977, -9128.541842525226, -6422.46084481011, -8050.114876045571, 10493.607579899739, 19719.021882894263, 69364.43678908788, -4576.519677224121, -11842.088322888414, 4064.7317844309555, -25555.643505530777, -9394.95228468803, 13506.265104563845, -8392.633008078696, -1775.8460969741461, -11847.944479935704, 0.314, 0.9400000000000001, -0.17, 192.0, 0.0, 0.0, 0.0, 0.0, 0.0, 0.0, 0.0, 0.0, 0.0, 1.6625068135752091E9, 0.0, 2022-09-06 19:26:53.575
176.0, -22697.995328664223, -9011.396349834962, -6334.3726199117455, -7947.006278873239, 10573.358604116274, 19799.309348977727, 68130.55343992155, -4451.662832696776, -11883.751974553106, 4048.996156334419, -25584.87958727832, -9431.29622117236, 13454.051429516248, -8422.249069481977, -1827.143350499076, -11892.692672335228, 0.314, 0.9400000000000001, -0.17, 192.0, 0.0, 0.0, 0.0, 0.0, 0.0, 0.0, 0.0, 0.0, 0.0, 1.6625068135752144E9, 0.0, 2022-09-06 19:26:53.575
178.0, -22798.868751391026, -9113.27560106225, -6410.323847570879, -8042.4482276974, 10493.093489777266, 19744.413464595495, 69284.17167474887, -4522.696676575742, -11834.444026284698, 4079.28277007136, -25542.992418169073, -9385.72101422799, 13511.093081366193, -8380.98774921748, -1770.5487335382384, -11831.448892527687, 0.314, 0.9400000000000001, -0.17, 192.0, 0.0, 0.0, 0.0, 0.0, 0.0, 0.0, 0.0, 0.0, 0.0, 1.66250681357522E9, 0.0, 2022-09-06 19:26:53.575
180.0, -22710.378195092464, -9023.466291840827, -6338.574747869343, -7961.95959591384, 10553.689068995604, 19784.892473804055, 68258.42776995037, -4457.943672888717, -11890.077518233958, 4044.123476043162, -25592.30036643748, -9436.906509030641, 13445.289545689768, -8430.496863185987, -1828.327992955207, -11896.112489236892, 0.306, 0.9420000000000001, -0.17, 192.0, 4.5, 72.0, 14.5, 56.0, 125.0, 88.0, 0.0, 0.0, 0.0, 1.662506813575226E9, 0.0, 2022-09-06 19:26:53.575
182.0, -22800.656890947448, -9113.387359784527, -6394.07412935187, -8045.689230643419, 10506.0798533058, 19739.09374941513, 69151.91640280682, -4529.938641779261, -11831.761816950062, 4078.2322380819605, -25540.153746623248, -9390.638398008155, 13510.690749965997, -8381.032452706391, -1758.367032810096, -11836.388628052311, 0.306, 0.9420000000000001, -0.17, 192.0, 0.0, 0.0, 0.0, 0.0, 0.0, 0.0, 0.0, 0.0, 0.0, 1.6625068135752313E9, 0.0, 2022-09-06 19:26:53.575
184.0, -22701.906883943902, -9007.082463155088, -6328.717628564552, -7963.524218025711, 10566.161342401665, 19782.92552029199, 68391.21948375934, -4461.430545023745, -11884.981320498147, 4051.8795313691535, -25590.467523392144, -9442.203872466549, 13450.385743425579, -8431.413284708653, -1808.9937340013664, -11898.504125893609, 0.306, 0.9420000000000001, -0.17, 192.0, 0.0, 0.0, 0.0, 0.0, 0.0, 0.0, 0.0, 0.0, 0.0, 1.6625068135752368E9, 0.0, 2022-09-06 19:26:53.575
186.0, -22787.1787890409, -9093.85193513059, -6381.445393734622, -8039.475445684844, 10520.720245924025, 19759.210319424907, 69014.29671219549, -4524.171891709792, -11811.041749839993, 4122.53339559238, -25512.10230733184, -9361.178798816061, 13528.05805540777, -8360.513551296419, -1725.2864510162415, -11822.284677301011, 0.306, 0.9420000000000001, -0.17, 192.0, 0.0, 0.0, 0.0, 0.0, 0.0, 0.0, 0.0, 0.0, 0.0, 1.6625068135752423E9, 0.0, 2022-09-06 19:26:53.575
188.0, -22723.02928245417, -9025.433245352895, -6347.247224718002, -7990.346311372079, 10552.638537006205, 19766.586395095157, 68561.42801778651, -4490.55486804901, -11903.3097509515, 4029.0136967913745, -25601.621043875344, -9453.849131327765, 13434.359542651122, -8455.82138965385, -1808.300829923252, -11914.843251090439, 0.306, 0.9420000000000001, -0.17, 192.0, 0.0, 0.0, 0.0, 0.0, 0.0, 0.0, 0.0, 0.0, 0.0, 1.6625068135752478E9, 0.0, 2022-09-06 19:26:53.575
190.0, -22788.005803585747, -9091.75087115179, -6380.0372338339375, -8044.169312020459, 10517.121615066722, 19754.62821181157, 68827.9949221605, -4493.102966916915, -11811.175860306725, 4117.638363556667, -25515.455069000134, -9372.891112910642, 13520.838441948707, -8369.744821756462, -1717.8656718570796, -11830.823043682938, 0.28200000000000003, 0.932, -0.14400000000000002, 192.0, 4.0, 104.0, 14.5, 16.0, 125.5, 64.0, 0.0, 0.0, 0.0, 1.6625068135752535E9, 0.0, 2022-09-06 19:26:53.575
192.0, -22742.140023963457, -9027.914288987433, -6354.6233003882535, -7991.218029405836, 10554.538435284905, 19786.524151149293, 68759.64328761617, -4417.598774146888, -11906.684864364252, 4021.4811589099363, -25617.759003372077, -9469.741221635488, 13430.22446992689, -8460.939939134114, -1799.2260216743973, -11899.845230560926, 0.28200000000000003, 0.932, -0.14400000000000002, 192.0, 0.0, 0.0, 0.0, 0.0, 0.0, 0.0, 0.0, 0.0, 0.0, 1.6625068135752587E9, 0.0, 2022-09-06 19:26:53.575
194.0, -22786.575291940608, -9064.727612105324, -6374.046966319915, -8015.536727373211, 10559.768743487448, 19802.43859320147, 68730.45190935754, -4444.554977959988, -11794.881438598804, 4149.377840683203, -25511.744679420553, -9346.538406197835, 13532.327238598733, -8326.605954957718, -1681.275866183742, -11776.41889767872, 0.28200000000000003, 0.932, -0.14400000000000002, 192.0, 0.0, 0.0, 0.0, 0.0, 0.0, 0.0, 0.0, 0.0, 0.0, 1.6625068135752645E9, 0.0, 2022-09-06 19:26:53.575
196.0, -22789.36925999752, -9063.922949304933, -6420.650353509231, -8035.5191869162545, 10520.295562779374, 19770.72146781939, 68963.06651390392, -4475.400385308312, -11911.155213255313, 4007.5336703698244, -25647.196250819714, -9465.427334955613, 13422.155490178526, -8458.749468177493, -1797.5719925847045, -11885.45070713171, 0.28200000000000003, 0.932, -0.14400000000000002, 192.0, 0.0, 0.0, 0.0, 0.0, 0.0, 0.0, 0.0, 0.0, 0.0, 1.66250681357527E9, 0.0, 2022-09-06 19:26:53.575
198.0, -22775.01944005721, -9061.710126603857, -6399.617361976786, -8029.372457191045, 10556.684202752615, 19813.837982873676, 68618.51437312536, -4467.420812537767, -11814.327456274923, 4126.8919857611645, -25553.095406662873, -9363.749249428422, 13506.91330515305, -8351.975184914492, -1707.561517663183, -11795.127307787814, 0.28200000000000003, 0.932, -0.14400000000000002, 192.0, 0.0, 0.0, 0.0, 0.0, 0.0, 0.0, 0.0, 0.0, 0.0, 1.6625068135752769E9, 0.0, 2022-09-06 19:26:53.575
200.0, -22781.501445949252, -9074.092993032098, -6426.350048345334, -8059.9943470948165, 10527.984562872001, 19765.804084039224, 69173.06115306153, -4500.970780965184, -11904.226172474167, 4015.22267046245, -25643.061178095482, -9457.604224396257, 13432.861975772617, -8459.576482722341, -1784.1162424226097, -11883.304939664, 0.279, 0.922, -0.132, 192.0, 4.0, 80.0, 14.0, 64.0, 126.0, 32.0, 0.0, 0.0, 0.0, 1.6625068135752823E9, 0.0, 2022-09-06 19:26:53.575
202.0, -22765.251727730243, -9064.101763260576, -6378.830239633351, -8044.549291676199, 10553.532606784416, 19784.33368019267, 68576.5377970383, -4486.933885447251, -11828.140834348302, 4112.05042744284, -25561.72318002262, -9386.212752606005, 13497.48086899291, -8389.771984788416, -1728.527453962261, -11839.62963099833, 0.279, 0.922, -0.132, 192.0, 0.0, 0.0, 0.0, 0.0, 0.0, 0.0, 0.0, 0.0, 0.0, 1.6625068135752876E9, 0.0, 2022-09-06 19:26:53.575
204.0, -22806.490696250286, -9105.161917824975, -6422.9525831881265, -8091.465603287888, 10493.115841521721, 19733.61757202358, 69434.71067365535, -4519.053342229527, -11908.562410898498, 4009.2771064373383, -25643.150585073305, -9470.970567580529, 13428.928068748482, -8479.335424820832, -1797.393178629062, -11907.713044609196, 0.279, 0.922, -0.132, 192.0, 0.0, 0.0, 0.0, 0.0, 0.0, 0.0, 0.0, 0.0, 0.0, 1.6625068135752933E9, 0.0, 2022-09-06 19:26:53.575
206.0, -22763.038905029167, -9062.805362082168, -6362.893445836717, -8040.034239296227, 10526.486995993495, 19796.20245649844, 68621.01776850436, -4460.603530478898, -11846.648078757296, 4102.640343027156, -25574.19545342868, -9398.059177167319, 13472.871598347618, -8410.42499666512, -1748.241692571842, -11860.863788230872, 0.279, 0.922, -0.132, 192.0, 0.0, 0.0, 0.0, 0.0, 0.0, 0.0, 0.0, 0.0, 0.0, 1.6625068135752985E9, 0.0, 2022-09-06 19:26:53.575
208.0, -22811.02810037471, -9111.845089417111, -6422.907879699216, -8085.542391007232, 10468.886550532168, 19742.29004887224, 69624.45463233646, -4519.679191074275, -11904.047358518525, 4010.7523215713886, -25637.94262861522, -9458.475942430014, 13423.496594845843, -8472.696956717606, -1800.3883123860733, -11900.336968938944, 0.279, 0.922, -0.132, 192.0, 0.0, 0.0, 0.0, 0.0, 0.0, 0.0, 0.0, 0.0, 0.0, 1.662506813575304E9, 0.0, 2022-09-06 19:26:53.575
210.0, -22749.002009511234, -9053.238815455295, -6351.717573609063, -8013.5027186277775, 10548.928147426623, 19805.7242996364, 68641.67078038106, -4450.88052164084, -11838.310878075466, 4093.7890522228545, -25572.049685960974, -9393.030034664875, 13464.71321162143, -8410.156775731657, -1758.009404898811, -11853.82298872745, 0.2725, 0.919, -0.121, 192.0, 4.0, 40.0, 14.0, 80.0, 126.0, 72.0, 0.0, 0.0, 0.0, 1.6625068135753095E9, 0.0, 2022-09-06 19:26:53.575
212.0, -22842.52170831224, -9148.166674156986, -6441.660993297219, -8097.768795224285, 10476.955530280535, 19709.432984522937, 69804.14030601268, -4547.015374543116, -11887.708233321695, 3995.262562663861, -25623.190477274715, -9452.552730149357, 13435.141853707059, -8475.021538140958, -1790.0171029588107, -11881.762669296584, 0.2725, 0.919, -0.121, 192.0, 0.0, 0.0, 0.0, 0.0, 0.0, 0.0, 0.0, 0.0, 0.0, 1.6625068135753152E9, 0.0, 2022-09-06 19:26:53.575
214.0, -22778.3274982366, -9080.17266752394, -6387.301550781912, -8027.226689723336, 10533.840719919292, 19772.8672352871, 68795.27196827793, -4478.9096091877955, -11866.384669111332, 4043.6987928985113, -25601.643395619798, -9426.602354836745, 13431.878499016584, -8449.920529117648, -1790.4417861034617, -11884.333119908944, 0.2725, 0.919, -0.121, 192.0, 0.0, 0.0, 0.0, 0.0, 0.0, 0.0, 0.0, 0.0, 0.0, 1.6625068135753207E9, 0.0, 2022-09-06 19:26:53.575
216.0, -22882.75484833179, -9183.571837374191, -6491.9747700661155, -8113.951458209927, 10448.457056100018, 19697.47480123935, 69986.99992740154, -4566.886075363884, -11899.778175327561, 3971.770879241333, -25647.106843841895, -9471.752878636466, 13416.344036620145, -8491.315959848876, -1815.6322021045928, -11898.012387515591, 0.2725, 0.919, -0.121, 192.0, 0.0, 0.0, 0.0, 0.0, 0.0, 0.0, 0.0, 0.0, 0.0, 1.6625068135753264E9, 0.0, 2022-09-06 19:26:53.575
218.0, -22811.966873641835, -9107.285333548229, -6438.576452562386, -8039.117817773559, 10524.452987248062, 19763.34539214914, 68922.63220818427, -4513.375999137878, -11890.435146145242, 4011.959315771975, -25643.731730429143, -9462.789829109888, 13405.79401323724, -8472.853418928793, -1822.9188707970227, -11898.83940206044, 0.2725, 0.919, -0.121, 192.0, 0.0, 0.0, 0.0, 0.0, 0.0, 0.0, 0.0, 0.0, 0.0, 1.6625068135753317E9, 0.0, 2022-09-06 19:26:53.575
220.0, -22930.408767510507, -9224.453177982949, -6549.686974249718, -8146.070914992204, 10436.185948394055, 19668.395181702996, 70078.19504477919, -4614.517642798143, -11916.653742391318, 3938.6902974474788, -25683.60724253741, -9511.136652366717, 13402.016568424293, -8528.375152155775, -1845.4941326968828, -11922.35343722742, 0.29425, 0.9095, -0.11449999999999999, 192.0, 4.5, 112.0, 14.0, 16.0, 126.0, 80.0, 0.0, 0.0, 0.0, 1.6625068135753467E9, 0.0, 2022-09-06 19:26:53.575
222.0, -22837.224344876333, -9118.550612753703, -6485.202191496157, -8055.3004807592015, 10505.386949227686, 19740.971295949377, 69051.69118066921, -4530.162159223814, -11926.086178551457, 3962.6960709924783, -25692.905568230817, -9518.132748381227, 13373.562797732688, -8507.476271090063, -1876.4065952785727, -11952.751809686639, 0.29425, 0.9095, -0.11449999999999999, 192.0, 0.0, 0.0, 0.0, 0.0, 0.0, 0.0, 0.0, 0.0, 0.0, 1.6625068135753524E9, 0.0, 2022-09-06 19:26:53.575
224.0, -22901.373851463064, -9183.728299585378, -6546.177750370235, -8115.426673343978, 10450.535768334363, 19695.485495982826, 70045.8297188079, -4592.992912887682, -11904.06971026298, 3964.5289140378136, -25677.50521630111, -9505.25814357497, 13409.437347583456, -8498.714387263582, -1852.199656033475, -11924.856832606416, 0.29425, 0.9095, -0.11449999999999999, 192.0, 0.0, 0.0, 0.0, 0.0, 0.0, 0.0, 0.0, 0.0, 0.0, 1.662506813575358E9, 0.0, 2022-09-06 19:26:53.575
226.0, -22795.292472278175, -9074.920007576944, -6464.727993575096, -8016.520204129244, 10528.811577416847, 19783.43961041446, 69140.60642011242, -4489.370225592879, -11907.578934142462, 3987.864135249154, -25674.800655222018, -9503.134727851717, 13390.930103174462, -8496.680378518151, -1863.2414177943967, -11930.17654778678, 0.29425, 0.9095, -0.11449999999999999, 192.0, 0.0, 0.0, 0.0, 0.0, 0.0, 0.0, 0.0, 0.0, 0.0, 1.6625068135753632E9, 0.0, 2022-09-06 19:26:53.575
228.0, -22882.39722042051, -9170.38430814556, -6531.559709496464, -8093.812536455695, 10464.907940019124, 19727.8061184652, 69998.06404090692, -4547.954147810238, -11872.844323258916, 4014.9768012734417, -25637.205021048194, -9472.937521092597, 13446.56359512372, -8455.240244298011, -1806.6915043224699, -11871.279701147045, 0.29425, 0.9095, -0.11449999999999999, 192.0, 0.0, 0.0, 0.0, 0.0, 0.0, 0.0, 0.0, 0.0, 0.0, 1.662506813575369E9, 0.0, 2022-09-06 19:26:53.575
230.0, -22782.328460494096, -9065.912254561455, -6468.840714554873, -8005.120814457037, 10512.427748731106, 19792.40265994104, 69278.27081421266, -4466.325577059457, -11914.999713301626, 3980.622170045635, -25675.337097088945, -9512.50010877849, 13393.858181698106, -8495.11575640628, -1867.264731796352, -11915.625562146373, 0.319125, 0.88975, -0.11124999999999999, 192.0, 5.0, 96.0, 13.5, 24.0, 126.0, 80.0, 0.0, 0.0, 0.0, 1.6625068135753756E9, 0.0, 2022-09-06 19:26:53.575
232.0, -22884.990022777325, -9169.087906967152, -6544.0990381358915, -8081.74259444983, 10439.49400657344, 19739.94311570443, 69910.71342357558, -4541.047458773549, -11873.716041292673, 4022.5093391548803, -25621.245875507102, -9466.455515200558, 13448.172920724503, -8444.042020325902, -1814.9392980264781, -11848.749142736095, 0.319125, 0.88975, -0.11124999999999999, 192.0, 0.0, 0.0, 0.0, 0.0, 0.0, 0.0, 0.0, 0.0, 0.0, 1.6625068135753813E9, 0.0, 2022-09-06 19:26:53.575
234.0, -22863.24177542231, -9134.353296083606, -6562.338061611422, -8072.824248412163, 10474.765059323914, 19712.22695257985, 69406.39101343049, -4581.794688915574, -11969.917949428314, 3941.4172102710263, -25712.66451032931, -9561.18220820215, 13363.54921621671, -8527.056399232913, -1913.644601541114, -11937.306754268022, 0.319125, 0.88975, -0.11124999999999999, 192.0, 0.0, 0.0, 0.0, 0.0, 0.0, 0.0, 0.0, 0.0, 0.0, 1.6625068135753868E9, 0.0, 2022-09-06 19:26:53.575
236.0, -22957.007343412322, -9226.129558817096, -6640.1891875492565, -8154.698688351952, 10432.900241959125, 19647.87628029302, 69903.85143802779, -4679.874143585461, -11950.471931752198, 3962.5396087812915, -25695.09603918744, -9550.229853419049, 13406.576324293177, -8514.092387448834, -1899.7194647454578, -11921.347608726932, 0.319125, 0.88975, -0.11124999999999999, 192.0, 0.0, 0.0, 0.0, 0.0, 0.0, 0.0, 0.0, 0.0, 0.0, 1.6625068135753925E9, 0.0, 2022-09-06 19:26:53.575
238.0, -22917.35534874861, -9168.417354633493, -6628.163949032301, -8114.376141354578, 10435.53774780485, 19671.904405582478, 69783.6214046027, -4648.693460070308, -12058.564967938062, 3866.33770064565, -25795.67888923632, -9660.088677416883, 13323.427834919434, -8606.1815746047, -2001.129329339186, -12012.855650526959, 0.319125, 0.88975, -0.11124999999999999, 192.0, 0.0, 0.0, 0.0, 0.0, 0.0, 0.0, 0.0, 0.0, 0.0, 1.6625068135753975E9, 0.0, 2022-09-06 19:26:53.575
240.0, -22931.794575666736, -9178.252122193828, -6618.910326827804, -8130.938783995961, 10447.339468877253, 19696.513676227773, 70041.33701817239, -4648.693460070308, -11981.250283867155, 3986.232457903917, -25712.91037951832, -9583.980987546562, 13413.013626696305, -8503.162384410189, -1919.6348690551365, -11920.610001159906, 0.3405625, 0.881875, -0.113625, 192.0, 5.5, 40.0, 13.5, 40.0, 126.0, 48.0, 0.0, 0.0, 0.0, 1.6625068140556703E9, 0.0, 2022-09-06 19:26:54.055
242.0, -22906.470049198873, -9138.801293230212, -6616.429283193265, -8137.08551372117, 10436.945907705534, 19690.568112202658, 70238.63586647938, -4651.509779871676, -12057.62619467094, 3901.3181807182054, -25801.512694539153, -9679.780564282008, 13347.455960208888, -8597.352635544854, -2002.4257305175938, -12007.915915002337, 0.3405625, 0.881875, -0.113625, 192.0, 0.0, 0.0, 0.0, 0.0, 0.0, 0.0, 0.0, 0.0, 0.0, 1.662506814055847E9, 0.0, 2022-09-06 19:26:54.055
244.0, -22933.985046623355, -9163.209398175406, -6615.155233759312, -8168.042679791771, 10415.01884639488, 19690.143429058007, 70388.10198165203, -4670.464059169777, -11993.052004939558, 4007.93600177002, -25722.655740100832, -9595.268618496493, 13417.014588953805, -8506.090462933835, -1929.1567121930973, -11943.453483993231, 0.3405625, 0.881875, -0.113625, 192.0, 0.0, 0.0, 0.0, 0.0, 0.0, 0.0, 0.0, 0.0, 0.0, 1.662506814055891E9, 0.0, 2022-09-06 19:26:54.055
246.0, -22952.425235798986, -9181.20255246193, -6632.053152567524, -8196.384691761099, 10346.264880450355, 19652.056056506164, 70960.41839843016, -4709.378446266466, -12107.336474339543, 3910.8623756006214, -25815.77310750164, -9690.487049876101, 13328.434625677422, -8615.390493320287, -2015.8814806796886, -12045.422142198342, 0.3405625, 0.881875, -0.113625, 192.0, 0.0, 0.0, 0.0, 0.0, 0.0, 0.0, 0.0, 0.0, 0.0, 1.6625068140558977E9, 0.0, 2022-09-06 19:26:54.055
248.0, -22965.053971416233, -9180.621407106091, -6604.314637698489, -8201.883220897105, 10347.337764184209, 19659.856815321065, 70996.31530002538, -4718.609716726508, -12060.934252850326, 3997.810661531766, -25757.792682384574, -9628.505662501533, 13374.769791933275, -8569.278844508988, -1959.7338986079574, -12008.608819080451, 0.3405625, 0.881875, -0.113625, 192.0, 0.0, 0.0, 0.0, 0.0, 0.0, 0.0, 0.0, 0.0, 0.0, 1.6625068140559044E9, 0.0, 2022-09-06 19:26:54.055
250.0, -22995.45234387545, -9206.571782418703, -6635.383562491365, -8245.737343518418, 10284.283493075787, 19616.337968866585, 71878.471598443, -4768.454106861843, -12156.420905163397, 3878.429994395971, -25858.956677789294, -9739.504425466588, 13281.987700699294, -8685.418508698764, -2044.8940449826773, -12113.81848023158, 0.31328125, 0.9059375000000001, -0.1258125, 192.0, 4.0, 120.0, 14.5, 8.0, 125.5, 88.0, 0.0, 0.0, 0.0, 1.6625068140559113E9, 0.0, 2022-09-06 19:26:54.055
252.0, -22980.744896023858, -9194.39008169056, -6603.822899320472, -8244.128017917636, 10297.828650215704, 19640.88018427851, 71690.38166885158, -4767.403574872444, -12094.663035233383, 3989.4734608499366, -25787.632261232407, -9656.847674470864, 13329.082826266627, -8614.094092141879, -1988.2770762773844, -12076.066383846568, 0.31328125, 0.9059375000000001, -0.1258125, 192.0, 0.0, 0.0, 0.0, 0.0, 0.0, 0.0, 0.0, 0.0, 0.0, 1.6625068140559185E9, 0.0, 2022-09-06 19:26:54.055
254.0, -23070.487150011915, -9277.426812342026, -6696.761452765639, -8349.292975579856, 10193.11072744259, 19552.92606984688, 72962.06181789182, -4865.863009198071, -12186.484001455785, 3855.8994359850212, -25902.83315215506, -9767.712326969186, 13235.853700143542, -8736.604003501416, -2077.7958128208893, -12187.668643911917, 0.31328125, 0.9059375000000001, -0.1258125, 192.0, 0.0, 0.0, 0.0, 0.0, 0.0, 0.0, 0.0, 0.0, 0.0, 1.6625068140559263E9, 0.0, 2022-09-06 19:26:54.055
0.0, -23062.306411541274, -9267.189713381495, -6676.376661822398, -8348.823588946294, 10204.465413625887, 19566.426523497885, 72751.37427465609, -4857.101125371591, -12165.83098957908, 3917.67965765949, -25890.383230493455, -9738.83387313293, 13228.790548895664, -8716.040398602534, -2070.084460983808, -12196.98932134978, 0.31328125, 0.9059375000000001, -0.1258125, 192.0, 0.0, 0.0, 0.0, 0.0, 0.0, 0.0, 0.0, 0.0, 0.0, 1.6625068140559332E9, 0.0, 2022-09-06 19:26:54.055
2.0, -23157.860119087713, -9358.13896157014, -6777.29478803811, -8453.116828574757, 10102.541458909685, 19458.51230126766, 74013.30906311382, -4957.728678909383, -12253.315717377152, 3783.8150601166562, -25988.37327818552, -9835.013429524115, 13147.653716522898, -8817.562021918538, -2158.798534726922, -12291.224275973354, 0.31328125, 0.9059375000000001, -0.1258125, 192.0, 0.0, 0.0, 0.0, 0.0, 0.0, 0.0, 0.0, 0.0, 0.0, 1.6625068140559387E9, 0.0, 2022-09-06 19:26:54.055
4.0, -23110.206199908996, -9316.65412386109, -6745.689421378305, -8414.783586833904, 10142.372267529043, 19496.44321160832, 73304.64700515832, -4916.065027244691, -12255.372077867041, 3847.741049258834, -25957.170242925913, -9786.465440567188, 13144.12214089896, -8785.64373083636, -2143.37583105276, -12280.137810723521, 0.31328125, 0.9059375000000001, -0.1258125, 192.0, 0.0, 0.0, 0.0, 0.0, 0.0, 0.0, 0.0, 0.0, 0.0, 1.6625068140559444E9, 0.0, 2022-09-06 19:26:54.055
6.0, -23217.96395992803, -9430.20098569405, -6866.210027481321, -8527.145806210734, 10023.595097493542, 19371.541663592063, 74376.39080004583, -5030.841235022693, -12319.007494331301, 3702.9911521662657, -26041.10104335559, -9870.351537507957, 13078.586826156, -8885.936008207324, -2217.382456944282, -12367.667242010504, 0.198, 0.9520000000000001, -0.178, 192.0, 3.0, 24.0, 14.5, 96.0, 125.0, 56.0, 0.0, 0.0, 0.0, 1.662506814055954E9, 0.0, 2022-09-06 19:26:54.055
8.0, -23143.599706125227, -9361.80464766081, -6808.3637128309865, -8462.951596135092, 10097.400557684965, 19427.666893919337, 73344.0084271441, -4963.540132467763, -12331.30095378172, 3744.4759898753155, -26016.96115934386, -9828.732589332174, 13061.957128281252, -8868.412240554362, -2223.886814580776, -12380.631253794581, 0.198, 0.9520000000000001, -0.178, 192.0, 0.0, 0.0, 0.0, 0.0, 0.0, 0.0, 0.0, 0.0, 0.0, 1.6625068140559597E9, 0.0, 2022-09-06 19:26:54.055
10.0, -23234.951285714065, -9465.293224488882, -6891.534553949185, -8557.834751347871, 9997.55531520311, 19323.641875224337, 74284.50277859006, -5068.503924429885, -12354.837340693157, 3655.694860898836, -26049.01356089277, -9863.020165326616, 13037.906651247342, -8921.72115108027, -2260.901303398765, -12435.705952132459, 0.198, 0.9520000000000001, -0.178, 192.0, 0.0, 0.0, 0.0, 0.0, 0.0, 0.0, 0.0, 0.0, 0.0, 1.6625068140559657E9, 0.0, 2022-09-06 19:26:54.055
12.0, -23111.212028409485, -9340.27991775035, -6782.368634029464, -8446.43365698262, 10086.80583081315, 19410.90308557786, 73151.09052075035, -4975.721833195906, -12341.78392193126, 3722.5712803091146, -25994.832932333105, -9796.36726336089, 13044.902747261853, -8889.892266975912, -2252.5193992280247, -12440.712742890448, 0.198, 0.9520000000000001, -0.178, 192.0, 0.0, 0.0, 0.0, 0.0, 0.0, 0.0, 0.0, 0.0, 0.0, 1.6625068140559711E9, 0.0, 2022-09-06 19:26:54.055
14.0, -23193.086468349276, -9437.040619497373, -6869.339271705065, -8536.511187137507, 9997.376501247467, 19310.186125062242, 74050.8823455432, -5074.650654155094, -12321.935572854945, 3693.9610474063215, -25976.19157745738, -9782.486830054144, 13062.806494570554, -8903.459775860283, -2254.307538784449, -12451.486283717906, 0.198, 0.9520000000000001, -0.178, 192.0, 0.0, 0.0, 0.0, 0.0, 0.0, 0.0, 0.0, 0.0, 0.0, 1.6625068140559769E9, 0.0, 2022-09-06 19:26:54.055
16.0, -23075.069257625255, -9324.544289653813, -6775.238427548222, -8428.351095718277, 10089.264522703234, 19405.13633550839, 72987.20753040403, -4970.893856393559, -12341.470997508884, 3710.2554691142404, -25964.971001740814, -9765.186579845737, 13040.946488493264, -8900.486993847728, -2269.998463392075, -12468.56301648176, 0.134, 0.986, -0.24, 192.0, 2.0, 24.0, 15.0, 104.0, 124.0, 64.0, 0.0, 0.0, 0.0, 1.6625068140559824E9, 0.0, 2022-09-06 19:26:54.055
18.0, -23136.87183104418, -9401.747215002444, -6825.753370017215, -8497.39563434072, 10045.097475659548, 19355.35900060642, 73853.35997979164, -5032.562319345751, -12278.372022911552, 3734.9988502262654, -25915.97597789478, -9716.124500766338, 13105.923009624841, -8857.683403215815, -2201.4680148921034, -12408.727396574903, 0.134, 0.986, -0.24, 192.0, 0.0, 0.0, 0.0, 0.0, 0.0, 0.0, 0.0, 0.0, 0.0, 1.662506814055988E9, 0.0, 2022-09-06 19:26:54.055
20.0, -23023.481431422406, -9296.202277684484, -6741.442589931798, -8406.781662318905, 10120.62402017403, 19444.162481327356, 72952.49527126495, -4938.260309488811, -12306.781090114247, 3731.556681580148, -25932.65037925844, -9722.137120024816, 13076.910445321852, -8875.9447784358, -2226.859596593332, -12430.877975330111, 0.134, 0.986, -0.24, 192.0, 0.0, 0.0, 0.0, 0.0, 0.0, 0.0, 0.0, 0.0, 0.0, 1.6625068140559936E9, 0.0, 2022-09-06 19:26:54.055
22.0, -23081.57361526175, -9371.438249521047, -6795.310294069087, -8487.2032388691, 10074.311205662634, 19388.68545158928, 73674.03193402672, -4996.151327628056, -12214.200164580365, 3782.5410106827035, -25860.655410367897, -9653.852540713851, 13162.048239952117, -8816.60089690696, -2148.226159599562, -12361.744029729847, 0.134, 0.986, -0.24, 192.0, 0.0, 0.0, 0.0, 0.0, 0.0, 0.0, 0.0, 0.0, 0.0, 1.6625068140559993E9, 0.0, 2022-09-06 19:26:54.055
24.0, -22978.73323902288, -9267.994376181887, -6731.540767138096, -8406.736958829995, 10145.613270475063, 19475.0972956535, 72876.02995348335, -4911.7511405648165, -12264.938624493912, 3743.581920097103, -25898.92159687538, -9691.224657443126, 13114.506079495679, -8838.662068684349, -2197.6011631013353, -12418.763329835336, 0.134, 0.986, -0.24, 192.0, 0.0, 0.0, 0.0, 0.0, 0.0, 0.0, 0.0, 0.0, 0.0, 1.6625068140560048E9, 0.0, 2022-09-06 19:26:54.056
26.0, -23009.869219049124, -9303.958333010476, -6758.34050874001, -8457.363660021265, 10138.907747138472, 19432.830146888515, 73259.9435162477, -4937.075667032679, -12161.31593719911, 3809.363104029072, -25816.35425285748, -9615.787519906464, 13219.13459529097, -8769.528123084083, -2107.188356779618, -12345.20373883292, 0.074, 0.9560000000000001, -0.278, 192.0, 1.0, 40.0, 14.5, 112.0, 123.5, 40.0, 0.0, 0.0, 0.0, 1.6625068140560105E9, 0.0, 2022-09-06 19:26:54.056
28.0, -22925.06670058569, -9222.150948304052, -6725.148168223878, -8395.717548813529, 10192.015491964281, 19478.539464299618, 72472.04452419812, -4873.663768012973, -12204.767728420225, 3772.147449510986, -25857.59322137752, -9663.508494318545, 13171.257158667704, -8812.197603249264, -2147.265034587984, -12393.125878945099, 0.074, 0.9560000000000001, -0.278, 192.0, 0.0, 0.0, 0.0, 0.0, 0.0, 0.0, 0.0, 0.0, 0.0, 1.662506814056016E9, 0.0, 2022-09-06 19:26:54.056
30.0, -22958.303744590732, -9272.710594261956, -6744.996517300191, -8444.757276148472, 10201.894963013527, 19440.340333025495, 72381.07292426503, -4919.30603019071, -12112.544430797629, 3861.554427332214, -25763.33591500949, -9586.506734670013, 13270.09657264907, -8723.639991717338, -2062.0378329798978, -12309.128023282055, 0.074, 0.9560000000000001, -0.278, 192.0, 0.0, 0.0, 0.0, 0.0, 0.0, 0.0, 0.0, 0.0, 0.0, 1.6625068140560217E9, 0.0, 2022-09-06 19:26:54.056
32.0, -22892.43315368094, -9205.096567284652, -6701.745891779172, -8385.391042875177, 10232.69566687294, 19496.01852846367, 71796.46304803647, -4852.340203802611, -12180.717251386315, 3788.687740407913, -25835.710863555774, -9673.67853804571, 13204.963589306306, -8803.435719422785, -2137.229101327551, -12382.955835217934, 0.074, 0.9560000000000001, -0.278, 192.0, 0.0, 0.0, 0.0, 0.0, 0.0, 0.0, 0.0, 0.0, 0.0, 1.662506814056028E9, 0.0, 2022-09-06 19:26:54.056
34.0, -22877.14456047351, -9198.458099181425, -6658.607024980429, -8368.761345000428, 10247.224300768888, 19517.923238029867, 71620.68892963993, -4825.6969244118845, -12067.438610486819, 3916.6514774145458, -25708.17180969379, -9559.282309923448, 13330.222765233848, -8682.132802263834, -2015.1438731126636, -12259.730668035827, 0.074, 0.9560000000000001, -0.278, 192.0, 0.0, 0.0, 0.0, 0.0, 0.0, 0.0, 0.0, 0.0, 0.0, 1.662506814056034E9, 0.0, 2022-09-06 19:26:54.056
36.0, -22837.47021406534, -9150.111275924597, -6624.028876308069, -8321.889736877649, 10243.715076889406, 19546.10878778801, 71406.58156950255, -4790.112947239036, -12105.347169083021, 3851.1832179049516, -25760.4301882303, -9632.372514292301, 13279.372546598024, -8736.067561634489, -2067.6704725826353, -12309.128023282055, 0.036000000000000004, 0.9560000000000001, -0.276, 192.0, 0.5, 16.0, 14.5, 112.0, 123.5, 48.0, 0.0, 0.0, 0.0, 1.66250681405604E9, 0.0, 2022-09-06 19:26:54.056
38.0, -22823.455670291863, -9144.925671210965, -6577.716061796673, -8299.02390229987, 10295.861696703638, 19557.932860604866, 70827.98431253247, -4772.544476097164, -12019.583525608006, 3979.7504520118778, -25651.21956482167, -9533.421341588657, 13364.59974820611, -8627.549842303973, -1973.2343522589629, -12206.89114414348, 0.036000000000000004, 0.9560000000000001, -0.276, 192.0, 0.0, 0.0, 0.0, 0.0, 0.0, 0.0, 0.0, 0.0, 0.0, 1.662506814056047E9, 0.0, 2022-09-06 19:26:54.056
40.0, -22806.155420083454, -9125.479653534849, -6567.903645980793, -8272.358271164689, 10273.755821437338, 19559.452779227828, 70647.73984524487, -4746.03530717317, -12054.362839980466, 3885.6719595994905, -25703.813219525007, -9606.310380257413, 13316.811718560662, -8703.568125196472, -2009.712399210024, -12257.920176734946, 0.036000000000000004, 0.9560000000000001, -0.276, 192.0, 0.0, 0.0, 0.0, 0.0, 0.0, 0.0, 0.0, 0.0, 0.0, 1.6625068140560527E9, 0.0, 2022-09-06 19:26:54.056
42.0, -22772.73956212277, -9090.901504862488, -6500.870764359327, -8223.385599063111, 10348.969441529447, 19596.78019246819, 69768.71279105102, -4709.892536388938, -11967.07927788249, 4025.1468450006064, -25586.4889128791, -9489.321349778336, 13409.79497549474, -8583.159277815734, -1903.6980752585025, -12144.842701535548, 0.036000000000000004, 0.9560000000000001, -0.276, 192.0, 0.0, 0.0, 0.0, 0.0, 0.0, 0.0, 0.0, 0.0, 0.0, 1.6625068140560582E9, 0.0, 2022-09-06 19:26:54.056
44.0, -22833.67041750794, -9142.444627576426, -6571.479925093642, -8273.654672343097, 10287.189219854978, 19528.71913060178, 69800.13934375517, -4771.784516785684, -12024.567964621541, 3884.4426136544485, -25675.962945933694, -9594.083976040361, 13350.741666643818, -8686.379633710341, -1970.0157010573985, -12226.270106586231, 0.036000000000000004, 0.9560000000000001, -0.276, 192.0, 0.0, 0.0, 0.0, 0.0, 0.0, 0.0, 0.0, 0.0, 0.0, 1.662506814056064E9, 0.0, 2022-09-06 19:26:54.056
46.0, -22763.35182945154, -9074.897655832488, -6503.105938804858, -8192.607246948153, 10387.325035014754, 19594.299148833652, 68662.43555098004, -4706.137443320446, -11976.355251831443, 4000.224649932939, -25591.182779214716, -9497.479736504523, 13413.974751707883, -8591.384719775286, -1906.1791188930415, -12145.043867235645, 0.05, 0.968, -0.278, 192.0, 0.5, 72.0, 15.0, 32.0, 123.5, 40.0, 0.0, 0.0, 0.0, 1.6625068140560696E9, 0.0, 2022-09-06 19:26:54.056
48.0, -22808.234132317797, -9125.434950045938, -6578.721890297162, -8241.53521556082, 10346.689563595006, 19537.078683028067, 68767.53345340889, -4762.508542836731, -11993.297874128566, 3896.266686471306, -25654.035884623037, -9567.887731538742, 13375.708565200397, -8661.09981073139, -1971.3121022358064, -12199.380958006497, 0.05, 0.968, -0.278, 192.0, 0.0, 0.0, 0.0, 0.0, 0.0, 0.0, 0.0, 0.0, 0.0, 1.662506814056075E9, 0.0, 2022-09-06 19:26:54.056
50.0, -22718.9612649633, -9048.008507252754, -6498.501479447064, -8157.447952919955, 10447.719448532993, 19626.619771316025, 67298.2862351282, -4668.608864379986, -11950.40487651883, 3996.5366120978133, -25573.77077028403, -9483.465192731046, 13439.008705497827, -8574.866780622815, -1915.5668515642706, -12126.134291426455, 0.05, 0.968, -0.278, 192.0, 0.0, 0.0, 0.0, 0.0, 0.0, 0.0, 0.0, 0.0, 0.0, 1.6625068140560808E9, 0.0, 2022-09-06 19:26:54.056
52.0, -22737.60261983903, -9064.392335938493, -6516.449930244677, -8165.09224952367, 10425.099483144222, 19625.345721882073, 67293.07827867012, -4660.4057741648885, -11948.79555091805, 3949.8214661862216, -25588.366459413348, -9516.523422780445, 13453.716153349418, -8597.822022178414, -1906.134415404131, -12118.802919245116, 0.05, 0.968, -0.278, 192.0, 0.0, 0.0, 0.0, 0.0, 0.0, 0.0, 0.0, 0.0, 0.0, 1.6625068140560863E9, 0.0, 2022-09-06 19:26:54.056
54.0, -22609.32595841002, -8935.57923264256, -6395.303475296912, -8041.397695708, 10538.065199621344, 19733.215240623384, 65471.81343696278, -4543.729668108185, -11900.962817783693, 4071.3479007897263, -25491.38224022177, -9410.129119173183, 13522.827747205229, -8467.712517704073, -1825.9587080429446, -12026.311400689054, 0.05, 0.968, -0.278, 192.0, 0.0, 0.0, 0.0, 0.0, 0.0, 0.0, 0.0, 0.0, 0.0, 1.6625068140560918E9, 0.0, 2022-09-06 19:26:54.056
56.0, -22621.32884518252, -8957.305128253118, -6413.251926094524, -8064.017661096771, 10498.0779287908, 19687.103591812087, 65195.076488861625, -4572.675177177808, -11858.829779485439, 4065.938778631542, -25450.8585275243, -9379.261360080405, 13562.323279657756, -8467.511352003974, -1800.7459402973582, -12004.004359722658, 0.08600000000000001, 0.972, -0.302, 192.0, 1.0, 88.0, 15.0, 48.0, 123.0, 72.0, 0.0, 0.0, 0.0, 1.6625068140560975E9, 0.0, 2022-09-06 19:26:54.056
58.0, -22496.516704144087, -8837.186853550298, -6301.24733462898, -7946.492188750767, 10586.747299045002, 19810.35111073865, 63776.23245432764, -4471.98056840665, -11851.319593348455, 4156.1280675087055, -25371.889814363698, -9280.064318187753, 13605.238629011945, -8400.836098293794, -1776.9189807080008, -11953.489417253664, 0.08600000000000001, 0.972, -0.302, 192.0, 0.0, 0.0, 0.0, 0.0, 0.0, 0.0, 0.0, 0.0, 0.0, 1.662506814056103E9, 0.0, 2022-09-06 19:26:54.056
60.0, -22572.3785248254, -8919.038941745632, -6371.029480818449, -8021.258773953769, 10508.404434729151, 19730.242458610828, 64418.68864520653, -4563.823886373507, -11817.411997009754, 4139.364259167225, -25354.50015717747, -9259.008974910854, 13634.340600292755, -8390.219019677523, -1775.4214138294954, -11942.447655492742, 0.08600000000000001, 0.972, -0.302, 192.0, 0.0, 0.0, 0.0, 0.0, 0.0, 0.0, 0.0, 0.0, 0.0, 1.6625068140561087E9, 0.0, 2022-09-06 19:26:54.056
62.0, -22490.615843607884, -8841.970126863735, -6315.7089132915635, -7953.689450465376, 10555.253691107475, 19792.492066918858, 63725.87397406984, -4520.506205619122, -11839.786093209517, 4171.371957227225, -25350.11921526423, -9226.39777975056, 13612.79351863784, -8393.057691223346, -1810.044265990766, -11961.066658624013, 0.08600000000000001, 0.972, -0.302, 192.0, 0.0, 0.0, 0.0, 0.0, 0.0, 0.0, 0.0, 0.0, 0.0, 1.6625068140561142E9, 0.0, 2022-09-06 19:26:54.056
64.0, -22596.51840883713, -8962.647195177937, -6431.356839103322, -8067.973919865361, 10457.598919582239, 19677.492341696303, 65074.757048458705, -4635.260061652668, -11816.428520253721, 4125.573232838301, -25367.486520706003, -9233.237413553883, 13612.905277360116, -8430.38510446371, -1825.556376642749, -11983.37369959041, 0.08600000000000001, 0.972, -0.302, 192.0, 0.0, 0.0, 0.0, 0.0, 0.0, 0.0, 0.0, 0.0, 0.0, 1.66250681405612E9, 0.0, 2022-09-06 19:26:54.056
66.0, -22538.627390697886, -8919.374217912462, -6422.84082446585, -8016.542555873699, 10470.361765666219, 19706.1025745991, 64850.2561271496, -4597.53031701211, -11884.511933864587, 4113.1009594322395, -25416.190971874115, -9263.50167554637, 13541.379695103133, -8468.29366305991, -1889.974104162944, -12043.298726475088, 0.122, 0.93, -0.372, 192.0, 1.5, 104.0, 14.5, 8.0, 122.0, 48.0, 0.0, 0.0, 0.0, 1.6625068140561252E9, 0.0, 2022-09-06 19:26:54.056
68.0, -22608.029557231614, -9020.672323783914, -6513.0524650874695, -8096.472394045877, 10417.16461386259, 19631.335989396095, 65695.28617802694, -4662.596245121508, -11867.234035400634, 4078.3663485486927, -25417.93440794163, -9268.17319013753, 13559.30579415629, -8472.428735784142, -1875.6913394560029, -12043.1422642639, 0.122, 0.93, -0.372, 192.0, 0.0, 0.0, 0.0, 0.0, 0.0, 0.0, 0.0, 0.0, 0.0, 1.662506814056132E9, 0.0, 2022-09-06 19:26:54.056
70.0, -22484.78203830505, -8899.861145002978, -6446.444266610654, -7989.9663317163395, 10500.491917191974, 19755.20935716741, 64999.16344871086, -4540.958051795727, -11898.191201471234, 4082.90375267312, -25432.954780215598, -9275.303396618772, 13533.511881054865, -8474.10511661829, -1892.4774995419384, -12060.710735405772, 0.122, 0.93, -0.372, 192.0, 0.0, 0.0, 0.0, 0.0, 0.0, 0.0, 0.0, 0.0, 0.0, 1.6625068140561388E9, 0.0, 2022-09-06 19:26:54.056
72.0, -22529.440823726753, -8965.731735912768, -6508.202136540668, -8062.028355840249, 10432.319096603287, 19705.543780987715, 65382.40645914155, -4583.895752894372, -11817.233183054112, 4145.421581914614, -25377.03071558842, -9216.071273812207, 13607.697320902029, -8407.563973374841, -1821.9800975299, -11987.776993248104, 0.122, 0.93, -0.372, 192.0, 0.0, 0.0, 0.0, 0.0, 0.0, 0.0, 0.0, 0.0, 0.0, 1.6625068140561445E9, 0.0, 2022-09-06 19:26:54.056
74.0, -22478.702363813205, -8920.827081302057, -6485.515115918532, -8038.290803228713, 10470.741745321959, 19760.14909269203, 64703.248703867044, -4577.90548538035, -11866.608186555886, 4107.848299485243, -25450.210326935092, -9282.053623444275, 13550.096875440702, -8462.750430434995, -1891.0246361523434, -12054.00521206918, 0.122, 0.93, -0.372, 192.0, 0.0, 0.0, 0.0, 0.0, 0.0, 0.0, 0.0, 0.0, 0.0, 1.66250681405615E9, 0.0, 2022-09-06 19:26:54.056
76.0, -22513.03464329656, -8976.035890106665, -6509.09620631888, -8093.4102050555, 10469.378288910186, 19732.075301656165, 64831.771234485066, -4607.141567127892, -11829.884270415816, 4132.681087575089, -25441.78371927544, -9275.526914063325, 13593.615721895185, -8427.881709084715, -1855.2618450238522, -12025.439682655298, 0.14100000000000001, 0.895, -0.387, 192.0, 2.5, 0.0, 13.0, 112.0, 121.5, 56.0, 0.0, 0.0, 0.0, 1.6625068140561557E9, 0.0, 2022-09-06 19:26:54.056
78.0, -22455.724770513152, -8913.898040520911, -6467.544313376465, -8044.079905042638, 10477.335509936274, 19805.54548568076, 64441.33096233976, -4541.092162262459, -11855.96875619516, 4105.009627939418, -25484.98964130755, -9335.60840315919, 13557.003564477393, -8448.400610494687, -1883.4026912930838, -12039.677743873328, 0.14100000000000001, 0.895, -0.387, 192.0, 0.0, 0.0, 0.0, 0.0, 0.0, 0.0, 0.0, 0.0, 0.0, 1.6625068140561612E9, 0.0, 2022-09-06 19:26:54.056
80.0, -22497.880160555862, -8960.300262010129, -6486.833868841394, -8102.395606326534, 10465.667899330605, 19751.834243754656, 64469.985898731466, -4595.071625122026, -11794.792031620984, 4180.022082331429, -25427.545658057414, -9327.450016433004, 13618.023826840381, -8395.382272646699, -1824.0811615086989, -11975.46118205323, 0.14100000000000001, 0.895, -0.387, 192.0, 0.0, 0.0, 0.0, 0.0, 0.0, 0.0, 0.0, 0.0, 0.0, 1.662506814056167E9, 0.0, 2022-09-06 19:26:54.056
82.0, -22495.55557913251, -8940.653078633915, -6472.528752389998, -8094.88542018955, 10484.756289095438, 19764.82060728319, 64246.0661227782, -4580.185363314791, -11866.898759233805, 4073.1136886016952, -25509.04011834146, -9474.010404826451, 13544.553642815787, -8467.779572937437, -1897.7078077444803, -12063.974090096246, 0.14100000000000001, 0.895, -0.387, 192.0, 0.0, 0.0, 0.0, 0.0, 0.0, 0.0, 0.0, 0.0, 0.0, 1.6625068140561724E9, 0.0, 2022-09-06 19:26:54.056
84.0, -22498.148381489325, -8925.923279037866, -6422.349086087834, -8078.143963592525, 10536.187653087098, 19784.847770315144, 64043.939297668854, -4544.623737886398, -11794.613217665341, 4172.333082238803, -25424.237599878026, -9421.774378034399, 13618.426158240576, -8402.46777563903, -1804.88101302159, -11982.166705389824, 0.14100000000000001, 0.895, -0.387, 192.0, 0.0, 0.0, 0.0, 0.0, 0.0, 0.0, 0.0, 0.0, 0.0, 1.662506814056178E9, 0.0, 2022-09-06 19:26:54.056
86.0, -22484.491465627132, -8881.666825016358, -6380.886600123239, -8041.732971874831, 10561.579234788327, 19818.598904442657, 63946.99978196619, -4490.264295371091, -11801.341092746388, 4132.010535241429, -25442.78954777593, -9480.760631651954, 13601.93057083256, -8433.156720776167, -1802.2211554314085, -11990.70507177175, 0.1365, 0.8885000000000001, -0.36850000000000005, 192.0, 2.0, 16.0, 13.5, 72.0, 122.5, 8.0, 0.0, 0.0, 0.0, 1.6625068140561833E9, 0.0, 2022-09-06 19:26:54.056
88.0, -22499.35537568991, -8868.859275443469, -6345.034402016927, -8034.423951437945, 10555.477208552029, 19818.26362827583, 63577.97248100907, -4476.003882408605, -11744.858234507828, 4227.810111976875, -25365.228994516016, -9420.209755922528, 13662.861426217727, -8347.79540870135, -1724.5041399603058, -11904.203820729712, 0.1365, 0.8885000000000001, -0.36850000000000005, 192.0, 0.0, 0.0, 0.0, 0.0, 0.0, 0.0, 0.0, 0.0, 0.0, 1.6625068140561893E9, 0.0, 2022-09-06 19:26:54.056
90.0, -22495.3097099435, -8819.50662368615, -6307.215250398547, -7997.007131219761, 10595.553886360394, 19843.096416365675, 63601.710033620606, -4455.529684487544, -11764.550121372953, 4173.271855505926, -25389.055954105374, -9470.523532691424, 13636.039332871358, -8398.399758148165, -1737.7363726778476, -11925.12505353988, 0.1365, 0.8885000000000001, -0.36850000000000005, 192.0, 0.0, 0.0, 0.0, 0.0, 0.0, 0.0, 0.0, 0.0, 0.0, 1.6625068140561953E9, 0.0, 2022-09-06 19:26:54.056
92.0, -22511.06768978449, -8794.003283262646, -6260.500104486955, -7963.233645347792, 10629.953221077112, 19880.848512750686, 63083.2389692353, -4412.904907811273, -11691.50462049301, 4294.910048831707, -25288.38369707867, -9363.212807561495, 13706.71554883904, -8286.238704471434, -1631.118551626033, -11801.89988635777, 0.1365, 0.8885000000000001, -0.36850000000000005, 192.0, 0.0, 0.0, 0.0, 0.0, 0.0, 0.0, 0.0, 0.0, 0.0, 1.6625068140562153E9, 0.0, 2022-09-06 19:26:54.056
94.0, -22587.37654535491, -8817.338504473986, -6295.77115723743, -7995.9565992303615, 10657.937605135156, 19839.87776516411, 63133.01630413727, -4467.353757304401, -11750.401467132744, 4202.6420477202, -25352.041465287384, -9435.565404363324, 13653.451341802043, -8348.734181968473, -1691.6470756110043, -11844.256442100579, 0.1365, 0.8885000000000001, -0.36850000000000005, 192.0, 0.0, 0.0, 0.0, 0.0, 0.0, 0.0, 0.0, 0.0, 0.0, 1.6625068140562208E9, 0.0, 2022-09-06 19:26:54.056
96.0, -22573.384353325888, -8765.21423640421, -6257.281453285391, -7951.588386486577, 10713.101710450854, 19892.51612335636, 62499.03142440694, -4415.564765401455, -11725.859251720816, 4287.489269672546, -25297.614967538713, -9367.929025641564, 13700.501763880464, -8279.041442756825, -1639.2545866077646, -11784.286711726989, 0.13525, 0.90425, -0.32025000000000003, 192.0, 2.0, 24.0, 14.0, 96.0, 123.5, 64.0, 0.0, 0.0, 0.0, 1.6625068140562265E9, 0.0, 2022-09-06 19:26:54.056
98.0, -22639.791386102606, -8797.803079820047, -6319.128730193225, -8001.656294066464, 10670.58869249686, 19849.645477491078, 62648.85516749087, -4461.095268856915, -11734.621135547297, 4222.31158284087, -25340.44090991508, -9413.437177352569, 13663.889606462672, -8315.295972263333, -1673.0057207352784, -11820.921220889239, 0.13525, 0.90425, -0.32025000000000003, 192.0, 0.0, 0.0, 0.0, 0.0, 0.0, 0.0, 0.0, 0.0, 0.0, 1.662506814056232E9, 0.0, 2022-09-06 19:26:54.056
100.0, -22631.118909253946, -8762.39791660284, -6285.62346525472, -7973.67191000842, 10730.401960659261, 19881.98845171791, 61632.18607094122, -4412.435521177712, -11744.701772296641, 4285.723481860577, -25310.48957234497, -9369.024261119874, 13676.80891475784, -8276.850971800206, -1653.8949792259907, -11799.195325278679, 0.13525, 0.90425, -0.32025000000000003, 192.0, 0.0, 0.0, 0.0, 0.0, 0.0, 0.0, 0.0, 0.0, 0.0, 1.6625068140562377E9, 0.0, 2022-09-06 19:26:54.056
102.0, -22690.1051628715, -8793.55624837354, -6332.182148955125, -8013.6815325834195, 10691.085242162377, 19857.35682932816, 61649.620431616364, -4425.980678317628, -11764.751287073052, 4224.949088686596, -25342.519622149423, -9396.561610288813, 13661.162693639124, -8303.270733746378, -1667.440136365907, -11827.872613414838, 0.13525, 0.90425, -0.32025000000000003, 192.0, 0.0, 0.0, 0.0, 0.0, 0.0, 0.0, 0.0, 0.0, 0.0, 1.6625068140562444E9, 0.0, 2022-09-06 19:26:54.056
104.0, -22645.75930187217, -8728.758541197603, -6283.522401275922, -7961.356098813546, 10748.305707967962, 19931.36345521968, 60598.23907592763, -4345.201473856148, -11763.4772376391, 4311.651505428732, -25312.322415390303, -9333.395580458115, 13676.965376969025, -8243.323355117245, -1631.4091243039518, -11789.584075162897, 0.13525, 0.90425, -0.32025000000000003, 192.0, 0.0, 0.0, 0.0, 0.0, 0.0, 0.0, 0.0, 0.0, 0.0, 1.662506814534192E9, 0.0, 2022-09-06 19:26:54.534
106.0, -22702.175104877366, -8767.203541660732, -6336.183111212625, -8016.743721573797, 10699.131870166288, 19893.343137901204, 60759.59631915049, -4397.683369837209, -11748.166292687214, 4277.185115478649, -25321.419575383614, -9333.172063013562, 13684.028528216902, -8260.06481171427, -1631.9455661708791, -11801.184630535201, 0.132625, 0.872125, -0.276125, 192.0, 2.0, 8.0, 13.0, 32.0, 124.0, 96.0, 0.0, 0.0, 0.0, 1.6625068145342574E9, 0.0, 2022-09-06 19:26:54.534
108.0, -22638.115005268457, -8686.312578476975, -6268.211456324036, -7941.038363103672, 10749.691516124192, 19994.305967605826, 59999.32408324767, -4304.364836736302, -11757.554025358442, 4319.698133432643, -25310.06488920032, -9293.453013116481, 13688.700042808063, -8200.966799374437, -1630.5597580146502, -11799.083566556403, 0.132625, 0.872125, -0.276125, 192.0, 0.0, 0.0, 0.0, 0.0, 0.0, 0.0, 0.0, 0.0, 0.0, 1.6625068145343583E9, 0.0, 2022-09-06 19:26:54.534
110.0, -22668.356915516488, -8720.06371260449, -6298.900401461173, -7951.0519446196495, 10685.452602559639, 19983.845351200744, 60031.80116794124, -4322.626211956288, -11702.07699562037, 4330.717543449109, -25266.389580534647, -9248.660117228046, 13737.091569553802, -8178.458592707943, -1586.727987137793, -11751.4743508666, 0.132625, 0.872125, -0.276125, 192.0, 0.0, 0.0, 0.0, 0.0, 0.0, 0.0, 0.0, 0.0, 0.0, 1.662506814534366E9, 0.0, 2022-09-06 19:26:54.534
112.0, -22651.257831008177, -8686.804316854992, -6293.111299647248, -7926.487377463267, 10711.224163916608, 20017.954113239542, 58935.06812275269, -4329.018810870506, -11730.150786656235, 4363.194628142671, -25269.496473013936, -9226.129558817096, 13735.839871864304, -8173.071822294215, -1608.1409583259772, -11761.622042849309, 0.132625, 0.872125, -0.276125, 192.0, 0.0, 0.0, 0.0, 0.0, 0.0, 0.0, 0.0, 0.0, 0.0, 1.6625068145343733E9, 0.0, 2022-09-06 19:26:54.534
114.0, -22770.951422566348, -8812.152899760355, -6410.279144081967, -8045.041030054216, 10586.18850543362, 19918.51120215788, 60131.80287263428, -4437.156550545282, -11700.55707699741, 4302.710807646609, -25327.09691847526, -9258.360774321649, 13716.14798499918, -8229.375866577133, -1662.1651246744543, -11808.3371887609, 0.132625, 0.872125, -0.276125, 192.0, 0.0, 0.0, 0.0, 0.0, 0.0, 0.0, 0.0, 0.0, 0.0, 1.6625068145343804E9, 0.0, 2022-09-06 19:26:54.534
116.0, -22760.423750927897, -8791.365777416919, -6413.766016216996, -8024.320962944146, 10548.168188115143, 19937.957219834, 60254.849225860744, -4430.316916741957, -11771.657976109742, 4264.981063006051, -25391.425239017637, -9284.489963589904, 13631.613687469207, -8289.21148648399, -1746.3194425486854, -11877.135858194335, 0.1323125, 0.8210625, -0.2630625, 192.0, 2.0, 16.0, 12.0, 8.0, 124.0, 24.0, 0.0, 0.0, 0.0, 1.6625068145343888E9, 0.0, 2022-09-06 19:26:54.534
118.0, -22832.105795396066, -8888.797031497603, -6469.5559703774425, -8101.6132952705975, 10484.622178628704, 19832.412282516038, 60986.600635838586, -4524.909499276817, -11803.553915447465, 4209.571088501345, -25402.645814734202, -9274.83400998521, 13613.039387826848, -8318.02288508688, -1757.0706316316882, -11908.741224854139, 0.1323125, 0.8210625, -0.2630625, 192.0, 0.0, 0.0, 0.0, 0.0, 0.0, 0.0, 0.0, 0.0, 0.0, 1.662506814534396E9, 0.0, 2022-09-06 19:26:54.534
120.0, -22830.18354537291, -8893.267380388663, -6470.785316322484, -8104.474318560878, 10452.525073590885, 19836.569706984727, 60848.44450336033, -4545.89778732035, -11866.652890044796, 4157.379765198203, -25452.28903916944, -9311.356760425182, 13550.610965563175, -8386.955664987048, -1810.6030596021485, -11992.806135750548, 0.1323125, 0.8210625, -0.2630625, 192.0, 0.0, 0.0, 0.0, 0.0, 0.0, 0.0, 0.0, 0.0, 0.0, 1.662506814534403E9, 0.0, 2022-09-06 19:26:54.534
122.0, -22884.38652567703, -8965.932901612867, -6510.392607497288, -8166.925092569005, 10406.838107924237, 19760.037333969754, 61202.764356465865, -4608.840299706495, -11862.137837664824, 4149.601358127757, -25446.74580654452, -9313.79310057081, 13554.58957607622, -8407.42986290811, -1815.1628154710313, -12013.637961582896, 0.1323125, 0.8210625, -0.2630625, 192.0, 0.0, 0.0, 0.0, 0.0, 0.0, 0.0, 0.0, 0.0, 0.0, 1.6625068145344105E9, 0.0, 2022-09-06 19:26:54.534
124.0, -22870.751961559294, -8949.951404327323, -6506.838680128894, -8159.012575031827, 10396.980988619445, 19773.24721494284, 60788.27360728665, -4608.080340395015, -11919.537117426053, 4109.09999717474, -25493.43860071166, -9363.481028494958, 13493.703424179963, -8472.361680550775, -1877.9488656459887, -12082.05665136059, 0.1323125, 0.8210625, -0.2630625, 192.0, 0.0, 0.0, 0.0, 0.0, 0.0, 0.0, 0.0, 0.0, 0.0, 1.6625068145344176E9, 0.0, 2022-09-06 19:26:54.534
126.0, -22904.72661313136, -8999.952256673843, -6526.195290827191, -8200.922095885528, 10360.748810857393, 19704.47089725386, 60763.32906047453, -4656.673032840852, -11896.87244854837, 4123.203947926038, -25468.89638529973, -9344.929080597054, 13506.19804933048, -8456.022555353948, -1865.3871852621062, -12067.505665720186, 0.12015624999999999, 0.80853125, -0.26553125, 192.0, 1.5, 48.0, 12.0, 112.0, 123.5, 80.0, 0.0, 0.0, 0.0, 1.6625068145344248E9, 0.0, 2022-09-06 19:26:54.534
128.0, -22891.516732158274, -8983.993111132755, -6519.422712257232, -8182.928941599005, 10344.320278682742, 19716.987874148832, 60406.66227420119, -4651.934463016327, -11952.908271897826, 4059.4344209950473, -25509.710670675122, -9389.610217763213, 13459.594662141164, -8530.342105667843, -1908.458996827483, -12126.044884448635, 0.12015624999999999, 0.80853125, -0.26553125, 192.0, 0.0, 0.0, 0.0, 0.0, 0.0, 0.0, 0.0, 0.0, 0.0, 1.6625068145344317E9, 0.0, 2022-09-06 19:26:54.534
130.0, -22898.803400850702, -9015.799643492657, -6512.806595898462, -8187.4886974678875, 10332.362095399154, 19675.190112017408, 60199.43925135604, -4681.63993139743, -11931.562355943008, 4085.675368985578, -25477.211234237104, -9350.271147521871, 13484.494505464376, -8482.755241722494, -1884.1179471156536, -12094.551276511107, 0.12015624999999999, 0.80853125, -0.26553125, 192.0, 0.0, 0.0, 0.0, 0.0, 0.0, 0.0, 0.0, 0.0, 0.0, 1.6625068145344388E9, 0.0, 2022-09-06 19:26:54.534
132.0, -22869.500263869795, -8993.06791938161, -6500.691950403685, -8158.789057587273, 10334.083179722213, 19693.47383898185, 59912.26403859426, -4669.882913813939, -11954.964632387715, 4060.417897751081, -25493.259786756014, -9376.780316445866, 13466.054316288748, -8513.06420720389, -1897.4842902999271, -12112.25385811971, 0.12015624999999999, 0.80853125, -0.26553125, 192.0, 0.0, 0.0, 0.0, 0.0, 0.0, 0.0, 0.0, 0.0, 0.0, 1.6625068145344465E9, 0.0, 2022-09-06 19:26:54.534
134.0, -22866.259260923776, -9015.106739414543, -6486.275075230012, -8151.100057494647, 10334.463159377952, 19682.297966754195, 59576.07145024198, -4673.235675482235, -11925.54973668453, 4110.508157075424, -25446.097605955318, -9328.120568766662, 13500.274837049823, -8482.308206833388, -1853.4513537229723, -12059.414334227364, 0.12015624999999999, 0.80853125, -0.26553125, 192.0, 0.0, 0.0, 0.0, 0.0, 0.0, 0.0, 0.0, 0.0, 0.0, 1.662506814534458E9, 0.0, 2022-09-06 19:26:54.534
