%OpenBCI Raw EEG Data
%Number of channels = 16
%Sample Rate = 125 Hz
%Board = OpenBCI_GUI$BoardCytonSerialDaisy
Sample Index, EXG Channel 0, EXG Channel 1, EXG Channel 2, EXG Channel 3, EXG Channel 4, EXG Channel 5, EXG Channel 6, EXG Channel 7, EXG Channel 8, EXG Channel 9, EXG Channel 10, EXG Channel 11, EXG Channel 12, EXG Channel 13, EXG Channel 14, EXG Channel 15, Accel Channel 0, Accel Channel 1, Accel Channel 2, Other, Other, Other, Other, Other, Other, Other, Analog Channel 0, Analog Channel 1, Analog Channel 2, Timestamp, Other, Timestamp (Formatted)
60.0, -8180.3808427311, -3561.482258019717, -29863.450510913197, -25760.899574863863, -19187.542103235974, -8047.097390544104, 77174.65039189463, -7769.82400057602, -14653.557795710301, -6002.538621728257, -22145.974295851505, -10824.055769926998, 11191.049062138685, -12052.619403912951, -8938.77553209967, -15631.37956039662, 0.0, 0.0, 0.0, 192.0, 0.0, 0.0, 0.0, 0.0, 0.0, 0.0, 0.0, 0.0, 0.0, 1.6625060971063151E9, 0.0, 2022-09-06 19:14:57.106
62.0, -8343.056838876824, -3726.97457396681, -30044.901972401378, -25927.397719311444, -19371.22873916969, -8217.19416584899, 79088.33969692465, -7944.3017177941465, -14798.97824513653, -6165.594597529722, -22283.54928297392, -10952.488893567193, 11099.920999994398, -12224.191394351888, -8965.172942301386, -15672.730287638939, 0.0, 0.0, 0.0, 192.0, 0.0, 0.0, 0.0, 0.0, 0.0, 0.0, 0.0, 0.0, 0.0, 1.6625060971063223E9, 0.0, 2022-09-06 19:14:57.106
64.0, -8155.369240685612, -3526.5688331805272, -29831.28635064201, -25720.95700752223, -19157.83663485487, -7994.0790526961155, 76931.12813605406, -7731.468407090713, -14678.6141012447, -6027.952555173941, -22160.972316381016, -10840.327839890462, 11172.586521218602, -12064.152904051889, -8954.39940147393, -15651.250261217388, 0.0, 0.0, 0.0, 192.0, 0.0, 0.0, 0.0, 0.0, 0.0, 0.0, 0.0, 0.0, 0.0, 1.662506097106341E9, 0.0, 2022-09-06 19:14:57.106
66.0, -8344.375591799688, -3737.8375217720895, -30049.37232129244, -25947.04490268766, -19372.63689907037, -8226.268974097846, 79134.1831248025, -7957.511598767233, -14765.808256364853, -6139.107780350182, -22241.617410375766, -10921.554079241048, 11135.415570189425, -12193.815373637126, -8912.691046320326, -15632.56420285275, 0.0, 0.0, 0.0, 192.0, 0.0, 0.0, 0.0, 0.0, 0.0, 0.0, 0.0, 0.0, 0.0, 1.6625060971063554E9, 0.0, 2022-09-06 19:14:57.106
68.0, -8154.944557540961, -3528.9828215817, -29862.221164968156, -25736.871449574406, -19166.397352981254, -8011.580468604621, 76829.31594006014, -7742.3760583849025, -14706.173802158095, -6066.86694227063, -22186.028621915415, -10878.10228801993, 11131.526366654201, -12112.790299986638, -8986.809430934123, -15692.802154159805, 0.152, 0.451, -0.075, 192.0, 4.5, 64.0, 14.0, 24.0, 125.5, 40.0, 0.0, 0.0, 0.0, 1.6625060971063802E9, 0.0, 2022-09-06 19:14:57.106
70.0, -8353.785676215371, -3752.5449696236815, -30078.787216995624, -25987.926243296417, -19389.98185276769, -8253.426343611043, 79107.20456924493, -7973.783668730697, -14745.624631121711, -6132.469312246956, -22230.083910236826, -10918.357779783939, 11137.360171957038, -12198.17396380591, -8925.409188915395, -15642.309563435265, 0.152, 0.451, -0.075, 192.0, 0.0, 0.0, 0.0, 0.0, 0.0, 0.0, 0.0, 0.0, 0.0, 1.662506097106398E9, 0.0, 2022-09-06 19:14:57.106
72.0, -8153.938729040472, -3515.415312697329, -29855.828566053937, -25730.657664615832, -19166.956146592634, -8009.524108114733, 76806.60656769354, -7757.731706825699, -14739.567308374324, -6102.137995021105, -22222.238447933014, -10915.228535560196, 11087.67224403289, -12168.64730938045, -9014.145614402963, -15738.042084937346, 0.152, 0.451, -0.075, 192.0, 0.0, 0.0, 0.0, 0.0, 0.0, 0.0, 0.0, 0.0, 0.0, 1.662506097106423E9, 0.0, 2022-09-06 19:14:57.106
74.0, -8352.46692329251, -3746.465295131838, -30047.67358871384, -25971.788283799684, -19371.742829292158, -8263.037593726825, 79006.53231221823, -8007.624209836032, -14725.217488434017, -6110.452843958479, -22206.97220647004, -10889.211105014218, 11153.6322419205, -12150.587099860562, -8883.320854106052, -15614.034606699302, 0.152, 0.451, -0.075, 192.0, 0.0, 0.0, 0.0, 0.0, 0.0, 0.0, 0.0, 0.0, 0.0, 1.662506097106437E9, 0.0, 2022-09-06 19:14:57.106
76.0, -8167.461534435933, -3523.0372575565884, -29850.240629940112, -25719.727661577188, -19166.240890770066, -8021.035256509216, 76843.44224255589, -7757.530541125601, -14764.02011680843, -6139.197187328004, -22253.508538425987, -10939.703695738757, 11065.23109259976, -12159.952480787335, -9017.40896909344, -15747.809797264314, 0.152, 0.451, -0.075, 192.0, 0.0, 0.0, 0.0, 0.0, 0.0, 0.0, 0.0, 0.0, 0.0, 1.6625060971064565E9, 0.0, 2022-09-06 19:14:57.106
78.0, -8347.728353467985, -3737.2787281607066, -30026.52883845912, -25962.132330194992, -19356.700105273736, -8236.260203869368, 78810.28399590064, -7932.678810677387, -14710.353578371238, -6077.215799953437, -22180.530092779412, -10861.807866312012, 11175.49224799779, -12120.25578263471, -8851.335507790507, -15582.853923184148, 0.152, 0.451, -0.075, 192.0, 0.0, 0.0, 0.0, 0.0, 0.0, 0.0, 0.0, 0.0, 0.0, 1.662506097106474E9, 0.0, 2022-09-06 19:14:57.106
80.0, -8167.7074036249405, -3517.8069493540465, -29854.085129986423, -25718.632426098877, -19166.93379484818, -8018.420102407945, 76904.26133921878, -7775.970730301229, -14785.678957185622, -6150.395411300113, -22267.59013743283, -10957.652146536368, 11051.350659293015, -12197.525763216707, -9020.269992383719, -15755.476445612485, 0.302, 0.904, -0.134, 192.0, 4.5, 56.0, 14.0, 32.0, 125.5, 104.0, 0.0, 0.0, 0.0, 1.6625060971064906E9, 0.0, 2022-09-06 19:14:57.106
82.0, -8316.570021697285, -3712.4235883264055, -29994.83406482149, -25938.350074094546, -19322.948971146223, -8210.801566934773, 78512.40229754476, -7919.08895004856, -14659.056324846308, -6040.67069776901, -22136.832432369287, -10822.960534448688, 11223.570850321157, -12087.845753174515, -8835.219900038232, -15573.13091434609, 0.302, 0.904, -0.134, 192.0, 0.0, 0.0, 0.0, 0.0, 0.0, 0.0, 0.0, 0.0, 0.0, 1.6625060971064963E9, 0.0, 2022-09-06 19:14:57.106
84.0, -8192.160212059047, -3552.6533189598704, -29880.661354143784, -25740.76065310963, -19188.682042203196, -8045.152788776492, 77045.74788162087, -7747.785180543087, -14794.083213100817, -6168.142696397626, -22279.727134672063, -10969.319757142039, 11050.52364474817, -12206.578219721107, -9012.402178335451, -15752.905995000125, 0.302, 0.904, -0.134, 192.0, 0.0, 0.0, 0.0, 0.0, 0.0, 0.0, 0.0, 0.0, 0.0, 1.6625060971065023E9, 0.0, 2022-09-06 19:14:57.106
86.0, -8330.562213726309, -3729.1650449234303, -30002.679527125303, -25945.726149764796, -19338.751654476127, -8222.424474051533, 78255.55840200883, -7921.391179727457, -14678.010604144409, -6056.451029354457, -22151.495176731965, -10836.215118910684, 11196.860515697064, -12087.01873862967, -8843.110065830955, -15584.284434829287, 0.302, 0.904, -0.134, 192.0, 0.0, 0.0, 0.0, 0.0, 0.0, 0.0, 0.0, 0.0, 0.0, 1.6625060971065087E9, 0.0, 2022-09-06 19:14:57.106
88.0, -8199.916267385039, -3555.5143422501496, -29892.708944405193, -25750.394254969866, -19207.56926626793, -8055.456942970389, 77221.76786920642, -7786.3419397284915, -14831.902364719197, -6202.139699714148, -22302.07887912737, -10991.760908575166, 11032.284621272638, -12234.920231690436, -9020.091178428076, -15771.524998131395, 0.302, 0.904, -0.134, 192.0, 0.0, 0.0, 0.0, 0.0, 0.0, 0.0, 0.0, 0.0, 0.0, 1.6625060971065147E9, 0.0, 2022-09-06 19:14:57.106
90.0, -8277.655634600596, -3672.8162971516012, -29951.985770700667, -25890.87496887147, -19290.29307249702, -8164.578159401198, 77938.43185167693, -7867.03173721215, -14639.56560368128, -6010.9428776434515, -22102.5672081193, -10790.438746266216, 11246.682554087944, -12037.219051983244, -8816.042103295578, -15561.977393862891, 0.3, 0.896, -0.128, 192.0, 4.5, 48.0, 14.0, 0.0, 126.0, 0.0, 0.0, 0.0, 0.0, 1.6625060971065543E9, 0.0, 2022-09-06 19:14:57.106
92.0, -8214.444901280987, -3568.679519734326, -29917.20645632821, -25777.931604138805, -19231.195060157188, -8076.556989736198, 77395.2174061796, -7810.459471995769, -14822.559335536878, -6187.722824540476, -22286.07503009737, -10978.975710746732, 11056.46920877328, -12237.065999158145, -8998.275875839696, -15751.944869988547, 0.3, 0.896, -0.128, 192.0, 0.0, 0.0, 0.0, 0.0, 0.0, 0.0, 0.0, 0.0, 0.0, 1.6625060971065755E9, 0.0, 2022-09-06 19:14:57.106
94.0, -8259.416611125065, -3638.5510729016155, -29940.653436261826, -25879.989669321738, -19264.00742101758, -8136.504368365332, 77675.37417118243, -7836.8792339419415, -14632.457748944493, -6001.510441483312, -22101.71784183, -10793.255066067584, 11259.959490294397, -12053.20054926879, -8822.054722554056, -15574.851998669148, 0.3, 0.896, -0.128, 192.0, 0.0, 0.0, 0.0, 0.0, 0.0, 0.0, 0.0, 0.0, 0.0, 1.6625060971065872E9, 0.0, 2022-09-06 19:14:57.106
96.0, -8222.670343240541, -3573.283979092119, -29948.901229965835, -25806.094802152493, -19248.785883043514, -8078.814515926185, 77568.68929489724, -7805.698550426788, -14796.050166612884, -6173.484763322444, -22271.524044456964, -10961.630757049414, 11105.955970997331, -12194.955312604347, -8960.300262010129, -15726.933267943057, 0.3, 0.896, -0.128, 192.0, 0.0, 0.0, 0.0, 0.0, 0.0, 0.0, 0.0, 0.0, 0.0, 1.662506097106593E9, 0.0, 2022-09-06 19:14:57.106
98.0, -8246.050267940793, -3627.3528489295068, -29947.35895959842, -25872.41242795139, -19235.106615436867, -8122.020437958293, 77442.1337177913, -7851.3184608600695, -14641.979592082453, -5990.669845422488, -22116.89467631515, -10800.385272548829, 11252.873987302064, -12029.507700146163, -8836.650411683371, -15598.813068725238, 0.3, 0.896, -0.128, 192.0, 0.0, 0.0, 0.0, 0.0, 0.0, 0.0, 0.0, 0.0, 0.0, 1.6625060971066284E9, 0.0, 2022-09-06 19:14:57.106
100.0, -8266.278596672844, -3631.219700720275, -30001.89721606937, -25861.705942357297, -19299.0549563235, -8117.348923367134, 77784.83066378006, -7819.735445944721, -14820.79354772491, -6169.863780720685, -22290.075992354872, -10975.153562444873, 11097.372901126493, -12212.523783746217, -8959.115619553999, -15733.661143024105, 0.28600000000000003, 0.876, -0.132, 192.0, 4.0, 120.0, 13.5, 48.0, 125.5, 112.0, 0.0, 0.0, 0.0, 1.662506097106644E9, 0.0, 2022-09-06 19:14:57.106
102.0, -8259.774239036351, -3643.24493923723, -29969.241317420165, -25891.12083806048, -19277.70904036868, -8127.22839441638, 77213.58713073577, -7826.932707659329, -14670.254548818417, -6010.115863098606, -22154.15503432215, -10838.182072422753, 11214.831318239132, -12054.228729513732, -8890.652226287393, -15650.2444327169, 0.28600000000000003, 0.876, -0.132, 192.0, 0.0, 0.0, 0.0, 0.0, 0.0, 0.0, 0.0, 0.0, 0.0, 1.6625060971066592E9, 0.0, 2022-09-06 19:14:57.106
104.0, -8285.098765504214, -3652.140933530442, -30023.22078027973, -25891.947852605328, -19316.82459316547, -8148.775476071296, 77970.90893637048, -7856.302899873603, -14835.255126387494, -6171.2495888769145, -22299.79900119293, -10983.468411382248, 11092.947255724343, -12239.99407768179, -8976.415869762406, -15745.976954218979, 0.28600000000000003, 0.876, -0.132, 192.0, 0.0, 0.0, 0.0, 0.0, 0.0, 0.0, 0.0, 0.0, 0.0, 1.6625060971066654E9, 0.0, 2022-09-06 19:14:57.106
106.0, -8235.544948046798, -3618.412151147384, -29950.421148588797, -25864.16463424738, -19259.58177561543, -8111.001027941827, 76960.47597652389, -7825.21162333627, -14664.286633048849, -6017.849566680142, -22162.447531515067, -10843.14415969183, 11203.610742522567, -12092.561971254585, -8922.43640690284, -15679.636976675629, 0.28600000000000003, 0.876, -0.132, 192.0, 0.0, 0.0, 0.0, 0.0, 0.0, 0.0, 0.0, 0.0, 0.0, 1.66250609710668E9, 0.0, 2022-09-06 19:14:57.106
108.0, -8333.847920161239, -3701.918268432411, -30068.103083145987, -25941.591077040564, -19363.048000699044, -8190.327369013712, 78125.4936010234, -7903.778005096675, -14828.951934451097, -6184.727690783464, -22308.27031234149, -10986.12826897243, 11091.583799312568, -12240.619926526539, -8980.953273886833, -15751.78840777736, 0.28600000000000003, 0.876, -0.132, 192.0, 0.0, 0.0, 0.0, 0.0, 0.0, 0.0, 0.0, 0.0, 0.0, 1.6625060971067047E9, 0.0, 2022-09-06 19:14:57.106
110.0, -8240.216462637956, -3617.540433113627, -29956.679637036283, -25862.667067368875, -19259.984107015625, -8104.4296150719665, 76763.69121833936, -7825.591602992011, -14700.161182899617, -6065.481134114401, -22213.901247251182, -10888.428793958283, 11158.01318383374, -12105.838907461037, -8963.54126495615, -15724.854555708715, 0.306, 0.844, -0.146, 192.0, 4.5, 72.0, 13.0, 48.0, 125.5, 56.0, 0.0, 0.0, 0.0, 1.662506097106711E9, 0.0, 2022-09-06 19:14:57.106
112.0, -8348.46596103501, -3722.951259964855, -30080.597708296504, -25966.692086063875, -19361.12575067589, -8217.752959460373, 78331.39787094569, -7984.065471180138, -14820.5476785359, -6190.025054219372, -22329.549173062944, -10990.308045185571, 11090.28739813416, -12236.686019502404, -8959.696764909837, -15743.987648962457, 0.306, 0.844, -0.146, 192.0, 0.0, 0.0, 0.0, 0.0, 0.0, 0.0, 0.0, 0.0, 0.0, 1.6625060971067166E9, 0.0, 2022-09-06 19:14:57.106
114.0, -8231.164006133558, -3597.401511359395, -29957.283134136575, -25831.218162920257, -19246.148377197787, -8059.16733254997, 76644.86934481494, -7776.373061701425, -14726.178613445594, -6059.177942178005, -22256.391913460724, -10905.371416255406, 11123.747959583756, -12111.046863919124, -8963.921244611889, -15743.339448373254, 0.306, 0.844, -0.146, 192.0, 0.0, 0.0, 0.0, 0.0, 0.0, 0.0, 0.0, 0.0, 0.0, 1.662506097106738E9, 0.0, 2022-09-06 19:14:57.106
116.0, -8361.385269330176, -3730.081466446098, -30096.467446859773, -25975.90100477946, -19387.545512622062, -8208.476985511421, 78407.08087767135, -7962.607796503044, -14807.047224884895, -6139.5548152392885, -22314.551152533433, -10958.769733759134, 11097.507011593225, -12195.64821668246, -8925.833872060046, -15698.211276317988, 0.306, 0.844, -0.146, 192.0, 0.0, 0.0, 0.0, 0.0, 0.0, 0.0, 0.0, 0.0, 0.0, 1.662506097106744E9, 0.0, 2022-09-06 19:14:57.106
118.0, -8235.813168980261, -3596.8650694924677, -29959.473605093197, -25833.654503065885, -19250.61872608885, -8063.950605863405, 76613.75571653315, -7826.5974314925, -14762.92488133012, -6069.43739288299, -22288.332556287358, -10931.92528866831, 11073.076554903575, -12136.63961132045, -9004.534364287181, -15773.69311734356, 0.306, 0.844, -0.146, 192.0, 0.0, 0.0, 0.0, 0.0, 0.0, 0.0, 0.0, 0.0, 0.0, 1.662506097106762E9, 0.0, 2022-09-06 19:14:57.106
120.0, -8371.309443868333, -3750.399202155972, -30087.549100822107, -25982.98650777179, -19413.54059142358, -8215.696598970486, 78418.03323245446, -7970.095630895571, -14815.093852888805, -6130.770579668353, -22312.159515876712, -10960.356707615461, 11084.163020153406, -12219.206955338354, -8922.078778991554, -15691.461049492485, 0.314, 0.852, -0.158, 192.0, 4.5, 104.0, 13.0, 80.0, 125.5, 8.0, 0.0, 0.0, 0.0, 1.6625060971067824E9, 0.0, 2022-09-06 19:14:57.106
122.0, -7882.856772286507, -3182.7990034579043, -29547.08391989278, -25361.16097702515, -18853.271764906858, -7631.1984814642055, 73585.65313645043, -7414.252449780995, -14678.815266944799, -5944.5581966111895, -22154.646772700165, -10823.698142015714, 11155.39802973247, -12007.580638835507, -8918.055464989598, -15678.139409797122, 0.314, 0.852, -0.158, 192.0, 0.0, 0.0, 0.0, 0.0, 0.0, 0.0, 0.0, 0.0, 0.0, 1.6625060971067884E9, 0.0, 2022-09-06 19:14:57.106
124.0, -8575.224408534099, -4043.184702776039, -30322.130658880553, -26327.203372383523, -19690.590463947115, -8566.395469474253, 80290.3494584977, -8367.263778121922, -14576.466629083949, -5922.586431811623, -22115.732385603475, -10737.420408418227, 11322.902002680541, -12067.05863083108, -8655.869502528847, -15445.211880828367, 0.314, 0.852, -0.158, 192.0, 0.0, 0.0, 0.0, 0.0, 0.0, 0.0, 0.0, 0.0, 0.0, 1.662506097106819E9, 0.0, 2022-09-06 19:14:57.106
126.0, -7674.426755240769, -2923.4517125429766, -29279.287669573747, -25055.925554743477, -18595.176171681425, -7350.16999842763, 71629.76373788879, -7142.119961037632, -14814.244486599504, -6026.365581317614, -22223.15486945568, -10924.169233342318, 11021.891060100921, -12012.98976099369, -9043.895786272979, -15805.142021792177, 0.314, 0.852, -0.158, 192.0, 0.0, 0.0, 0.0, 0.0, 0.0, 0.0, 0.0, 0.0, 0.0, 1.6625060971068337E9, 0.0, 2022-09-06 19:14:57.106
128.0, -8613.691760741684, -4126.355543894237, -30377.562985129713, -26454.228336123033, -19771.168502708497, -8656.070668228946, 80688.81400690247, -8369.096621167257, -14418.506851018294, -5782.798621988132, -21983.365354939146, -10593.877505526247, 11458.755905479897, -11970.476743039697, -8488.074956902858, -15273.59518690052, 0.314, 0.852, -0.158, 192.0, 0.0, 0.0, 0.0, 0.0, 0.0, 0.0, 0.0, 0.0, 0.0, 1.6625060971068456E9, 0.0, 2022-09-06 19:14:57.106
130.0, -7760.77154407162, -2965.987082241426, -29322.605350328133, -25074.54455787475, -18645.31113449468, -7391.699539625591, 72231.76327130357, -7278.8902853596555, -14988.029299739517, -6206.811214305308, -22402.01352858705, -11095.182430169873, 10846.228700426664, -12187.31101600063, -9182.074270495687, -15945.10864557131, 0.308, 0.866, -0.164, 192.0, 4.5, 80.0, 13.5, 8.0, 125.0, 112.0, 0.0, 0.0, 0.0, 1.6625060971068647E9, 0.0, 2022-09-06 19:14:57.106
132.0, -8539.863948805803, -4084.580133507268, -30342.33663586815, -26457.089359413312, -19753.130644933062, -8652.13676120481, 80231.56437058025, -8378.640816049674, -14303.037739162177, -5661.853332740466, -21853.725237098366, -10466.472562130995, 11578.427145293612, -11813.343979518888, -8416.795243834882, -15200.90731393186, 0.308, 0.866, -0.164, 192.0, 0.0, 0.0, 0.0, 0.0, 0.0, 0.0, 0.0, 0.0, 0.0, 1.6625060971068847E9, 0.0, 2022-09-06 19:14:57.106
134.0, -7908.13659526546, -3080.0927376857685, -29491.361020965698, -25160.151739138575, -18781.209740782946, -7460.408802081204, 73118.83695350135, -7238.523034873371, -15157.410819221834, -6376.840934376828, -22570.255109102145, -11252.963394279885, 10699.35538761084, -12387.359128875629, -9330.825129845754, -16080.381403014828, 0.308, 0.866, -0.164, 192.0, 0.0, 0.0, 0.0, 0.0, 0.0, 0.0, 0.0, 0.0, 0.0, 1.6625060971069005E9, 0.0, 2022-09-06 19:14:57.106
136.0, -8429.021648051936, -3991.351007384182, -30282.523367705748, -26390.145884769667, -19639.87435577802, -8542.143826740245, 79347.41876690612, -8261.517675103865, -14228.807595826102, -5556.710726822702, -21764.11709357704, -10380.395994233608, 11644.856529814784, -11683.033309344448, -8371.242388634968, -15115.501298368134, 0.308, 0.866, -0.164, 192.0, 0.0, 0.0, 0.0, 0.0, 0.0, 0.0, 0.0, 0.0, 0.0, 1.662506097106915E9, 0.0, 2022-09-06 19:14:57.106
138.0, -8077.160486836492, -3231.8834342817586, -29661.748368948505, -25308.25439789944, -18914.828469136773, -7608.332646886426, 74064.76277884994, -7393.867658837755, -15255.602032613997, -6502.949476593671, -22706.310177601597, -11376.993224262384, 10598.481964884038, -12529.315057911284, -9414.800633764344, -16177.142104761853, 0.308, 0.866, -0.164, 192.0, 0.0, 0.0, 0.0, 0.0, 0.0, 0.0, 0.0, 0.0, 0.0, 1.6625060971069298E9, 0.0, 2022-09-06 19:14:57.106
140.0, -8285.612855626685, -3860.9509302319207, -30140.433328203362, -26279.14712180461, -19501.09237445502, -8435.90598534417, 78194.42638092356, -8153.446990662455, -14174.13522888842, -5485.520420732549, -21689.48461884077, -10318.079330692211, 11682.630977944253, -11572.928616157606, -8356.087905894268, -15108.460498864712, 0.314, 0.868, -0.15, 192.0, 4.5, 104.0, 13.5, 16.0, 125.5, 40.0, 0.0, 0.0, 0.0, 1.6625060971069448E9, 0.0, 2022-09-06 19:14:57.106
142.0, -8213.774348947329, -3377.3709389413525, -29769.84140513437, -25442.297809397915, -19068.787284944927, -7776.931855312808, 75123.40845148664, -7566.467829521636, -15299.232637790758, -6580.01829147557, -22771.666678388916, -11437.342934291713, 10556.863016708257, -12657.099980962275, -9424.702456558045, -16216.414119769826, 0.314, 0.868, -0.15, 192.0, 0.0, 0.0, 0.0, 0.0, 0.0, 0.0, 0.0, 0.0, 0.0, 1.6625060971069603E9, 0.0, 2022-09-06 19:14:57.106
144.0, -8152.351755184145, -3716.603364539548, -29953.88566897937, -26140.521602692796, -19384.103343975945, -8347.12485636769, 76864.5422893217, -8103.736710993852, -14151.783484433114, -5431.07157123942, -21635.438100747837, -10280.975434896402, 11694.052719360914, -11517.250420719436, -8348.778885457383, -15118.541135614054, 0.314, 0.868, -0.15, 192.0, 0.0, 0.0, 0.0, 0.0, 0.0, 0.0, 0.0, 0.0, 0.0, 1.6625060971069765E9, 0.0, 2022-09-06 19:14:57.106
146.0, -8360.602958274241, -3504.7088271032367, -29851.872307285346, -25612.64045389181, -19232.75968226906, -7975.661215264942, 76168.62072570571, -7768.885227308897, -15325.451234036833, -6607.801509833516, -22809.508181751753, -11460.02995491385, 10557.555920786372, -12743.556528515403, -9404.742348759455, -16248.064189918541, 0.314, 0.868, -0.15, 192.0, 0.0, 0.0, 0.0, 0.0, 0.0, 0.0, 0.0, 0.0, 0.0, 1.662506097106992E9, 0.0, 2022-09-06 19:14:57.106
148.0, -8036.949698561395, -3564.2315225877196, -29733.095137249846, -25981.3324786821, -19230.56921131244, -8213.707293713964, 75548.67274149331, -7907.287228976158, -14184.61819703796, -5422.175576946209, -21636.242763548227, -10282.294187819265, 11661.374468967257, -11510.522545638389, -8373.835190991782, -15154.281574998091, 0.314, 0.868, -0.15, 192.0, 0.0, 0.0, 0.0, 0.0, 0.0, 0.0, 0.0, 0.0, 0.0, 1.6625060971070025E9, 0.0, 2022-09-06 19:14:57.107
150.0, -8517.623963072772, -3684.975646135288, -29964.860375506923, -25801.78091547262, -19398.229646471696, -8170.322557726212, 77275.16618671015, -7911.712874378309, -15300.774908158173, -6610.8413470794385, -22811.318673052632, -11448.854082686197, 10586.344967644807, -12795.256113440528, -9331.98742055743, -16203.360701007929, 0.28300000000000003, 0.888, -0.14700000000000002, 192.0, 3.5, 112.0, 14.0, 48.0, 125.5, 64.0, 0.0, 0.0, 0.0, 1.6625060971070168E9, 0.0, 2022-09-06 19:14:57.107
152.0, -7918.150176781438, -3402.449596220207, -29597.844731550784, -25804.731345740718, -19094.20121839061, -8038.849596840096, 74308.15092422378, -7745.393543886369, -14242.732732621758, -5459.7041558866695, -21670.06095290911, -10333.390275644097, 11597.96256994755, -11507.080376992271, -8446.835988382816, -15237.251250416191, 0.28300000000000003, 0.888, -0.14700000000000002, 192.0, 0.0, 0.0, 0.0, 0.0, 0.0, 0.0, 0.0, 0.0, 0.0, 1.662506097107032E9, 0.0, 2022-09-06 19:14:57.107
154.0, -8614.809347964449, -3811.263002307773, -30101.72010680677, -25949.74946376675, -19514.391662405927, -8281.164858480079, 78199.36611644819, -8022.711637343364, -15212.73138674872, -6562.271006378056, -22750.633686856472, -11375.316843428236, 10659.524578991482, -12757.861644966799, -9246.603756738157, -16095.155906099786, 0.28300000000000003, 0.888, -0.14700000000000002, 192.0, 0.0, 0.0, 0.0, 0.0, 0.0, 0.0, 0.0, 0.0, 0.0, 1.6625060971070516E9, 0.0, 2022-09-06 19:14:57.107
156.0, -7811.241783051704, -3260.426611951186, -29483.940241806537, -25608.63949163431, -18923.679759941075, -7831.827739695042, 73108.84572372983, -7556.342489283382, -14295.862829192023, -5514.868261202367, -21718.63129361049, -10388.375567004154, 11524.09005452276, -11499.056100732816, -8538.232271460565, -15288.190876029836, 0.28300000000000003, 0.888, -0.14700000000000002, 192.0, 0.0, 0.0, 0.0, 0.0, 0.0, 0.0, 0.0, 0.0, 0.0, 1.6625060971070683E9, 0.0, 2022-09-06 19:14:57.107
158.0, -8705.49037521963, -3953.643614488079, -30239.02687299572, -26106.34578542063, -19625.904515493457, -8422.830214837815, 78875.17111005439, -8195.848249894172, -15101.106774938915, -6476.529714647498, -22666.38996200442, -11278.42203121448, 10773.585530946915, -12657.144684451187, -9140.47767406436, -15969.248529583041, 0.28300000000000003, 0.888, -0.14700000000000002, 192.0, 0.0, 0.0, 0.0, 0.0, 0.0, 0.0, 0.0, 0.0, 0.0, 1.6625060971070826E9, 0.0, 2022-09-06 19:14:57.107
160.0, -7768.549951142068, -3167.845686417304, -29427.30092135679, -25474.260803969006, -18835.77034899835, -7727.266279133115, 72029.25646653849, -7512.197793984151, -14423.021903398265, -5633.623079493414, -21824.086823950627, -10503.46469920453, 11399.5908379067, -11586.607883764254, -8682.356319708386, -15415.215839769346, 0.2735, 0.901, -0.14650000000000002, 192.0, 4.0, 32.0, 14.0, 72.0, 125.5, 56.0, 0.0, 0.0, 0.0, 1.6625060971070886E9, 0.0, 2022-09-06 19:14:57.107
162.0, -8756.228835133175, -4055.3664035041816, -30308.876074418557, -26245.686560355018, -19715.982045648343, -8571.2234462766, 79363.28850546939, -8382.3288538848, -14996.031224254517, -6381.959483857094, -22564.04132414357, -11171.848913651576, 10878.146991508842, -12595.275055798897, -9058.066792257643, -15881.584987829327, 0.2735, 0.901, -0.14650000000000002, 192.0, 0.0, 0.0, 0.0, 0.0, 0.0, 0.0, 0.0, 0.0, 0.0, 1.6625060971071067E9, 0.0, 2022-09-06 19:14:57.107
164.0, -7774.137887255894, -3116.7719503369276, -29362.23499324739, -25375.913128365653, -18794.53138047831, -7671.230455783661, 71276.49441677266, -7436.738304703034, -14571.526893559325, -5768.627616003468, -21958.934898249496, -10650.069791086888, 11244.000344753307, -11757.33050791389, -8830.883661613901, -15572.080382356691, 0.2735, 0.901, -0.14650000000000002, 192.0, 0.0, 0.0, 0.0, 0.0, 0.0, 0.0, 0.0, 0.0, 0.0, 1.6625060971071217E9, 0.0, 2022-09-06 19:14:57.107
166.0, -8765.21423640421, -4114.419712355103, -30329.7079002509, -26332.098404419234, -19768.598052096135, -8635.730580774616, 79504.95386182712, -8366.660281021628, -14875.108286751305, -6272.748860448463, -22445.644133763806, -11048.064952858085, 10998.578190634036, -12484.768031211857, -8929.81248257309, -15733.661143024105, 0.2735, 0.901, -0.14650000000000002, 192.0, 0.0, 0.0, 0.0, 0.0, 0.0, 0.0, 0.0, 0.0, 0.0, 1.662506097107128E9, 0.0, 2022-09-06 19:14:57.107
168.0, -7769.8463523204755, -3053.6506239951404, -29313.46348684591, -25255.593687962733, -18726.4703186119, -7566.624291732824, 70594.78856263024, -7315.949477666554, -14682.503304779924, -5885.437832526903, -22068.346687358226, -10759.347469728884, 11125.737264840278, -11838.735561220117, -8929.074875006065, -15675.993642329413, 0.2735, 0.901, -0.14650000000000002, 192.0, 0.0, 0.0, 0.0, 0.0, 0.0, 0.0, 0.0, 0.0, 0.0, 1.6625060971071432E9, 0.0, 2022-09-06 19:14:57.107
170.0, -8738.570957013484, -4138.827817300298, -30366.834147791167, -26403.489876209485, -19787.6193866276, -8673.259159715077, 79141.15686907254, -8372.695252024561, -14720.05423546484, -6118.030085328828, -22292.735849945053, -10894.553171939036, 11157.096762311074, -12313.978351828857, -8784.92847501379, -15593.51570528933, 0.26475000000000004, 0.9035, -0.13125, 192.0, 4.0, 0.0, 14.0, 40.0, 126.0, 48.0, 0.0, 0.0, 0.0, 1.6625060971072688E9, 0.0, 2022-09-06 19:14:57.107
172.0, -7825.591602992011, -3051.4154495496095, -29381.52454871232, -25224.94944631451, -18722.536411587764, -7522.591355155869, 70054.65865786775, -7250.078886756764, -14811.852849942787, -6021.6270114930885, -22208.715642537554, -10900.901067364344, 11000.835716824022, -11984.13365890189, -9061.330146948118, -15817.502536475962, 0.26475000000000004, 0.9035, -0.13125, 192.0, 0.0, 0.0, 0.0, 0.0, 0.0, 0.0, 0.0, 0.0, 0.0, 1.662506097107284E9, 0.0, 2022-09-06 19:14:57.107
174.0, -8692.48165994664, -4122.935726992575, -30369.918688526, -26441.890173183703, -19760.14909269203, -8701.310599006487, 78434.7076338181, -8413.241316466489, -14575.684318028012, -5975.940045826441, -22151.785749409886, -10752.373725458829, 11286.334548751658, -12152.777570817181, -8655.400115895285, -15482.092259179624, 0.26475000000000004, 0.9035, -0.13125, 192.0, 0.0, 0.0, 0.0, 0.0, 0.0, 0.0, 0.0, 0.0, 0.0, 1.6625060971073043E9, 0.0, 2022-09-06 19:14:57.107
176.0, -7897.385406182458, -3076.0917754282686, -29420.90832244257, -25219.205047989493, -18754.722923603407, -7547.222977545617, 69818.51247769744, -7276.476296958483, -14947.639697508777, -6169.796725487319, -22350.895089017762, -11040.286545787638, 10868.28987220405, -12159.281928453676, -9162.181217930463, -15959.905500400722, 0.26475000000000004, 0.9035, -0.13125, 192.0, 0.0, 0.0, 0.0, 0.0, 0.0, 0.0, 0.0, 0.0, 0.0, 1.6625060971073146E9, 0.0, 2022-09-06 19:14:57.107
178.0, -8603.61112399234, -4074.968883391486, -30294.235681800328, -26424.36640553074, -19719.357159061095, -8653.410810638763, 77476.57775599691, -8318.536975209354, -14462.942118995443, -5847.752791375255, -22013.853134376186, -10622.666552384682, 11401.378977463124, -12036.883775816415, -8565.970786329603, -15386.04681325517, 0.26475000000000004, 0.9035, -0.13125, 192.0, 0.0, 0.0, 0.0, 0.0, 0.0, 0.0, 0.0, 0.0, 0.0, 1.6625060971073215E9, 0.0, 2022-09-06 19:14:57.107
180.0, -8003.86911676754, -3156.6474624451953, -29473.747846334918, -25251.03393209385, -18838.363151355166, -7608.623219564345, 69898.33055714733, -7350.862902505744, -15049.697762691709, -6285.556410021354, -22456.618840291365, -11140.981154558796, 10776.737126915114, -12299.449717932906, -9233.885614143088, -16052.017039301043, 0.264375, 0.9157500000000001, -0.109625, 192.0, 4.0, 32.0, 14.5, 0.0, 126.5, 32.0, 0.0, 0.0, 0.0, 1.6625060971073284E9, 0.0, 2022-09-06 19:14:57.107
182.0, -8545.518940152997, -4051.7901243913325, -30235.964684005343, -26411.536504213396, -19702.32512978615, -8665.547807877994, 76395.13330401579, -8386.240409164478, -14383.9957575793, -5759.843380432532, -21919.171144863503, -10534.310106552854, 11462.600405526211, -11911.73635861115, -8517.288686905944, -15348.317068614611, 0.264375, 0.9157500000000001, -0.109625, 192.0, 0.0, 0.0, 0.0, 0.0, 0.0, 0.0, 0.0, 0.0, 0.0, 1.6625060971073356E9, 0.0, 2022-09-06 19:14:57.107
184.0, -8142.069952734703, -3267.6238736657947, -29587.786446545895, -25332.23781969998, -18933.98391413497, -7709.496642291146, 70309.49089640271, -7470.981177208564, -15172.587653706987, -6433.837882737861, -22597.345423381976, -11268.386097954048, 10638.268070014487, -12458.862359388157, -9357.267243536382, -16149.38123814836, 0.264375, 0.9157500000000001, -0.109625, 192.0, 0.0, 0.0, 0.0, 0.0, 0.0, 0.0, 0.0, 0.0, 0.0, 1.6625060971073413E9, 0.0, 2022-09-06 19:14:57.107
186.0, -8422.450235182076, -3948.1897888409844, -30116.695775591827, -26316.45218330052, -19575.657793957926, -8557.87945483678, 75265.61024971132, -8286.752794593905, -14308.200992131353, -5685.6355888409125, -21830.211201931383, -10451.698059046037, 11528.33688596927, -11770.339223186878, -8474.261578829477, -15269.437762431833, 0.264375, 0.9157500000000001, -0.109625, 192.0, 0.0, 0.0, 0.0, 0.0, 0.0, 0.0, 0.0, 0.0, 0.0, 1.6625060971073468E9, 0.0, 2022-09-06 19:14:57.107
188.0, -8242.652802783585, -3362.3952701562966, -29672.34309582032, -25402.198779845094, -19037.561897940865, -7755.697698080266, 71100.38502220929, -7475.786802266455, -15212.686683259808, -6535.359506053866, -22665.92057537086, -11333.742598741364, 10607.690883599626, -12557.791180347345, -9357.714278425488, -16164.066334255498, 0.264375, 0.9157500000000001, -0.109625, 192.0, 0.0, 0.0, 0.0, 0.0, 0.0, 0.0, 0.0, 0.0, 0.0, 1.6625060971073544E9, 0.0, 2022-09-06 19:14:57.107
190.0, -8315.541841452341, -3842.622499778569, -30017.99047207719, -26211.354280871667, -19495.7503075302, -8439.370505734743, 74006.76000198841, -8125.194385670947, -14247.136026279453, -5609.237326292673, -21748.82850036961, -10381.401822734097, 11564.166732331125, -11668.59408242632, -8452.96036636357, -15215.368892594444, 0.29418750000000005, 0.9368750000000001, -0.0818125, 192.0, 5.0, 16.0, 14.5, 120.0, 127.0, 40.0, 0.0, 0.0, 0.0, 1.66250609710736E9, 0.0, 2022-09-06 19:14:57.107
192.0, -8395.739900557983, -3508.732141105192, -29824.133792416313, -25541.181926868194, -19181.730649677593, -7916.965534325306, 71954.5345848244, -7621.117844714862, -15265.235634474235, -6609.947277301226, -22745.559840865117, -11397.378015205624, 10553.957289929067, -12657.703478062569, -9402.820098736298, -16196.833991626978, 0.29418750000000005, 0.9368750000000001, -0.0818125, 192.0, 0.0, 0.0, 0.0, 0.0, 0.0, 0.0, 0.0, 0.0, 0.0, 1.6625060971073651E9, 0.0, 2022-09-06 19:14:57.107
194.0, -8211.226250079424, -3712.1330156484864, -29908.623386457373, -26075.58978505013, -19356.00720119562, -8297.816908099283, 72960.38543705767, -7975.907084453951, -14242.799787855123, -5581.655273634824, -21725.225058224805, -10364.123924270145, 11551.716810669519, -11595.81680247984, -8486.555038279896, -15229.115215434458, 0.29418750000000005, 0.9368750000000001, -0.0818125, 192.0, 0.0, 0.0, 0.0, 0.0, 0.0, 0.0, 0.0, 0.0, 0.0, 1.6625060971073709E9, 0.0, 2022-09-06 19:14:57.107
196.0, -8545.898919808737, -3668.01067209371, -29990.050791508056, -25703.70146080273, -19339.891593443346, -8078.479239759356, 73350.46808129169, -7786.699567639776, -15272.16467525538, -6645.0618678405135, -22776.829931358094, -11413.761843891365, 10539.830987433314, -12739.466159280082, -9409.950305217542, -16205.193544053263, 0.29418750000000005, 0.9368750000000001, -0.0818125, 192.0, 0.0, 0.0, 0.0, 0.0, 0.0, 0.0, 0.0, 0.0, 0.0, 1.6625060971073763E9, 0.0, 2022-09-06 19:14:57.107
198.0, -8122.400417614033, -3587.633799032426, -29801.782047961005, -25925.430765799378, -19234.033731703013, -8177.385708974089, 72217.03347170753, -7846.311670102081, -14277.869674905502, -5580.62709338988, -21733.092872273075, -10371.343537729208, 11514.94819104054, -11577.689537726586, -8541.048591261935, -15279.78662011464, 0.29418750000000005, 0.9368750000000001, -0.0818125, 192.0, 0.0, 0.0, 0.0, 0.0, 0.0, 0.0, 0.0, 0.0, 0.0, 1.662506097107382E9, 0.0, 2022-09-06 19:14:57.107
200.0, -8690.939389579224, -3826.529243770748, -30140.00864505871, -25882.94009958984, -19498.72308954276, -8266.278596672844, 74857.24387851285, -7942.0665433486165, -15252.942175023816, -6646.64884169684, -22785.010669828735, -11403.97177981994, 10573.47036283855, -12763.404877591716, -9374.925121656075, -16183.691165887258, 0.32109375000000007, 0.9514375, -0.05790625, 192.0, 5.0, 112.0, 15.0, 24.0, 127.0, 120.0, 0.0, 0.0, 0.0, 1.6625060971073875E9, 0.0, 2022-09-06 19:14:57.107
202.0, -8033.105198515082, -3450.3270328434746, -29680.859110457794, -25756.92096435082, -19104.728890029062, -8019.537689630711, 71472.4745121568, -7675.499638974624, -14339.381675646506, -5623.855367166444, -21782.758448452765, -10429.815701224292, 11431.352666777691, -11601.740014760497, -8632.89190922879, -15360.789342020673, 0.32109375000000007, 0.9514375, -0.05790625, 192.0, 0.0, 0.0, 0.0, 0.0, 0.0, 0.0, 0.0, 0.0, 0.0, 1.6625060971073933E9, 0.0, 2022-09-06 19:14:57.107
204.0, -8775.87601850939, -3939.6290707146018, -30221.480753598305, -26014.3907087315, -19594.723831978303, -8405.66407509614, 75896.08590556215, -8063.302405274201, -15164.988060592183, -6571.301111138, -22715.340282361543, -11319.973924156897, 10657.244701057041, -12714.745129912511, -9251.364678307138, -16077.118048324353, 0.32109375000000007, 0.9514375, -0.05790625, 192.0, 0.0, 0.0, 0.0, 0.0, 0.0, 0.0, 0.0, 0.0, 0.0, 1.6625060971073987E9, 0.0, 2022-09-06 19:14:57.107
206.0, -7968.3074913391465, -3340.9599472236573, -29560.33850435478, -25606.27020672205, -19001.79910681237, -7892.982112524762, 70617.65439720803, -7542.126779809807, -14427.805176711701, -5683.735690562212, -21852.875870809065, -10504.202306771555, 11337.6765057655, -11674.673756918164, -8711.301828778009, -15454.331392566133, 0.32109375000000007, 0.9514375, -0.05790625, 192.0, 0.0, 0.0, 0.0, 0.0, 0.0, 0.0, 0.0, 0.0, 0.0, 1.6625060971074045E9, 0.0, 2022-09-06 19:14:57.107
208.0, -8844.60763270946, -4059.032089594852, -30306.640899973027, -26156.547803467252, -19696.871304139055, -8537.82994006037, 76612.25814965465, -8237.489549814409, -15056.69385870622, -6484.777508351506, -22631.230667976222, -11226.633039311533, 10752.038449291998, -12670.421620657638, -9138.264851363285, -15984.514771046017, 0.32109375000000007, 0.9514375, -0.05790625, 192.0, 0.0, 0.0, 0.0, 0.0, 0.0, 0.0, 0.0, 0.0, 0.0, 1.66250609710741E9, 0.0, 2022-09-06 19:14:57.107
210.0, -7955.790514444175, -3274.1058795578338, -29500.480532703466, -25491.13637103276, -18919.70114942803, -7808.425463250335, 69863.43948405261, -7385.1951819890955, -14530.600849461658, -5779.311749853105, -21939.019493939817, -10599.934828273634, 11222.095635187106, -11741.214900161613, -8800.999379277157, -15564.279623541788, 0.326546875, 0.9667187500000001, -0.023953125, 192.0, 5.0, 48.0, 15.0, 88.0, 0.0, 40.0, 0.0, 0.0, 0.0, 1.6625060971074157E9, 0.0, 2022-09-06 19:14:57.107
212.0, -8907.371331139962, -4164.979358313008, -30381.988630531865, -26300.269520314876, -19800.851619345143, -8671.962758536669, 77238.10699440325, -8319.587507198752, -14980.25089266907, -6422.46084481011, -22550.496167003654, -11142.746942370766, 10829.688409529736, -12608.484936771982, -9054.088181744597, -15906.261313707986, 0.326546875, 0.9667187500000001, -0.023953125, 192.0, 0.0, 0.0, 0.0, 0.0, 0.0, 0.0, 0.0, 0.0, 0.0, 1.6625060971074224E9, 0.0, 2022-09-06 19:14:57.107
214.0, -7965.938206426884, -3222.652163821717, -29433.447651082, -25387.714849438056, -18861.988945244426, -7727.847424488953, 69473.46859854086, -7315.725960222002, -14691.57811302878, -5933.449379616903, -22085.579882333266, -10747.657507378759, 11059.464342530293, -11895.844268303426, -8958.936805598356, -15726.0615499093, 0.326546875, 0.9667187500000001, -0.023953125, 192.0, 0.0, 0.0, 0.0, 0.0, 0.0, 0.0, 0.0, 0.0, 0.0, 1.6625060971074297E9, 0.0, 2022-09-06 19:14:57.107
216.0, -8887.925313463846, -4190.505050480968, -30339.363853855593, -26362.385018156176, -19841.375332042615, -8712.218250300677, 77477.24830833059, -8310.244478016433, -14845.246356159016, -6294.497107803477, -22407.512057723055, -10997.102975499985, 10972.717222299245, -12470.529969993828, -8910.455871874794, -15759.812684036815, 0.326546875, 0.9667187500000001, -0.023953125, 192.0, 0.0, 0.0, 0.0, 0.0, 0.0, 0.0, 0.0, 0.0, 0.0, 1.6625060971074357E9, 0.0, 2022-09-06 19:14:57.107
218.0, -7998.191773675892, -3205.7095415245944, -29365.118368282125, -25305.34867112025, -18869.67794533705, -7685.0885373459505, 69030.43467169222, -7280.521962704893, -14822.291114603415, -6062.843628268675, -22194.72345050853, -10864.467723902193, 10931.701771223758, -12020.567002364041, -9047.248547941274, -15826.778510424914, 0.326546875, 0.9667187500000001, -0.023953125, 192.0, 0.0, 0.0, 0.0, 0.0, 0.0, 0.0, 0.0, 0.0, 0.0, 1.6625060971074417E9, 0.0, 2022-09-06 19:14:57.107
220.0, -8853.056592113566, -4215.494300782001, -30304.405725527493, -26401.8805506087, -19843.856375677155, -8774.847838264446, 77253.2838288884, -8373.23169389149, -14712.588752816768, -6174.110612167194, -22276.195559048127, -10864.311261691006, 11094.042491202652, -12347.573023745183, -8778.64763482185, -15631.71483656345, 0.326546875, 0.9667187500000001, -0.023953125, 192.0, 0.0, 0.0, 0.0, 0.0, 0.0, 0.0, 0.0, 0.0, 0.0, 1.662506097107448E9, 0.0, 2022-09-06 19:14:57.107
222.0, -8034.4015996934895, -3201.306247866899, -29380.406961489556, -25247.882336125655, -18835.524479809344, -7652.99143230813, 68984.81476125894, -7213.980819461444, -14931.345275800859, -6211.907412041118, -22328.163364906715, -10985.904751527876, 10806.934333674233, -12143.099265468034, -9141.282336864751, -15933.753959388014, 0.308, 0.998, 0.064, 192.0, 4.5, 80.0, 15.5, 24.0, 1.0, 0.0, 0.0, 0.0, 0.0, 1.6625060971074536E9, 0.0, 2022-09-06 19:14:57.107
224.0, -8762.129695669377, -4168.153306025661, -30281.80811188318, -26396.024393561413, -19814.307369507238, -8728.043285375034, 76796.9282623444, -8278.952035779004, -14565.804846978766, -6044.157569904038, -22140.855746371242, -10718.421425631217, 11214.607800794578, -12175.21872225031, -8644.671278556738, -15498.11845995408, 0.308, 0.998, 0.064, 192.0, 0.0, 0.0, 0.0, 0.0, 0.0, 0.0, 0.0, 0.0, 0.0, 1.6625060971074593E9, 0.0, 2022-09-06 19:14:57.107
226.0, -8102.887344704551, -3227.033105734957, -29467.77993056535, -25265.942545645543, -18861.474855121953, -7673.152705806817, 68934.61274321232, -7268.452020699027, -15012.683273873721, -6323.621430828743, -22435.295276081, -11077.926883450376, 10717.63911457528, -12250.365287109053, -9214.350189489149, -16009.325207391406, 0.308, 0.998, 0.064, 192.0, 0.0, 0.0, 0.0, 0.0, 0.0, 0.0, 0.0, 0.0, 0.0, 1.6625060971074665E9, 0.0, 2022-09-06 19:14:57.107
228.0, -8675.76255509407, -4120.633497313678, -30252.12499524653, -26390.12353302521, -19742.37945585006, -8687.653683144294, 75821.18520989243, -8249.604195309186, -14448.011153699299, -5954.549426382712, -22039.870564922163, -10607.310903943886, 11321.6726567355, -12026.33375243351, -8566.574283429896, -15418.836822371106, 0.308, 0.998, 0.064, 192.0, 0.0, 0.0, 0.0, 0.0, 0.0, 0.0, 0.0, 0.0, 0.0, 1.6625060971074731E9, 0.0, 2022-09-06 19:14:57.107
230.0, -8197.14465107258, -3293.7307111895934, -29571.514376582432, -25310.981310722986, -18947.238498596966, -7699.751281708633, 68885.79653332193, -7290.893172132155, -15088.120411410382, -6462.291653429467, -22562.208481098234, -11180.342576544594, 10656.082410345365, -12385.54863757475, -9270.229550627417, -16081.320176281952, 0.308, 0.998, 0.064, 192.0, 0.0, 0.0, 0.0, 0.0, 0.0, 0.0, 0.0, 0.0, 0.0, 1.6625060971074786E9, 0.0, 2022-09-06 19:14:57.107
232.0, -8588.858972651837, -4063.6589006971003, -30195.08334339659, -26344.950657481037, -19654.738265840802, -8596.391510533274, 74467.89884184586, -8176.022252562315, -14373.043402796198, -5874.440774254892, -21965.43925588599, -10521.927240124613, 11397.288608227804, -11927.337876240956, -8513.06420720389, -15331.03917015066, 0.306, 0.966, 0.098, 192.0, 4.5, 72.0, 15.0, 24.0, 1.5, 8.0, 0.0, 0.0, 0.0, 1.662506097107484E9, 0.0, 2022-09-06 19:14:57.107
234.0, -8341.581623742775, -3426.477721509662, -29688.83868322834, -25400.477695522037, -19047.91075562367, -7797.070777067039, 68994.82834277491, -7420.175662061652, -15183.830581168007, -6591.7082538256955, -22687.1547326034, -11292.95066511043, 10557.75708648647, -12503.811717487779, -9328.634658889134, -16150.901156771322, 0.306, 0.966, 0.098, 192.0, 0.0, 0.0, 0.0, 0.0, 0.0, 0.0, 0.0, 0.0, 0.0, 1.6625060971074896E9, 0.0, 2022-09-06 19:14:57.107
236.0, -8483.001110911502, -3965.8923704495874, -30073.80277798209, -26238.48929864041, -19563.744314163247, -8515.098215949323, 72887.98813676693, -8091.152678865515, -14329.189280174885, -5820.841291051065, -21903.457868511425, -10472.127553478189, 11427.105835331182, -11798.971807834127, -8483.738718478528, -15295.321082511078, 0.306, 0.966, 0.098, 192.0, 0.0, 0.0, 0.0, 0.0, 0.0, 0.0, 0.0, 0.0, 0.0, 1.6625060971074953E9, 0.0, 2022-09-06 19:14:57.107
238.0, -8452.289814029911, -3535.6436414293817, -29765.572221943406, -25477.501806915025, -19161.301155245445, -7897.765385838197, 69267.43021815184, -7519.193889998662, -15230.00928521267, -6670.408746052832, -22744.0175704977, -11347.913604726029, 10530.89028965119, -12612.240029840474, -9343.520920696368, -16169.743677347145, 0.306, 0.966, 0.098, 192.0, 0.0, 0.0, 0.0, 0.0, 0.0, 0.0, 0.0, 0.0, 0.0, 1.6625060971075013E9, 0.0, 2022-09-06 19:14:57.107
240.0, -8362.614615275219, -3841.661374766991, -29905.382383511354, -26103.84239004164, -19420.067300804534, -8397.75155755896, 71251.39340774935, -7994.235514907303, -14301.093137394564, -5756.378860041959, -21837.207297945894, -10414.750625461415, 11442.997925638905, -11715.532745782464, -8462.973947879547, -15264.430971673844, 0.306, 0.966, 0.098, 192.0, 0.0, 0.0, 0.0, 0.0, 0.0, 0.0, 0.0, 0.0, 0.0, 1.6625060971075068E9, 0.0, 2022-09-06 19:14:57.107
242.0, -8572.810420132926, -3650.106924785009, -29816.62360627933, -25594.11085773836, -19276.636156634828, -8040.056591040682, 69690.63814766862, -7685.04383385704, -15244.247346430702, -6692.536973063586, -22771.55491966664, -11363.626881078111, 10516.205193544054, -12682.312748707862, -9307.378149912138, -16166.39091567885, 0.298, 0.996, 0.11800000000000001, 192.0, 4.5, 40.0, 15.5, 16.0, 1.5, 88.0, 0.0, 0.0, 0.0, 1.6625060971075125E9, 0.0, 2022-09-06 19:14:57.107
244.0, -8263.216407682468, -3719.5761465521036, -29708.843494515837, -25970.33542041009, -19322.50193625712, -8257.941395991016, 69602.25935009234, -7863.36605112148, -14311.754919499746, -5710.535432164125, -21825.40557687349, -10404.379416034153, 11414.901782858586, -11647.02464902695, -8490.734814493038, -15282.267663749179, 0.298, 0.996, 0.11800000000000001, 192.0, 0.0, 0.0, 0.0, 0.0, 0.0, 0.0, 0.0, 0.0, 0.0, 1.662506097107518E9, 0.0, 2022-09-06 19:14:57.107
246.0, -8673.10269750389, -3767.073603519631, -29832.940379731703, -25726.813164569518, -19395.614492370427, -8163.5946826451645, 70270.62121279493, -7762.962015028241, -15239.620535328453, -6684.244475870666, -22788.206969285842, -11362.755163044354, 10529.862109406247, -12698.853039604788, -9268.374355837626, -16126.560107059493, 0.298, 0.996, 0.11800000000000001, 192.0, 0.0, 0.0, 0.0, 0.0, 0.0, 0.0, 0.0, 0.0, 0.0, 1.6625060971075232E9, 0.0, 2022-09-06 19:14:57.107
248.0, -8153.491694151366, -3571.4958395356944, -29534.298722064344, -25832.335750143022, -19193.532370749996, -8139.387743400067, 68140.85759411546, -7721.790101741565, -14348.232966450807, -5700.678312859334, -21834.122757211062, -10420.293858086332, 11377.35085217367, -11626.751616805985, -8536.555890626418, -15311.950780385827, 0.298, 0.996, 0.11800000000000001, 192.0, 0.0, 0.0, 0.0, 0.0, 0.0, 0.0, 0.0, 0.0, 0.0, 1.6625060971075287E9, 0.0, 2022-09-06 19:14:57.107
250.0, -8771.226855662688, -3896.847831827144, -29948.87887822138, -25904.107201589013, -19528.763834090692, -8322.984972355958, 70978.34449748331, -7957.891578422974, -15183.294139301079, -6647.74407717515, -22758.41209392692, -11325.092473637162, 10573.291548882908, -12719.796624159411, -9209.432805708982, -16084.784696672523, 0.298, 0.996, 0.11800000000000001, 192.0, 0.0, 0.0, 0.0, 0.0, 0.0, 0.0, 0.0, 0.0, 0.0, 1.6625060971075344E9, 0.0, 2022-09-06 19:14:57.107
252.0, -8078.479239759356, -3471.2706173980973, -29455.151194948103, -25707.434202126766, -19089.037965421434, -8021.526994887233, 66840.12017728332, -7618.1674144467615, -14424.161842365485, -5771.823915460577, -21894.76303991831, -10496.714472379026, 11289.240275530849, -11688.911818136194, -8638.971583720635, -15416.176964780923, 0.256, 1.014, 0.12, 192.0, 4.0, 0.0, 15.5, 88.0, 1.5, 96.0, 0.0, 0.0, 0.0, 1.6625060971075416E9, 0.0, 2022-09-06 19:14:57.107
254.0, -8794.78559431858, -3975.5706757987355, -30035.044853096588, -26031.422738006444, -19618.46138458984, -8437.448255711586, 71602.4499061644, -8061.715431417875, -15092.680167279264, -6609.522594156575, -22696.900093185915, -11269.056650287706, 10664.39725928274, -12716.46621423557, -9133.727447238856, -16012.74502429307, 0.256, 1.014, 0.12, 192.0, 0.0, 0.0, 0.0, 0.0, 0.0, 0.0, 0.0, 0.0, 0.0, 1.6625060971075475E9, 0.0, 2022-09-06 19:14:57.107
0.0, -7973.783668730697, -3329.6052610403613, -29363.19611825897, -25549.385017083292, -18965.566929050317, -7875.74891754972, 65727.3609313203, -7458.330089846861, -14453.777903768767, -5815.789796804166, -21934.727959004398, -10550.693935238593, 11220.978047964341, -11729.524937811488, -8712.039436345034, -15493.06696570718, 0.256, 1.014, 0.12, 192.0, 0.0, 0.0, 0.0, 0.0, 0.0, 0.0, 0.0, 0.0, 0.0, 1.6625060971075532E9, 0.0, 2022-09-06 19:14:57.107
2.0, -8801.222896721709, -4038.937871329531, -30113.410069156896, -26132.20675375542, -19673.42432420544, -8517.333390394853, 72172.50879675255, -8122.6239350585865, -14945.739799230076, -6502.435386471198, -22579.508731306643, -11144.356267971549, 10803.246295839108, -12607.88143967169, -8989.402233290939, -15883.864865763768, 0.256, 1.014, 0.12, 192.0, 0.0, 0.0, 0.0, 0.0, 0.0, 0.0, 0.0, 0.0, 0.0, 1.6625060971075585E9, 0.0, 2022-09-06 19:14:57.107
4.0, -7941.7759706706975, -3251.0612310244123, -29357.921106567515, -25441.046111708416, -18909.531105700866, -7789.515887441145, 64903.25211325313, -7388.190315746107, -14539.563898988235, -5905.956733936874, -22019.910457123573, -10634.62473566827, 11130.028799775697, -11792.3333397309, -8805.201507234753, -15599.438917569985, 0.256, 1.014, 0.12, 192.0, 0.0, 0.0, 0.0, 0.0, 0.0, 0.0, 0.0, 0.0, 0.0, 1.662506097107564E9, 0.0, 2022-09-06 19:14:57.107
6.0, -8817.852594596457, -4115.4478926000465, -30245.195954465387, -26261.802168107293, -19763.39009563805, -8633.361295862353, 72641.38134019152, -8238.428323081533, -14847.973268982563, -6428.093484412848, -22499.288320456544, -11047.640269713434, 10883.220837500196, -12536.668781837081, -8904.219735171764, -15800.001120567456, 0.248, 0.962, 0.11, 192.0, 3.5, 96.0, 15.0, 8.0, 1.5, 56.0, 0.0, 0.0, 0.0, 1.6625060971075697E9, 0.0, 2022-09-06 19:14:57.107
8.0, -7922.4640634613115, -3192.7455297405163, -29360.33509496869, -25341.200869226563, -18864.35823015669, -7700.086557875462, 64384.959862823474, -7320.866861446722, -14635.22936525695, -6032.087627898172, -22127.869382842706, -10746.070533522432, 11008.770586105657, -11927.270821007589, -8926.258555204697, -15728.20731737701, 0.248, 0.962, 0.11, 192.0, 0.0, 0.0, 0.0, 0.0, 0.0, 0.0, 0.0, 0.0, 0.0, 1.662506097107575E9, 0.0, 2022-09-06 19:14:57.107
10.0, -8781.285140667575, -4136.6373463436785, -30264.261992485764, -26315.558113522307, -19788.49110466136, -8670.733412591626, 72850.66072352657, -8280.628416613152, -14690.90756069512, -6309.495128332988, -22356.5277286205, -10905.170250555308, 11022.919240345866, -12427.435806683996, -8786.761318059125, -15658.33576420972, 0.248, 0.962, 0.11, 192.0, 0.0, 0.0, 0.0, 0.0, 0.0, 0.0, 0.0, 0.0, 0.0, 1.6625060971075804E9, 0.0, 2022-09-06 19:14:57.107
12.0, -7938.423209002401, -3175.8252591878486, -29363.509042681344, -25263.908536900108, -18832.596401285697, -7643.290775214527, 64167.0974096176, -7307.165242095619, -14733.934668771586, -6153.3458415682135, -22226.954666013084, -10842.71947654718, 10910.10998607993, -12035.341505448998, -9020.001771450254, -15812.786318395893, 0.248, 0.962, 0.11, 192.0, 0.0, 0.0, 0.0, 0.0, 0.0, 0.0, 0.0, 0.0, 0.0, 1.662506097107586E9, 0.0, 2022-09-06 19:14:57.107
14.0, -8747.332840839963, -4177.473983463524, -30279.841158371113, -26367.056532747334, -19807.177163025997, -8701.779985640047, 72792.56853968723, -8344.464998777508, -14571.593948792692, -6204.84426079324, -22230.866221292763, -10778.9946531051, 11140.578823158601, -12279.534313623228, -8685.485563932129, -15547.761684389316, 0.248, 0.962, 0.11, 192.0, 0.0, 0.0, 0.0, 0.0, 0.0, 0.0, 0.0, 0.0, 0.0, 1.6625060971075916E9, 0.0, 2022-09-06 19:14:57.107
16.0, -7998.884677754007, -3210.559870071396, -29395.583795974708, -25231.118527784172, -18836.329142609735, -7637.971060034163, 64281.985376117875, -7288.233314541974, -14857.338649909336, -6305.069482930838, -22361.91449903423, -10978.372213646438, 10775.485429225617, -12191.267274769221, -9124.250307589808, -15935.586802433349, 0.274, 0.934, 0.11, 192.0, 4.0, 72.0, 14.5, 24.0, 1.5, 56.0, 0.0, 0.0, 0.0, 1.662506097107597E9, 0.0, 2022-09-06 19:14:57.107
18.0, -8676.790735339015, -4161.738355366988, -30245.933562032413, -26353.82430002979, -19751.253098398818, -8672.275682959042, 72472.98329746525, -8265.719803061462, -14449.821645000178, -6075.852343541664, -22104.265940697904, -10652.126151576776, 11241.564004607679, -12152.732867328272, -8580.231199292088, -15440.406255770476, 0.274, 0.934, 0.11, 192.0, 0.0, 0.0, 0.0, 0.0, 0.0, 0.0, 0.0, 0.0, 0.0, 1.6625060971076028E9, 0.0, 2022-09-06 19:14:57.107
20.0, -8076.758155436297, -3257.945568316647, -29480.296907460324, -25226.826992848753, -18889.325128713266, -7647.671717127767, 64716.30212262895, -7279.739651648957, -14956.736857502086, -6423.958411688615, -22473.15913118829, -11087.448726588336, 10691.68873926267, -12314.492441951328, -9203.375482961594, -16016.343655150373, 0.274, 0.934, 0.11, 192.0, 0.0, 0.0, 0.0, 0.0, 0.0, 0.0, 0.0, 0.0, 0.0, 1.6625060971076083E9, 0.0, 2022-09-06 19:14:57.107
22.0, -8615.166975875733, -4137.665526588622, -30238.713948573346, -26334.601799798227, -19725.414481808482, -8664.005537510579, 71916.53661925037, -8267.44088738452, -14359.632356123015, -5971.5591039132005, -22006.834686617218, -10558.159417886665, 11327.238241104871, -12023.852708798971, -8531.862024290804, -15367.271347912712, 0.274, 0.934, 0.11, 192.0, 0.0, 0.0, 0.0, 0.0, 0.0, 0.0, 0.0, 0.0, 0.0, 1.6625060971076136E9, 0.0, 2022-09-06 19:14:57.107
24.0, -8184.582970688698, -3358.7519358100817, -29600.415182163142, -25274.749132960933, -18966.639812784175, -7735.782293770587, 65453.19443383151, -7382.960007543566, -15070.753105968608, -6563.500352323098, -22608.3871851429, -11217.826451996143, 10567.323633113341, -12505.33163611074, -9312.608458114679, -16123.073234924464, 0.274, 0.934, 0.11, 192.0, 0.0, 0.0, 0.0, 0.0, 0.0, 0.0, 0.0, 0.0, 0.0, 1.6625060971076193E9, 0.0, 2022-09-06 19:14:57.107
26.0, -8507.073939689868, -4058.6521099391116, -30155.140776054955, -26257.890612827614, -19630.106643451054, -8584.187458060678, 71160.15358688279, -8210.510994256854, -14267.409058500418, -5865.947111361875, -21905.491877256856, -10467.16546620911, 11384.861038310652, -11892.491506635131, -8485.280988845943, -15296.796297645129, 0.29300000000000004, 0.924, 0.10700000000000001, 192.0, 4.5, 96.0, 14.0, 72.0, 1.5, 32.0, 0.0, 0.0, 0.0, 1.6625060971076248E9, 0.0, 2022-09-06 19:14:57.107
28.0, -8292.83246908575, -3456.2278933796756, -29697.466456588085, -25353.471976932524, -19072.14004661322, -7823.73640820222, 66462.24158552189, -7530.190948270673, -15131.795720076052, -6644.614832951407, -22689.009927393192, -11292.637740688055, 10510.84077487478, -12594.783317420879, -9343.923252096565, -16176.069221027998, 0.29300000000000004, 0.924, 0.10700000000000001, 192.0, 0.0, 0.0, 0.0, 0.0, 0.0, 0.0, 0.0, 0.0, 0.0, 1.6625060971076314E9, 0.0, 2022-09-06 19:14:57.107
30.0, -8376.852676493249, -3935.9186811350205, -30031.60268445047, -26147.584753940675, -19520.448985153318, -8483.58225626734, 70283.36170713445, -8133.620993330597, -14227.175918480865, -5783.692691766345, -21830.65823682049, -10393.516468228874, 11423.283687029325, -11774.004909277548, -8473.702785218095, -15281.060669548593, 0.29300000000000004, 0.924, 0.10700000000000001, 192.0, 0.0, 0.0, 0.0, 0.0, 0.0, 0.0, 0.0, 0.0, 0.0, 1.6625060971076367E9, 0.0, 2022-09-06 19:14:57.107
32.0, -8405.66407509614, -3572.300502336085, -29810.09689689838, -25470.95274578962, -19190.783106181992, -7954.628223732499, 67713.22401919651, -7665.75427839211, -15171.805342651052, -6704.159880180345, -22737.803785539127, -11331.842700462665, 10482.632873372182, -12681.999824285487, -9370.85710416521, -16208.68041618829, 0.29300000000000004, 0.924, 0.10700000000000001, 192.0, 0.0, 0.0, 0.0, 0.0, 0.0, 0.0, 0.0, 0.0, 0.0, 1.6625060971076424E9, 0.0, 2022-09-06 19:14:57.107
34.0, -8268.916102518571, -3821.7683222017677, -29928.538790767052, -26032.406214762475, -19411.417175700328, -8352.042240147859, 69387.32497541011, -7972.733136741297, -14213.071967729566, -5740.822045901066, -21786.22296884334, -10362.626357391639, 11428.044608598306, -11705.273295077479, -8522.87662301977, -15287.520323696177, 0.29300000000000004, 0.924, 0.10700000000000001, 192.0, 0.0, 0.0, 0.0, 0.0, 0.0, 0.0, 0.0, 0.0, 0.0, 1.6625060971076477E9, 0.0, 2022-09-06 19:14:57.107
36.0, -8517.646314817228, -3698.9007829309444, -29952.633971289873, -25603.945625298697, -19304.57583720396, -8072.511323989788, 69174.93869959578, -7777.267131479637, -15175.560435719543, -6736.301688707076, -22764.715285863316, -11354.261500151337, 10479.593036126262, -12752.363115830794, -9363.99511861743, -16188.63090141188, 0.3105, 0.905, 0.0985, 192.0, 5.0, 32.0, 13.5, 88.0, 1.0, 104.0, 0.0, 0.0, 0.0, 1.6625060971076531E9, 0.0, 2022-09-06 19:14:57.107
38.0, -8155.27983370779, -3681.019387366699, -29833.007434965068, -25885.59995718002, -19264.923842540247, -8224.413779308055, 68563.21615734293, -7879.03462398465, -14207.215810682275, -5717.308010734083, -21766.911061633953, -10355.160874743566, 11410.319675245248, -11669.331689993345, -8541.629736617773, -15324.98184740327, 0.3105, 0.905, 0.0985, 192.0, 0.0, 0.0, 0.0, 0.0, 0.0, 0.0, 0.0, 0.0, 0.0, 1.6625060971076586E9, 0.0, 2022-09-06 19:14:57.107
40.0, -8642.90549074477, -3838.71094449889, -30109.632624343947, -25760.98898184168, -19459.451074534783, -8201.235020307902, 70729.23430552892, -7827.938536159818, -15158.103723299948, -6733.798293328082, -22768.2245097428, -11341.521005811812, 10511.310161508341, -12768.679889283168, -9322.264411719372, -16157.740790574646, 0.3105, 0.905, 0.0985, 192.0, 0.0, 0.0, 0.0, 0.0, 0.0, 0.0, 0.0, 0.0, 0.0, 1.662506097107664E9, 0.0, 2022-09-06 19:14:57.107
42.0, -8069.5608937216875, -3557.280130062119, -29744.293361221953, -25738.413719941822, -19159.334201733374, -8073.9641873793835, 67833.90108751072, -7692.33050254947, -14263.989241598754, -5740.486769734236, -21803.232646373828, -10393.851744395703, 11347.399514603558, -11649.148064750203, -8631.908432472757, -15375.005051494249, 0.3105, 0.905, 0.0985, 192.0, 0.0, 0.0, 0.0, 0.0, 0.0, 0.0, 0.0, 0.0, 0.0, 1.6625060975240347E9, 0.0, 2022-09-06 19:14:57.524
44.0, -8734.234718589154, -3963.746602981878, -30230.443803124883, -25914.523114505188, -19578.65292771494, -8367.956682200036, 72181.85182593488, -8035.899166571995, -15114.763690801108, -6705.478633103208, -22740.776567551682, -11299.589133213656, 10556.572444030338, -12775.318357386393, -9276.756260008367, -16103.38134805934, 0.3105, 0.905, 0.0985, 192.0, 0.0, 0.0, 0.0, 0.0, 0.0, 0.0, 0.0, 0.0, 0.0, 1.6625060975242023E9, 0.0, 2022-09-06 19:14:57.524
46.0, -8001.946866744383, -3449.4329630652624, -29648.784357164426, -25597.664785106754, -19055.95738362758, -7950.649613219454, 67185.09700120652, -7599.5037078265805, -14333.324352899117, -5796.835517506065, -21856.56390864419, -10454.670841058594, 11245.766132565277, -11691.415213515189, -8732.1113028659, -15464.568491526663, 0.32925000000000004, 0.8895, 0.08125, 192.0, 5.0, 112.0, 13.5, 40.0, 1.0, 0.0, 0.0, 0.0, 0.0, 1.6625060975242133E9, 0.0, 2022-09-06 19:14:57.524
48.0, -8808.956600303245, -4083.887229429153, -30326.310435093696, -26053.72977897284, -19702.28042629724, -8501.217782642578, 73462.20445182377, -8185.387633489089, -15039.751236409098, -6635.092989813446, -22678.951642388303, -11229.203489923893, 10635.63056416876, -12716.823842146856, -9196.647607880546, -16010.621608569814, 0.32925000000000004, 0.8895, 0.08125, 192.0, 0.0, 0.0, 0.0, 0.0, 0.0, 0.0, 0.0, 0.0, 0.0, 1.6625060975242186E9, 0.0, 2022-09-06 19:14:57.524
50.0, -7940.814845659119, -3341.2058164126656, -29558.103329909245, -25441.761367530988, -18949.116045131213, -7818.5955069775, 66710.07772804234, -7490.427194884682, -14437.014095427287, -5861.521465959724, -21942.595773052668, -10547.542339270394, 11156.49326521078, -11744.187682174168, -8831.665972669838, -15559.026963594792, 0.32925000000000004, 0.8895, 0.08125, 192.0, 0.0, 0.0, 0.0, 0.0, 0.0, 0.0, 0.0, 0.0, 0.0, 1.662506097524224E9, 0.0, 2022-09-06 19:14:57.524
52.0, -8865.059478886065, -4183.330140510814, -30422.422936251514, -26191.774152728816, -19780.779752824277, -8619.637324766794, 74516.69269999179, -8320.705094421517, -14937.357895059336, -6534.174863597735, -22594.842028002982, -11139.01420104673, 10743.678896865715, -12658.664603074147, -9085.8947141045, -15899.600493860306, 0.32925000000000004, 0.8895, 0.08125, 192.0, 0.0, 0.0, 0.0, 0.0, 0.0, 0.0, 0.0, 0.0, 0.0, 1.6625060975242293E9, 0.0, 2022-09-06 19:14:57.524
54.0, -7914.886822090963, -3259.912521828714, -29508.638919429653, -25320.77137479441, -18871.30962268229, -7713.855232459931, 66466.33195475722, -7431.887976156232, -14567.794152235288, -5970.553275412712, -22066.98323094645, -10683.440945558661, 11024.908545602388, -11872.263177903078, -8954.131180540464, -15694.947921627514, 0.32925000000000004, 0.8895, 0.08125, 192.0, 0.0, 0.0, 0.0, 0.0, 0.0, 0.0, 0.0, 0.0, 0.0, 1.6625060975242345E9, 0.0, 2022-09-06 19:14:57.524
56.0, -8854.643565969893, -4224.3902950752135, -30447.903924930564, -26265.467854197963, -19814.553238696248, -8691.38642446833, 75255.99899959553, -8444.33259300382, -14809.327102819338, -6380.171344300669, -22463.033790950038, -11004.747272103701, 10877.409383941816, -12512.059511191788, -8944.452875191317, -15762.226672437988, 0.33862500000000006, 0.8907499999999999, 0.059625, 192.0, 5.0, 112.0, 13.5, 112.0, 0.5, 24.0, 0.0, 0.0, 0.0, 1.66250609752424E9, 0.0, 2022-09-06 19:14:57.524
246.0, -10051.825350740595, -4196.718835439544, -30454.587096522704, -25245.177775046563, -19120.88920127025, -8009.904087770473, 53471.94414996435, -7307.0087798844315, -15338.41524582091, -6213.404978919623, -22639.970200058247, -11404.35175947568, 10288.150344866555, -12548.694020354036, -9597.593199919844, -16356.827778438066, 0.322, 0.91, -0.012, 192.0, 5.0, 8.0, 14.0, 56.0, 127.5, 80.0, 0.0, 0.0, 0.0, 1.662506097524325E9, 0.0, 2022-09-06 19:14:57.524
248.0, -10330.28338316481, -4837.76686641775, -30926.74534639661, -26178.72073396692, -19701.788687919223, -8804.106271756444, 58562.10691477143, -8070.276149544257, -14497.29675022325, -5465.113278044853, -21887.923406114987, -10596.515011371972, 11202.627265766534, -11901.968646284182, -8735.329954067463, -15487.501381337808, 0.322, 0.91, -0.012, 192.0, 0.0, 0.0, 0.0, 0.0, 0.0, 0.0, 0.0, 0.0, 0.0, 1.6625060975243337E9, 0.0, 2022-09-06 19:14:57.524
250.0, -10177.48685806833, -4306.644714670743, -30554.18646981555, -25314.91521774712, -19237.00651371557, -8086.369405552078, 54553.12038101201, -7382.825897076834, -15401.514220418243, -6282.270703586424, -22705.55021829012, -11456.07369614526, 10263.228149798888, -12637.676315030612, -9615.273429783992, -16371.848150712032, 0.322, 0.91, -0.012, 192.0, 0.0, 0.0, 0.0, 0.0, 0.0, 0.0, 0.0, 0.0, 0.0, 1.6625060975243392E9, 0.0, 2022-09-06 19:14:57.524
252.0, -10236.517815174797, -4754.3278043660885, -30845.988493679586, -26100.713145817896, -19605.74324199477, -8722.96943938368, 57442.820959427474, -7970.944997184873, -14475.10146797913, -5424.656620580748, -21843.286972437738, -10556.125409141232, 11148.670154651423, -11821.457662756166, -8740.91789018129, -15465.194340371412, 0.322, 0.91, -0.012, 192.0, 0.0, 0.0, 0.0, 0.0, 0.0, 0.0, 0.0, 0.0, 0.0, 1.6625060975243444E9, 0.0, 2022-09-06 19:14:57.524
254.0, -10282.428298285997, -4425.0866085394155, -30667.17453803713, -25444.823556521365, -19343.333762089464, -8220.01048565036, 55762.4615147664, -7523.798349356455, -15425.117662563047, -6368.034347061437, -22760.960192794824, -11513.22710671748, 10224.179652235467, -12755.022973420975, -9629.913822402219, -16412.01423549822, 0.322, 0.91, -0.012, 192.0, 0.0, 0.0, 0.0, 0.0, 0.0, 0.0, 0.0, 0.0, 0.0, 1.6625060975243497E9, 0.0, 2022-09-06 19:14:57.524
0.0, -10097.892296062982, -4616.842224221495, -30707.430029801137, -25962.199385428357, -19494.453906351795, -8590.513001741529, 56234.798578595946, -7806.838489394008, -14443.652563530513, -5390.279637608485, -21790.26863458975, -10525.548222726373, 11156.515616955236, -11749.887377010273, -8762.241454391653, -15475.140866654023, 0.326, 0.912, -0.02, 192.0, 5.0, 24.0, 14.0, 64.0, 127.5, 48.0, 0.0, 0.0, 0.0, 1.6625060975243547E9, 0.0, 2022-09-06 19:14:57.524
2.0, -10394.991683362923, -4554.033822302083, -30785.57172841689, -25597.59772987339, -19480.417010833862, -8363.575740286797, 57018.04840779882, -7662.043888812529, -15406.655121642963, -6395.392882274733, -22767.241032986767, -11520.469071921001, 10253.706306660928, -12807.482517657581, -9597.257923753015, -16381.839380483554, 0.326, 0.912, -0.02, 192.0, 0.0, 0.0, 0.0, 0.0, 0.0, 0.0, 0.0, 0.0, 0.0, 1.6625060975243604E9, 0.0, 2022-09-06 19:14:57.524
4.0, -9985.530076686153, -4493.79587099503, -30589.323412099293, -25848.40665440639, -19371.720477547704, -8468.96421539357, 55026.53032857541, -7714.034046415573, -14453.15205492402, -5393.230067876586, -21782.06554437465, -10542.84847293478, 11153.8334076206, -11735.314039625411, -8798.428928664796, -15522.16893698799, 0.326, 0.912, -0.02, 192.0, 0.0, 0.0, 0.0, 0.0, 0.0, 0.0, 0.0, 0.0, 0.0, 1.662506097524366E9, 0.0, 2022-09-06 19:14:57.524
6.0, -10505.811632372337, -4702.225888040768, -30919.369270726358, -25761.39131324188, -19618.863715990035, -8528.911594022704, 58216.48189025902, -7805.5420882156, -15362.957461232838, -6403.17128934518, -22753.338247935564, -11511.908353794617, 10298.521554293819, -12855.73993393659, -9560.399897146213, -16352.111560357996, 0.326, 0.912, -0.02, 192.0, 0.0, 0.0, 0.0, 0.0, 0.0, 0.0, 0.0, 0.0, 0.0, 1.6625060975243711E9, 0.0, 2022-09-06 19:14:57.524
8.0, -9898.112404121448, -4372.470602091623, -30473.854300243176, -25687.071762927982, -19206.965769167637, -8332.395056771644, 53904.42805343009, -7577.174315115728, -14510.01489281832, -5409.50213784005, -21822.008111716284, -10587.753127545491, 11085.973511454285, -11747.339278142366, -8865.841789942002, -15601.472926315419, 0.326, 0.912, -0.02, 192.0, 0.0, 0.0, 0.0, 0.0, 0.0, 0.0, 0.0, 0.0, 0.0, 1.6625060975243764E9, 0.0, 2022-09-06 19:14:57.524
10.0, -10614.463462169584, -4845.120590343546, -31024.020138266103, -25908.37638477998, -19728.767243476777, -8666.1960084672, 59295.49000209451, -7928.767255397708, -15321.763196201706, -6364.480419693044, -22729.488936601752, -11464.835579971741, 10370.181247017534, -12834.081093559396, -9463.594491910279, -16288.140867726908, 0.32, 0.916, -0.024, 192.0, 5.0, 0.0, 14.0, 80.0, 127.5, 32.0, 0.0, 0.0, 0.0, 1.6625060975243819E9, 0.0, 2022-09-06 19:14:57.524
12.0, -9837.4721214142, -4270.747813075521, -30388.515339912814, -25537.046854143962, -19142.88331781427, -8188.986264346393, 52953.450733834594, -7450.261110098495, -14597.209047938473, -5477.853772384378, -21889.420972993492, -10660.172779580687, 10970.526751342626, -11752.077847966892, -8953.125352039975, -15676.708898151983, 0.32, 0.916, -0.024, 192.0, 0.0, 0.0, 0.0, 0.0, 0.0, 0.0, 0.0, 0.0, 0.0, 1.6625060975243871E9, 0.0, 2022-09-06 19:14:57.524
14.0, -10687.106631649332, -4953.995937585347, -31119.97617721274, -26053.215688850367, -19831.07117784872, -8785.21904769171, 60185.447059327016, -8077.696928703419, -15252.58454711253, -6296.665227015642, -22673.363706274475, -11401.289570485304, 10444.67961128707, -12765.170665403684, -9380.401299047626, -16183.221779253696, 0.32, 0.916, -0.024, 192.0, 0.0, 0.0, 0.0, 0.0, 0.0, 0.0, 0.0, 0.0, 0.0, 1.6625060975243924E9, 0.0, 2022-09-06 19:14:57.524
16.0, -9798.93771397325, -4188.359283013258, -30321.817734458178, -25422.918846955163, -19049.073046335347, -8057.714469160375, 52226.43789368128, -7315.97182941101, -14711.649979549646, -5570.568808384992, -21994.138895766606, -10775.999519348088, 10882.05854678852, -11842.669468244252, -9076.328167477628, -15783.147905248155, 0.32, 0.916, -0.024, 192.0, 0.0, 0.0, 0.0, 0.0, 0.0, 0.0, 0.0, 0.0, 0.0, 1.6625060975243976E9, 0.0, 2022-09-06 19:14:57.524
18.0, -10703.848088246357, -5023.5769180747175, -31168.36770395848, -26171.724637952404, -19895.22068443545, -8874.223694112741, 60787.37953750844, -8147.501426637344, -15121.022179248594, -6188.527487340866, -22567.148216622856, -11290.08964182015, 10568.463572080562, -12690.225266245041, -9263.032288912807, -16052.531129423516, 0.32, 0.916, -0.024, 192.0, 0.0, 0.0, 0.0, 0.0, 0.0, 0.0, 0.0, 0.0, 0.0, 1.662506097524403E9, 0.0, 2022-09-06 19:14:57.524
20.0, -9778.329405585457, -4123.29335490386, -30265.871318086545, -25322.425403884103, -18976.251062899955, -7999.599933576576, 51751.508027494914, -7263.869913085689, -14811.606980753779, -5687.736652819712, -22096.57694060528, -10888.607607913926, 10753.491312681594, -11957.535083000075, -9192.400776434039, -15912.229229477553, 0.318, 0.918, -0.024, 192.0, 4.5, 120.0, 14.0, 88.0, 127.5, 32.0, 0.0, 0.0, 0.0, 1.6625060975244083E9, 0.0, 2022-09-06 19:14:57.524
22.0, -10701.299989378453, -5073.913046588069, -31169.462939436788, -26263.925583830547, -19939.23126926795, -8966.961081857811, 61109.75874778733, -8227.274802598335, -14995.114802731849, -6078.176924965015, -22439.855031949883, -11163.444657736381, 10669.426401785184, -12568.520017685893, -9150.133627669053, -15964.889939414257, 0.318, 0.918, -0.024, 192.0, 0.0, 0.0, 0.0, 0.0, 0.0, 0.0, 0.0, 0.0, 0.0, 1.6625060975244136E9, 0.0, 2022-09-06 19:14:57.524
24.0, -9777.591798018431, -4068.7103949439997, -30216.473962840315, -25230.000940561407, -18951.88766144367, -7931.42711298789, 51595.42579596351, -7192.791365717812, -14927.679589710187, -5809.017218234208, -22197.807991243364, -11003.517926158658, 10664.173741838187, -12064.309366263076, -9306.305266178282, -16054.475731191127, 0.318, 0.918, -0.024, 192.0, 0.0, 0.0, 0.0, 0.0, 0.0, 0.0, 0.0, 0.0, 0.0, 1.66250609752442E9, 0.0, 2022-09-06 19:14:57.524
26.0, -10671.460410530617, -5091.503869474396, -31161.997456788715, -26322.196581625532, -19922.981551048942, -9005.853117210045, 61127.394274162565, -8256.957919234983, -14870.70499309361, -5946.189873956428, -22306.37041406279, -11033.603374195502, 10813.639857010825, -12439.84102485669, -9042.778199050212, -15855.791074727902, 0.318, 0.918, -0.024, 192.0, 0.0, 0.0, 0.0, 0.0, 0.0, 0.0, 0.0, 0.0, 0.0, 1.6625060975244253E9, 0.0, 2022-09-06 19:14:57.524
28.0, -9837.762694092118, -4081.5626480058013, -30244.61480910955, -25199.17788495754, -18988.678632817107, -7938.199691557848, 51771.356376571224, -7199.943923943511, -15058.839626173929, -5934.924594750953, -22328.386882351268, -11131.325200954105, 10534.064237363844, -12211.473251756817, -9411.514927329414, -16163.842816810944, 0.318, 0.918, -0.024, 192.0, 0.0, 0.0, 0.0, 0.0, 0.0, 0.0, 0.0, 0.0, 0.0, 1.6625060975244308E9, 0.0, 2022-09-06 19:14:57.524
30.0, -10636.43522696915, -5092.085014830233, -31142.39497690141, -26358.9204977656, -19926.22255399496, -9027.891937242977, 60843.41536085789, -8281.142506735625, -14763.39426796368, -5841.717820372322, -22197.740936009995, -10930.137149111886, 10919.475367006704, -12319.409825731496, -8952.030116561666, -15743.965297218001, 0.314, 0.918, -0.024, 192.0, 4.5, 104.0, 14.0, 88.0, 127.5, 32.0, 0.0, 0.0, 0.0, 1.662506097524436E9, 0.0, 2022-09-06 19:14:57.524
32.0, -9920.352389854479, -4121.14758743615, -30290.972327109856, -25188.627861574634, -19020.75338611047, -7927.850833875041, 52259.9878621087, -7196.904086697589, -15198.895656930883, -6095.007788539861, -22471.08041895395, -11279.494914948335, 10383.279369268343, -12375.222131636398, -9511.583687255823, -16248.421817829827, 0.314, 0.918, -0.024, 192.0, 0.0, 0.0, 0.0, 0.0, 0.0, 0.0, 0.0, 0.0, 0.0, 1.6625060975244415E9, 0.0, 2022-09-06 19:14:57.524
34.0, -10552.683240495115, -5048.186188720011, -31074.892708646385, -26330.489078818453, -19836.21207907344, -8960.43437247686, 60255.58683342777, -8191.601418447664, -14655.010659099897, -5714.625801399446, -22073.912271727597, -10810.063577897976, 11005.75310060419, -12182.751260131748, -8846.507530988161, -15598.120164647124, 0.314, 0.918, -0.024, 192.0, 0.0, 0.0, 0.0, 0.0, 0.0, 0.0, 0.0, 0.0, 0.0, 1.6625060975244467E9, 0.0, 2022-09-06 19:14:57.524
36.0, -10031.485263286266, -4205.0783878658285, -30367.124720469084, -25225.03885329233, -19070.173093101155, -7963.412459303434, 53024.88690911376, -7232.197491192519, -15294.65053017742, -6204.106653226216, -22585.677812776306, -11386.626826122621, 10336.988906501401, -12498.0002639294, -9561.249263435515, -16300.099051010497, 0.314, 0.918, -0.024, 192.0, 0.0, 0.0, 0.0, 0.0, 0.0, 0.0, 0.0, 0.0, 0.0, 1.662506097524452E9, 0.0, 2022-09-06 19:14:57.524
38.0, -10461.510474861918, -4971.810277916226, -30993.688821040254, -26279.370639249166, -19780.28801444626, -8882.024452927644, 59405.21471562561, -8105.636609272553, -14579.975852963431, -5616.412236262827, -21981.8901398051, -10716.275658163508, 11091.226171401284, -12044.282203231121, -8781.821582534503, -15518.704416597417, 0.314, 0.918, -0.024, 192.0, 0.0, 0.0, 0.0, 0.0, 0.0, 0.0, 0.0, 0.0, 0.0, 1.6625060975244572E9, 0.0, 2022-09-06 19:14:57.524
40.0, -10139.66770644995, -4291.557287163411, -30485.27604165984, -25307.047403698853, -19161.703486645638, -8044.884567843029, 54010.487080870524, -7328.35469583925, -15388.594912123075, -6313.160814423659, -22686.506532014195, -11480.41474585709, 10227.55476564822, -12639.240937142486, -9618.514432730011, -16364.539130275147, 0.315, 0.92, -0.022, 192.0, 4.5, 112.0, 14.0, 104.0, 127.5, 48.0, 0.0, 0.0, 0.0, 1.6625060975244627E9, 0.0, 2022-09-06 19:14:57.524
42.0, -10329.657534320062, -4858.978671905837, -30906.27114847555, -26199.79842898827, -19672.46319919386, -8796.909010041834, 58349.96650814611, -8004.91964875694, -14497.073232778697, -5511.113168133876, -21877.8651211101, -10629.327372232363, 11141.830520848098, -11930.154196042324, -8752.809018231514, -15481.712279523885, 0.315, 0.92, -0.022, 192.0, 0.0, 0.0, 0.0, 0.0, 0.0, 0.0, 0.0, 0.0, 0.0, 1.662506097524468E9, 0.0, 2022-09-06 19:14:57.524
44.0, -10242.753951877827, -4392.497765123578, -30592.832635978775, -25398.868369921252, -19261.61578436086, -8144.774513813796, 55160.03729820697, -7427.082351098341, -15418.345083993088, -6379.9254751116605, -22738.228468683777, -11531.08615053727, 10215.507175386809, -12728.133824841241, -9650.76799997902, -16407.38742439597, 0.315, 0.92, -0.022, 192.0, 0.0, 0.0, 0.0, 0.0, 0.0, 0.0, 0.0, 0.0, 0.0, 1.6625060975244732E9, 0.0, 2022-09-06 19:14:57.524
46.0, -10218.636419610551, -4743.666022260907, -30787.449274951134, -26080.44011359693, -19525.05344451111, -8690.984093068135, 57174.08593584132, -7912.8975168344405, -14464.417334129494, -5455.74789711808, -21824.757376284288, -10582.947502487601, 11164.852817637066, -11847.788017724517, -8739.085047135955, -15480.460581834386, 0.315, 0.92, -0.022, 192.0, 0.0, 0.0, 0.0, 0.0, 0.0, 0.0, 0.0, 0.0, 0.0, 1.6625060975244787E9, 0.0, 2022-09-06 19:14:57.524
48.0, -10373.511656941373, -4524.775388810085, -30718.18121888414, -25533.53763026448, -19393.558131880538, -8292.720710363474, 56398.8603828979, -7599.347245615393, -15430.549136465686, -6426.573565789887, -22782.775495383205, -11565.016098620426, 10220.558669633707, -12821.318247475416, -9624.348238032846, -16424.35239843755, 0.315, 0.92, -0.022, 192.0, 0.0, 0.0, 0.0, 0.0, 0.0, 0.0, 0.0, 0.0, 0.0, 1.662506097524484E9, 0.0, 2022-09-06 19:14:57.524
50.0, -10110.90101133597, -4620.82083473454, -30677.054009086372, -25952.275210890202, -19444.028370860622, -8566.149600285245, 55967.31525269929, -7796.064948566551, -14467.233653930862, -5437.55357713146, -21813.201524400894, -10586.680243811637, 11156.560320444147, -11773.647281366264, -8784.21321919122, -15524.135890500056, 0.3145, 0.916, -0.016, 192.0, 4.5, 104.0, 14.0, 64.0, 127.5, 88.0, 0.0, 0.0, 0.0, 1.66250609752449E9, 0.0, 2022-09-06 19:14:57.524
52.0, -10508.113862051232, -4670.911094058883, -30851.57642979341, -25686.535321061056, -19530.507270158207, -8427.434674195609, 57676.664909918894, -7706.300342834037, -15434.1924708119, -6456.189627193168, -22805.50721949425, -11579.567084260832, 10224.35846619111, -12868.92746316522, -9602.04119706645, -16403.185296438372, 0.3145, 0.916, -0.016, 192.0, 0.0, 0.0, 0.0, 0.0, 0.0, 0.0, 0.0, 0.0, 0.0, 1.6625060975244951E9, 0.0, 2022-09-06 19:14:57.524
54.0, -10003.478527483765, -4487.31386510299, -30554.454690749015, -25795.030688647115, -19310.96843611818, -8410.849679809771, 54775.20731391994, -7667.117734803884, -14506.885648594576, -5445.533149902004, -21824.198582672907, -10605.09808124281, 11088.298092877638, -11767.388792918777, -8840.003173351666, -15569.867559655615, 0.3145, 0.916, -0.016, 192.0, 0.0, 0.0, 0.0, 0.0, 0.0, 0.0, 0.0, 0.0, 0.0, 1.6625060975245006E9, 0.0, 2022-09-06 19:14:57.524
56.0, -10600.650084096203, -4795.656179863951, -30971.828814962962, -25823.395052360902, -19628.96670448383, -8553.051478034435, 58821.81183359765, -7842.847149711508, -15377.866074784528, -6418.281068596968, -22776.65111740245, -11539.468054708012, 10291.257237345844, -12848.363858266337, -9529.420379331157, -16327.591696690524, 0.3145, 0.916, -0.016, 192.0, 0.0, 0.0, 0.0, 0.0, 0.0, 0.0, 0.0, 0.0, 0.0, 1.6625060975245073E9, 0.0, 2022-09-06 19:14:57.524
58.0, -9905.689645491797, -4352.868122204319, -30453.625971511123, -25644.670503696267, -19184.03287935649, -8254.543930833808, 53684.88921939006, -7510.655523616734, -14559.41224806455, -5465.828533867423, -21865.795179104232, -10654.62954695577, 11015.364350719972, -11750.401467132744, -8921.09530223552, -15625.456348115964, 0.3145, 0.916, -0.016, 192.0, 0.0, 0.0, 0.0, 0.0, 0.0, 0.0, 0.0, 0.0, 0.0, 1.6625060975245125E9, 0.0, 2022-09-06 19:14:57.524
60.0, -10675.930759421679, -4901.469338115375, -31081.732342449708, -25992.396592187477, -19751.23074665436, -8707.636142687339, 59855.110628022034, -7987.708805526353, -15294.292902266134, -6355.897349822206, -22714.02152943868, -11469.93177770755, 10385.469840224963, -12843.11119831934, -9440.527491632402, -16246.03018117311, 0.31625000000000003, 0.916, -0.008, 192.0, 4.5, 120.0, 14.0, 80.0, 0.0, 0.0, 0.0, 0.0, 0.0, 1.662506097524518E9, 0.0, 2022-09-06 19:14:57.524
62.0, -9840.981345293683, -4233.308641112882, -30362.453205877926, -25510.62709219779, -19062.52879649744, -8139.566557355709, 52799.98365640446, -7387.65387387918, -14640.191452526029, -5547.345345895928, -21931.554011291744, -10737.442760162683, 10937.200300359762, -11840.031962398525, -9013.944448702867, -15734.711675013505, 0.31625000000000003, 0.916, -0.008, 192.0, 0.0, 0.0, 0.0, 0.0, 0.0, 0.0, 0.0, 0.0, 0.0, 1.6625060975245235E9, 0.0, 2022-09-06 19:14:57.524
64.0, -10724.881079778801, -4986.204801345444, -31138.50577336619, -26117.141677992546, -19831.562916226736, -8797.490155397672, 60634.33714322295, -8068.26449254328, -15191.117249860437, -6287.188087366591, -22625.016883017648, -11382.469401653934, 10494.144021766666, -12773.306700385416, -9341.464560206481, -16142.921584000778, 0.31625000000000003, 0.916, -0.008, 192.0, 0.0, 0.0, 0.0, 0.0, 0.0, 0.0, 0.0, 0.0, 0.0, 1.6625060975245287E9, 0.0, 2022-09-06 19:14:57.524
66.0, -9821.84825203994, -4172.958931083552, -30296.247338801306, -25396.297919308894, -19006.18004872561, -8055.680460414942, 52169.97738718717, -7311.143852608664, -14749.893814312676, -5653.963166947743, -22030.482832250935, -10843.77000853658, 10791.064595110965, -11910.797585344028, -9134.085075150142, -15842.648248988182, 0.31625000000000003, 0.916, -0.008, 192.0, 0.0, 0.0, 0.0, 0.0, 0.0, 0.0, 0.0, 0.0, 0.0, 1.6625060975245347E9, 0.0, 2022-09-06 19:14:57.524
68.0, -10740.415542175238, -5062.156029004577, -31179.65533490841, -26218.350376886177, -19904.56371361777, -8933.880500063957, 61169.46025722745, -8173.004767060848, -15089.573274799977, -6195.233010677459, -22517.952027076724, -11268.900188076519, 10599.95718001809, -12674.489638148503, -9225.459006483437, -16031.520489635526, 0.31625000000000003, 0.916, -0.008, 192.0, 0.0, 0.0, 0.0, 0.0, 0.0, 0.0, 0.0, 0.0, 0.0, 1.66250609752454E9, 0.0, 2022-09-06 19:14:57.524
70.0, -9807.878411755373, -4113.324476876793, -30267.27947798723, -25286.57320577779, -18967.355068606743, -7979.125735655515, 51833.91890930163, -7245.027392509865, -14879.712746109099, -5766.928883424865, -22126.930609575586, -10947.21388187574, 10700.651788789248, -12017.393054651388, -9242.401628780559, -15961.648936468237, 0.321125, 0.923, -0.002, 192.0, 5.0, 24.0, 14.5, 8.0, 0.0, 16.0, 0.0, 0.0, 0.0, 1.6625060975245454E9, 0.0, 2022-09-06 19:14:57.524
72.0, -10751.79258010299, -5119.197680854521, -31228.449193054345, -26305.16455235059, -19947.032028082853, -8978.718099441303, 61397.20218148258, -8232.080427656225, -14970.43847685319, -6074.5335906188, -22394.726859894618, -11139.640049891479, 10712.006474972544, -12579.450020724538, -9124.652638990003, -15902.260351450486, 0.321125, 0.923, -0.002, 192.0, 0.0, 0.0, 0.0, 0.0, 0.0, 0.0, 0.0, 0.0, 0.0, 1.6625060975245507E9, 0.0, 2022-09-06 19:14:57.524
74.0, -9848.893862830862, -4095.6218952681897, -30278.589460681615, -25220.881428823643, -18955.03925741187, -7930.823615887597, 51822.49716788497, -7199.161612887575, -15019.83583209942, -5912.259925873271, -22273.468646224577, -11095.182430169873, 10568.642386036205, -12150.296527182643, -9365.291519795837, -16077.319214024452, 0.321125, 0.923, -0.002, 192.0, 0.0, 0.0, 0.0, 0.0, 0.0, 0.0, 0.0, 0.0, 0.0, 1.662506097524556E9, 0.0, 2022-09-06 19:14:57.524
76.0, -10701.299989378453, -5109.4523202720075, -31205.65041370993, -26336.568753310294, -19921.439280681527, -9002.098024141553, 61315.3724450317, -8261.718840803962, -14843.480568347046, -5950.816685058676, -22274.720343914076, -11019.7005891443, 10823.42992108225, -12410.426129153506, -9014.078559169599, -15780.443344169063, 0.321125, 0.923, -0.002, 192.0, 0.0, 0.0, 0.0, 0.0, 0.0, 0.0, 0.0, 0.0, 0.0, 1.6625060975245612E9, 0.0, 2022-09-06 19:14:57.524
78.0, -9881.706223691252, -4086.6364939971563, -30276.24252751381, -25160.799939727778, -18942.924611917093, -7887.461231644301, 52096.57425839594, -7176.094612609699, -15116.37301640189, -6029.964212174918, -22385.361478967843, -11203.208411122372, 10468.528922620884, -12266.391487883508, -9444.282584700893, -16166.457970912215, 0.321125, 0.923, -0.002, 192.0, 0.0, 0.0, 0.0, 0.0, 0.0, 0.0, 0.0, 0.0, 0.0, 1.6625060975245664E9, 0.0, 2022-09-06 19:14:57.524
80.0, -10638.826863625869, -5088.128756061645, -31164.277334723156, -26341.55319232383, -19891.152666944585, -8970.850285393035, 60892.365681215015, -8216.791834448795, -14711.91820048311, -5809.285439167672, -22135.893659102163, -10872.804924584023, 10963.284786139106, -12258.300156390687, -8886.383043096428, -15639.38148491162, 0.3215625, 0.9295, 0.007, 192.0, 5.0, 8.0, 14.5, 32.0, 0.0, 64.0, 0.0, 0.0, 0.0, 1.662506097524572E9, 0.0, 2022-09-06 19:14:57.524
82.0, -9974.242445736223, -4149.556654638845, -30359.793348287745, -25194.662832577567, -19019.009950042957, -7922.106435550027, 52694.61753304214, -7203.050816422799, -15246.504872620688, -6172.724804010964, -22522.40002422333, -11332.848528963154, 10346.801322317282, -12443.663173158548, -9551.7050685531, -16269.320698895539, 0.3215625, 0.9295, 0.007, 192.0, 0.0, 0.0, 0.0, 0.0, 0.0, 0.0, 0.0, 0.0, 0.0, 1.6625060975245774E9, 0.0, 2022-09-06 19:14:57.524
84.0, -10546.022420647434, -5027.823749521226, -31112.175418397837, -26343.900125491637, -19817.30250326425, -8955.159360785408, 60205.31776014779, -8198.709273184451, -14603.378129408138, -5700.052464014586, -22023.509087980878, -10766.835304121412, 11020.70641764479, -12109.862221462992, -8845.144074576387, -15571.476885256398, 0.3215625, 0.9295, 0.007, 192.0, 0.0, 0.0, 0.0, 0.0, 0.0, 0.0, 0.0, 0.0, 0.0, 1.6625060975245826E9, 0.0, 2022-09-06 19:14:57.524
86.0, -10073.685356817885, -4218.176510116638, -30447.70275923047, -25268.848272424733, -19079.49377053902, -8001.5892388330985, 53540.51930195324, -7298.403358269139, -15329.27338233869, -6299.81682298384, -22632.169441243346, -11441.120379104661, 10257.55080670724, -12580.500552713938, -9621.263697298014, -16369.724734988778, 0.3215625, 0.9295, 0.007, 192.0, 0.0, 0.0, 0.0, 0.0, 0.0, 0.0, 0.0, 0.0, 0.0, 1.662506097524588E9, 0.0, 2022-09-06 19:14:57.524
88.0, -10435.582451293762, -4944.496446191842, -31023.483696399177, -26283.192787551023, -19766.742857306344, -8879.431650570828, 59272.80298147238, -8085.609446240598, -14520.564916201225, -5614.154710072841, -21931.554011291744, -10686.30196884894, 11111.76742455571, -12016.409577895354, -8794.830297807492, -15523.867669566593, 0.3215625, 0.9295, 0.007, 192.0, 0.0, 0.0, 0.0, 0.0, 0.0, 0.0, 0.0, 0.0, 0.0, 1.6625060975245943E9, 0.0, 2022-09-06 19:14:57.524
90.0, -10183.34301511562, -4314.445473485645, -30547.61505694569, -25340.373854681715, -19160.049457555946, -8076.780507180752, 54614.654733497475, -7374.891027795199, -15389.243112712278, -6402.724254456074, -22719.87768648597, -11527.822795846796, 10214.702512586417, -12738.147406357219, -9665.274282130515, -16417.937447778877, 0.32578125, 0.93075, 0.0205, 192.0, 5.0, 40.0, 14.5, 16.0, 0.5, 8.0, 0.0, 0.0, 0.0, 1.6625060975245996E9, 0.0, 2022-09-06 19:14:57.524
92.0, -10327.847043019181, -4835.889319883504, -30896.7940088265, -26159.14060582407, -19636.99098074329, -8759.313375868009, 58162.70359309955, -8016.0284657512275, -14458.807046271211, -5538.136427180341, -21854.28403070975, -10619.71612211658, 11159.466047223335, -11894.30199793601, -8743.331878582463, -15478.895959722515, 0.32578125, 0.93075, 0.0205, 192.0, 0.0, 0.0, 0.0, 0.0, 0.0, 0.0, 0.0, 0.0, 0.0, 1.6625060980043805E9, 0.0, 2022-09-06 19:14:58.004
94.0, -10318.056978947758, -4435.703687155687, -30662.793596123887, -25419.58843703132, -19322.948971146223, -8211.3380088017, 55838.122169747614, -7486.470936116092, -15425.162366051956, -6458.201284194146, -22781.45674246034, -11574.135610358193, 10199.413919378987, -12780.705127800124, -9648.733991233586, -16412.170697709407, 0.32578125, 0.93075, 0.0205, 192.0, 0.0, 0.0, 0.0, 0.0, 0.0, 0.0, 0.0, 0.0, 0.0, 1.662506098004427E9, 0.0, 2022-09-06 19:14:58.004
96.0, -10218.92699228847, -4715.324010291578, -30792.880748853775, -26022.52674371323, -19506.635607079937, -8651.533264104517, 56972.98729097692, -7851.564330049077, -14452.772075268278, -5481.050071841487, -21821.73989078282, -10579.997072219501, 11154.615718676534, -11782.52092391502, -8741.320221581485, -15454.309040821678, 0.32578125, 0.93075, 0.0205, 192.0, 0.0, 0.0, 0.0, 0.0, 0.0, 0.0, 0.0, 0.0, 0.0, 1.6625060980045345E9, 0.0, 2022-09-06 19:14:58.004
98.0, -10453.061515457812, -4579.045424347571, -30810.85155139584, -25571.267374905037, -19424.157670039855, -8326.628306702174, 57162.910063613665, -7617.005123735085, -15461.126322880546, -6518.506290734565, -22831.859926207057, -11604.064596183849, 10163.62877650604, -12864.434762529703, -9627.276316556492, -16393.551694578135, 0.32578125, 0.93075, 0.0205, 192.0, 0.0, 0.0, 0.0, 0.0, 0.0, 0.0, 0.0, 0.0, 0.0, 1.6625060980045428E9, 0.0, 2022-09-06 19:14:58.004
100.0, -10101.155650753457, -4575.446793490266, -30682.664296944655, -25888.68449791485, -19388.014899255624, -8481.794116710917, 55797.97843670588, -7727.668610533311, -14449.061685688697, -5485.028682354532, -21809.40172784349, -10578.410098363174, 11133.426264932903, -11741.594879817352, -8761.436791591263, -15469.619985773563, 0.343890625, 0.938375, 0.045250000000000005, 192.0, 5.5, 40.0, 14.5, 72.0, 1.0, 24.0, 0.0, 0.0, 0.0, 1.6625060980045505E9, 0.0, 2022-09-06 19:14:58.004
102.0, -10577.940711729612, -4717.894460903938, -30957.4566432782, -25749.90251659185, -19568.482883987774, -8486.845610957815, 58483.42877428875, -7780.39637570338, -15423.374226495533, -6525.278869304522, -22831.36818782904, -11598.878991470217, 10217.027094009769, -12894.631969288823, -9583.243379979538, -16355.151397603919, 0.343890625, 0.938375, 0.045250000000000005, 192.0, 0.0, 0.0, 0.0, 0.0, 0.0, 0.0, 0.0, 0.0, 0.0, 1.6625060980045583E9, 0.0, 2022-09-06 19:14:58.004
104.0, -10017.403664279422, -4460.380013034345, -30576.33704857076, -25763.782949898596, -19272.0987525104, -8355.685574494073, 54711.750711411325, -7605.158699173773, -14486.322043695694, -5513.437749557227, -21842.906992782, -10619.604363394305, 11090.53326732317, -11760.795028304461, -8842.014830352644, -15544.386570976565, 0.343890625, 0.938375, 0.045250000000000005, 192.0, 0.0, 0.0, 0.0, 0.0, 0.0, 0.0, 0.0, 0.0, 0.0, 1.662506098004566E9, 0.0, 2022-09-06 19:14:58.004
106.0, -10669.627567485282, -4848.830979923127, -31056.810147382042, -25908.756364435718, -19689.383469746528, -8624.577060291418, 59691.20528593127, -7895.641970114943, -15345.500748813243, -6512.247802287078, -22791.447972231865, -11546.084171066783, 10314.547755068274, -12893.894361721797, -9493.367015524747, -16288.185571215818, 0.343890625, 0.938375, 0.045250000000000005, 192.0, 0.0, 0.0, 0.0, 0.0, 0.0, 0.0, 0.0, 0.0, 0.0, 1.6625060980045736E9, 0.0, 2022-09-06 19:14:58.004
108.0, -9931.77413127114, -4349.045973902461, -30472.803768253776, -25640.848355394406, -19135.797814821937, -8216.076578626225, 53710.48196679139, -7454.239720611539, -14530.377332017104, -5599.581372687981, -21887.09639157014, -10681.339881579863, 11019.61118216648, -11796.244895010579, -8914.792110299124, -15629.47966211792, 0.343890625, 0.938375, 0.045250000000000005, 192.0, 0.0, 0.0, 0.0, 0.0, 0.0, 0.0, 0.0, 0.0, 0.0, 1.662506098004581E9, 0.0, 2022-09-06 19:14:58.004
110.0, -10760.59916741838, -4996.508955539341, -31177.37545697397, -26099.573206850673, -19795.68836637597, -8785.420213391806, 60720.90544949835, -8037.083809028127, -15248.516529621666, -6492.377101466311, -22732.55112559213, -11490.294216906335, 10391.214238549977, -12861.730201450611, -9408.206869150028, -16223.477271017704, 0.343890625, 0.938375, 0.045250000000000005, 192.0, 0.0, 0.0, 0.0, 0.0, 0.0, 0.0, 0.0, 0.0, 0.0, 1.6625060980045881E9, 0.0, 2022-09-06 19:14:58.004
112.0, -9860.85204611445, -4246.183245919138, -30380.893395053554, -25492.969214078097, -19034.209136272566, -8098.171126624481, 52937.69275399361, -7304.30421880534, -14620.186641238528, -5681.545219605591, -21975.363430424146, -10777.117106570853, 10919.49771875116, -11855.67818351724, -9020.940544717378, -15741.93128847257, 0.378, 0.96, 0.096, 192.0, 5.5, 104.0, 15.0, 0.0, 1.5, 0.0, 0.0, 0.0, 0.0, 1.6625060980045953E9, 0.0, 2022-09-06 19:14:58.004
114.0, -10797.457194025183, -5096.398901510108, -31236.09348965806, -26214.528228584317, -19866.878672466122, -8869.485124288216, 61523.154261488235, -8112.856222731617, -15126.654818851332, -6397.0022078755155, -22635.76807210065, -11381.821201064731, 10524.363580270241, -12764.969499703588, -9280.578408310224, -16097.212266589675, 0.378, 0.96, 0.096, 192.0, 0.0, 0.0, 0.0, 0.0, 0.0, 0.0, 0.0, 0.0, 0.0, 1.662506098004602E9, 0.0, 2022-09-06 19:14:58.004
116.0, -9825.156310219325, -4174.612960173245, -30310.61951048607, -25354.053122288362, -18958.123798146702, -7984.91483746944, 52463.52284711872, -7203.721368756458, -14725.642171578667, -5784.2514853777275, -22075.36513511719, -10871.128543749875, 10786.884818897823, -11952.12596084189, -9112.917973150967, -15841.262440831953, 0.378, 0.96, 0.096, 192.0, 0.0, 0.0, 0.0, 0.0, 0.0, 0.0, 0.0, 0.0, 0.0, 1.6625060980046089E9, 0.0, 2022-09-06 19:14:58.004
118.0, -10792.271589311551, -5144.321041622286, -31264.457853371845, -26282.768104406372, -19929.351798218704, -8934.193424486331, 62053.0470672902, -8171.28368273779, -14982.061383969949, -6270.089002858282, -22510.97828280667, -11239.529995862245, 10632.791892622936, -12657.681126318113, -9146.199720644918, -15950.271898540486, 0.378, 0.96, 0.096, 192.0, 0.0, 0.0, 0.0, 0.0, 0.0, 0.0, 0.0, 0.0, 0.0, 1.6625060980046165E9, 0.0, 2022-09-06 19:14:58.004
120.0, -9830.23015621068, -4128.456607873036, -30294.99564111181, -25254.029065850864, -18889.101611268714, -7925.883880362974, 52331.04405773211, -7162.281234536319, -14836.5515275659, -5916.819681742154, -22193.650566774675, -10991.291521941606, 10677.920064678201, -12045.556252665074, -9237.506596744848, -15941.286497269452, 0.378, 0.96, 0.096, 192.0, 0.0, 0.0, 0.0, 0.0, 0.0, 0.0, 0.0, 0.0, 0.0, 1.6625060980046303E9, 0.0, 2022-09-06 19:14:58.004
122.0, -10790.908132899778, -5195.93121956959, -31310.927130094427, -26376.332506696286, -19966.05336261432, -9035.200957679863, 62339.64113469615, -8271.285387430833, -14869.699164593121, -6168.142696397626, -22403.153467554268, -11132.06280852113, 10759.973318573633, -12544.469540651982, -9042.308812416652, -15827.829042414314, 0.382, 0.962, 0.132, 192.0, 5.5, 120.0, 15.0, 8.0, 2.0, 16.0, 0.0, 0.0, 0.0, 1.6625060980046372E9, 0.0, 2022-09-06 19:14:58.004
124.0, -9829.626659110387, -4085.898886430131, -30289.966498609367, -25177.854320747178, -18886.59821588972, -7835.672239741354, 52535.11548460907, -7100.16573669502, -14964.090581427883, -6032.199386620448, -22343.18373718068, -11140.10943652504, 10562.80858073337, -12217.485871015297, -9346.56075794229, -16068.803199386979, 0.382, 0.962, 0.132, 192.0, 0.0, 0.0, 0.0, 0.0, 0.0, 0.0, 0.0, 0.0, 0.0, 1.6625060980046444E9, 0.0, 2022-09-06 19:14:58.004
126.0, -10737.733332840602, -5190.320931711309, -31291.257594973755, -26425.55104798687, -19939.678304157056, -9035.290364657685, 62275.35751764268, -8246.430247596532, -14710.24181964896, -6017.961325402418, -22271.41228573469, -10993.325530687038, 10892.206238771229, -12395.83044002419, -8919.798901057113, -15692.265712292876, 0.382, 0.962, 0.132, 192.0, 0.0, 0.0, 0.0, 0.0, 0.0, 0.0, 0.0, 0.0, 0.0, 1.6625060980046513E9, 0.0, 2022-09-06 19:14:58.004
128.0, -9910.808194972062, -4125.237956671472, -30331.428984573962, -25191.868864520653, -18918.114175571704, -7868.84222851303, 53080.2298283851, -7127.546623652772, -15090.735565511653, -6163.381774828646, -22483.753858060107, -11281.059537060206, 10435.381285593663, -12350.791674946748, -9458.766515107933, -16206.847573142955, 0.382, 0.962, 0.132, 192.0, 0.0, 0.0, 0.0, 0.0, 0.0, 0.0, 0.0, 0.0, 0.0, 1.6625060980046592E9, 0.0, 2022-09-06 19:14:58.004
130.0, -10679.149410623242, -5167.49980062244, -31246.129422918493, -26442.963056917557, -19920.813431836777, -9024.270954641219, 61871.90853022439, -8238.025991681337, -14611.849440556698, -5871.490343986791, -22142.286258016382, -10882.125602021886, 11020.214679266774, -12238.60826952556, -8846.015792610144, -15628.339723150699, 0.382, 0.962, 0.132, 192.0, 0.0, 0.0, 0.0, 0.0, 0.0, 0.0, 0.0, 0.0, 0.0, 1.6625060980046668E9, 0.0, 2022-09-06 19:14:58.004
132.0, -10015.526117745176, -4197.635256962211, -30403.535712186782, -25219.495620667414, -18991.494952618476, -7919.1783570263815, 53918.3755419702, -7173.255941063874, -15238.435892872321, -6281.153116363659, -22625.19569697329, -11424.334219018725, 10314.078368434712, -12531.81845329028, -9580.5611706449, -16329.55865020259, 0.37, 0.962, 0.138, 192.0, 5.5, 72.0, 15.0, 8.0, 2.0, 40.0, 0.0, 0.0, 0.0, 1.6625060980046747E9, 0.0, 2022-09-06 19:14:58.004
134.0, -10585.875581011245, -5117.431893042552, -31161.796291088616, -26399.04187906288, -19847.790282701288, -8988.150535601442, 61181.373737022135, -8173.563560672232, -14521.481337723893, -5751.707345450801, -22022.145631569103, -10782.906208384778, 11081.816086985598, -12097.568762012574, -8778.44646912175, -15536.518756928297, 0.37, 0.962, 0.138, 192.0, 0.0, 0.0, 0.0, 0.0, 0.0, 0.0, 0.0, 0.0, 0.0, 1.662506098004682E9, 0.0, 2022-09-06 19:14:58.004
136.0, -10146.417933275454, -4328.683534703677, -30513.439239673527, -25309.7743165224, -19080.477247295054, -8019.15770997497, 55054.06767774435, -7288.613294197714, -15349.434655837376, -6411.821414449384, -22740.10601521802, -11559.025831106404, 10216.64711435403, -12701.669359406158, -9653.696078502666, -16412.908305276433, 0.37, 0.962, 0.138, 192.0, 0.0, 0.0, 0.0, 0.0, 0.0, 0.0, 0.0, 0.0, 0.0, 1.6625060980046895E9, 0.0, 2022-09-06 19:14:58.004
138.0, -10490.880667076191, -5047.1133049861555, -31071.182319066804, -26332.858363730713, -19758.24919441333, -8904.286790405129, 60241.48288267647, -8099.98161792536, -14455.297822391729, -5640.999155163665, -21939.7794532513, -10735.296992694974, 11152.358192486548, -12028.85949955696, -8760.319204368498, -15503.102898967612, 0.37, 0.962, 0.138, 192.0, 0.0, 0.0, 0.0, 0.0, 0.0, 0.0, 0.0, 0.0, 0.0, 1.6625060980046966E9, 0.0, 2022-09-06 19:14:58.004
140.0, -10289.983187911892, -4456.64727171031, -30641.73825284699, -25426.383367345737, -19253.077417978933, -8168.6461768920635, 56635.5653566796, -7425.048342352909, -15440.04862785919, -6328.58351809782, -22845.159214157968, -11644.118922247759, 10178.850314480105, -12852.990669368586, -9705.97680878363, -16462.21625354484, 0.37, 0.962, 0.138, 192.0, 0.0, 0.0, 0.0, 0.0, 0.0, 0.0, 0.0, 0.0, 0.0, 1.662506098004704E9, 0.0, 2022-09-06 19:14:58.004
142.0, -10266.98324286738, -4809.178985259412, -30822.899141657253, -26081.44594209742, -19518.10205198551, -8663.200874710188, 58201.61798019624, -7818.908431399875, -14406.034577612232, -5292.267238171964, -21849.4560539074, -10651.097971331832, 11203.566039033656, -11847.184520624223, -8720.398988771318, -15449.212843085867, 0.34400000000000003, 0.99, 0.148, 192.0, 5.0, 96.0, 15.0, 120.0, 2.0, 80.0, 0.0, 0.0, 0.0, 1.6625060980047114E9, 0.0, 2022-09-06 19:14:58.004
144.0, -10784.22496130764, -5142.01881194339, -31281.780455324708, -26297.11792434668, -19931.117586030672, -8956.746334641735, 63205.391252683556, -8155.123371496603, -15433.29840103369, -6293.29011360289, -22930.364064021596, -11736.99042045956, 10214.25547769731, -12987.503467500625, -9658.188779138181, -16444.044285302673, 0.34400000000000003, 0.99, 0.148, 192.0, 0.0, 0.0, 0.0, 0.0, 0.0, 0.0, 0.0, 0.0, 0.0, 1.662506098004719E9, 0.0, 2022-09-06 19:14:58.004
146.0, -10587.551961845395, -4945.5022746923305, -31017.09109748496, -26093.3594218921, -19668.350478214084, -8696.14734603731, 62004.36496786654, -7867.679937801354, -15180.611929966442, -5723.521795692658, -22615.875019535426, -11430.145672577104, 10462.69511731805, -12623.952343935054, -9487.108527077262, -16220.97387563871, 0.34400000000000003, 0.99, 0.148, 192.0, 0.0, 0.0, 0.0, 0.0, 0.0, 0.0, 0.0, 0.0, 0.0, 1.6625060980047264E9, 0.0, 2022-09-06 19:14:58.004
148.0, -10487.706719363538, -4845.880549655027, -30999.500274598635, -26034.1943543189, -19621.702387535857, -8633.160130162256, 62249.47419756344, -7823.8481669244975, -15169.637223438887, -5602.5765064449915, -22606.688452564296, -11432.179681322537, 10514.014722587433, -12616.06217814233, -9408.944476717053, -16155.796188807035, 0.34400000000000003, 0.99, 0.148, 192.0, 0.0, 0.0, 0.0, 0.0, 0.0, 0.0, 0.0, 0.0, 0.0, 1.6625060980047338E9, 0.0, 2022-09-06 19:14:58.004
150.0, -10431.983820436457, -4792.705749595851, -30883.40531389777, -25985.378144428512, -19512.357653660496, -8553.02912628998, 60992.38973765251, -7732.541290824568, -14975.042936210983, -5226.061371095344, -22438.692741238207, -11250.147074478517, 10651.232081798564, -12440.17630102352, -9312.899030792598, -16049.17836775522, 0.34400000000000003, 0.99, 0.148, 192.0, 0.0, 0.0, 0.0, 0.0, 0.0, 0.0, 0.0, 0.0, 0.0, 1.6625060980047414E9, 0.0, 2022-09-06 19:14:58.004
152.0, -10422.864308698692, -4789.71061583884, -30949.924105396763, -26018.637540178006, -19560.257442028218, -8582.153449315245, 62130.89819322804, -7786.721919384232, -15068.115600122883, -5217.835929135791, -22506.329119959966, -11334.39079933057, 10654.33897427785, -12551.085657010753, -9298.83978353021, -16050.94415556719, 0.322, 0.9540000000000001, 0.132, 192.0, 5.0, 8.0, 14.5, 104.0, 2.0, 16.0, 0.0, 0.0, 0.0, 1.6625060980047517E9, 0.0, 2022-09-06 19:14:58.004
154.0, -10361.776991102337, -4724.398818540432, -30837.33836857538, -25933.298579847644, -19471.029278162634, -8460.559959478374, 60905.95554184384, -7679.545304721035, -14928.931287399684, -4893.512117089286, -22387.19432201318, -11209.623361781045, 10755.122990026832, -12421.1326147476, -9272.59883553968, -16007.559419579438, 0.322, 0.9540000000000001, 0.132, 192.0, 0.0, 0.0, 0.0, 0.0, 0.0, 0.0, 0.0, 0.0, 0.0, 1.6625060980047586E9, 0.0, 2022-09-06 19:14:58.004
156.0, -10401.071357854767, -4779.294702922667, -30936.043672090018, -26000.62203414703, -19517.230333951753, -8576.051423078945, 62699.12424077085, -7792.958056087263, -15012.415052940256, -4899.211811925389, -22454.808348990482, -11288.56972319719, 10746.785789345002, -12489.506601036383, -9252.839893441189, -15986.9734629361, 0.322, 0.9540000000000001, 0.132, 192.0, 0.0, 0.0, 0.0, 0.0, 0.0, 0.0, 0.0, 0.0, 0.0, 1.6625060980047655E9, 0.0, 2022-09-06 19:14:58.004
158.0, -10332.004467487868, -4697.196745538324, -30827.816525437418, -25896.55231196312, -19438.8874696359, -8477.368471308764, 61426.3488562523, -7700.980627653674, -14918.604781461334, -4702.918792118882, -22388.915406336237, -11216.17242290645, 10811.136461631831, -12377.323195615196, -9286.613379313158, -16007.581771323894, 0.322, 0.9540000000000001, 0.132, 192.0, 0.0, 0.0, 0.0, 0.0, 0.0, 0.0, 0.0, 0.0, 0.0, 1.6625060980047724E9, 0.0, 2022-09-06 19:14:58.004
160.0, -10359.228892234432, -4746.705859506829, -30928.77935514204, -25975.588080357087, -19524.047616010623, -8539.2157482166, 63551.95505046309, -7782.139811770894, -14976.741668789587, -4700.258934528701, -22409.14373506829, -11245.766132565277, 10834.494034587626, -12464.226778057431, -9207.242334752362, -15942.359381003307, 0.322, 0.9540000000000001, 0.132, 192.0, 0.0, 0.0, 0.0, 0.0, 0.0, 0.0, 0.0, 0.0, 0.0, 1.6625060980047793E9, 0.0, 2022-09-06 19:14:58.004
162.0, -10288.37386231111, -4662.596245121508, -30837.67364474221, -25865.550442403608, -19432.60662944396, -8429.580441663318, 62205.463612730935, -7691.637598471356, -14918.157746572228, -4552.4244967013, -22380.958185310148, -11194.535934273712, 10815.495051800615, -12379.156038660532, -9282.143030422096, -15992.919026961212, 0.31, 0.962, 0.11800000000000001, 192.0, 4.5, 88.0, 15.0, 8.0, 1.5, 88.0, 0.0, 0.0, 0.0, 1.6625060980047863E9, 0.0, 2022-09-06 19:14:58.004
164.0, -10370.538874928818, -4743.84483621655, -30925.381889984834, -25976.526853624207, -19506.076813468553, -8536.22061445959, 64385.384545968125, -7818.0367133661175, -14965.521093073023, -4572.988101600183, -22385.76381036804, -11219.726350274845, 10863.417191912795, -12421.244373469875, -9174.675843080979, -15919.29238072543, 0.31, 0.962, 0.11800000000000001, 192.0, 0.0, 0.0, 0.0, 0.0, 0.0, 0.0, 0.0, 0.0, 0.0, 1.6625060980047932E9, 0.0, 2022-09-06 19:14:58.004
166.0, -10290.720795478916, -4643.194930934302, -30830.878714427796, -25859.69428535632, -19429.477385220216, -8429.535738174407, 63132.0998826146, -7661.239226012138, -14922.672798952199, -4489.236115126147, -22389.317737736434, -11207.522297802247, 10846.631031826859, -12404.346454661663, -9261.78059122331, -16007.604123068348, 0.31, 0.962, 0.11800000000000001, 192.0, 0.0, 0.0, 0.0, 0.0, 0.0, 0.0, 0.0, 0.0, 0.0, 1.6625060980048E9, 0.0, 2022-09-06 19:14:58.004
168.0, -10346.197825216988, -4722.834196428561, -30898.64920361629, -25955.13623418048, -19496.66672905287, -8496.30039886241, 65445.32661978324, -7735.648183303855, -14926.405540276235, -4480.429527810756, -22350.671571573206, -11189.953826660374, 10916.502584994148, -12404.771137806314, -9122.149243611007, -15893.744336813013, 0.31, 0.962, 0.11800000000000001, 192.0, 0.0, 0.0, 0.0, 0.0, 0.0, 0.0, 0.0, 0.0, 0.0, 1.6625060980048072E9, 0.0, 2022-09-06 19:14:58.004
170.0, -10284.261141331333, -4657.2988816856005, -30845.67556925721, -25873.172387262868, -19427.912763108347, -8435.973040577537, 64408.518601479365, -7671.655138928311, -14922.38222627428, -4456.334347287935, -22386.970804568627, -11209.735120503321, 10847.458046371705, -12408.950914019457, -9263.434620313004, -16017.394187139773, 0.31, 0.962, 0.11800000000000001, 192.0, 0.0, 0.0, 0.0, 0.0, 0.0, 0.0, 0.0, 0.0, 0.0, 1.662506098004814E9, 0.0, 2022-09-06 19:14:58.004
172.0, -10357.463104422462, -4745.789437984162, -30896.749305337587, -25973.15174021146, -19473.018583419154, -8551.2186349891, 66495.85860918267, -7759.385735915392, -14935.256831080536, -4464.068050869471, -22339.115719689813, -11190.02088189374, 10937.200300359762, -12387.269721897808, -9127.46895879137, -15910.664607365681, 0.28, 0.9380000000000001, 0.1, 192.0, 4.0, 96.0, 14.5, 40.0, 1.5, 16.0, 0.0, 0.0, 0.0, 1.6625060980048218E9, 0.0, 2022-09-06 19:14:58.004
174.0, -10304.80239448576, -4679.270646485168, -30875.87277601633, -25914.031376127172, -19480.104086411488, -8494.087576161335, 66025.22027793173, -7728.897956478353, -14948.265546353525, -4470.728870717153, -22399.15250529677, -11231.103388202595, 10847.323935904973, -12458.147103565587, -9276.420983841537, -16058.856673104368, 0.28, 0.9380000000000001, 0.1, 192.0, 0.0, 0.0, 0.0, 0.0, 0.0, 0.0, 0.0, 0.0, 0.0, 1.6625060980048287E9, 0.0, 2022-09-06 19:14:58.004
176.0, -10375.076279053244, -4754.819542744105, -30909.35568921038, -25978.449103647366, -19504.24397042322, -8553.543216412452, 68141.90812610486, -7781.49161118169, -14956.982726691096, -4463.643367724821, -22354.538423363974, -11205.22006812335, 10896.631884173381, -12419.255068213353, -9186.835192064666, -15957.178587577177, 0.28, 0.9380000000000001, 0.1, 192.0, 0.0, 0.0, 0.0, 0.0, 0.0, 0.0, 0.0, 0.0, 0.0, 1.6625060980048356E9, 0.0, 2022-09-06 19:14:58.004
178.0, -10317.94522022548, -4699.431919983855, -30905.06415427496, -25932.918600191904, -19486.31787137006, -8516.34991363882, 68078.36211661842, -7775.523695412123, -14968.315061129935, -4475.60155100841, -22405.388641999798, -11237.495987116812, 10844.373505636871, -12463.019783856844, -9278.164419909052, -16065.338678996406, 0.28, 0.9380000000000001, 0.1, 192.0, 0.0, 0.0, 0.0, 0.0, 0.0, 0.0, 0.0, 0.0, 0.0, 1.6625060980048425E9, 0.0, 2022-09-06 19:14:58.004
180.0, -10406.033445123845, -4781.03813899018, -30940.849297147906, -25992.03896427619, -19534.418825437882, -8561.969824072103, 69928.59481913982, -7808.4701667392455, -14978.172180434727, -4495.449900084723, -22376.08550501889, -11223.749664276798, 10884.941921823254, -12436.778835866313, -9214.640762167068, -15988.538085047972, 0.28, 0.9380000000000001, 0.1, 192.0, 0.0, 0.0, 0.0, 0.0, 0.0, 0.0, 0.0, 0.0, 0.0, 1.66250609800485E9, 0.0, 2022-09-06 19:14:58.004
182.0, -10334.105531466668, -4722.253051072723, -30944.000893116106, -25944.697969519853, -19489.2012464048, -8499.809622741894, 70115.92478941975, -7788.353596729469, -14999.808669067465, -4530.653897601831, -22429.215601589156, -11258.707792604899, 10814.802147722501, -12492.23351385993, -9312.049664503296, -16066.970356341644, 0.28600000000000003, 0.933, 0.096, 192.0, 4.5, 16.0, 14.5, 0.0, 1.0, 112.0, 0.0, 0.0, 0.0, 1.6625060980048587E9, 0.0, 2022-09-06 19:14:58.004
184.0, -10428.116968645689, -4794.76211008574, -30976.634440020855, -25992.687164865398, -19525.656941611403, -8545.988326786557, 71558.86400447655, -7813.789881919609, -14980.452058369168, -4539.795761084051, -22389.42949645871, -11234.724370804355, 10880.739793865658, -12471.647557216593, -9247.251957327362, -15994.036614183977, 0.28600000000000003, 0.933, 0.096, 192.0, 0.0, 0.0, 0.0, 0.0, 0.0, 0.0, 0.0, 0.0, 0.0, 1.6625060980048673E9, 0.0, 2022-09-06 19:14:58.004
186.0, -10380.597159933706, -4773.885580764482, -31020.689728342266, -25996.509313167255, -19545.661752898905, -8570.307024753933, 72119.6692728602, -7844.322364845559, -15023.769739123552, -4612.975372430727, -22457.579965302943, -11290.335511009158, 10788.963531132165, -12493.708728993981, -9334.401408958603, -16064.265795262552, 0.28600000000000003, 0.933, 0.096, 192.0, 0.0, 0.0, 0.0, 0.0, 0.0, 0.0, 0.0, 0.0, 0.0, 1.6625060980048742E9, 0.0, 2022-09-06 19:14:58.004
188.0, -10506.191612028077, -4876.368329092065, -31065.884955630896, -26059.92121218696, -19615.533306066194, -8622.788920734993, 73548.19161274334, -7844.210606123282, -15051.59766097041, -4679.605922651997, -22473.382648632843, -11311.212040330416, 10791.332816044429, -12514.294685637318, -9322.487929163924, -16059.862501604857, 0.28600000000000003, 0.933, 0.096, 192.0, 0.0, 0.0, 0.0, 0.0, 0.0, 0.0, 0.0, 0.0, 0.0, 1.662506098004881E9, 0.0, 2022-09-06 19:14:58.004
190.0, -10411.666084726583, -4805.848575335572, -31074.937412135296, -26032.58502871812, -19562.58202345157, -8601.778280947005, 74137.6965210076, -7851.810199238086, -15093.775402757574, -4767.671795805907, -22520.053091055524, -11351.601642561156, 10744.416504432738, -12547.62113662018, -9376.37798504567, -16097.391080545316, 0.28600000000000003, 0.933, 0.096, 192.0, 0.0, 0.0, 0.0, 0.0, 0.0, 0.0, 0.0, 0.0, 0.0, 1.6625060980048878E9, 0.0, 2022-09-06 19:14:58.004
192.0, -10507.309199250842, -4870.959206933881, -31095.52336877863, -26057.887203441525, -19588.465343530817, -8603.633475736795, 74926.71310027994, -7843.472998556256, -15040.645306187309, -4784.569714614119, -22478.03181147955, -11309.669769962999, 10787.510667742572, -12497.016787173367, -9340.682249150545, -16069.205530787174, 0.30000000000000004, 0.9105000000000001, 0.086, 192.0, 4.5, 104.0, 13.5, 96.0, 1.0, 48.0, 0.0, 0.0, 0.0, 1.6625060980048947E9, 0.0, 2022-09-06 19:14:58.004
194.0, -10439.628117040173, -4832.894186126493, -31150.732177583242, -26073.06403792668, -19608.87248621851, -8587.294350539965, 75650.79786190961, -7837.594489764511, -15110.069824465494, -4944.541149680752, -22531.966570850203, -11364.29743341177, 10744.237690477097, -12564.720221128491, -9373.695775711034, -16110.623313262859, 0.30000000000000004, 0.9105000000000001, 0.086, 192.0, 0.0, 0.0, 0.0, 0.0, 0.0, 0.0, 0.0, 0.0, 0.0, 1.6625060980049016E9, 0.0, 2022-09-06 19:14:58.004
196.0, -10536.634687976204, -4901.402282882009, -31179.811797119597, -26093.493532358832, -19601.20583787034, -8614.541127030985, 76168.3301530278, -7847.049277669106, -15077.70449849421, -5026.102665198167, -22518.60022766593, -11341.4763023229, 10730.424312403717, -12564.139075772653, -9412.878383741187, -16128.839984993934, 0.30000000000000004, 0.9105000000000001, 0.086, 192.0, 0.0, 0.0, 0.0, 0.0, 0.0, 0.0, 0.0, 0.0, 0.0, 1.6625060980049083E9, 0.0, 2022-09-06 19:14:58.004
198.0, -10469.0206609989, -4859.403355050487, -31230.19262912186, -26097.69566031643, -19654.000658273777, -8656.361240906865, 77070.35715226617, -7901.006388784217, -15132.175699731792, -5198.255800992943, -22551.79256818206, -11385.039852266294, 10700.048291688954, -12579.293558513351, -9405.09997667074, -16140.082912454953, 0.30000000000000004, 0.9105000000000001, 0.086, 192.0, 0.0, 0.0, 0.0, 0.0, 0.0, 0.0, 0.0, 0.0, 0.0, 1.6625060980049157E9, 0.0, 2022-09-06 19:14:58.004
200.0, -10529.571536728328, -4898.116576447079, -31249.795109009163, -26093.806456781203, -19623.35641662555, -8614.965810175636, 77255.3848928672, -7868.730469790754, -15085.617016031387, -5251.810580707858, -22534.98405635167, -11351.467532094424, 10690.660559017726, -12580.746421902946, -9473.809239126354, -16154.388028906349, 0.30000000000000004, 0.9105000000000001, 0.086, 192.0, 0.0, 0.0, 0.0, 0.0, 0.0, 0.0, 0.0, 0.0, 0.0, 1.6625060980049226E9, 0.0, 2022-09-06 19:14:58.004
202.0, -10468.21599819851, -4859.537465517219, -31253.28198114419, -26077.288517628735, -19611.621750786515, -8650.013345481557, 78275.85378597425, -7899.553525394622, -15138.389484690368, -5402.595448803359, -22557.78283569608, -11389.890180813096, 10689.431213072683, -12572.92331134359, -9414.91239248662, -16130.896345483823, 0.31100000000000005, 0.88225, 0.073, 192.0, 5.0, 8.0, 13.0, 88.0, 0.5, 112.0, 0.0, 0.0, 0.0, 1.6625060980049295E9, 0.0, 2022-09-06 19:14:58.004
204.0, -10537.171129843133, -4929.163149495501, -31263.250859171258, -26096.958052749404, -19684.063754566163, -8672.990938781611, 78292.39407687118, -7916.294981991647, -15080.811390973497, -5450.495237171082, -22541.711931432717, -11354.842645507175, 10684.491477548061, -12543.933098785055, -9466.366108222737, -16161.25001445413, 0.31100000000000005, 0.88225, 0.073, 192.0, 0.0, 0.0, 0.0, 0.0, 0.0, 0.0, 0.0, 0.0, 0.0, 1.6625060980049365E9, 0.0, 2022-09-06 19:14:58.004
206.0, -10528.610411716749, -4936.06983853219, -31287.32368794962, -26125.70239611893, -19716.697301470915, -8686.312578476975, 79590.76220879104, -7965.222950604314, -15156.09206629897, -5626.604631734447, -22573.585519025986, -11419.774463149843, 10663.167913337698, -12617.693855487569, -9449.043506269874, -16136.126653686364, 0.31100000000000005, 0.88225, 0.073, 192.0, 0.0, 0.0, 0.0, 0.0, 0.0, 0.0, 0.0, 0.0, 0.0, 1.6625060980049436E9, 0.0, 2022-09-06 19:14:58.004
208.0, -10580.198237919598, -4975.453612262441, -31282.495711147276, -26136.230067757377, -19724.878039941555, -8708.641971187828, 79611.23640671211, -7944.033496860683, -15122.117414726903, -5650.744515746179, -22579.732248751196, -11398.83087859522, 10636.032895568955, -12620.532527033392, -9508.365036054258, -16175.219854738696, 0.31100000000000005, 0.88225, 0.073, 192.0, 0.0, 0.0, 0.0, 0.0, 0.0, 0.0, 0.0, 0.0, 0.0, 1.6625060980049503E9, 0.0, 2022-09-06 19:14:58.004
210.0, -10615.648104625716, -5022.504034340863, -31344.655912477487, -26197.585606287197, -19786.144171493554, -8769.25990215062, 81134.73130878583, -8010.373474404035, -15227.930572978328, -5828.172663232406, -22637.71267386826, -11481.577036568766, 10590.43533688013, -12700.350606483295, -9491.422413757136, -16176.292738472552, 0.31100000000000005, 0.88225, 0.073, 192.0, 0.0, 0.0, 0.0, 0.0, 0.0, 0.0, 0.0, 0.0, 0.0, 1.662506098004958E9, 0.0, 2022-09-06 19:14:58.004
212.0, -10640.68205841566, -5042.240624694899, -31364.370151087067, -26215.24348440689, -19791.463886673915, -8783.430908135284, 81086.22802331782, -8024.3656664330565, -15185.2834445576, -5832.017163278719, -22644.86523209396, -11459.314699091281, 10562.406249333173, -12704.195106529607, -9587.892542826241, -16256.222576644728, 0.3265, 0.857125, 0.058499999999999996, 192.0, 5.0, 88.0, 13.0, 0.0, 0.5, 48.0, 0.0, 0.0, 0.0, 1.6625060984844844E9, 0.0, 2022-09-06 19:14:58.484
214.0, -10678.948244923145, -5072.549590176295, -31425.144544261046, -26255.118996515157, -19819.671788176514, -8819.350161474964, 82749.26486602603, -8061.380155251045, -15282.759402127196, -6001.353979272125, -22690.127514615957, -11540.76445588642, 10528.386894272197, -12757.57107228888, -9574.928531042164, -16265.699716293779, 0.3265, 0.857125, 0.058499999999999996, 192.0, 0.0, 0.0, 0.0, 0.0, 0.0, 0.0, 0.0, 0.0, 0.0, 1.662506098484568E9, 0.0, 2022-09-06 19:14:58.484
216.0, -10681.205771113131, -5090.38628225163, -31465.198870324955, -26291.52998823285, -19834.625105217114, -8838.37149600643, 82771.79542443699, -8098.305237091213, -15236.178366682336, -5990.088700066651, -22700.43166880985, -11516.691627108054, 10495.17220201161, -12770.512732328503, -9665.564854808434, -16341.18155731935, 0.3265, 0.857125, 0.058499999999999996, 192.0, 0.0, 0.0, 0.0, 0.0, 0.0, 0.0, 0.0, 0.0, 0.0, 1.6625060984846332E9, 0.0, 2022-09-06 19:14:58.484
218.0, -10778.100583326886, -5190.9244288116015, -31582.47847348195, -26392.559873170838, -19932.27987674235, -8941.614203645493, 84779.49616664603, -8190.752052158363, -15341.790359233662, -6144.494550763911, -22764.625878885494, -11613.809956766363, 10454.693192803048, -12835.176329037706, -9649.806874967442, -16359.062952883596, 0.3265, 0.857125, 0.058499999999999996, 192.0, 0.0, 0.0, 0.0, 0.0, 0.0, 0.0, 0.0, 0.0, 0.0, 1.6625060984846852E9, 0.0, 2022-09-06 19:14:58.484
220.0, -10801.927542916244, -5247.407287050162, -31692.292593990875, -26488.24769118401, -20009.773374768898, -9013.810338236135, 85301.4317514219, -8287.043367271825, -15370.601757836552, -6206.364179416201, -22856.960935230367, -11671.812733627885, 10349.260014207366, -12932.428769162747, -9812.259353668613, -16503.544629042703, 0.3265, 0.857125, 0.058499999999999996, 192.0, 0.0, 0.0, 0.0, 0.0, 0.0, 0.0, 0.0, 0.0, 0.0, 1.6625060984846911E9, 0.0, 2022-09-06 19:14:58.484
222.0, -10965.40820186236, -5405.076492437898, -31806.465304668585, -26617.12784971331, -20142.095701944316, -9156.213302160895, 87870.58596260381, -8419.23158398051, -15512.915314783493, -6379.0984605668145, -22975.581643054684, -11807.688988171696, 10268.950196379446, -13018.885316715876, -9856.940490834771, -16552.56200463319, 0.34025, 0.8055625, 0.028249999999999997, 192.0, 5.5, 8.0, 11.5, 72.0, 127.5, 120.0, 0.0, 0.0, 0.0, 1.6625060984846973E9, 0.0, 2022-09-06 19:14:58.484
224.0, -10970.862027509454, -5445.957833046656, -31881.477759060595, -26691.51445526057, -20227.300551807948, -9217.635895924079, 88606.62890751706, -8503.810584999394, -15566.291280542766, -6438.352935117833, -23093.86707471217, -11880.64508207382, 10159.29253808171, -13113.83552716202, -10020.89053641445, -16696.88721858111, 0.34025, 0.8055625, 0.028249999999999997, 192.0, 0.0, 0.0, 0.0, 0.0, 0.0, 0.0, 0.0, 0.0, 0.0, 1.6625060984847035E9, 0.0, 2022-09-06 19:14:58.484
226.0, -11120.10462523754, -5593.769919129601, -31964.35802750087, -26786.196444773253, -20292.657052595267, -9292.64835031609, 90810.01917243232, -8587.98725461808, -15695.216142560977, -6599.8666405518825, -23187.140904324166, -12004.250228911666, 10094.964217539336, -13261.62526150051, -10054.46285658632, -16745.569318004767, 0.34025, 0.8055625, 0.028249999999999997, 192.0, 0.0, 0.0, 0.0, 0.0, 0.0, 0.0, 0.0, 0.0, 0.0, 1.66250609848471E9, 0.0, 2022-09-06 19:14:58.484
228.0, -11012.302161729594, -5487.576781222437, -31914.133657709797, -26712.346281092916, -20297.552084630977, -9264.798076724777, 90819.47396033692, -8598.202001834155, -15699.06064260729, -6595.373939916366, -23211.63841624718, -12009.011150480646, 10027.730170217774, -13246.828406671097, -10144.160407085468, -16813.160993237616, 0.34025, 0.8055625, 0.028249999999999997, 192.0, 0.0, 0.0, 0.0, 0.0, 0.0, 0.0, 0.0, 0.0, 0.0, 1.662506098484717E9, 0.0, 2022-09-06 19:14:58.484
230.0, -11127.368942185514, -5574.39095668685, -31900.90142499226, -26750.701874578226, -20291.964148517152, -9314.46365290447, 91978.76953825587, -8631.461397583651, -15686.63307269014, -6610.528422657064, -23156.92134582059, -11992.94024621728, 10087.364624424532, -13207.355225963025, -10058.03913569917, -16729.74428293041, 0.34025, 0.8055625, 0.028249999999999997, 192.0, 0.0, 0.0, 0.0, 0.0, 0.0, 0.0, 0.0, 0.0, 0.0, 1.6625060984847248E9, 0.0, 2022-09-06 19:14:58.484
232.0, -10973.901864755377, -5449.332946459406, -31818.19997050762, -26670.861443383867, -20256.15665389975, -9219.267573269317, 91567.72095772279, -8593.105804098344, -15701.765203686382, -6611.981286046659, -23167.761941881414, -12004.429042867308, 10059.84962700005, -13232.61269719752, -10107.950581067871, -16773.263129384894, 0.341125, 0.81378125, -0.013875000000000002, 192.0, 5.0, 88.0, 12.5, 88.0, 127.0, 32.0, 0.0, 0.0, 0.0, 1.6625060984847314E9, 0.0, 2022-09-06 19:14:58.484
234.0, -11058.972604152275, -5531.453255588205, -31783.510063112983, -26696.878873929843, -20227.94875239715, -9225.257840783339, 92290.97870480761, -8608.863783939336, -15645.774083825838, -6568.194218658712, -23087.005089164388, -11947.02976310608, 10146.641450720008, -13167.41265862139, -10012.910963643904, -16678.245863705382, 0.341125, 0.81378125, -0.013875000000000002, 192.0, 0.0, 0.0, 0.0, 0.0, 0.0, 0.0, 0.0, 0.0, 0.0, 1.6625060984847383E9, 0.0, 2022-09-06 19:14:58.484
236.0, -10932.081750879497, -5418.018152477522, -31709.682251177106, -26637.71380635665, -20206.356967253323, -9178.565046616202, 91843.69794651246, -8589.395414518764, -15665.15304626859, -6579.370090886366, -23112.351967376708, -11976.712879742729, 10118.634714917507, -13186.858676297508, -10050.819522240106, -16729.11843408566, 0.341125, 0.81378125, -0.013875000000000002, 192.0, 0.0, 0.0, 0.0, 0.0, 0.0, 0.0, 0.0, 0.0, 0.0, 1.6625060984847455E9, 0.0, 2022-09-06 19:14:58.484
238.0, -11008.32355121655, -5477.049109583987, -31640.123622432187, -26657.159824032766, -20183.446429186635, -9190.232657221874, 91947.11946810716, -8572.318681754909, -15599.215400125433, -6523.043694858992, -23025.85071633467, -11914.843251090439, 10191.2555326528, -13113.969637628752, -9959.177369973346, -16650.48499709189, 0.341125, 0.81378125, -0.013875000000000002, 192.0, 0.0, 0.0, 0.0, 0.0, 0.0, 0.0, 0.0, 0.0, 0.0, 1.6625060984847524E9, 0.0, 2022-09-06 19:14:58.484
240.0, -10884.360776467416, -5359.34482328234, -31563.926525584047, -26583.44377081916, -20103.382480547727, -9118.796481942712, 91427.50846475465, -8516.729893294561, -15630.597249340684, -6558.091230164913, -23042.636876420605, -11939.36311475791, 10172.144791143512, -13130.420521547858, -9949.96845125776, -16668.366392656135, 0.341125, 0.81378125, -0.013875000000000002, 192.0, 0.0, 0.0, 0.0, 0.0, 0.0, 0.0, 0.0, 0.0, 0.0, 1.6625060984847589E9, 0.0, 2022-09-06 19:14:58.484
242.0, -10928.237250833185, -5382.367120071307, -31484.22020485642, -26578.325221338895, -20066.099770796274, -9096.154164809486, 91009.62025041823, -8474.261578829477, -15524.605277133618, -6458.558912105431, -22931.995741366834, -11830.778340194029, 10292.240714101878, -13032.519880833612, -9848.491531430665, -16569.057592041205, 0.31956249999999997, 0.860890625, -0.0479375, 192.0, 4.5, 40.0, 14.0, 48.0, 126.5, 56.0, 0.0, 0.0, 0.0, 1.6625060984847653E9, 0.0, 2022-09-06 19:14:58.484
244.0, -10788.740013687613, -5269.244941382997, -31434.30875948772, -26519.67424388817, -20034.270886691917, -9037.190262936385, 90646.29264429721, -8436.19655802209, -15537.658695895518, -6518.238069801101, -22942.903392661025, -11866.16115166678, 10282.94238840847, -13082.297215735582, -9833.649973112342, -16589.42003123999, 0.31956249999999997, 0.860890625, -0.0479375, 192.0, 0.0, 0.0, 0.0, 0.0, 0.0, 0.0, 0.0, 0.0, 0.0, 1.6625060984847715E9, 0.0, 2022-09-06 19:14:58.484
246.0, -10825.106301916398, -5295.485889373528, -31385.850177508615, -26495.780229065447, -19989.34388033675, -8984.462497766317, 89862.77459416087, -8362.882836208682, -15416.24402001429, -6365.463896449077, -22810.08932710759, -11717.611458016809, 10392.935322873036, -12943.291716968026, -9758.659870464788, -16479.471800264335, 0.31956249999999997, 0.860890625, -0.0479375, 192.0, 0.0, 0.0, 0.0, 0.0, 0.0, 0.0, 0.0, 0.0, 0.0, 1.6625060984847777E9, 0.0, 2022-09-06 19:14:58.484
