%OpenBCI Raw EEG Data
%Number of channels = 16
%Sample Rate = 125 Hz
%Board = OpenBCI_GUI$BoardCytonSerialDaisy
Sample Index, EXG Channel 0, EXG Channel 1, EXG Channel 2, EXG Channel 3, EXG Channel 4, EXG Channel 5, EXG Channel 6, EXG Channel 7, EXG Channel 8, EXG Channel 9, EXG Channel 10, EXG Channel 11, EXG Channel 12, EXG Channel 13, EXG Channel 14, EXG Channel 15, Accel Channel 0, Accel Channel 1, Accel Channel 2, Other, Other, Other, Other, Other, Other, Other, Analog Channel 0, Analog Channel 1, Analog Channel 2, Timestamp, Other, Timestamp (Formatted)
0.0, -12548.068171509287, -7252.783447835857, -32691.482626376466, -22961.343581836652, 3271.714242901116, 6193.690740310042, 45613.58488960086, 26099.997889995324, 0.0, 0.0, 0.0, 0.0, 0.0, 0.0, 0.0, 0.0, 0.0, 0.0, 0.0, 192.0, 0.0, 0.0, 0.0, 0.0, 0.0, 0.0, 0.0, 0.0, 0.0, 1.6625065075973513E9, 0.0, 2022-09-06 19:21:47.597
214.0, -12169.519027414206, -6471.7911448229725, -32106.135142580886, -22026.63833220462, 4140.303032434348, 6969.005700231279, 36098.49197846556, 23862.521214785724, -14636.235193757439, 1305.2971727010217, -15655.407685686076, -13479.822990873217, 13642.387228296666, -10505.632818416694, -22689.859293682493, 1309.9463355477258, 0.0, 0.0, 0.0, 192.0, 0.0, 0.0, 0.0, 0.0, 0.0, 0.0, 0.0, 0.0, 0.0, 1.6625065075973635E9, 0.0, 2022-09-06 19:21:47.597
216.0, -12497.486173806927, -7200.301551854796, -32692.264937432403, -22935.706130946415, 3265.9474928316467, 6227.553633159832, 44666.921456685246, 26184.37572531411, -13958.954985017179, 1879.3346738022178, -15135.394350933357, -12732.671228965668, 14242.464511688295, -10142.193453573402, -22366.407199669746, 2184.793613528444, 0.164, 0.89, -0.018000000000000002, 192.0, 2.5, 16.0, 13.5, 104.0, 127.5, 56.0, 0.0, 0.0, 0.0, 1.6625065075973732E9, 0.0, 2022-09-06 19:21:47.597
218.0, -12273.76756355376, -6543.115561379857, -32215.61398692298, -22066.782065246352, 4025.258603722883, 6896.943676107368, 37380.5209851886, 23797.120010509494, -14682.972691413486, 1257.0174046775585, -15753.196567678044, -13511.182488344013, 13596.610855652198, -10625.996962308522, -22817.733623711305, 1266.7627652600725, 0.164, 0.89, -0.018000000000000002, 192.0, 0.0, 0.0, 0.0, 0.0, 0.0, 0.0, 0.0, 0.0, 0.0, 1.6625065075973823E9, 0.0, 2022-09-06 19:21:47.597
220.0, -12403.0277017388, -7135.637955145593, -32600.466322954457, -22850.389522360507, 3280.1184988163113, 6275.185200594092, 43533.688012801176, 26130.820945599193, -13939.017228963046, 1924.7981220243123, -15093.328367868467, -12694.583856413825, 14287.279759321185, -10068.723269548807, -22286.522064986475, 2179.473898348081, 0.164, 0.89, -0.018000000000000002, 192.0, 0.0, 0.0, 0.0, 0.0, 0.0, 0.0, 0.0, 0.0, 0.0, 1.6625065075973947E9, 0.0, 2022-09-06 19:21:47.597
222.0, -12365.990861176357, -6654.091972600458, -32286.983106968775, -22138.46410971452, 3904.156852264029, 6749.355107468976, 38982.47051030046, 23788.067554005094, -14722.11059595473, 1178.6968921061627, -15817.279019031408, -13538.58572704622, 13541.379695103133, -10735.878138050812, -22871.176644703944, 1306.0571320125023, 0.164, 0.89, -0.018000000000000002, 192.0, 0.0, 0.0, 0.0, 0.0, 0.0, 0.0, 0.0, 0.0, 0.0, 1.6625065075974047E9, 0.0, 2022-09-06 19:21:47.597
224.0, -12261.876435503536, -7054.165846605998, -32465.57354516668, -22749.493747889253, 3402.4048927312965, 6342.7098205935745, 42225.50746506542, 26006.63465340551, -13942.548804586984, 1909.2189561389634, -15057.252652317602, -12719.237830548029, 14305.138803140975, -10020.398798036433, -22181.06653464634, 2203.323209681894, 0.164, 0.89, -0.018000000000000002, 192.0, 0.0, 0.0, 0.0, 0.0, 0.0, 0.0, 0.0, 0.0, 0.0, 1.6625065075974145E9, 0.0, 2022-09-06 19:21:47.597
226.0, -12415.187050722487, -6765.448363476797, -32349.635046677, -22228.72045382505, 3875.0548809832194, 6632.12020780089, 40609.47634094672, 23860.19663336237, -14722.6246860772, 1115.6426209977415, -15850.359600825263, -13557.271785410856, 13526.24756410689, -10795.8478684244, -22891.136752502534, 1394.905316222348, 0.21, 0.964, -0.014, 192.0, 3.0, 72.0, 15.0, 16.0, 127.5, 72.0, 0.0, 0.0, 0.0, 1.6625065075974245E9, 0.0, 2022-09-06 19:21:47.597
228.0, -12131.92339324038, -6954.18649365741, -32334.949950569866, -22628.48140340822, 3530.4356849712954, 6444.119685187303, 40674.63167603394, 25841.83524153653, -13972.276624712542, 1893.8856594426227, -15048.669582446764, -12758.129865900262, 14310.190297387875, -9962.954814786293, -22111.95494079053, 2164.7888022409443, 0.21, 0.964, -0.014, 192.0, 0.0, 0.0, 0.0, 0.0, 0.0, 0.0, 0.0, 0.0, 0.0, 1.6625065075974343E9, 0.0, 2022-09-06 19:21:47.597
230.0, -12474.66504271806, -6866.724117603793, -32415.93032073144, -22306.862152440804, 3771.36513845505, 6560.929901710738, 42117.95087074648, 24171.17645396906, -14689.767621727899, 1118.0566093989146, -15836.65798147416, -13482.505200207854, 13549.605137062686, -10817.462005312682, -22896.679985127448, 1504.0712361420676, 0.21, 0.964, -0.014, 192.0, 0.0, 0.0, 0.0, 0.0, 0.0, 0.0, 0.0, 0.0, 0.0, 1.6625065075974452E9, 0.0, 2022-09-06 19:21:47.597
232.0, -12008.161784191345, -6808.743692486727, -32191.07177151105, -22470.566328831475, 3672.6151314515037, 6575.167962928768, 39161.977370021035, 25674.107751143903, -13990.023909810056, 1895.1150053876647, -15025.513175191067, -12754.844159465332, 14305.630541518993, -9899.76643321114, -22060.724742498965, 2119.280650529939, 0.21, 0.964, -0.014, 192.0, 0.0, 0.0, 0.0, 0.0, 0.0, 0.0, 0.0, 0.0, 0.0, 1.6625065075974548E9, 0.0, 2022-09-06 19:21:47.597
234.0, -12563.669689139091, -6987.200020217899, -32507.43836253147, -22440.704398239184, 3634.3042414551073, 6406.971085902583, 43792.81178627155, 24363.06618011787, -14638.783292625343, 1141.1459614212467, -15805.723167148015, -13410.554934806221, 13577.321300187266, -10826.514461817082, -22918.78586039375, 1555.9049315339246, 0.21, 0.964, -0.014, 192.0, 0.0, 0.0, 0.0, 0.0, 0.0, 0.0, 0.0, 0.0, 0.0, 1.6625065075974643E9, 0.0, 2022-09-06 19:21:47.597
236.0, -11947.141521828356, -6707.445586615275, -32082.196424269252, -22344.770711037007, 3785.6702549064466, 6677.963635678725, 37893.42646520454, 25411.31829158286, -14073.530027095083, 1837.1792837595087, -15059.532530252043, -12837.210337783139, 14252.232224015264, -9915.72557875223, -22074.38165836116, 1984.745500653446, 0.23, 0.99, -0.016, 192.0, 3.5, 24.0, 15.0, 120.0, 127.5, 64.0, 0.0, 0.0, 0.0, 1.6625065075974743E9, 0.0, 2022-09-06 19:21:47.597
238.0, -12596.325587788295, -7059.7090792309145, -32549.191421173982, -22535.051111585035, 3543.7126211777477, 6368.391974972722, 45166.79586968373, 24654.73409351517, -14552.147931116573, 1215.2196425461343, -15725.748625486927, -13306.865192278052, 13651.126760378691, -10801.435804538227, -22867.175682446443, 1682.885191784524, 0.23, 0.99, -0.016, 192.0, 0.0, 0.0, 0.0, 0.0, 0.0, 0.0, 0.0, 0.0, 0.0, 1.6625065075974853E9, 0.0, 2022-09-06 19:21:47.597
240.0, -11923.582783172464, -6622.687771640751, -32021.08675492844, -22230.799166059394, 3901.6087533961245, 6789.320026555065, 36860.30648473579, 25147.902983177064, -14150.46473151025, 1773.4097568285176, -15113.310827411513, -12906.970132228153, 14179.9466824468, -9939.753704041685, -22084.194074177038, 1896.2996478437958, 0.23, 0.99, -0.016, 192.0, 0.0, 0.0, 0.0, 0.0, 0.0, 0.0, 0.0, 0.0, 0.0, 1.6625065075974948E9, 0.0, 2022-09-06 19:21:47.597
242.0, -12665.638347344202, -7166.237493304908, -32679.680905304067, -22677.2529098097, 3431.193939589732, 6268.792601679874, 46439.8618268802, 24986.791609143213, -14483.326909938683, 1259.2749308675445, -15682.29683426581, -13225.52719420519, 13702.871048792727, -10740.281431708507, -22849.540156071205, 1760.3339863221631, 0.23, 0.99, -0.016, 192.0, 0.0, 0.0, 0.0, 0.0, 0.0, 0.0, 0.0, 0.0, 0.0, 1.6625065075976043E9, 0.0, 2022-09-06 19:21:47.597
244.0, -11927.203765774222, -6536.611203743363, -32037.649397569825, -22173.981031654006, 3988.758205027367, 6899.938809864379, 36167.335351387905, 24876.999840378743, -14238.262383730696, 1678.1242702155437, -15202.851915699473, -13022.215726639715, 14092.50665813764, -10003.210306550302, -22188.084982405304, 1725.0852853161439, 0.23, 0.99, -0.016, 192.0, 0.0, 0.0, 0.0, 0.0, 0.0, 0.0, 0.0, 0.0, 0.0, 1.6625065075976193E9, 0.0, 2022-09-06 19:21:47.597
246.0, -12750.262051851994, -7235.080866227254, -32833.68442460113, -22847.036760692212, 3284.2088680516326, 6202.743196814442, 47319.335915963165, 25295.469200071002, -14380.441830210904, 1346.2008650542339, -15606.65853102905, -13140.992896675218, 13800.905799973703, -10637.932793847656, -22830.74233898429, 1821.3766004296067, 0.226, 0.933, -0.014, 192.0, 3.0, 120.0, 13.5, 48.0, 127.5, 80.0, 0.0, 0.0, 0.0, 1.6625065075976298E9, 0.0, 2022-09-06 19:21:47.597
248.0, -11987.79934499256, -6466.9184645317155, -32099.362564010928, -22115.888847814662, 4013.4345309060254, 6978.438136391418, 35765.96507620395, 24572.211452986176, -14344.187300704396, 1567.3490246950419, -15329.631010249974, -13160.662431795889, 13994.561313934484, -10079.921493520915, -22339.51805109001, 1559.995300769246, 0.226, 0.933, -0.014, 192.0, 0.0, 0.0, 0.0, 0.0, 0.0, 0.0, 0.0, 0.0, 0.0, 1.662506507597644E9, 0.0, 2022-09-06 19:21:47.597
250.0, -12755.067676909886, -7283.874724373189, -32903.22070160159, -22921.78099415076, 3197.0147129314796, 6166.578074285755, 47776.183220885185, 25551.284915361994, -14277.44499176085, 1428.2988224385765, -15527.063969023702, -13041.05824721554, 13913.536240283996, -10561.914510955157, -22793.906664121947, 1919.7689795218682, 0.226, 0.933, -0.014, 192.0, 0.0, 0.0, 0.0, 0.0, 0.0, 0.0, 0.0, 0.0, 0.0, 1.6625065075976524E9, 0.0, 2022-09-06 19:21:47.597
252.0, -12031.273487958133, -6454.870874270306, -32090.913604606823, -22044.229155090947, 4039.451961452003, 7005.7072646268925, 35719.16052331454, 24256.962449188526, -14447.541767065737, 1450.7176221272496, -15447.938793651914, -13255.143255608471, 13908.082414636901, -10209.159279961501, -22441.01732266156, 1466.2744362681433, 0.226, 0.933, -0.014, 192.0, 0.0, 0.0, 0.0, 0.0, 0.0, 0.0, 0.0, 0.0, 0.0, 1.6625065075976605E9, 0.0, 2022-09-06 19:21:47.597
254.0, -12726.926830640654, -7327.505329549948, -32865.64741917222, -22955.576831767183, 3144.8680931172485, 6118.745341151398, 47717.80046436792, 25747.823804357507, -14207.841659527025, 1498.2374308392325, -15451.67153497595, -12947.493844925624, 14005.759537906593, -10468.685384832072, -22668.893357383415, 2036.8027134898562, 0.226, 0.933, -0.014, 192.0, 0.0, 0.0, 0.0, 0.0, 0.0, 0.0, 0.0, 0.0, 0.0, 1.6625065075976691E9, 0.0, 2022-09-06 19:21:47.597
0.0, -12063.214130784767, -6465.353842419844, -32050.814575054002, -21989.132105008615, 4081.1826683500612, 6984.271941694253, 35995.919823160155, 23991.7142977374, -14552.952593916965, 1327.6712689007843, -15564.436085752975, -13363.280995283247, 13791.942750447126, -10339.872281536136, -22500.607073379408, 1419.8275112900153, 0.226, 0.9355, -0.014, 192.0, 3.5, 8.0, 14.5, 40.0, 127.5, 72.0, 0.0, 0.0, 0.0, 1.662506507597678E9, 0.0, 2022-09-06 19:21:47.597
2.0, -12626.634553269692, -7329.740503995479, -32767.076226124314, -22960.360105080617, 3172.5172010084634, 6104.39552121109, 47284.44484286843, 25894.630061939963, -14112.913800825334, 1591.019522073212, -15337.856452209528, -12853.795332168977, 14095.054757005544, -10364.079220781234, -22481.652794081307, 2160.609026027802, 0.226, 0.9355, -0.014, 192.0, 0.0, 0.0, 0.0, 0.0, 0.0, 0.0, 0.0, 0.0, 0.0, 1.662506507597686E9, 0.0, 2022-09-06 19:21:47.597
4.0, -12103.022587659669, -6499.529659692009, -32042.186801694254, -21987.03104102982, 4088.648150998134, 6939.970784183834, 36869.33658949573, 23820.05290032064, -14630.446091943515, 1226.619032218341, -15645.841139059203, -13433.376065895089, 13696.56785685633, -10463.83505628527, -22530.08902431596, 1386.545763796063, 0.226, 0.9355, -0.014, 192.0, 0.0, 0.0, 0.0, 0.0, 0.0, 0.0, 0.0, 0.0, 0.0, 1.6625065075976942E9, 0.0, 2022-09-06 19:21:47.597
6.0, -12517.08865369423, -7285.037015084865, -32657.999713182417, -22930.811098910704, 3218.651201564217, 6139.465408261467, 46658.88657079775, 25981.980679271303, -14045.21036687021, 1670.1670491894542, -15223.460224087266, -12781.57684583388, 14169.240196852708, -10238.373009964587, -22313.902951944227, 2225.473788437103, 0.226, 0.9355, -0.014, 192.0, 0.0, 0.0, 0.0, 0.0, 0.0, 0.0, 0.0, 0.0, 0.0, 1.6625065075977025E9, 0.0, 2022-09-06 19:21:47.597
8.0, -12178.772649618704, -6553.82204697395, -32046.903019774323, -21996.351718467682, 4084.0883951292512, 6893.210934783332, 38047.07235659032, 23727.382567808934, -14714.801575517844, 1135.0662869294033, -15709.96829390148, -13486.19323804298, 13606.892658101639, -10570.005842447978, -22592.69626053527, 1348.4136877553092, 0.226, 0.9355, -0.014, 192.0, 0.0, 0.0, 0.0, 0.0, 0.0, 0.0, 0.0, 0.0, 0.0, 1.6625065075977106E9, 0.0, 2022-09-06 19:21:47.597
10.0, -12415.052940255755, -7211.008037448888, -32530.661825020532, -22845.919173469447, 3287.360464019831, 6241.881101355684, 45638.46238117962, 26003.34894697058, -14014.230849055153, 1741.692631446437, -15125.067844995005, -12711.99586534451, 14232.070950516576, -10118.746473639783, -22188.39790682768, 2248.54078871498, 0.23399999999999999, 0.95875, -0.019, 192.0, 3.5, 72.0, 15.0, 88.0, 127.5, 32.0, 0.0, 0.0, 0.0, 1.6625065075977192E9, 0.0, 2022-09-06 19:21:47.597
12.0, -12270.124229207544, -6612.942411058237, -32116.97573864171, -22024.000826358893, 4029.6171938916677, 6860.935015789869, 39355.677587470724, 23717.234875826227, -14738.695590340567, 1111.3734378067777, -15751.16255893261, -13481.342909496178, 13550.275689396345, -10651.857930643313, -22675.241252808722, 1356.3932605258537, 0.23399999999999999, 0.95875, -0.019, 192.0, 0.0, 0.0, 0.0, 0.0, 0.0, 0.0, 0.0, 0.0, 0.0, 1.6625065075977275E9, 0.0, 2022-09-06 19:21:47.597
14.0, -12336.240689306342, -7131.681696377003, -32479.565737195702, -22777.902815091948, 3362.350566667386, 6330.706933821075, 44314.59090883624, 26004.555941171166, -13993.667244156271, 1806.4009316445508, -15065.947480910718, -12681.329271951829, 14270.806523657624, -9998.851716381516, -22122.124984517694, 2226.1890442596728, 0.23399999999999999, 0.95875, -0.019, 192.0, 0.0, 0.0, 0.0, 0.0, 0.0, 0.0, 0.0, 0.0, 0.0, 1.6625065075977356E9, 0.0, 2022-09-06 19:21:47.597
16.0, -12408.54858261926, -6712.877060517915, -32294.649755316947, -22159.899432647162, 3922.06059957273, 6766.856523377482, 40891.57770771715, 23778.970394011783, -14776.000651836473, 1051.1578382441805, -15822.486975489495, -13514.57995350122, 13498.129069582114, -10718.197908186665, -22801.305091536655, 1319.2670129855887, 0.23399999999999999, 0.95875, -0.019, 192.0, 0.0, 0.0, 0.0, 0.0, 0.0, 0.0, 0.0, 0.0, 0.0, 1.6625065075977437E9, 0.0, 2022-09-06 19:21:47.597
18.0, -12275.019261243257, -7022.940459601934, -32462.511356176303, -22740.843622785047, 3442.9062536843126, 6443.873815998294, 42874.423310091894, 25897.13345731896, -13988.839267353926, 1836.7098971259472, -15043.953364366695, -12692.818068601855, 14286.944483154355, -9925.470939334744, -22100.37673716268, 2140.7159734625784, 0.23399999999999999, 0.95875, -0.019, 192.0, 0.0, 0.0, 0.0, 0.0, 0.0, 0.0, 0.0, 0.0, 0.0, 1.6625065075977526E9, 0.0, 2022-09-06 19:21:47.597
20.0, -12527.10223521021, -6790.370558544464, -32452.117795004586, -22294.769858690484, 3806.1221010830527, 6696.47088008772, 42538.789515351, 23917.372395679045, -14742.182462475594, 1066.6475971517084, -15849.823158958336, -13499.313712038245, 13503.113508595647, -10754.161865015252, -22889.370964690563, 1342.3563650079209, 0.22, 0.930375, -0.020499999999999997, 192.0, 3.0, 56.0, 14.0, 24.0, 127.5, 40.0, 0.0, 0.0, 0.0, 1.662506507597762E9, 0.0, 2022-09-06 19:21:47.597
22.0, -12187.020443322712, -6885.924266090902, -32374.44548302239, -22613.818659045537, 3542.1032955769656, 6579.414794375276, 41401.175129553696, 25735.418586184813, -13987.744031875614, 1877.8594586681675, -15026.429596713735, -12717.226173547051, 14303.30596009564, -9875.380680010401, -22073.956975216508, 2061.993129490987, 0.22, 0.930375, -0.020499999999999997, 192.0, 0.0, 0.0, 0.0, 0.0, 0.0, 0.0, 0.0, 0.0, 0.0, 1.6625065075977702E9, 0.0, 2022-09-06 19:21:47.597
24.0, -12621.180727622597, -6903.60449595505, -32563.451834136467, -22406.215656544646, 3634.7065728553025, 6581.672320565262, 44192.50568062135, 24106.37874679312, -14701.234066633471, 1102.7456644470292, -15846.604507756772, -13446.429484656988, 13534.987096188916, -10783.912036885267, -22929.671159943482, 1396.8499179899595, 0.22, 0.930375, -0.020499999999999997, 192.0, 0.0, 0.0, 0.0, 0.0, 0.0, 0.0, 0.0, 0.0, 0.0, 1.6625065075977783E9, 0.0, 2022-09-06 19:21:47.597
26.0, -12128.660038549906, -6809.883631453948, -32266.598316025535, -22491.68872734174, 3619.9097180258896, 6643.161969561812, 40010.58370001122, 25422.047128921407, -14053.949898952234, 1841.9178535840338, -15068.74144896763, -12784.52727610198, 14263.653965431926, -9872.206732297747, -22059.875376209664, 1957.0293375288652, 0.22, 0.930375, -0.020499999999999997, 192.0, 0.0, 0.0, 0.0, 0.0, 0.0, 0.0, 0.0, 0.0, 0.0, 1.662506507597787E9, 0.0, 2022-09-06 19:21:47.597
28.0, -12708.687807165124, -7044.018154623289, -32621.4993144869, -22527.40681498132, 3510.2520597281527, 6427.355876845822, 45741.839199285416, 24326.72224363354, -14658.542234723835, 1102.8574231693058, -15838.42376928613, -13413.058330185215, 13569.140561716624, -10801.27934232704, -22901.507961929794, 1500.383198306942, 0.22, 0.930375, -0.020499999999999997, 192.0, 0.0, 0.0, 0.0, 0.0, 0.0, 0.0, 0.0, 0.0, 0.0, 1.6625065075977952E9, 0.0, 2022-09-06 19:21:47.597
30.0, -12062.901206362392, -6714.084054718502, -32156.22540190523, -22354.449016386156, 3768.7052808648687, 6737.28516546311, 38766.485603628826, 25156.530756536813, -14139.579431960516, 1747.7052507049145, -15134.23206022168, -12906.299579894494, 14195.727014032247, -9917.379607841922, -22040.004675388896, 1887.7836332063239, 0.21300000000000002, 0.9411875000000001, -0.021249999999999998, 192.0, 3.0, 56.0, 14.5, 96.0, 127.5, 40.0, 0.0, 0.0, 0.0, 1.6625065075978036E9, 0.0, 2022-09-06 19:21:47.597
32.0, -12734.816996433377, -7132.709876621947, -32679.300925648324, -22624.77101382864, 3407.76931140057, 6320.827462771829, 46969.508763493155, 24559.850938302392, -14576.60073955068, 1152.3665371378108, -15778.744611590459, -13327.294686710202, 13624.908164132616, -10762.409658719262, -22836.777309987225, 1646.407144833463, 0.21300000000000002, 0.9411875000000001, -0.021249999999999998, 192.0, 0.0, 0.0, 0.0, 0.0, 0.0, 0.0, 0.0, 0.0, 0.0, 1.6625065075978117E9, 0.0, 2022-09-06 19:21:47.597
34.0, -12003.870249255926, -6611.623658135374, -32050.12167097589, -22211.844886761297, 3852.7701917612785, 6827.765027018193, 37764.680417141964, 24848.926049342877, -14226.214793469286, 1677.2302004373314, -15191.25136032717, -12978.093383084939, 14097.401690173352, -9929.650715547887, -22068.860777480695, 1782.2833993772745, 0.21300000000000002, 0.9411875000000001, -0.021249999999999998, 192.0, 0.0, 0.0, 0.0, 0.0, 0.0, 0.0, 0.0, 0.0, 0.0, 1.6625065075978198E9, 0.0, 2022-09-06 19:21:47.597
36.0, -12739.510862768992, -7202.7602437448795, -32681.5137483494, -22701.48220079925, 3313.1320253768, 6255.359203262235, 48119.88599537445, 24911.868561729025, -14465.736087052357, 1248.5460935289973, -15662.493188678407, -13185.31640593009, 13714.158679742657, -10678.63532050077, -22736.082701216066, 1792.2746291487967, 0.21300000000000002, 0.9411875000000001, -0.021249999999999998, 192.0, 0.0, 0.0, 0.0, 0.0, 0.0, 0.0, 0.0, 0.0, 0.0, 1.6625065075978296E9, 0.0, 2022-09-06 19:21:47.597
38.0, -11958.563263245018, -6516.516985478042, -31939.100556266378, -22086.69746955603, 3958.3151290792384, 6907.426644256908, 37160.82568893739, 24514.119269146835, -14315.957047457345, 1588.0243883162009, -15247.465997632265, -13061.130113736406, 14008.374692007863, -10012.50863224371, -22102.544856374843, 1673.8774387690353, 0.21300000000000002, 0.9411875000000001, -0.021249999999999998, 192.0, 0.0, 0.0, 0.0, 0.0, 0.0, 0.0, 0.0, 0.0, 0.0, 1.6625065075978377E9, 0.0, 2022-09-06 19:21:47.597
40.0, -12720.154252070697, -7249.944776290033, -32691.862606032206, -22785.457704717843, 3229.000059247024, 6170.579036543255, 48786.19149758715, 25173.428675345025, -14351.27280369673, 1339.7859143955607, -15540.050332552235, -13064.907558549352, 13816.216744925589, -10578.074822196344, -22645.021694305146, 1901.9993426798992, 0.21950000000000003, 0.96059375, -0.022625, 192.0, 3.5, 8.0, 15.0, 80.0, 127.5, 32.0, 0.0, 0.0, 0.0, 1.6625065075978458E9, 0.0, 2022-09-06 19:21:47.597
42.0, -11953.422362020297, -6439.358763618322, -31921.26386419104, -21996.88816033461, 4036.8144556062766, 6967.686947308415, 36945.0195962214, 24280.85646401125, -14398.36792926406, 1494.7505587042044, -15321.98671364626, -13144.792693232619, 13919.481804309107, -10090.292702948178, -22198.232674388015, 1566.4549549168296, 0.21950000000000003, 0.96059375, -0.022625, 192.0, 0.0, 0.0, 0.0, 0.0, 0.0, 0.0, 0.0, 0.0, 0.0, 1.662506507597854E9, 0.0, 2022-09-06 19:21:47.597
44.0, -12703.636312918225, -7274.419936468594, -32769.37845580321, -22894.176589748455, 3162.4812677480304, 6131.776408168842, 49152.76010665418, 25461.833234051854, -14240.050523287122, 1448.773020359638, -15429.67741843193, -12943.023496034562, 13924.823871233926, -10470.361765666219, -22560.822672942006, 1982.3762157411834, 0.21950000000000003, 0.96059375, -0.022625, 192.0, 0.0, 0.0, 0.0, 0.0, 0.0, 0.0, 0.0, 0.0, 0.0, 1.6625065075978625E9, 0.0, 2022-09-06 19:21:47.597
46.0, -12028.345409434487, -6420.0692081533925, -32036.9117900028, -22030.572239228757, 4031.8523683371986, 6984.294293438708, 37093.52458638246, 24000.029146674773, -14496.313273467216, 1389.8761737199038, -15448.609345985575, -13251.790493940174, 13818.966009493592, -10188.215695406878, -22347.877603516295, 1393.0054179436468, 0.21950000000000003, 0.96059375, -0.022625, 192.0, 0.0, 0.0, 0.0, 0.0, 0.0, 0.0, 0.0, 0.0, 0.0, 1.6625065075978708E9, 0.0, 2022-09-06 19:21:47.597
48.0, -12709.313656009872, -7305.287695561373, -32901.11963762279, -23004.325986424206, 3082.7078917870394, 6119.214727784959, 49082.463870342246, 25688.994012951138, -14163.920481672345, 1514.06246591359, -15379.52010387422, -12882.517323794047, 14011.481584487152, -10378.00435757689, -22543.522422733597, 1992.6580181906247, 0.21950000000000003, 0.96059375, -0.022625, 192.0, 0.0, 0.0, 0.0, 0.0, 0.0, 0.0, 0.0, 0.0, 0.0, 1.6625065075978792E9, 0.0, 2022-09-06 19:21:47.597
50.0, -12106.844735961526, -6433.480254826576, -32185.215614463763, -22022.324445524748, 3999.0400074768077, 6985.47893589484, 37654.17339255493, 23810.17342927139, -14591.934036247021, 1255.2516168655893, -15601.763498993338, -13381.229446080857, 13720.797147845882, -10322.326162138721, -22524.612846924407, 1274.4741170971533, 0.21575, 0.916296875, -0.034312499999999996, 192.0, 3.0, 80.0, 13.5, 32.0, 127.0, 72.0, 0.0, 0.0, 0.0, 1.6625065075978873E9, 0.0, 2022-09-06 19:21:47.597
52.0, -12632.02132368342, -7280.834887127267, -32916.38587908577, -23000.45913463344, 3054.477638539987, 6128.043666844806, 48566.9655879695, 25857.83909056653, -14076.435753874273, 1610.599650216061, -15305.915809382894, -12808.667160113711, 14115.84187934898, -10225.766626091794, -22467.414732863275, 2049.386745618194, 0.21575, 0.916296875, -0.034312499999999996, 192.0, 0.0, 0.0, 0.0, 0.0, 0.0, 0.0, 0.0, 0.0, 0.0, 1.6625065075978973E9, 0.0, 2022-09-06 19:21:47.597
54.0, -12169.474323925297, -6465.085621486381, -32227.95214986231, -22006.410003472567, 3952.548379009769, 6958.254511148276, 38505.39487664639, 23664.64122112289, -14656.284708533849, 1169.9797117685928, -15707.129622355656, -13450.072819003204, 13645.337658564766, -10424.943020933035, -22640.551345414086, 1237.2361108346117, 0.21575, 0.916296875, -0.034312499999999996, 192.0, 0.0, 0.0, 0.0, 0.0, 0.0, 0.0, 0.0, 0.0, 0.0, 1.662506507597906E9, 0.0, 2022-09-06 19:21:47.597
56.0, -12541.452055150516, -7244.222729709474, -32798.52513057293, -22933.023921611777, 3070.4814875699867, 6174.132963911648, 47542.003994226936, 25909.40456502492, -14016.376616522863, 1680.4488516388956, -15215.771223994641, -12739.08617962434, 14189.624987795949, -10123.306229508666, -22342.244963913556, 2131.574109980358, 0.21575, 0.916296875, -0.034312499999999996, 192.0, 0.0, 0.0, 0.0, 0.0, 0.0, 0.0, 0.0, 0.0, 0.0, 1.662506507597914E9, 0.0, 2022-09-06 19:21:47.597
58.0, -12250.18647315341, -6535.068933375947, -32226.09695507252, -22007.035852317316, 3932.767085166822, 6897.435414485385, 39684.09176875255, 23586.678336462777, -14722.714093055021, 1087.9935131065265, -15783.997271537457, -13499.157249827058, 13549.381619618132, -10545.888310180702, -22684.941909902325, 1277.8939339988153, 0.21575, 0.916296875, -0.034312499999999996, 192.0, 0.0, 0.0, 0.0, 0.0, 0.0, 0.0, 0.0, 0.0, 0.0, 1.6625065075979223E9, 0.0, 2022-09-06 19:21:47.597
60.0, -12430.587402652192, -7170.909007896067, -32638.17371585056, -22843.885164724015, 3198.8922594657256, 6247.178464791592, 46363.77648875433, 25889.913843859893, -13978.33394745993, 1750.5886257396492, -15128.062978752016, -12691.186391256619, 14243.738561122247, -10015.392007278444, -22155.876118645207, 2213.403846431237, 0.21575, 0.916296875, -0.034312499999999996, 192.0, 0.0, 0.0, 0.0, 0.0, 0.0, 0.0, 0.0, 0.0, 0.0, 1.6625065075979304E9, 0.0, 2022-09-06 19:21:47.597
62.0, -12371.601149034637, -6644.9501091182365, -32270.509871305214, -22077.332088629257, 3882.7438810758454, 6811.11297739899, 41195.20380439804, 23630.73362478419, -14757.046372538374, 1032.561186857365, -15828.611353470249, -13522.045436149292, 13510.020197632337, -10667.370041295295, -22692.295633828122, 1327.7159723896948, 0.252, 0.9520000000000001, -0.034, 192.0, 3.5, 112.0, 14.5, 96.0, 127.0, 120.0, 0.0, 0.0, 0.0, 1.6625065075979385E9, 0.0, 2022-09-06 19:21:47.597
64.0, -12341.560404486705, -7081.569085308205, -32496.32954553718, -22743.1682042084, 3322.4303510702075, 6355.070335277359, 45050.76796421623, 25852.519375386164, -13974.198874735699, 1786.4855273348724, -15068.830855945453, -12676.255425960473, 14274.606320215025, -9947.666221578864, -22020.089271079218, 2206.8100818169214, 0.252, 0.9520000000000001, -0.034, 192.0, 0.0, 0.0, 0.0, 0.0, 0.0, 0.0, 0.0, 0.0, 0.0, 1.6625065075979471E9, 0.0, 2022-09-06 19:21:47.597
66.0, -12455.710763419958, -6713.681723318306, -32316.196836971863, -22154.95969712254, 3816.917993654966, 6736.547557896085, 42838.839332919044, 23708.294178044103, -14742.87536655371, 1018.4125326171556, -15834.780434939914, -13499.537229482798, 13505.48279350791, -10717.862632019835, -22726.940837733848, 1328.5206351900858, 0.252, 0.9520000000000001, -0.034, 192.0, 0.0, 0.0, 0.0, 0.0, 0.0, 0.0, 0.0, 0.0, 0.0, 1.6625065075979555E9, 0.0, 2022-09-06 19:21:47.597
68.0, -12235.389618323996, -6952.6442232899935, -32371.07036960964, -22647.726255384237, 3407.6352009338384, 6471.120592489314, 43577.96681856714, 25691.028021696573, -13951.80242679148, 1832.1277895126093, -15004.882515058818, -12676.07661200483, 14307.575143286604, -9869.4798194742, -21961.751218050864, 2109.535289947425, 0.252, 0.9520000000000001, -0.034, 192.0, 0.0, 0.0, 0.0, 0.0, 0.0, 0.0, 0.0, 0.0, 0.0, 1.6625065075979636E9, 0.0, 2022-09-06 19:21:47.597
70.0, -12542.033200506354, -6801.859355194492, -32416.712631787377, -22301.31891981589, 3686.3167508026067, 6618.128015771868, 44469.10851825577, 23814.979054329284, -14708.923066726098, 1038.7526200714851, -15825.124481335222, -13469.585891912688, 13503.202915573469, -10760.979147074122, -22804.791963671683, 1324.3632107213987, 0.252, 0.9520000000000001, -0.034, 192.0, 0.0, 0.0, 0.0, 0.0, 0.0, 0.0, 0.0, 0.0, 0.0, 1.662506507597972E9, 0.0, 2022-09-06 19:21:47.597
72.0, -12131.386951373453, -6816.276230368166, -32248.068719872084, -22543.321257033498, 3534.3919437398845, 6575.257369906589, 42037.41753547401, 25469.723399844577, -13977.953967804191, 1848.265749009341, -14987.984596250606, -12711.615885688769, 14290.833686689579, -9855.174703022803, -21944.965057964928, 1980.521020951393, 0.196, 0.9440000000000001, -0.044, 192.0, 3.0, 16.0, 14.5, 64.0, 127.0, 80.0, 0.0, 0.0, 0.0, 1.6625065075979805E9, 0.0, 2022-09-06 19:21:47.597
74.0, -12629.74144574898, -6920.211842085343, -32511.126400366596, -22446.471148308654, 3550.9322346368117, 6495.819270112428, 46047.00756633372, 24026.247742920845, -14647.768693896378, 1084.7972136494177, -15787.50649541694, -13408.073891171682, 13535.76940724485, -10773.674937924736, -22787.78228614119, 1379.7284817371944, 0.196, 0.9440000000000001, -0.044, 192.0, 0.0, 0.0, 0.0, 0.0, 0.0, 0.0, 0.0, 0.0, 0.0, 1.6625065075979886E9, 0.0, 2022-09-06 19:21:47.597
76.0, -12065.404601741386, -6713.8605372739485, -32155.73366352721, -22434.468261536153, 3629.565671630582, 6690.078281173502, 40605.117750777936, 25183.21873941645, -14038.34838132243, 1812.0559229917435, -15022.674503645243, -12797.513639630513, 14230.796901082624, -9864.80830488304, -21919.86404894162, 1860.9391881155002, 0.196, 0.9440000000000001, -0.044, 192.0, 0.0, 0.0, 0.0, 0.0, 0.0, 0.0, 0.0, 0.0, 0.0, 1.6625065075979967E9, 0.0, 2022-09-06 19:21:47.597
78.0, -12688.258312732973, -7017.978372332856, -32596.59947116369, -22564.08602763248, 3422.5885179744387, 6390.095518838825, 47465.53867644533, 24274.240347652478, -14575.17022790554, 1156.0322232284814, -15751.251965910431, -13344.30436424069, 13589.704166615507, -10767.103525054876, -22779.42273371491, 1465.6932909123054, 0.196, 0.9440000000000001, -0.044, 192.0, 0.0, 0.0, 0.0, 0.0, 0.0, 0.0, 0.0, 0.0, 0.0, 1.6625065075980067E9, 0.0, 2022-09-06 19:21:47.598
0.0, -6029.941860430463, -3363.222284701143, -16202.44427948526, -11261.121781006072, 1720.4808259583506, 3392.9948083156123, 21113.010777593947, 12292.654787618494, -7210.985685704432, 768.3859191400909, -7662.602682423912, -6612.920059313782, 6952.621871545538, -5020.447673850975, -11046.790903424133, 669.3900429475359, 0.194, 0.903, -0.038, 192.0, 3.0, 0.0, 13.0, 120.0, 127.5, 0.0, 0.0, 0.0, 0.0, 1.6625065081582627E9, 0.0, 2022-09-06 19:21:48.158
2.0, -12894.36374835536, -7410.519708456959, -33166.63601000739, -23110.116792931178, 2811.4024175885224, 6090.671550115532, 53747.697621309475, 24657.952744716735, -14313.431300333894, 1148.7902580249618, -15623.534098092807, -13122.105672610483, 14009.648741441815, -10600.270104440464, -22578.882882461894, 1559.4141554134078, 0.194, 0.903, -0.038, 192.0, 0.0, 0.0, 0.0, 0.0, 0.0, 0.0, 0.0, 0.0, 0.0, 1.6625065081583874E9, 0.0, 2022-09-06 19:21:48.158
4.0, -12181.253693253244, -6563.857980234383, -32356.094700824586, -22205.027604702427, 3690.2283060822856, 6936.260394604254, 41266.4388139771, 23278.336021701816, -14541.620259478124, 1145.7727725234954, -15588.307748831243, -13379.016623379783, 13927.75194975757, -10281.26600757432, -22287.594948720332, 1052.0072045334823, 0.194, 0.903, -0.038, 192.0, 0.0, 0.0, 0.0, 0.0, 0.0, 0.0, 0.0, 0.0, 0.0, 1.6625065081584432E9, 0.0, 2022-09-06 19:21:48.158
6.0, -12848.92265187772, -7448.562377519892, -33117.99861407264, -23135.888354288145, 2782.7251294523635, 6047.3985728500575, 53538.44058971889, 24828.87653456647, -14255.115599049997, 1244.3886690603101, -15540.206794763422, -13033.302191889548, 14105.157745499344, -10549.308127082364, -22478.50119811311, 1651.3468803580859, 0.194, 0.903, -0.038, 192.0, 0.0, 0.0, 0.0, 0.0, 0.0, 0.0, 0.0, 0.0, 0.0, 1.6625065081584678E9, 0.0, 2022-09-06 19:21:48.158
8.0, -12211.428548267908, -6574.139782683824, -32309.15603746844, -22141.056912071337, 3727.1086844335423, 6908.2089553128435, 41750.62230236796, 23018.8322685757, -14644.304173505805, 1061.1267162712475, -15682.72151741046, -13458.365316196123, 13833.06996024489, -10442.131512419166, -22346.536498848975, 1007.4378260896, 0.20600000000000002, 0.924, -0.04, 192.0, 3.0, 56.0, 14.0, 112.0, 127.0, 96.0, 0.0, 0.0, 0.0, 1.6625065081584926E9, 0.0, 2022-09-06 19:21:48.158
10.0, -12779.364023132805, -7459.604139280813, -33027.429345539735, -23139.86696480119, 2798.50546103781, 6039.888386713074, 53041.628365710785, 24979.728457895337, -14176.884493456424, 1369.2678653321107, -15422.882488117515, -12933.591059874423, 14204.198325180809, -10418.706884230005, -22277.536663715444, 1770.7275474938808, 0.20600000000000002, 0.924, -0.04, 192.0, 0.0, 0.0, 0.0, 0.0, 0.0, 0.0, 0.0, 0.0, 0.0, 1.6625065081585033E9, 0.0, 2022-09-06 19:21:48.158
12.0, -12283.1999997139, -6621.8831088403595, -32293.778037283188, -22143.090920816772, 3748.40989689945, 6892.115699305022, 42599.76507422508, 22862.526519599738, -14741.44485490857, 982.8509071887621, -15781.046841269355, -13549.4486748515, 13737.62801142073, -10576.621958806749, -22384.266243489536, 952.2290172849915, 0.20600000000000002, 0.924, -0.04, 192.0, 0.0, 0.0, 0.0, 0.0, 0.0, 0.0, 0.0, 0.0, 0.0, 1.662506508158514E9, 0.0, 2022-09-06 19:21:48.158
14.0, -12667.784114811911, -7407.0328363219305, -32903.28775683496, -23089.12850488764, 2897.4342819969993, 6119.617059185155, 52163.54008478404, 25064.642735081048, -14102.855515820447, 1499.2656110841765, -15301.26664653619, -12849.995535611575, 14288.285587821674, -10283.970568653414, -22093.26888242589, 1842.0296123063104, 0.20600000000000002, 0.924, -0.04, 192.0, 0.0, 0.0, 0.0, 0.0, 0.0, 0.0, 0.0, 0.0, 0.0, 1.662506508158523E9, 0.0, 2022-09-06 19:21:48.158
16.0, -12334.474901494374, -6657.757658691127, -32321.427145174403, -22141.638057427175, 3764.8384290741005, 6869.562789149617, 43781.993541955184, 22836.643199520495, -14779.30871001586, 944.182389281081, -15831.874708160723, -13578.148314732112, 13681.905112493649, -10660.932738892167, -22433.26126733557, 932.6041856532319, 0.20600000000000002, 0.924, -0.04, 192.0, 0.0, 0.0, 0.0, 0.0, 0.0, 0.0, 0.0, 0.0, 0.0, 1.6625065081585317E9, 0.0, 2022-09-06 19:21:48.158
18.0, -12532.086674223743, -7306.382931039683, -32793.83126423732, -23012.752594083857, 2976.5818091132414, 6223.172691246592, 51016.42620759323, 25142.896192419077, -14032.782796953059, 1597.5238797097063, -15194.648825484375, -12772.077354440375, 14378.161952276463, -10184.572361060664, -21967.763837309343, 1846.5446646862824, 0.20400000000000001, 0.966, -0.04, 192.0, 3.0, 48.0, 15.0, 24.0, 127.0, 96.0, 0.0, 0.0, 0.0, 1.662506508158541E9, 0.0, 2022-09-06 19:21:48.158
20.0, -12444.333725492208, -6755.032450560624, -32437.812678553186, -22245.886593566727, 3651.4927329412385, 6781.34045378452, 45177.859983189104, 22807.384766028496, -14803.895628916698, 897.9142782585953, -15885.0495082199, -13596.02971029636, 13654.412466813621, -10756.933481327711, -22534.492317973654, 894.5838683347546, 0.20400000000000001, 0.966, -0.04, 192.0, 0.0, 0.0, 0.0, 0.0, 0.0, 0.0, 0.0, 0.0, 0.0, 1.6625065081585495E9, 0.0, 2022-09-06 19:21:48.158
22.0, -12409.666169842027, -7201.32973209974, -32696.310603178812, -22932.241610555844, 3054.790562962361, 6307.729340521019, 49550.822323658744, 25082.412371923016, -14015.571953722472, 1649.8716652240355, -15141.80930159203, -12748.85389195131, 14418.864478929578, -10060.251958400246, -21915.997197150853, 1783.2221726443975, 0.20400000000000001, 0.966, -0.04, 192.0, 0.0, 0.0, 0.0, 0.0, 0.0, 0.0, 0.0, 0.0, 0.0, 1.662506508158558E9, 0.0, 2022-09-06 19:21:48.158
24.0, -12516.887487994134, -6830.2013671638215, -32524.91742669552, -22351.09625471786, 3568.679519734326, 6702.796423768571, 46670.218905236594, 22877.39042966252, -14781.186256550105, 895.276772412869, -15898.773479315458, -13565.363116903678, 13646.924632421093, -10805.9508569182, -22612.343443911486, 917.4944064014443, 0.20400000000000001, 0.966, -0.04, 192.0, 0.0, 0.0, 0.0, 0.0, 0.0, 0.0, 0.0, 0.0, 0.0, 1.6625065081585667E9, 0.0, 2022-09-06 19:21:48.158
26.0, -12327.188232801942, -7108.413530399029, -32616.201951050993, -22863.8452725226, 3144.62222392824, 6417.74462673004, 47930.969051238186, 24952.056998259664, -14009.1570030638, 1677.0960899705995, -15104.861868007407, -12747.602194261814, 14447.00532519881, -9995.141326801935, -21870.66785939549, 1723.0959800596215, 0.20400000000000001, 0.966, -0.04, 192.0, 0.0, 0.0, 0.0, 0.0, 0.0, 0.0, 0.0, 0.0, 0.0, 1.662506508158576E9, 0.0, 2022-09-06 19:21:48.158
28.0, -12614.586963008282, -6925.688019476894, -32644.342797320223, -22456.529433313543, 3438.480608282162, 6624.095931541435, 48274.582418749626, 23028.55527741376, -14760.44383769558, 905.6256300956762, -15914.106776011799, -13532.193128132001, 13664.358993096232, -10823.653438526802, -22667.82047364956, 972.792622183874, 0.166, 0.93, -0.044, 192.0, 2.5, 24.0, 14.5, 8.0, 127.0, 80.0, 0.0, 0.0, 0.0, 1.6625065081585844E9, 0.0, 2022-09-06 19:21:48.158
30.0, -12251.527577820729, -7005.617857649071, -32539.5801710582, -22748.823195555593, 3248.222559478588, 6547.407096315276, 46343.324642577725, 24762.80477795658, -14055.78274199757, 1676.7161103148594, -15122.787967060563, -12792.998587250542, 14416.092862617119, -9974.555370158598, -21846.304457939204, 1665.5625898316612, 0.166, 0.93, -0.044, 192.0, 0.0, 0.0, 0.0, 0.0, 0.0, 0.0, 0.0, 0.0, 0.0, 1.6625065081585927E9, 0.0, 2022-09-06 19:21:48.158
32.0, -12716.42151074666, -7066.727526989881, -32755.989760874483, -22581.162760396335, 3315.9259934337133, 6517.43340700071, 49897.56493539392, 23201.53542775338, -14734.649924594156, 889.9794089769613, -15931.563488431393, -13511.383654044112, 13680.876932248704, -10890.552209681537, -22691.759191961195, 1053.7059371120856, 0.166, 0.93, -0.044, 192.0, 0.0, 0.0, 0.0, 0.0, 0.0, 0.0, 0.0, 0.0, 0.0, 1.6625065081586013E9, 0.0, 2022-09-06 19:21:48.158
34.0, -12148.754256815226, -6883.689091645371, -32402.02753568024, -22580.402801084852, 3382.9812267996344, 6674.655577499339, 44879.30773249957, 24503.010452152546, -14108.354044956452, 1639.142827885488, -15148.179548761791, -12857.192797326185, 14386.27563551374, -9934.25517490568, -21813.626207545545, 1586.3033039931422, 0.166, 0.93, -0.044, 192.0, 0.0, 0.0, 0.0, 0.0, 0.0, 0.0, 0.0, 0.0, 0.0, 1.66250650815861E9, 0.0, 2022-09-06 19:21:48.158
36.0, -12778.112325443308, -7181.101403367687, -32820.631005839234, -22693.21205535079, 3192.007922173491, 6384.753451914007, 51365.64986296295, 23452.009076119553, -14646.718161906978, 949.3903457391675, -15872.66664179166, -13416.075815686681, 13752.000183105492, -10852.710706318701, -22633.711711610762, 1187.1234997658134, 0.166, 0.93, -0.044, 192.0, 0.0, 0.0, 0.0, 0.0, 0.0, 0.0, 0.0, 0.0, 0.0, 1.6625065081586208E9, 0.0, 2022-09-06 19:21:48.158
38.0, -12133.532718841163, -6829.955497974814, -32331.9324650684, -22483.575044104462, 3463.4028033498294, 6743.566005655051, 43616.9929643861, 24241.092710625257, -14212.781395051647, 1531.5638818220953, -15227.707055533774, -12969.487961469647, 14297.248637348252, -10007.83711765255, -21839.62128634707, 1465.4027182343864, 0.196, 0.972, -0.032, 192.0, 3.0, 16.0, 15.0, 48.0, 127.5, 0.0, 0.0, 0.0, 0.0, 1.6625065081586292E9, 0.0, 2022-09-06 19:21:48.158
40.0, -12815.752663106045, -7277.035090569865, -32870.74361690803, -22788.83281813059, 3094.911944259637, 6299.369788094734, 52599.510860384806, 23828.077176580093, -14587.195466422496, 962.7119854345304, -15831.718245949538, -13353.312117256179, 13801.866924985281, -10853.515369119094, -22603.134525195903, 1293.3166376729773, 0.196, 0.972, -0.032, 192.0, 0.0, 0.0, 0.0, 0.0, 0.0, 0.0, 0.0, 0.0, 0.0, 1.6625065081586378E9, 0.0, 2022-09-06 19:21:48.158
42.0, -12068.600901198495, -6708.89845000487, -32215.301062500606, -22322.910704959715, 3625.318840184074, 6855.4364866538635, 42552.222913768645, 23958.231384543345, -14278.11554409451, 1471.7282619152381, -15271.78469559964, -13035.112683190428, 14233.143834250432, -10030.367676063499, -21849.925440540963, 1388.1327376523898, 0.196, 0.972, -0.032, 192.0, 0.0, 0.0, 0.0, 0.0, 0.0, 0.0, 0.0, 0.0, 0.0, 1.6625065081586463E9, 0.0, 2022-09-06 19:21:48.158
44.0, -12856.097561847873, -7375.762745828956, -32925.79596350145, -22902.267921241277, 2982.527373138353, 6186.471126850978, 53500.59908635606, 24068.984278319393, -14487.283168707272, 1054.8235243348508, -15737.59505004824, -13231.271592530204, 13891.922103395713, -10760.979147074122, -22527.898553359337, 1429.1705404723336, 0.196, 0.972, -0.032, 192.0, 0.0, 0.0, 0.0, 0.0, 0.0, 0.0, 0.0, 0.0, 0.0, 1.6625065081586556E9, 0.0, 2022-09-06 19:21:48.158
46.0, -12085.2529508177, -6663.166780849312, -32173.27978292463, -22226.328817168334, 3669.307073272118, 6906.733740178793, 41968.7082730184, 23605.565560527513, -14399.440812997917, 1364.1940193407559, -15371.94286250387, -13146.245556622214, 14120.960428829245, -10114.007903815258, -21944.428616098, 1270.875486239849, 0.196, 0.972, -0.032, 192.0, 0.0, 0.0, 0.0, 0.0, 0.0, 0.0, 0.0, 0.0, 0.0, 1.6625065081586642E9, 0.0, 2022-09-06 19:21:48.158
48.0, -12848.341506521881, -7422.768464418467, -32942.78328928749, -22969.54667205175, 2917.439093284499, 6142.304079807292, 54091.98154115457, 24338.43455772812, -14395.7974786517, 1143.6046533113306, -15634.687618576005, -13127.26892557966, 13992.616712166871, -10665.291329060952, -22451.0979594109, 1542.382126138464, 0.20500000000000002, 0.976, -0.02, 192.0, 3.0, 88.0, 15.0, 80.0, 127.5, 96.0, 0.0, 0.0, 0.0, 1.6625065081586728E9, 0.0, 2022-09-06 19:21:48.158
50.0, -12092.025529387658, -6585.919152011771, -32161.45571010777, -22137.502984702944, 3752.008527756754, 6984.942494027912, 41766.849668842515, 23352.67792376017, -14477.783677313768, 1282.6325038233406, -15447.514110507263, -13226.75654015023, 14029.184166095754, -10196.463489110887, -22031.890992151617, 1161.396641897755, 0.20500000000000002, 0.976, -0.02, 192.0, 0.0, 0.0, 0.0, 0.0, 0.0, 0.0, 0.0, 0.0, 0.0, 1.6625065081586814E9, 0.0, 2022-09-06 19:21:48.158
52.0, -12840.026657584509, -7442.102723372308, -33012.252511054576, -23064.116902842154, 2859.838647823173, 6146.036821131328, 54288.31926444999, 24633.79050896055, -14279.34489003955, 1254.1787331317346, -15529.299143469232, -13007.173002621294, 14091.254960448143, -10531.1361588402, -22376.130208507802, 1606.4422257473739, 0.20500000000000002, 0.976, -0.02, 192.0, 0.0, 0.0, 0.0, 0.0, 0.0, 0.0, 0.0, 0.0, 0.0, 1.66250650815869E9, 0.0, 2022-09-06 19:21:48.158
54.0, -12197.659873683438, -6582.946369999215, -32264.229031113275, -22166.00145888346, 3749.4827806333046, 7029.780093405258, 42011.13188399457, 23109.937978975533, -14568.576463291225, 1167.3869094117772, -15575.611957980629, -13340.795140361208, 13919.772376987026, -10335.737208811905, -22184.195778870082, 1009.2483173904798, 0.20500000000000002, 0.976, -0.02, 192.0, 0.0, 0.0, 0.0, 0.0, 0.0, 0.0, 0.0, 0.0, 0.0, 1.6625065081586993E9, 0.0, 2022-09-06 19:21:48.158
56.0, -12828.15788127874, -7446.8859966857435, -33059.369988366365, -23136.737720577446, 2836.011688233815, 6176.234027890448, 54069.58509321036, 24846.82498536408, -14196.822249510557, 1343.4068969973205, -15456.20893910038, -12943.470530923669, 14172.727068987737, -10465.35497490823, -22325.861135227817, 1641.2885953531977, 0.20500000000000002, 0.976, -0.02, 192.0, 0.0, 0.0, 0.0, 0.0, 0.0, 0.0, 0.0, 0.0, 0.0, 1.6625065081587076E9, 0.0, 2022-09-06 19:21:48.158
58.0, -12273.789915298214, -6587.170849701268, -32330.792526101177, -22147.494214474467, 3729.2544519012517, 7057.719773974392, 42666.14975525734, 22918.33882550464, -14658.385772512649, 1064.9265128286497, -15701.96636938648, -13449.581080625187, 13822.274067672977, -10452.837998013258, -22331.493774830553, 910.8782900426734, 0.20950000000000002, 0.933, -0.006, 192.0, 3.0, 88.0, 13.5, 104.0, 0.0, 32.0, 0.0, 0.0, 0.0, 1.6625065081587164E9, 0.0, 2022-09-06 19:21:48.158
60.0, -12765.014203192497, -7423.461368496582, -33026.803496694985, -23111.077917942755, 2805.5462605412317, 6218.232955721969, 53436.471931513785, 25016.497077524316, -14111.595047902472, 1454.8750465959367, -15362.644536810463, -12846.933346621197, 14274.807485915124, -10295.951103681458, -22210.906113494173, 1725.53232020525, 0.20950000000000002, 0.933, -0.006, 192.0, 0.0, 0.0, 0.0, 0.0, 0.0, 0.0, 0.0, 0.0, 0.0, 1.662506508158725E9, 0.0, 2022-09-06 19:21:48.158
62.0, -12366.01321292081, -6649.755734176128, -32385.777817461232, -22153.328019777302, 3679.4547652548276, 6989.234028963331, 43697.682761869764, 22776.49465519126, -14740.662543852633, 952.7878108963741, -15816.675521931116, -13520.190241359502, 13735.124616041734, -10557.533569041916, -22447.38756983132, 871.0921849122268, 0.20950000000000002, 0.933, -0.006, 192.0, 0.0, 0.0, 0.0, 0.0, 0.0, 0.0, 0.0, 0.0, 0.0, 1.662506508158734E9, 0.0, 2022-09-06 19:21:48.158
64.0, -12667.493542133992, -7375.226303962029, -32916.36352734131, -23057.32197252774, 2863.8396100806726, 6249.078363070294, 52417.34414307406, 25066.63204033757, -14065.081067690977, 1501.6795994853496, -15279.138419525436, -12785.778973791477, 14328.831652263601, -10194.63064606555, -22097.247492938935, 1790.397082614551, 0.20950000000000002, 0.933, -0.006, 192.0, 0.0, 0.0, 0.0, 0.0, 0.0, 0.0, 0.0, 0.0, 0.0, 1.662506508158743E9, 0.0, 2022-09-06 19:21:48.158
66.0, -12463.869150146145, -6738.067476519046, -32402.98866069182, -22210.123802438236, 3666.6472156819364, 6884.359643979031, 44943.90427397541, 22674.503645241697, -14798.531210247424, 858.7763737173526, -15879.19335117261, -13570.280500683844, 13667.823513486805, -10679.35057632334, -22490.34762267442, 891.2758101553691, 0.20950000000000002, 0.933, -0.006, 192.0, 0.0, 0.0, 0.0, 0.0, 0.0, 0.0, 0.0, 0.0, 0.0, 1.6625065081587512E9, 0.0, 2022-09-06 19:21:48.158
68.0, -12572.744497387946, -7311.568535753315, -32756.57090623032, -22999.8779892776, 2968.0881462202246, 6294.966494437039, 51061.084993014934, 24974.699315392892, -14050.999468684135, 1521.505596817207, -15209.91506694735, -12786.158953447219, 14378.005490065276, -10145.72502919734, -21907.212961579917, 1810.267783435319, 0.24075000000000002, 0.9735, 0.003, 192.0, 4.0, 64.0, 15.5, 88.0, 0.0, 48.0, 0.0, 0.0, 0.0, 1.6625065081587613E9, 0.0, 2022-09-06 19:21:48.158
70.0, -12582.288692270362, -6844.126503959478, -32458.264524729795, -22294.70280345712, 3617.0933982245206, 6804.809785462593, 46434.65387042211, 22714.893247472435, -14835.590402554322, 798.9407538104956, -15926.444938951128, -13617.107405317713, 13607.272637757378, -10798.284208570029, -22476.78011379005, 954.8441713862624, 0.24075000000000002, 0.9735, 0.003, 192.0, 0.0, 0.0, 0.0, 0.0, 0.0, 0.0, 0.0, 0.0, 0.0, 1.6625065081587696E9, 0.0, 2022-09-06 19:21:48.158
72.0, -12465.880807147123, -7213.869060739167, -32638.017253639373, -22884.408877421487, 3141.113000048757, 6455.250853926045, 49615.75414130141, 24973.961707825867, -14049.412494827808, 1567.7737078396926, -15143.105702770437, -12779.185209177162, 14386.700318658392, -10082.067260988624, -21757.702142918366, 1854.0548508232655, 0.24075000000000002, 0.9735, 0.003, 192.0, 0.0, 0.0, 0.0, 0.0, 0.0, 0.0, 0.0, 0.0, 0.0, 1.662506508158779E9, 0.0, 2022-09-06 19:21:48.158
74.0, -12678.46824866155, -6944.4858365638065, -32554.086453209697, -22377.203092241656, 3567.8078017005687, 6712.564136095541, 48122.858777387, 22847.707313025872, -14809.103585374784, 817.1350737971156, -15918.353607458308, -13575.846085053217, 13604.903352845116, -10838.00325846711, -22484.558520860497, 1035.019878747449, 0.24075000000000002, 0.9735, 0.003, 192.0, 0.0, 0.0, 0.0, 0.0, 0.0, 0.0, 0.0, 0.0, 0.0, 1.6625065081587875E9, 0.0, 2022-09-06 19:21:48.158
76.0, -12379.73718401637, -7107.050073987255, -32555.695778810477, -22791.22445478731, 3253.095239769845, 6522.328439036422, 48141.76835319619, 24805.653072077403, -14048.607832027415, 1604.0282373462007, -15122.363283915913, -12795.926665774186, 14384.554551190682, -9999.209344292802, -21730.85769782754, 1742.2514250578197, 0.24075000000000002, 0.9735, 0.003, 192.0, 0.0, 0.0, 0.0, 0.0, 0.0, 0.0, 0.0, 0.0, 0.0, 1.662506508158796E9, 0.0, 2022-09-06 19:21:48.158
78.0, -12776.01126146451, -7049.53903550375, -32732.2745600074, -22552.26195481562, 3445.58846301895, 6585.315654911477, 49826.10640837031, 23006.292939936273, -14759.840340595287, 818.6773441645317, -15930.356494230808, -13557.003564477393, 13636.84399567175, -10879.175171753785, -22580.80513248505, 1006.6555150336642, 0.244375, 0.96675, 0.0025, 192.0, 3.5, 96.0, 15.0, 0.0, 0.0, 8.0, 0.0, 0.0, 0.0, 1.6625065081588047E9, 0.0, 2022-09-06 19:21:48.158
80.0, -12312.860764606092, -6995.067834266167, -32581.06500876725, -22754.70170434734, 3324.3302493489086, 6623.179510018767, 46672.94581806014, 24588.63998516083, -14074.088820706465, 1578.6813591338826, -15151.152330774348, -12856.008154870053, 14375.904426086478, -9979.53980917213, -21799.45520156088, 1580.983588812779, 0.244375, 0.96675, 0.0025, 192.0, 0.0, 0.0, 0.0, 0.0, 0.0, 0.0, 0.0, 0.0, 0.0, 1.6625065081588137E9, 0.0, 2022-09-06 19:21:48.158
82.0, -12834.036390070485, -7139.728324380913, -32930.6239403038, -22696.989500163734, 3274.999949336046, 6472.774621579007, 51438.248328953785, 23217.136945383187, -14683.397374558137, 850.506228268889, -15936.100892555822, -13508.723796453929, 13692.142211454178, -10885.232494501173, -22688.384078548443, 1028.336707155312, 0.244375, 0.96675, 0.0025, 192.0, 0.0, 0.0, 0.0, 0.0, 0.0, 0.0, 0.0, 0.0, 0.0, 1.662506508158822E9, 0.0, 2022-09-06 19:21:48.158
84.0, -12263.016374470757, -6926.336220066098, -32596.35360197468, -22653.40359847589, 3358.684880576716, 6665.536065761575, 45244.13290549909, 24293.41814439513, -14123.150899785865, 1516.0741229145674, -15230.523375335144, -12955.652231651811, 14331.335047642595, -10009.960533375805, -21900.70860394342, 1418.352296155965, 0.244375, 0.96675, 0.0025, 192.0, 0.0, 0.0, 0.0, 0.0, 0.0, 0.0, 0.0, 0.0, 0.0, 1.662506508158831E9, 0.0, 2022-09-06 19:21:48.158
86.0, -12905.003178716086, -7273.905846346122, -33072.244593172625, -22829.781213972714, 3064.5135718004194, 6335.087875734315, 52868.98349153799, 23484.374402090838, -14630.177871010052, 856.4294405495455, -15943.72283741508, -13483.846304875173, 13729.670790394639, -10947.683268509301, -22775.04179180167, 1080.528030458454, 0.244375, 0.96675, 0.0025, 192.0, 0.0, 0.0, 0.0, 0.0, 0.0, 0.0, 0.0, 0.0, 0.0, 1.6625065081588392E9, 0.0, 2022-09-06 19:21:48.158
88.0, -12211.003865123257, -6830.357829375009, -32513.6744992345, -22508.20666649421, 3424.086084852944, 6761.201532030289, 44037.69749852389, 23995.111762894605, -14210.836793284036, 1431.9421567847917, -15314.878858909471, -13064.862855060443, 14243.358581466508, -10084.145973222969, -22007.37112848415, 1303.1290534888572, 0.2211875, 0.9273750000000001, -0.00375, 192.0, 3.0, 24.0, 13.5, 96.0, 127.5, 88.0, 0.0, 0.0, 0.0, 1.6625065081588492E9, 0.0, 2022-09-06 19:21:48.158
90.0, -12945.169263502272, -7383.451745921582, -33112.67889889227, -22926.854840142114, 2947.569244810253, 6198.406958390112, 53968.622263505735, 23755.32224837807, -14550.963288660443, 912.8228918102851, -15883.641348319215, -13384.336338560146, 13807.141936676733, -10879.041061287053, -22747.057407743625, 1217.6559826917628, 0.2211875, 0.9273750000000001, -0.00375, 192.0, 0.0, 0.0, 0.0, 0.0, 0.0, 0.0, 0.0, 0.0, 0.0, 1.662506508158859E9, 0.0, 2022-09-06 19:21:48.158
92.0, -12158.074934253089, -6740.548520153585, -32378.424093535436, -22352.258545429533, 3553.927368393823, 6853.156608719422, 43104.75803670383, 23619.44599383426, -14309.45268982085, 1321.479835686664, -15387.85730455605, -13173.917016257885, 14163.361688060962, -10139.310078538667, -22016.870619877653, 1233.972756144137, 0.2211875, 0.9273750000000001, -0.00375, 192.0, 0.0, 0.0, 0.0, 0.0, 0.0, 0.0, 0.0, 0.0, 0.0, 1.6625065081588676E9, 0.0, 2022-09-06 19:21:48.158
94.0, -12936.005048275596, -7458.6877177581455, -33107.26977673409, -22998.402774143553, 2882.2350957673902, 6121.181681297026, 54716.04224634675, 24010.690928779954, -14437.95286869441, 989.7352444809967, -15767.904015529635, -13281.652424532465, 13907.747138470071, -10793.098603856399, -22597.591292570985, 1412.3843803863979, 0.2211875, 0.9273750000000001, -0.00375, 192.0, 0.0, 0.0, 0.0, 0.0, 0.0, 0.0, 0.0, 0.0, 0.0, 1.6625065081588771E9, 0.0, 2022-09-06 19:21:48.158
96.0, -12147.63666959246, -6678.254208356644, -32306.920863022908, -22238.77873882994, 3653.4149829643948, 6917.79785368417, 42649.38594691586, 23371.676906547178, -14418.775071951757, 1208.3800087428103, -15482.338128368632, -13292.649482804476, 14044.405704069819, -10230.147568005033, -22063.429303578057, 1186.810575343439, 0.2211875, 0.9273750000000001, -0.00375, 192.0, 0.0, 0.0, 0.0, 0.0, 0.0, 0.0, 0.0, 0.0, 0.0, 1.662506508158887E9, 0.0, 2022-09-06 19:21:48.158
98.0, -12903.21503915966, -7492.461203630114, -33084.49334913413, -23053.298658525786, 2833.3294788991784, 6116.219594027948, 55190.279208454995, 24381.707534993595, -14336.967687245333, 1080.662140925186, -15651.898461806592, -13156.884986982941, 14001.24448552662, -10666.833599428368, -22472.3544683879, 1604.117644324022, 0.23159375, 0.9386875000000001, -0.007875, 192.0, 3.5, 72.0, 14.5, 88.0, 127.5, 80.0, 0.0, 0.0, 0.0, 1.6625065081588964E9, 0.0, 2022-09-06 19:21:48.158
100.0, -12193.055414325645, -6666.810115195527, -32297.35431639604, -22188.934348694605, 3688.820146181601, 6939.210824872354, 42735.75308749117, 23078.645536738102, -14537.261669309339, 1081.7126729145853, -15581.17754235, -13380.424783280467, 13921.18053688771, -10338.173548957533, -22157.887775646184, 1102.5221470024762, 0.23159375, 0.9386875000000001, -0.007875, 192.0, 0.0, 0.0, 0.0, 0.0, 0.0, 0.0, 0.0, 0.0, 0.0, 1.6625065081589072E9, 0.0, 2022-09-06 19:21:48.158
102.0, -12855.337602536394, -7503.502965391036, -33061.85103200091, -23079.919586172055, 2830.2002346754357, 6096.058320529261, 55377.38566129037, 24606.186104558245, -14259.183616540864, 1165.6881768331739, -15556.210643793422, -13058.91729103533, 14083.498905122151, -10560.819275476846, -22384.132133022802, 1682.2816946842308, 0.23159375, 0.9386875000000001, -0.007875, 192.0, 0.0, 0.0, 0.0, 0.0, 0.0, 0.0, 0.0, 0.0, 0.0, 1.6625065081589158E9, 0.0, 2022-09-06 19:21:48.158
104.0, -12242.475121316329, -6658.964652891714, -32332.29009297968, -22158.848900657762, 3710.657800514436, 6954.387659357508, 43207.97839259844, 22820.371129557032, -14596.292626415805, 1008.6671720346418, -15656.167644997555, -13447.122388735103, 13861.903710592236, -10412.560154504796, -22240.097491752804, 1003.079235920815, 0.23159375, 0.9386875000000001, -0.007875, 192.0, 0.0, 0.0, 0.0, 0.0, 0.0, 0.0, 0.0, 0.0, 0.0, 1.6625065081589243E9, 0.0, 2022-09-06 19:21:48.158
106.0, -12816.199697995151, -7510.029674771986, -33100.25132897512, -23160.318810977795, 2781.920466651972, 6074.824163296719, 55014.661552269645, 24786.207054401286, -14178.270301612652, 1246.3332708279218, -15463.406200814987, -12984.32951978797, 14183.612368537471, -10456.369573637197, -22323.737719504563, 1676.4925928703062, 0.23159375, 0.9386875000000001, -0.007875, 192.0, 0.0, 0.0, 0.0, 0.0, 0.0, 0.0, 0.0, 0.0, 0.0, 1.662506508158933E9, 0.0, 2022-09-06 19:21:48.158
108.0, -12303.562438912682, -6662.65269072684, -32406.45318108239, -22204.424107602135, 3678.471288498794, 6939.99313592829, 44030.56729204265, 22655.079979310034, -14693.276845607383, 892.7510252894194, -15770.943852775557, -13554.410762120577, 13763.645441966706, -10551.073914894332, -22426.801613187985, 860.4304028070454, 0.224796875, 0.91234375, -0.0199375, 192.0, 3.0, 104.0, 13.5, 88.0, 127.5, 0.0, 0.0, 0.0, 0.0, 1.6625065081589425E9, 0.0, 2022-09-06 19:21:48.158
110.0, -12698.450708204593, -7433.430246523649, -33049.69168301722, -23152.138072507154, 2804.451025062922, 6157.860893948186, 54256.088048945436, 24921.680977544904, -14077.732155052681, 1380.2425718596664, -15329.228678849779, -12881.198570871184, 14310.659684021437, -10311.574973055718, -22220.2938461654, 1722.1348550480432, 0.224796875, 0.91234375, -0.0199375, 192.0, 0.0, 0.0, 0.0, 0.0, 0.0, 0.0, 0.0, 0.0, 0.0, 1.6625065081589508E9, 0.0, 2022-09-06 19:21:48.158
112.0, -12359.151227373031, -6688.759528250638, -32502.409220029025, -22224.54067761191, 3621.42963664885, 6899.60353369755, 45175.89302967704, 22531.02779758308, -14725.731578556488, 848.5839782457326, -15834.355751795263, -13591.604064894209, 13733.984677074513, -10630.936697833145, -22543.723588433695, 833.541254227311, 0.224796875, 0.91234375, -0.0199375, 192.0, 0.0, 0.0, 0.0, 0.0, 0.0, 0.0, 0.0, 0.0, 0.0, 1.66250650815896E9, 0.0, 2022-09-06 19:21:48.158
114.0, -12612.530602518393, -7378.534362141414, -33054.78788075303, -23113.96129297749, 2780.601713729109, 6194.562458343799, 53123.39104692829, 24965.825672844134, -14020.06465435799, 1447.253101736677, -15263.31338445108, -12830.594221424368, 14391.46124022737, -10192.484878597841, -22155.116159333727, 1737.1328755775544, 0.224796875, 0.91234375, -0.0199375, 192.0, 0.0, 0.0, 0.0, 0.0, 0.0, 0.0, 0.0, 0.0, 0.0, 1.6625065081589687E9, 0.0, 2022-09-06 19:21:48.158
116.0, -12447.731190649414, -6757.781715128626, -32641.906457174595, -22270.45116072311, 3526.2559087581526, 6828.994372963235, 46584.097633850295, 22519.427242210775, -14778.30288151537, 762.574465581711, -15938.067846067888, -13640.912013162615, 13672.740897266973, -10772.870275124345, -22692.02741289466, 824.9134808675625, 0.224796875, 0.91234375, -0.0199375, 192.0, 0.0, 0.0, 0.0, 0.0, 0.0, 0.0, 0.0, 0.0, 0.0, 1.662506508158978E9, 0.0, 2022-09-06 19:21:48.158
118.0, -12486.936150424022, -7274.710509146513, -32964.084501753394, -23000.36972765562, 2862.4538019244437, 6296.888744460195, 51646.03014541032, 24930.576971838116, -13990.090965043422, 1503.4900907862295, -15197.442793541288, -12787.567113347903, 14456.214243914395, -10080.346176665566, -22037.143652098617, 1762.1221258785877, 0.224796875, 0.91234375, -0.0199375, 192.0, 0.0, 0.0, 0.0, 0.0, 0.0, 0.0, 0.0, 0.0, 0.0, 1.6625065081589863E9, 0.0, 2022-09-06 19:21:48.158
120.0, -12548.984593031955, -6876.804754353137, -32747.29493228137, -22367.971821781615, 3420.062770850989, 6681.271693858111, 48121.07063783058, 22567.014106156126, -14803.940332405607, 708.3044300442255, -15982.324300089396, -13651.596147012253, 13657.698173248551, -10841.825406768967, -22737.44615762784, 858.8210772062632, 0.246, 0.87, -0.074, 192.0, 3.5, 88.0, 13.5, 24.0, 126.5, 88.0, 0.0, 0.0, 0.0, 1.6625065081589952E9, 0.0, 2022-09-06 19:21:48.158
122.0, -12389.21432366542, -7194.08776689622, -32843.720357861566, -22913.332034746654, 2943.6129860416636, 6350.242358475013, 50006.52968961355, 24768.83974895951, -14021.29400030303, 1488.1344423454336, -15181.058964855549, -12823.218145754117, 14458.538825337748, -10055.960423464827, -21984.30412820627, 1725.7781893942583, 0.246, 0.87, -0.074, 192.0, 0.0, 0.0, 0.0, 0.0, 0.0, 0.0, 0.0, 0.0, 0.0, 1.6625065086391304E9, 0.0, 2022-09-06 19:21:48.639
124.0, -12624.555841035348, -6972.1349444550215, -32779.593203019285, -22450.628572777343, 3321.5362812919952, 6568.082459936436, 49755.43019240263, 22683.220825579265, -14817.574896523345, 692.6358571810553, -15998.194038652664, -13646.634059743174, 13660.916824450116, -10914.468576248715, -22748.26440194421, 942.7965811248519, 0.246, 0.87, -0.074, 192.0, 0.0, 0.0, 0.0, 0.0, 0.0, 0.0, 0.0, 0.0, 0.0, 1.662506508639199E9, 0.0, 2022-09-06 19:21:48.639
126.0, -12316.146471041022, -7099.718701805914, -32688.353382152723, -22792.61026294354, 3094.330798903799, 6445.259624154523, 48312.22275641236, 24534.14643217879, -14059.806055999525, 1512.2966781016205, -15159.33306924499, -12863.205416584662, 14458.71763929339, -10025.874975427983, -21854.75341734331, 1689.4119011654736, 0.246, 0.87, -0.074, 192.0, 0.0, 0.0, 0.0, 0.0, 0.0, 0.0, 0.0, 0.0, 0.0, 1.66250650863927E9, 0.0, 2022-09-06 19:21:48.639
128.0, -12745.925813427666, -7110.380483911095, -32844.52502066195, -22580.939242951783, 3259.26432123951, 6465.666766842219, 51272.86777172897, 22914.516677202784, -14784.918997874141, 700.1013398291278, -16005.50305908955, -13656.200606370045, 13701.440537147588, -10992.677330097835, -22659.77384564565, 1043.5805968738314, 0.246, 0.87, -0.074, 192.0, 0.0, 0.0, 0.0, 0.0, 0.0, 0.0, 0.0, 0.0, 0.0, 1.6625065086392825E9, 0.0, 2022-09-06 19:21:48.639
130.0, -12227.208879853355, -6970.838543276614, -32549.236124662893, -22651.86132810847, 3257.4761816830855, 6595.195125960723, 46688.10030080084, 24324.688234888108, -14101.380300686396, 1479.9537038747912, -15197.53220051911, -12989.13514484586, 14444.256060630807, -10018.051864868625, -21748.694389902877, 1596.249830275754, 0.192, 0.9460000000000001, -0.066, 192.0, 3.0, 0.0, 14.5, 72.0, 126.5, 120.0, 0.0, 0.0, 0.0, 1.6625065086392972E9, 0.0, 2022-09-06 19:21:48.639
132.0, -12814.769186350011, -7212.751473516402, -32930.78040251498, -22714.312102116597, 3126.204386497067, 6371.252998263001, 52723.98772525641, 23144.024389269878, -14710.465337093514, 762.3732998816133, -15966.767485948503, -13590.486477671442, 13771.177979848146, -10958.79208550359, -22625.508621395664, 1110.7028854731186, 0.192, 0.9460000000000001, -0.066, 192.0, 0.0, 0.0, 0.0, 0.0, 0.0, 0.0, 0.0, 0.0, 0.0, 1.662506508639314E9, 0.0, 2022-09-06 19:21:48.639
134.0, -12150.095361482545, -6836.795131778137, -32444.048815256217, -22519.427242210775, 3397.1969362732098, 6736.033467773613, 45301.42042653805, 24057.2272607359, -14167.51911252965, 1451.2987674830877, -15227.327075878035, -13033.458654100736, 14389.986025093322, -10012.419225265889, -21771.090837847096, 1458.1607530308668, 0.192, 0.9460000000000001, -0.066, 192.0, 0.0, 0.0, 0.0, 0.0, 0.0, 0.0, 0.0, 0.0, 0.0, 1.6625065086393256E9, 0.0, 2022-09-06 19:21:48.639
136.0, -12854.868215902832, -7293.217753555507, -33004.71997317314, -22832.776347729727, 3004.789710615839, 6271.117183103226, 53922.95764958354, 23452.836090664397, -14620.097234260707, 855.7365364714309, -15878.768668027958, -13460.287566219278, 13862.462504203619, -10878.079936275475, -22596.65251930386, 1214.2138140456457, 0.192, 0.9460000000000001, -0.066, 192.0, 0.0, 0.0, 0.0, 0.0, 0.0, 0.0, 0.0, 0.0, 0.0, 1.662506508639337E9, 0.0, 2022-09-06 19:21:48.639
138.0, -12114.1090529095, -6745.108276022467, -32368.812843419655, -22394.458638961154, 3499.7467398341587, 6821.260669381699, 44120.4660082419, 23752.03654194314, -14263.63161368747, 1355.610949469918, -15299.634969190953, -13131.962791915274, 14311.129070654997, -10077.328691164099, -21831.954637998897, 1326.2184055111893, 0.192, 0.9460000000000001, -0.066, 192.0, 0.0, 0.0, 0.0, 0.0, 0.0, 0.0, 0.0, 0.0, 0.0, 1.6625065086393492E9, 0.0, 2022-09-06 19:21:48.639
140.0, -12869.463905032148, -7362.999899744976, -33048.52939230554, -22923.591485451638, 2914.220442082935, 6203.301990425824, 54762.95855795844, 23747.94617270782, -14521.168413301519, 931.3971914526453, -15791.105126274244, -13348.104160798093, 13972.164865990266, -10814.019836666565, -22535.051111585035, 1342.0210888410913, 0.162, 0.972, -0.096, 192.0, 2.5, 8.0, 15.0, 48.0, 126.5, 0.0, 0.0, 0.0, 0.0, 1.6625065086393604E9, 0.0, 2022-09-06 19:21:48.639
142.0, -12107.44823306182, -6683.059833414535, -32319.30372945115, -22298.65906222571, 3578.5813425280267, 6895.379053995497, 43246.13282038365, 23397.49317139306, -14349.261146695751, 1273.0883089409244, -15381.330595175099, -13233.126787319994, 14229.187575481841, -10175.385794089532, -21924.066176899218, 1206.681276164207, 0.162, 0.972, -0.096, 192.0, 0.0, 0.0, 0.0, 0.0, 0.0, 0.0, 0.0, 0.0, 0.0, 1.662506508639372E9, 0.0, 2022-09-06 19:21:48.639
144.0, -12876.951739424676, -7441.5439297609255, -33077.43019788626, -23004.41539340203, 2826.7804177737735, 6129.3400680232135, 55193.028473023, 24003.292501365246, -14448.927575221966, 1007.2143086450469, -15711.532916013351, -13256.841988187074, 14052.564090796006, -10738.895623552278, -22480.803427792005, 1462.5416949441071, 0.162, 0.972, -0.096, 192.0, 0.0, 0.0, 0.0, 0.0, 0.0, 0.0, 0.0, 0.0, 0.0, 1.6625065086393836E9, 0.0, 2022-09-06 19:21:48.639
146.0, -12087.510477007685, -6605.298114454522, -32248.962789650297, -22176.976165411015, 3661.886294112956, 6938.361458583053, 42756.204933667774, 23075.33747855872, -14448.793464755234, 1168.1915722121682, -15469.530578795742, -13314.688302837409, 14125.296667253575, -10238.484768686863, -22006.030023816827, 1123.8457112128392, 0.162, 0.972, -0.096, 192.0, 0.0, 0.0, 0.0, 0.0, 0.0, 0.0, 0.0, 0.0, 0.0, 1.6625065086394165E9, 0.0, 2022-09-06 19:21:48.639
148.0, -12807.638979868769, -7423.751941174501, -33031.05032814149, -23016.261817963343, 2810.8212722326844, 6115.392579483102, 55146.045106177946, 24333.76304313696, -14310.011483432232, 1143.6940602891518, -15552.612012936117, -13085.068832048039, 14199.303293145096, -10587.440203123118, -22318.038024668458, 1632.3926010599855, 0.162, 0.972, -0.096, 192.0, 0.0, 0.0, 0.0, 0.0, 0.0, 0.0, 0.0, 0.0, 0.0, 1.6625065086394293E9, 0.0, 2022-09-06 19:21:48.639
150.0, -12149.111884726512, -6609.92492555677, -32269.57109803809, -22133.56907767881, 3660.880465612467, 6942.094199907089, 42711.09911335696, 22833.22338261883, -14528.902116883055, 1064.881809339739, -15557.417637994009, -13395.93689393245, 14033.095721375434, -10338.888804780103, -22089.223216679482, 1059.8973703262056, 0.162, 0.994, -0.082, 192.0, 2.5, 8.0, 15.5, 8.0, 126.5, 56.0, 0.0, 0.0, 0.0, 1.6625065086394415E9, 0.0, 2022-09-06 19:21:48.639
152.0, -12784.214351679606, -7453.90444444471, -33031.05032814149, -23052.225774791932, 2818.5326240697655, 6107.368303223647, 54686.649702388015, 24569.73040935164, -14249.952346080821, 1217.298354780478, -15476.146695154512, -13004.222572353194, 14251.047581559133, -10513.880612120702, -22255.430788449146, 1701.012456537778, 0.162, 0.994, -0.082, 192.0, 0.0, 0.0, 0.0, 0.0, 0.0, 0.0, 0.0, 0.0, 0.0, 1.6625065086394522E9, 0.0, 2022-09-06 19:21:48.639
154.0, -12205.594742965073, -6612.607134891407, -32289.39709536995, -22102.94718777504, 3711.30600110364, 6945.826941231125, 43077.15363230153, 22640.171365758346, -14594.236265925916, 970.6245029717091, -15655.76531359736, -13478.772458883817, 13957.680935583227, -10459.342355649753, -22202.323043623335, 993.8032619718626, 0.162, 0.994, -0.082, 192.0, 0.0, 0.0, 0.0, 0.0, 0.0, 0.0, 0.0, 0.0, 0.0, 1.662506508639464E9, 0.0, 2022-09-06 19:21:48.639
156.0, -12690.98522555652, -7388.682054124124, -32974.992153047584, -23013.624312117616, 2826.6463073070418, 6180.592618059232, 53856.70707901801, 24751.338333051008, -14147.961336131257, 1326.3972194668318, -15354.307336128633, -12901.717472281156, 14366.18141724842, -10369.24247375041, -22147.47186273001, 1781.6799022769812, 0.162, 0.994, -0.082, 192.0, 0.0, 0.0, 0.0, 0.0, 0.0, 0.0, 0.0, 0.0, 0.0, 1.6625065086394763E9, 0.0, 2022-09-06 19:21:48.639
158.0, -12273.231121686831, -6638.713972415206, -32349.50093621027, -22091.458391125012, 3706.4780243012938, 6925.889185176991, 43919.81439826661, 22539.722626176193, -14634.782330367843, 902.0046474939165, -15713.857497436704, -13511.182488344013, 13900.192248844178, -10523.55891746985, -22317.814507223906, 973.664340217631, 0.162, 0.994, -0.082, 192.0, 0.0, 0.0, 0.0, 0.0, 0.0, 0.0, 0.0, 0.0, 0.0, 1.6625065086394875E9, 0.0, 2022-09-06 19:21:48.639
160.0, -12615.793957208867, -7344.380896613705, -32941.21866717561, -22976.900395977547, 2860.6433106235636, 6227.106598270727, 52690.6389225291, 24903.151381391453, -14073.910006750824, 1395.7546825116494, -15253.92565177985, -12824.20162251015, 14445.552461809215, -10221.475091156375, -22043.73741671293, 1844.4436007074835, 0.20600000000000002, 0.972, -0.048, 192.0, 3.0, 56.0, 15.0, 48.0, 127.0, 64.0, 0.0, 0.0, 0.0, 1.6625065086394987E9, 0.0, 2022-09-06 19:21:48.639
162.0, -12402.290094171774, -6735.541729395596, -32484.304307020226, -22176.506778777457, 3657.728869644269, 6865.561826892117, 45023.0741528361, 22497.947215789227, -14696.920179953597, 798.0243322878281, -15816.60846669775, -13578.908274043593, 13840.423684170686, -10664.576073238382, -22436.658732492775, 950.4632294730222, 0.20600000000000002, 0.972, -0.048, 192.0, 0.0, 0.0, 0.0, 0.0, 0.0, 0.0, 0.0, 0.0, 0.0, 1.66250650863951E9, 0.0, 2022-09-06 19:21:48.639
164.0, -12553.745514600936, -7289.887343631666, -32937.08359445138, -22959.510738791316, 2939.0979336616915, 6290.071462401326, 51223.783340905116, 24901.273834857206, -14053.480512318672, 1415.3571623989537, -15236.4465876158, -12827.710846389635, 14480.95762502642, -10154.688078723917, -22007.080555806227, 1813.821710803713, 0.20600000000000002, 0.972, -0.048, 192.0, 0.0, 0.0, 0.0, 0.0, 0.0, 0.0, 0.0, 0.0, 0.0, 1.6625065086395235E9, 0.0, 2022-09-06 19:21:48.639
166.0, -12527.661028821592, -6835.1858061773555, -32646.93559967704, -22299.731945959564, 3544.2937665335858, 6792.2034015898, 46293.05556929774, 22566.03062940009, -14729.643133836167, 736.579386780189, -15891.57621760085, -13608.010245324404, 13809.69003554464, -10722.243573933074, -22566.23179510019, 935.7110781325196, 0.20600000000000002, 0.972, -0.048, 192.0, 0.0, 0.0, 0.0, 0.0, 0.0, 0.0, 0.0, 0.0, 0.0, 1.6625065086395364E9, 0.0, 2022-09-06 19:21:48.639
168.0, -12468.697126948491, -7195.004188418889, -32910.46266680511, -22910.135735289543, 2996.541916911831, 6426.551214045431, 49599.41501610458, 24885.426448038394, -14039.667134245294, 1419.313421167543, -15215.882982716917, -12842.507701219047, 14492.625235632091, -10073.014804484226, -21995.949387067485, 1741.5361692352499, 0.20600000000000002, 0.972, -0.048, 192.0, 0.0, 0.0, 0.0, 0.0, 0.0, 0.0, 0.0, 0.0, 0.0, 1.662506508639548E9, 0.0, 2022-09-06 19:21:48.639
170.0, -12627.282753858895, -6917.931964150902, -32775.99457216198, -22427.516869010553, 3438.771180960081, 6705.098653447468, 47608.92511712613, 22639.366702957956, -14731.43127339259, 732.3549070781359, -15914.173831245165, -13586.440811925033, 13794.893180715226, -10757.738144128101, -22650.073188552047, 947.9374823495725, 0.22, 0.888, -0.032, 192.0, 3.0, 112.0, 13.5, 96.0, 127.5, 0.0, 0.0, 0.0, 0.0, 1.6625065086395593E9, 0.0, 2022-09-06 19:21:48.639
172.0, -12376.518532814805, -7095.06953895921, -32804.78361902042, -22816.57133299963, 3072.694310271062, 6522.216680314145, 47894.558059520496, 24723.04102457059, -14038.773064467081, 1419.6263455899175, -15204.081261644515, -12883.523152294536, 14494.703947866434, -10051.691240273864, -21975.788113568797, 1625.9329469124016, 0.22, 0.888, -0.032, 192.0, 0.0, 0.0, 0.0, 0.0, 0.0, 0.0, 0.0, 0.0, 0.0, 1.6625065086395707E9, 0.0, 2022-09-06 19:21:48.639
174.0, -12728.51380449698, -7030.495349227828, -32830.30931118838, -22521.59536142294, 3311.187423609188, 6598.2573149511, 48761.24695077503, 22820.684053979407, -14718.131985441683, 758.6182068131217, -15904.249656707008, -13542.206709647979, 13815.881468758758, -10808.700121486203, -22653.694171153806, 1017.6078698167646, 0.22, 0.888, -0.032, 192.0, 0.0, 0.0, 0.0, 0.0, 0.0, 0.0, 0.0, 0.0, 0.0, 1.6625065086395833E9, 0.0, 2022-09-06 19:21:48.639
176.0, -12288.475011405351, -6980.181572458932, -32653.685826502544, -22672.223767307256, 3189.035140160935, 6624.654725152818, 46240.19369366094, 24475.718972172617, -14083.856533033435, 1397.475766834708, -15221.20269789728, -12943.13525475684, 14479.8176860592, -10049.210196639324, -21922.121575131605, 1539.632861570461, 0.22, 0.888, -0.032, 192.0, 0.0, 0.0, 0.0, 0.0, 0.0, 0.0, 0.0, 0.0, 0.0, 1.6625065086395953E9, 0.0, 2022-09-06 19:21:48.639
178.0, -12765.505941570515, -7098.623466327605, -32828.252950698494, -22579.240510373176, 3259.130210772778, 6515.466453488642, 49557.72901269544, 23050.169414302043, -14653.33427826575, 838.8386176632188, -15836.769740196436, -13432.99608623935, 13874.800667142948, -10794.260894568073, -22557.93929790727, 1193.0467120464698, 0.22, 0.888, -0.032, 192.0, 0.0, 0.0, 0.0, 0.0, 0.0, 0.0, 0.0, 0.0, 0.0, 1.6625065086396065E9, 0.0, 2022-09-06 19:21:48.639
180.0, -12235.479025301818, -6897.502469718751, -32514.993252157365, -22557.60402174044, 3271.133097545278, 6703.377569124409, 44860.152287501376, 24178.239605216935, -14145.815568663547, 1348.5701499664963, -15241.11810220696, -13004.691958986756, 14433.862499459088, -10077.70867081984, -21844.27044919377, 1486.994503378213, 0.22, 0.968, -0.03, 192.0, 3.0, 112.0, 15.0, 32.0, 127.5, 8.0, 0.0, 0.0, 0.0, 1.6625065086396182E9, 0.0, 2022-09-06 19:21:48.639
182.0, -12818.613686396324, -7179.447374277995, -32829.862276299275, -22660.10912181248, 3163.1518200816895, 6437.6823827841745, 50102.37396983791, 23375.23083391557, -14573.896178471588, 892.0581212113049, -15757.64456482465, -13331.765035601264, 13912.262190850042, -10761.694402896692, -22484.759686560596, 1350.4700482451974, 0.22, 0.968, -0.03, 192.0, 0.0, 0.0, 0.0, 0.0, 0.0, 0.0, 0.0, 0.0, 0.0, 1.6625065086396303E9, 0.0, 2022-09-06 19:21:48.639
184.0, -12233.065036900645, -6830.78251251966, -32384.07908488263, -22445.286505852524, 3423.6390499638383, 6789.588247488528, 43754.165620108324, 23895.043002968196, -14233.792034839635, 1266.7851170045278, -15298.830306390562, -13102.324378767536, 14340.70042856937, -10130.414084245454, -21821.874001249555, 1389.9879324421804, 0.22, 0.968, -0.03, 192.0, 0.0, 0.0, 0.0, 0.0, 0.0, 0.0, 0.0, 0.0, 0.0, 1.6625065086396437E9, 0.0, 2022-09-06 19:21:48.639
186.0, -12862.512512506548, -7249.609500123203, -32851.40935795419, -22729.623047068482, 3123.589232395796, 6399.371492787778, 50439.61709017958, 23682.276747498126, -14479.594168614647, 979.6099042427427, -15684.554360455795, -13226.4212639834, 13996.081232557444, -10729.329076925407, -22396.090316306392, 1471.6612066818723, 0.22, 0.968, -0.03, 192.0, 0.0, 0.0, 0.0, 0.0, 0.0, 0.0, 0.0, 0.0, 0.0, 1.6625065086396563E9, 0.0, 2022-09-06 19:21:48.639
188.0, -12248.241871385799, -6776.981863615735, -32348.9868460878, -22373.090371261882, 3510.6096876394377, 6872.624978139995, 42999.32485810815, 23597.608339501425, -14312.78309974469, 1220.5617094709528, -15376.524970117209, -13188.110373987005, 14280.77540168469, -10164.321680584155, -21882.38017349007, 1256.324500599444, 0.22, 0.968, -0.03, 192.0, 0.0, 0.0, 0.0, 0.0, 0.0, 0.0, 0.0, 0.0, 0.0, 1.662506508639668E9, 0.0, 2022-09-06 19:21:48.639
190.0, -12860.098524105373, -7297.576343724292, -32912.295509850446, -22836.397330331485, 3030.5389202283527, 6386.295722281423, 50757.59300680077, 23975.285765562745, -14379.525408688238, 1079.6339606802417, -15618.57201082373, -13138.17657687385, 14112.958504314245, -10642.872529372278, -22388.356612724856, 1510.8885182009362, 0.20700000000000002, 0.966, 0.005000000000000001, 192.0, 3.0, 8.0, 15.0, 16.0, 0.5, 32.0, 0.0, 0.0, 0.0, 1.66250650863968E9, 0.0, 2022-09-06 19:21:48.639
192.0, -12298.24272373232, -6760.95566284128, -32395.03143966573, -22356.57243210941, 3538.8846443754014, 6915.517975749729, 42538.96832930665, 23269.529434386426, -14404.246438055807, 1169.4656216461208, -15475.140866654023, -13286.793325757186, 14205.584133337037, -10223.173823734978, -22009.58395118522, 1092.1285858307583, 0.20700000000000002, 0.966, 0.005000000000000001, 192.0, 0.0, 0.0, 0.0, 0.0, 0.0, 0.0, 0.0, 0.0, 0.0, 1.6625065086396923E9, 0.0, 2022-09-06 19:21:48.639
194.0, -12809.605933380835, -7302.180803082086, -32968.3313331999, -22899.719822373372, 2951.257282645379, 6381.69126292363, 50925.946346038145, 24278.218958165522, -14293.381785557483, 1179.9038863067492, -15565.352507275644, -13062.292404448082, 14203.147793191409, -10557.377106830729, -22373.023316028513, 1546.8524750295253, 0.20700000000000002, 0.966, 0.005000000000000001, 192.0, 0.0, 0.0, 0.0, 0.0, 0.0, 0.0, 0.0, 0.0, 0.0, 1.662506508639704E9, 0.0, 2022-09-06 19:21:48.639
196.0, -12320.81798563218, -6728.478578147719, -32430.54836160521, -22300.335443059856, 3560.476429519228, 6970.659729320972, 42366.90460048969, 22993.75361129685, -14438.444607072426, 1125.6562025137189, -15544.207757020922, -13344.706695640887, 14184.953473204789, -10278.248522072856, -22089.89376901314, 1016.1103029382591, 0.20700000000000002, 0.966, 0.005000000000000001, 192.0, 0.0, 0.0, 0.0, 0.0, 0.0, 0.0, 0.0, 0.0, 0.0, 1.662506508639717E9, 0.0, 2022-09-06 19:21:48.639
198.0, -12764.544816558937, -7326.544204538371, -33004.80938015096, -22955.867404445104, 2901.85992739915, 6374.5834081868425, 50960.25627377704, 24551.111406220367, -14216.58119160905, 1244.7015934826843, -15509.11551822609, -12993.180810592272, 14302.791869973169, -10469.087716232267, -22344.03310346998, 1602.0612838341337, 0.20700000000000002, 0.966, 0.005000000000000001, 192.0, 0.0, 0.0, 0.0, 0.0, 0.0, 0.0, 0.0, 0.0, 0.0, 1.6625065086397293E9, 0.0, 2022-09-06 19:21:48.639
200.0, -12380.139515416566, -6749.220997002244, -32482.58322269717, -22285.672698697173, 3535.867158873935, 6969.810363031669, 42622.87677799187, 22743.59288735305, -14507.48914569487, 1051.49311441101, -15637.883918033114, -13415.449966841934, 14133.678571424314, -10363.498075425396, -22218.86333452026, 938.2368252559693, 0.20450000000000002, 0.9319999999999999, 0.027500000000000004, 192.0, 3.0, 40.0, 14.0, 8.0, 0.5, 72.0, 0.0, 0.0, 0.0, 1.6625065086397407E9, 0.0, 2022-09-06 19:21:48.639
202.0, -12697.534286681925, -7327.058294660842, -32986.48094969761, -22961.790616725757, 2835.7211155558966, 6352.455181176088, 51083.54849619252, 24736.720292177237, -14187.613330794971, 1305.006600023103, -15450.084561119624, -12933.74752208561, 14361.286385212707, -10368.795438861303, -22298.346137803335, 1647.1000489115775, 0.20450000000000002, 0.9319999999999999, 0.027500000000000004, 192.0, 0.0, 0.0, 0.0, 0.0, 0.0, 0.0, 0.0, 0.0, 0.0, 1.662506508639757E9, 0.0, 2022-09-06 19:21:48.639
204.0, -12398.892629014568, -6743.655412632873, -32467.80871961221, -22239.181070230137, 3541.0751153320216, 6945.223444130832, 43141.705470288456, 22529.17260279329, -14560.194559120484, 991.568087526332, -15691.86338089268, -13449.268156202812, 14100.285065208087, -10432.341448347743, -22304.448164039633, 918.634345368665, 0.20450000000000002, 0.9319999999999999, 0.027500000000000004, 192.0, 0.0, 0.0, 0.0, 0.0, 0.0, 0.0, 0.0, 0.0, 0.0, 1.6625065086397688E9, 0.0, 2022-09-06 19:21:48.639
206.0, -12646.728771535012, -7338.50238782196, -32961.26818195202, -22976.274547132798, 2781.4063765295004, 6322.056808716871, 51272.86777172897, 24807.932950011844, -14149.257737309665, 1363.456411773731, -15374.3792026495, -12876.862332446854, 14427.805176711701, -10300.957894439447, -22224.317160167357, 1698.9337443034344, 0.20450000000000002, 0.9319999999999999, 0.027500000000000004, 192.0, 0.0, 0.0, 0.0, 0.0, 0.0, 0.0, 0.0, 0.0, 0.0, 1.6625065086397805E9, 0.0, 2022-09-06 19:21:48.639
208.0, -12414.427091411006, -6753.512531937663, -32451.000207781817, -22211.464907105554, 3541.611557198949, 6920.815339185637, 43983.62862868651, 22425.348749798388, -14607.446146899003, 929.9890315519609, -15749.016791464901, -13480.270025762324, 14044.15983488081, -10562.607415033272, -22397.34201399589, 916.7567988344192, 0.20450000000000002, 0.9319999999999999, 0.027500000000000004, 192.0, 0.0, 0.0, 0.0, 0.0, 0.0, 0.0, 0.0, 0.0, 0.0, 1.662506508639792E9, 0.0, 2022-09-06 19:21:48.639
210.0, -12571.828075865278, -7317.603506756247, -32906.72992548107, -22952.2687735878, 2826.3557346291227, 6348.5212741519545, 51020.695390784196, 24834.710339869303, -14109.672797879315, 1440.5475784000848, -15286.939178340339, -12824.626305654801, 14490.457116419926, -10216.960038776402, -22119.532182160878, 1723.0512765707108, 0.20925, 0.944, 0.02875, 192.0, 3.0, 88.0, 14.5, 112.0, 0.0, 120.0, 0.0, 0.0, 0.0, 1.6625065086398053E9, 0.0, 2022-09-06 19:21:48.639
212.0, -12470.977004882932, -6814.041055922635, -32473.798987126233, -22229.659227092176, 3515.996458053167, 6848.999184250735, 45092.588078092114, 22369.96112703814, -14674.85900817621, 881.6645600395871, -15808.852411371758, -13528.259221107868, 13972.634252623828, -10666.67713721718, -22467.057104951993, 892.4828043559557, 0.20925, 0.944, 0.02875, 192.0, 0.0, 0.0, 0.0, 0.0, 0.0, 0.0, 0.0, 0.0, 0.0, 1.662506508639817E9, 0.0, 2022-09-06 19:21:48.639
214.0, -12495.228647616941, -7257.00792753791, -32801.00617420747, -22886.599348378106, 2864.0407757807707, 6376.282140765446, 50108.2748303741, 24786.117647423467, -14064.097590934944, 1516.767026992682, -15213.133718148914, -12807.415462424215, 14562.563844032748, -10137.209014559867, -21958.309049404746, 1716.7704363787695, 0.20925, 0.944, 0.02875, 192.0, 0.0, 0.0, 0.0, 0.0, 0.0, 0.0, 0.0, 0.0, 0.0, 1.6625065086398292E9, 0.0, 2022-09-06 19:21:48.639
216.0, -12540.580337116759, -6884.940789334869, -32531.846467476666, -22294.814562179396, 3455.289120112553, 6778.01004386068, 46511.36505739273, 22417.413880516753, -14726.648000079156, 868.9687691889727, -15864.955289954578, -13547.571128317253, 13906.294275080476, -10759.03454530651, -22508.89957057233, 901.8481852827293, 0.20925, 0.944, 0.02875, 192.0, 0.0, 0.0, 0.0, 0.0, 0.0, 0.0, 0.0, 0.0, 0.0, 1.6625065086398413E9, 0.0, 2022-09-06 19:21:48.639
218.0, -12412.236620454387, -7182.531915012827, -32706.14537073915, -22819.365301056543, 2959.7732972828508, 6462.314005173923, 48907.36030427937, 24672.682544312782, -14027.463081772696, 1584.3139987366199, -15165.837426881484, -12789.087031970863, 14615.202202224995, -10056.027478698192, -21876.211092020403, 1671.7987265346917, 0.20925, 0.944, 0.02875, 192.0, 0.0, 0.0, 0.0, 0.0, 0.0, 0.0, 0.0, 0.0, 0.0, 1.6625065086398532E9, 0.0, 2022-09-06 19:21:48.639
220.0, -12608.97667515, -6967.038746719211, -32650.69069274553, -22393.162237782748, 3344.42446761423, 6695.710920776239, 48098.78594860863, 22556.79935894005, -14736.706285084045, 866.1300976431487, -15898.795831059913, -13531.611982776163, 13885.440097503675, -10820.658304769791, -22598.015975715636, 931.5313019193771, 0.211625, 0.952, 0.015375, 192.0, 3.0, 88.0, 15.0, 0.0, 0.0, 8.0, 0.0, 0.0, 0.0, 1.6625065086398652E9, 0.0, 2022-09-06 19:21:48.639
222.0, -12320.929744354456, -7092.476736602394, -32676.216384913492, -22746.655076343428, 3039.591376732752, 6531.872633918838, 47495.80293843782, 24457.994038819557, -14013.090910087933, 1579.4860219342736, -15152.985173819683, -12816.557325906435, 14605.725062575944, -10012.50863224371, -21890.069173582695, 1589.4325482168852, 0.211625, 0.952, 0.015375, 192.0, 0.0, 0.0, 0.0, 0.0, 0.0, 0.0, 0.0, 0.0, 0.0, 1.6625065086398768E9, 0.0, 2022-09-06 19:21:48.639
224.0, -12655.378896639217, -7060.670204242493, -32832.25391295599, -22512.58760840745, 3227.8601202798036, 6552.816218473461, 49678.96487462102, 22735.188631437857, -14717.461433108025, 836.6034432176881, -15913.302113211408, -13512.255372077869, 13897.174763342711, -10839.925508490267, -22705.952549690315, 987.0753868908151, 0.211625, 0.952, 0.015375, 192.0, 0.0, 0.0, 0.0, 0.0, 0.0, 0.0, 0.0, 0.0, 0.0, 1.6625065086398883E9, 0.0, 2022-09-06 19:21:48.639
226.0, -12179.68907114137, -6971.442040376907, -32627.93661689003, -22629.75545284217, 3189.7727477279604, 6647.587614963963, 46103.35631410555, 24268.853577238748, -14022.277477059064, 1545.667832573394, -15151.152330774348, -12866.178198597217, 14601.83585904072, -9975.918826570372, -21906.14007784606, 1520.4774165722629, 0.211625, 0.952, 0.015375, 192.0, 0.0, 0.0, 0.0, 0.0, 0.0, 0.0, 0.0, 0.0, 0.0, 1.6625065086399004E9, 0.0, 2022-09-06 19:21:48.639
228.0, -12683.69855686409, -7156.98387110041, -32959.86002205134, -22629.77780458663, 3136.4861889465083, 6470.807668066939, 51276.10877467499, 23027.0353587908, -14653.714257921489, 867.8064784772968, -15883.440182619117, -13458.275909218302, 13950.751894802082, -10854.76706680859, -22702.666843255385, 1093.335580031345, 0.211625, 0.952, 0.015375, 192.0, 0.0, 0.0, 0.0, 0.0, 0.0, 0.0, 0.0, 0.0, 0.0, 1.6625065086399157E9, 0.0, 2022-09-06 19:21:48.639
230.0, -12099.334549824544, -6861.493809401251, -32561.6860463245, -22522.69059690125, 3314.9872201665903, 6756.328851739032, 44955.95186423682, 24017.709376538918, -14095.16651572782, 1510.0391519116345, -15188.658557970353, -12941.972964045164, 14535.898212897566, -9978.332814971545, -21897.847580653142, 1434.3784969304202, 0.2108125, 0.94, -0.0173125, 192.0, 3.0, 72.0, 14.5, 0.0, 127.0, 56.0, 0.0, 0.0, 0.0, 1.6625065086399276E9, 0.0, 2022-09-06 19:21:48.639
232.0, -12733.051208621408, -7246.346145432729, -33049.937552206226, -22779.534492437186, 3011.338771741244, 6354.444486432611, 52704.452300602476, 23303.057051069387, -14583.6415390541, 952.0502033293491, -15818.12838532071, -13366.678460440453, 13991.812049366481, -10802.37457780535, -22669.541557972618, 1199.1934417716793, 0.2108125, 0.94, -0.0173125, 192.0, 0.0, 0.0, 0.0, 0.0, 0.0, 0.0, 0.0, 0.0, 0.0, 1.6625065086399388E9, 0.0, 2022-09-06 19:21:48.639
234.0, -12060.755438894683, -6778.993520616713, -32496.486007748368, -22438.245706349102, 3376.0745377629446, 6805.815613963082, 44056.07063246616, 23669.20097699177, -14192.664825041871, 1441.0393167781017, -15254.551500624599, -13051.451808387257, 14442.177348396463, -10050.46189432882, -21948.697799288966, 1287.9298672592483, 0.2108125, 0.94, -0.0173125, 192.0, 0.0, 0.0, 0.0, 0.0, 0.0, 0.0, 0.0, 0.0, 0.0, 1.6625065086399488E9, 0.0, 2022-09-06 19:21:48.639
236.0, -12756.185264132651, -7320.129253879697, -33091.93648003775, -22890.33208970214, 2889.14178480408, 6239.914147843618, 53877.27068391689, 23594.255577833126, -14501.029491547286, 1033.3211461688454, -15746.133416430166, -13291.755413026263, 14077.083954463478, -10762.879045352824, -22622.62524636093, 1305.028951767558, 0.2108125, 0.94, -0.0173125, 192.0, 0.0, 0.0, 0.0, 0.0, 0.0, 0.0, 0.0, 0.0, 0.0, 1.6625065086399589E9, 0.0, 2022-09-06 19:21:48.639
238.0, -12030.535880391108, -6695.4874033316855, -32401.580500791133, -22348.1234727053, 3491.566001363516, 6865.941806547858, 43422.57749111384, 23335.109452618297, -14277.44499176085, 1382.164821882823, -15313.671864708886, -13158.449609094812, 14369.355364961073, -10129.497662722786, -21957.34792439317, 1184.687159620185, 0.2108125, 0.94, -0.0173125, 192.0, 0.0, 0.0, 0.0, 0.0, 0.0, 0.0, 0.0, 0.0, 0.0, 1.6625065086399696E9, 0.0, 2022-09-06 19:21:48.639
240.0, -12765.394182848238, -7393.264161737462, -33103.84995983243, -23000.056803233245, 2821.8853857380614, 6185.018263461383, 54606.608105493564, 23891.60083432208, -14423.826566198655, 1114.1450541192357, -15667.634089903127, -13234.311429776124, 14143.80391166257, -10746.02583003352, -22500.383555934855, 1402.5049093371522, 0.17840625, 0.954, -0.04265625000000001, 192.0, 2.0, 72.0, 15.0, 32.0, 126.5, 112.0, 0.0, 0.0, 0.0, 1.66250650863998E9, 0.0, 2022-09-06 19:21:48.639
242.0, -12000.271618398621, -6618.530347172064, -32323.908188808942, -22237.97407602955, 3590.159546155876, 6932.818225958136, 43123.645260768564, 23000.012099744334, -14397.160935063475, 1287.773405048061, -15414.47823220232, -13300.673759063931, 14259.29537526314, -10232.226280239378, -21981.979546782917, 1065.3511959733005, 0.17840625, 0.954, -0.04265625000000001, 192.0, 0.0, 0.0, 0.0, 0.0, 0.0, 0.0, 0.0, 0.0, 0.0, 1.6625065091195607E9, 0.0, 2022-09-06 19:21:49.119
244.0, -12710.118318810264, -7426.322391786861, -33086.057971246, -23044.492071210396, 2792.6269522460643, 6148.517864765867, 55039.58374733732, 24175.289174948834, -14288.30793956613, 1239.225416091134, -15530.148509758534, -13085.895846592886, 14260.278852019173, -10587.641368823215, -22353.89022277477, 1557.670719345894, 0.17840625, 0.954, -0.04265625000000001, 192.0, 0.0, 0.0, 0.0, 0.0, 0.0, 0.0, 0.0, 0.0, 0.0, 1.6625065091196616E9, 0.0, 2022-09-06 19:21:49.119
246.0, -12054.295784747099, -6648.191112064256, -32336.738090126288, -22220.629122332233, 3620.9602500152887, 6919.049551373667, 43407.557118839875, 22703.71737524478, -14503.331721226183, 1153.6629383162187, -15529.030922535769, -13406.41986208199, 14143.781559918114, -10324.583688328707, -22082.338879387247, 1004.8897272216949, 0.17840625, 0.954, -0.04265625000000001, 192.0, 0.0, 0.0, 0.0, 0.0, 0.0, 0.0, 0.0, 0.0, 0.0, 1.6625065091196709E9, 0.0, 2022-09-06 19:21:49.119
248.0, -12683.855019075278, -7486.29212216045, -33083.152244466815, -23141.431586913062, 2736.054687029682, 6084.793041323786, 55268.04092741501, 24289.57364434882, -14248.365372224496, 1257.330329099933, -15498.990177987836, -13102.346730511992, 14308.670378764913, -10542.334382812309, -22259.454102451098, 1637.600557518072, 0.17840625, 0.954, -0.04265625000000001, 192.0, 0.0, 0.0, 0.0, 0.0, 0.0, 0.0, 0.0, 0.0, 0.0, 1.6625065091196797E9, 0.0, 2022-09-06 19:21:49.119
250.0, -12101.659131247894, -6661.691565715261, -32347.958665842852, -22221.277322921436, 3664.9037796144225, 6945.4246098309295, 44148.4727440444, 22394.704508150164, -14610.709501589477, 1040.406649161178, -15666.717668380461, -13587.468992169976, 14040.82942495697, -10451.966279979502, -22158.893604146673, 942.9306915915837, 0.165203125, 0.976, -0.033328125, 192.0, 2.0, 96.0, 15.5, 24.0, 127.5, 32.0, 0.0, 0.0, 0.0, 1.6625065091196902E9, 0.0, 2022-09-06 19:21:49.119
252.0, -12634.122387662219, -7472.992834209542, -33078.950116509215, -23177.708468164026, 2720.6543350999755, 6128.6918674340095, 55147.67678352318, 24636.02568340608, -14165.641565995404, 1350.7606209231164, -15424.894145118493, -13037.05728495804, 14396.490382729815, -10417.075206884767, -22165.24149957198, 1717.9774305793562, 0.165203125, 0.976, -0.033328125, 192.0, 0.0, 0.0, 0.0, 0.0, 0.0, 0.0, 0.0, 0.0, 0.0, 1.6625065091196988E9, 0.0, 2022-09-06 19:21:49.119
254.0, -12211.89793490147, -6696.202659154255, -32466.7134841339, -22276.55318695941, 3589.220772888753, 6901.056397087145, 45194.89201246405, 22377.04663003047, -14694.997929930441, 940.8519793572402, -15786.74653610546, -13667.152961153146, 13960.072572239946, -10573.559769816371, -22331.158498663724, 842.1913793315148, 0.165203125, 0.976, -0.033328125, 192.0, 0.0, 0.0, 0.0, 0.0, 0.0, 0.0, 0.0, 0.0, 0.0, 1.6625065091197076E9, 0.0, 2022-09-06 19:21:49.119
0.0, -12578.466543968505, -7414.297153269906, -33096.11625625089, -23194.762849183422, 2668.2171426078253, 6167.896827208618, 54536.870662793, 24756.76980695365, -14093.825411060503, 1444.861465079959, -15348.674696525895, -12991.973816391686, 14498.839020590667, -10304.243600874377, -22135.111348046226, 1643.0320314207115, 0.165203125, 0.976, -0.033328125, 192.0, 0.0, 0.0, 0.0, 0.0, 0.0, 0.0, 0.0, 0.0, 0.0, 1.6625065091197162E9, 0.0, 2022-09-06 19:21:49.119
2.0, -12297.840392332124, -6695.1968306537665, -32587.703476870476, -22304.403460550722, 3427.260032565598, 6881.252751499743, 46326.493779002885, 22252.390951203222, -14722.512927354925, 915.1027697447264, -15869.33623186782, -13732.151834029179, 13901.734519211594, -10671.594520997349, -22528.814974882007, 703.610563708611, 0.165203125, 0.976, -0.033328125, 192.0, 0.0, 0.0, 0.0, 0.0, 0.0, 0.0, 0.0, 0.0, 0.0, 1.6625065091197255E9, 0.0, 2022-09-06 19:21:49.119
4.0, -12470.41821127155, -7284.522924962393, -33046.227162626645, -23124.66777857158, 2557.7324697652425, 6263.919921388617, 53356.96677648625, 24794.52190333866, -13989.465116198673, 1560.8893705474582, -15248.315363921567, -12913.720359053656, 14588.335405389716, -10156.118590369057, -22142.66623767212, 1575.440356187863, 0.165203125, 0.976, -0.033328125, 192.0, 0.0, 0.0, 0.0, 0.0, 0.0, 0.0, 0.0, 0.0, 0.0, 1.6625065091197395E9, 0.0, 2022-09-06 19:21:49.119
6.0, -12368.628367022082, -6704.048121458069, -32660.100777161217, -22328.677455029185, 3219.7240852980717, 6869.160457749422, 47550.2741396754, 22224.741843312007, -14699.736499754967, 913.5157958883997, -15880.199179673098, -13663.50962680693, 13913.111557139346, -10738.493292152083, -22718.9612649633, 666.3502057016142, 0.014, 0.8240000000000001, -0.048, 192.0, 0.0, 56.0, 12.5, 96.0, 127.0, 64.0, 0.0, 0.0, 0.0, 1.662506509119748E9, 0.0, 2022-09-06 19:21:49.119
8.0, -12357.631308750071, -7160.358984513162, -32906.349945825335, -22997.84398053217, 2547.204798126793, 6407.0381411359485, 51834.03066802391, 24733.56869620904, -13937.452606851175, 1651.212769891354, -15142.546909159055, -12806.096709501351, 14678.927025667075, -10056.563920565119, -22138.821737625807, 1540.5269313486733, 0.014, 0.8240000000000001, -0.048, 192.0, 0.0, 0.0, 0.0, 0.0, 0.0, 0.0, 0.0, 0.0, 0.0, 1.6625065091197567E9, 0.0, 2022-09-06 19:21:49.119
10.0, -12439.349286478673, -6785.989616631225, -32650.154250878604, -22346.178870937692, 3088.3181796453214, 6803.692198239827, 48963.664348562284, 22266.383143232244, -14693.321549096294, 942.8859881026731, -15863.457723076073, -13560.311622656778, 13943.33111564292, -10768.13170529982, -22772.516044678217, 731.1479128775493, 0.014, 0.8240000000000001, -0.048, 192.0, 0.0, 0.0, 0.0, 0.0, 0.0, 0.0, 0.0, 0.0, 0.0, 1.6625065091197653E9, 0.0, 2022-09-06 19:21:49.119
12.0, -12226.583031008606, -7060.916073431501, -32686.498187362933, -22798.309957779642, 2751.4773907038443, 6523.267212303545, 50151.078421006016, 24563.024886015046, -13934.546880071985, 1724.9735265938673, -15060.02426863006, -12729.541984741925, 14708.565438814812, -9959.289128695624, -21980.034945015304, 1595.2887052641756, 0.014, 0.8240000000000001, -0.048, 192.0, 0.0, 0.0, 0.0, 0.0, 0.0, 0.0, 0.0, 0.0, 0.0, 1.6625065091197746E9, 0.0, 2022-09-06 19:21:49.119
14.0, -12478.911874164567, -6887.064205058123, -32670.673152288575, -22391.687022648697, 3175.1323551097344, 6751.411467958864, 50510.78504452528, 22422.73359569712, -14680.424592545582, 939.2203020120028, -15844.391685055696, -13525.48760479541, 13933.049313193478, -10797.412490536271, -22693.279110584153, 921.3165547033018, 0.014, 0.8240000000000001, -0.048, 192.0, 0.0, 0.0, 0.0, 0.0, 0.0, 0.0, 0.0, 0.0, 0.0, 1.6625065091197832E9, 0.0, 2022-09-06 19:21:49.119
16.0, -12075.261721046178, -6919.206013584854, -32535.087470422684, -22678.415200521376, 3079.913923730126, 6670.632263497385, 48562.33877686725, 24303.968167778035, -13938.503138840573, 1705.7063228733925, -15011.655093628777, -12787.05302322543, 14704.855049235231, -9887.808249927552, -21793.487285791314, 1675.0620812251666, 0.114, 0.97, -0.032, 192.0, 1.5, 72.0, 15.0, 40.0, 127.5, 0.0, 0.0, 0.0, 0.0, 1.662506509119792E9, 0.0, 2022-09-06 19:21:49.119
18.0, -12508.349121612207, -6965.898807751991, -32725.881961093186, -22514.39809970833, 3192.499660551508, 6698.057853944047, 52192.70911129822, 22817.510106266753, -14607.826126554744, 932.9618135645168, -15783.192608737065, -13476.693746649475, 13984.212456251676, -10797.591304491914, -22568.489321290177, 1160.2567029305344, 0.114, 0.97, -0.032, 192.0, 0.0, 0.0, 0.0, 0.0, 0.0, 0.0, 0.0, 0.0, 0.0, 1.6625065091198006E9, 0.0, 2022-09-06 19:21:49.119
20.0, -12001.478612599209, -6820.321896114576, -32437.74562331982, -22554.452425772244, 3240.0865244968563, 6825.932183972858, 47287.75290104782, 24153.07154096026, -13977.775153848548, 1622.0437433771783, -15020.215811755159, -12852.677744946212, 14666.8123801723, -9920.732369510219, -21705.846095782053, 1664.1320781865215, 0.114, 0.97, -0.032, 192.0, 0.0, 0.0, 0.0, 0.0, 0.0, 0.0, 0.0, 0.0, 0.0, 1.66250650911981E9, 0.0, 2022-09-06 19:21:49.119
22.0, -12587.854276639733, -7082.440803341962, -32836.76896533596, -22655.77288338815, 3081.500897586453, 6545.082514891925, 53790.68002589703, 23020.598056387673, -14563.390858577593, 933.1853310090698, -15767.278166684888, -13423.496594845843, 14030.25704982961, -10810.912944187277, -22580.46985631822, 1231.1117328538578, 0.114, 0.97, -0.032, 192.0, 0.0, 0.0, 0.0, 0.0, 0.0, 0.0, 0.0, 0.0, 0.0, 1.6625065091198187E9, 0.0, 2022-09-06 19:21:49.119
24.0, -11946.739190428161, -6680.198810124256, -32346.528154197713, -22436.68108423723, 3343.1057146913668, 6948.531502310218, 46118.37668637952, 23818.912961353417, -14035.35324756542, 1593.6793796633935, -15068.517931523078, -12936.675600609256, 14623.897030818109, -9918.519546809142, -21771.15789308046, 1469.2025147917886, 0.114, 0.97, -0.032, 192.0, 0.0, 0.0, 0.0, 0.0, 0.0, 0.0, 0.0, 0.0, 0.0, 1.6625065091198273E9, 0.0, 2022-09-06 19:21:49.119
26.0, -12673.595568370292, -7163.644690948092, -32922.46555357761, -22806.021309616724, 2901.569354721231, 6474.85333381335, 55138.825492718875, 23338.015179397487, -14482.276377949283, 1052.8789225672392, -15694.679700694049, -13351.83690212213, 14109.315169968031, -10738.090960751888, -22580.939242951783, 1271.970721718159, 0.11800000000000001, 0.962, -0.02, 192.0, 1.5, 88.0, 15.0, 8.0, 127.5, 48.0, 0.0, 0.0, 0.0, 1.662506509119836E9, 0.0, 2022-09-06 19:21:49.119
28.0, -11967.347498815954, -6599.35255042941, -32301.601147842546, -22351.85621402934, 3330.298165118476, 7019.922974100468, 45289.39518802109, 23474.338468830403, -14130.817548134035, 1529.507521332207, -15154.527444187099, -13085.605273914967, 14527.382198260093, -9980.031547550148, -21882.111952556606, 1277.8268787654495, 0.11800000000000001, 0.962, -0.02, 192.0, 0.0, 0.0, 0.0, 0.0, 0.0, 0.0, 0.0, 0.0, 0.0, 1.6625065091198444E9, 0.0, 2022-09-06 19:21:49.119
30.0, -12722.32237128286, -7242.233424452952, -32995.77927539102, -22916.662444670492, 2734.2665474732576, 6401.003170133015, 56123.06220806387, 23639.76372954413, -14412.360121293083, 1148.65614755823, -15627.110377205656, -13301.120793953038, 14182.606540036983, -10698.751890510546, -22566.209443355732, 1326.5536816780188, 0.11800000000000001, 0.962, -0.02, 192.0, 0.0, 0.0, 0.0, 0.0, 0.0, 0.0, 0.0, 0.0, 0.0, 1.6625065091198535E9, 0.0, 2022-09-06 19:21:49.119
32.0, -11963.27948132509, -6531.0679711184475, -32287.988935469264, -22241.572706886855, 3389.3961774583076, 7090.733300534881, 44799.310839094025, 23127.10411871721, -14219.129290476954, 1456.0820407965232, -15249.097674977504, -13191.37372867748, 14422.127833620052, -10085.643540101473, -21979.76672408184, 1136.0721154298922, 0.11800000000000001, 0.962, -0.02, 192.0, 0.0, 0.0, 0.0, 0.0, 0.0, 0.0, 0.0, 0.0, 0.0, 1.6625065091198623E9, 0.0, 2022-09-06 19:21:49.119
34.0, -12730.592516731325, -7308.439291529571, -33083.88985203384, -22983.963547225423, 2641.23858705027, 6313.339628379301, 56628.07752228708, 23919.4958114023, -14316.873468980011, 1245.9979946610922, -15542.441969208952, -13181.784830306153, 14251.740485637247, -10599.130165473243, -22481.49633187012, 1430.7575143286604, 0.11800000000000001, 0.962, -0.02, 192.0, 0.0, 0.0, 0.0, 0.0, 0.0, 0.0, 0.0, 0.0, 0.0, 1.662506509119871E9, 0.0, 2022-09-06 19:21:49.119
36.0, -12008.09472895798, -6524.943593137693, -32341.007273317253, -22181.468866046533, 3447.0413264085446, 7096.567105837716, 44715.29063168653, 22780.98735582678, -14318.393387602973, 1323.3797339653652, -15373.28396717119, -13313.794233059196, 14296.108698381031, -10184.68411978294, -22091.6148533362, 1023.7993030308847, 0.124, 0.9420000000000001, -0.036000000000000004, 192.0, 1.5, 112.0, 14.5, 56.0, 127.0, 112.0, 0.0, 0.0, 0.0, 1.662506509119881E9, 0.0, 2022-09-06 19:21:49.119
38.0, -12686.671338876646, -7325.717189993524, -33138.89749513835, -23024.934294812, 2621.5019966962336, 6307.77404400993, 56587.7549752897, 24189.236663488944, -14237.0106860412, 1331.225196269178, -15462.86975894806, -13103.285503779114, 14313.610114289537, -10499.46373694703, -22414.95518862667, 1541.7786290381705, 0.124, 0.9420000000000001, -0.036000000000000004, 192.0, 0.0, 0.0, 0.0, 0.0, 0.0, 0.0, 0.0, 0.0, 0.0, 1.66250650911989E9, 0.0, 2022-09-06 19:21:49.119
40.0, -12024.880889043914, -6498.993217825082, -32392.662154753467, -22130.28337124388, 3558.3530137959738, 7127.434864930495, 44875.32912198653, 22500.964701290693, -14394.970464106855, 1228.4518752636761, -15473.77741024225, -13428.726903048386, 14182.695947014803, -10298.253333360355, -22199.97611045553, 959.470982488511, 0.124, 0.9420000000000001, -0.036000000000000004, 192.0, 0.0, 0.0, 0.0, 0.0, 0.0, 0.0, 0.0, 0.0, 0.0, 1.6625065091198988E9, 0.0, 2022-09-06 19:21:49.119
42.0, -12620.577230522304, -7310.003913641443, -33153.046149378555, -23032.019797804332, 2693.698131286875, 6305.002427697472, 55951.62432809167, 24392.101096165312, -14128.22474577722, 1440.6593371223614, -15357.41422860792, -13019.198241138249, 14410.884906159034, -10361.888749824615, -22296.35683254681, 1667.7307090438258, 0.124, 0.9420000000000001, -0.036000000000000004, 192.0, 0.0, 0.0, 0.0, 0.0, 0.0, 0.0, 0.0, 0.0, 0.0, 1.6625065091199076E9, 0.0, 2022-09-06 19:21:49.119
44.0, -12085.699985706806, -6526.351753038377, -32457.750434607322, -22125.90242933064, 3604.889345751923, 7095.270704659308, 45361.658377845095, 22265.176149031657, -14475.615558101603, 1143.5152463335094, -15574.60612948014, -13528.214517618957, 14095.278274450098, -10375.05392730879, -22262.2033670191, 927.5526914063325, 0.124, 0.9420000000000001, -0.036000000000000004, 192.0, 0.0, 0.0, 0.0, 0.0, 0.0, 0.0, 0.0, 0.0, 0.0, 1.6625065091199164E9, 0.0, 2022-09-06 19:21:49.119
46.0, -12554.885453568157, -7297.844564657756, -33124.72648915368, -23035.238449005898, 2811.670638521986, 6336.943070524106, 55010.63823826769, 24446.59464914735, -14051.670021017793, 1515.5153293031847, -15273.505779922698, -12967.431600979759, 14474.900302279033, -10247.98426008037, -22138.28529575888, 1732.6401749420377, 0.176, 0.982, -0.042, 192.0, 2.5, 64.0, 15.0, 88.0, 127.0, 88.0, 0.0, 0.0, 0.0, 1.6625065091199248E9, 0.0, 2022-09-06 19:21:49.119
48.0, -12209.394539522475, -6630.175606033279, -32532.15939189904, -22183.793447469885, 3642.4179246923836, 7047.169750591487, 46145.4446489149, 22216.851677519284, -14560.038096909297, 1009.4941865794882, -15683.81675288877, -13635.502891004431, 13999.746918648116, -10538.13225485471, -22312.405385065722, 870.5557430452994, 0.176, 0.982, -0.042, 192.0, 0.0, 0.0, 0.0, 0.0, 0.0, 0.0, 0.0, 0.0, 0.0, 1.662506509119934E9, 0.0, 2022-09-06 19:21:49.119
50.0, -12494.915723194566, -7267.4461921985385, -33053.91616271927, -22990.199683928455, 2897.121357574625, 6409.519184770487, 53814.28346804184, 24680.21508219422, -13991.521476688562, 1535.7436580352376, -15191.318415560534, -12913.966228242663, 14515.669884165512, -10163.137038128023, -21971.362468166648, 1790.4417861034617, 0.176, 0.982, -0.042, 192.0, 0.0, 0.0, 0.0, 0.0, 0.0, 0.0, 0.0, 0.0, 0.0, 1.662506509119943E9, 0.0, 2022-09-06 19:21:49.119
52.0, -12319.163956542488, -6701.455319101253, -32582.674334368032, -22230.30742768138, 3648.2517299952187, 6944.061153419156, 47202.928030839925, 22163.09573210427, -14598.170172950051, 934.2358629984693, -15727.469709809986, -13619.677855930073, 13920.75585374306, -10599.867773040269, -22348.235231427578, 878.7141297714866, 0.176, 0.982, -0.042, 192.0, 0.0, 0.0, 0.0, 0.0, 0.0, 0.0, 0.0, 0.0, 0.0, 1.6625065091199512E9, 0.0, 2022-09-06 19:21:49.119
54.0, -12426.74290260588, -7201.754415244391, -32949.71233006863, -22925.15610756351, 2973.117288722669, 6450.177007934691, 52460.14773370597, 24610.745860427127, -13971.114334000868, 1541.376297637975, -15131.080464253482, -12876.057669646463, 14527.918640127022, -10103.659046132452, -21884.257720024314, 1705.885136829035, 0.176, 0.982, -0.042, 192.0, 0.0, 0.0, 0.0, 0.0, 0.0, 0.0, 0.0, 0.0, 0.0, 1.66250650911996E9, 0.0, 2022-09-06 19:21:49.119
56.0, -12442.79145512479, -6782.927427640847, -32633.099869859205, -22310.281969342468, 3598.1614706708756, 6900.452899986852, 48329.165378709484, 22204.558218068865, -14630.736664621434, 900.5741358487769, -15756.191701435055, -13611.966504092992, 13886.714146937627, -10665.49249476105, -22403.95813035466, 873.8190977357743, 0.138, 0.99, 0.018000000000000002, 192.0, 2.0, 40.0, 15.0, 120.0, 0.0, 72.0, 0.0, 0.0, 0.0, 1.662506509119969E9, 0.0, 2022-09-06 19:21:49.119
58.0, -12384.699271285448, -7121.377542183107, -32852.996331810515, -22882.799551820703, 3053.7400309729614, 6582.029948476547, 50956.769401642014, 24542.70715030517, -13952.964717503157, 1572.6463881309496, -15105.644179063342, -12889.759288997566, 14564.888425456098, -10026.903155672928, -21795.65540500348, 1628.2351765912983, 0.138, 0.99, 0.018000000000000002, 192.0, 0.0, 0.0, 0.0, 0.0, 0.0, 0.0, 0.0, 0.0, 0.0, 1.6625065091199777E9, 0.0, 2022-09-06 19:21:49.119
60.0, -12583.763907404413, -6889.478193459296, -32764.170499345128, -22440.25736335008, 3464.6992045282373, 6809.72716924276, 49575.521001281864, 22325.212934638614, -14629.03793204283, 898.7859962923523, -15810.819364883826, -13600.097727787224, 13871.134981052279, -10741.89075730929, -22464.598413061907, 883.8326792517519, 0.138, 0.99, 0.018000000000000002, 192.0, 0.0, 0.0, 0.0, 0.0, 0.0, 0.0, 0.0, 0.0, 0.0, 1.6625065091199863E9, 0.0, 2022-09-06 19:21:49.119
62.0, -12308.993912815324, -7007.182479760943, -32837.618331625265, -22783.803675628147, 3129.087761531802, 6687.753699750149, 49452.474648055395, 24380.522892537465, -13945.275717410532, 1581.0059405572345, -15104.660702307308, -12907.46187060617, 14569.828160980722, -9977.349338215512, -21820.354082626593, 1516.5882130370394, 0.138, 0.99, 0.018000000000000002, 192.0, 0.0, 0.0, 0.0, 0.0, 0.0, 0.0, 0.0, 0.0, 0.0, 1.6625065091199949E9, 0.0, 2022-09-06 19:21:49.119
64.0, -12652.830797771312, -6959.1038774375775, -32949.958199257635, -22530.200783038235, 3320.3963423247747, 6720.811929799549, 50860.88041792875, 22526.78096613657, -14592.001091480386, 910.7218278314863, -15812.205173040054, -13531.321410098244, 13899.476993021608, -10716.007437230044, -22609.638882832394, 948.4515724720446, 0.138, 0.99, 0.018000000000000002, 192.0, 0.0, 0.0, 0.0, 0.0, 0.0, 0.0, 0.0, 0.0, 0.0, 1.6625065091200037E9, 0.0, 2022-09-06 19:21:49.120
66.0, -12239.99407768179, -6909.080673346601, -32815.803029036884, -22671.754380673694, 3162.257750303477, 6760.419220974353, 48073.48377388523, 24167.22019520047, -13975.182351491732, 1515.8729572144696, -15139.440016679768, -12947.784417603543, 14567.8388557242, -9940.804236031085, -21933.52096480381, 1430.1763689728225, 0.15, 0.848, 0.01, 192.0, 2.0, 88.0, 13.0, 64.0, 0.0, 40.0, 0.0, 0.0, 0.0, 1.6625065091200132E9, 0.0, 2022-09-06 19:21:49.120
68.0, -12728.670266708168, -7059.552617019727, -33060.26405814458, -22627.252057463178, 3120.61645038324, 6604.761672587594, 52190.831564763976, 22779.288623248176, -14563.8378934667, 919.5954703802432, -15822.88930688969, -13471.061107046737, 13945.879214510825, -10716.677989563703, -22719.676520785873, 1042.5077131399767, 0.15, 0.848, 0.01, 192.0, 0.0, 0.0, 0.0, 0.0, 0.0, 0.0, 0.0, 0.0, 0.0, 1.662506509120023E9, 0.0, 2022-09-06 19:21:49.120
70.0, -12186.08167005559, -6820.2771926256655, -32725.14435352616, -22562.342591564964, 3166.0798986053346, 6832.63770730945, 46815.706409896186, 23884.5376830742, -14031.39698879683, 1475.7292241727382, -15185.52931374661, -13022.774520251098, 14536.993448375875, -9943.77701804364, -21994.384764955612, 1348.190170310756, 0.15, 0.848, 0.01, 192.0, 0.0, 0.0, 0.0, 0.0, 0.0, 0.0, 0.0, 0.0, 0.0, 1.6625065091200316E9, 0.0, 2022-09-06 19:21:49.120
72.0, -12772.658499796213, -7156.402725744573, -33118.75857338412, -22745.090454231555, 2918.824901440728, 6497.04861605747, 53302.71909269322, 23039.41822521904, -14526.264611037328, 962.2649505454243, -15792.625044897206, -13405.928123703972, 13999.948084348212, -10726.31159142394, -22741.871803029993, 1134.239272384557, 0.15, 0.848, 0.01, 192.0, 0.0, 0.0, 0.0, 0.0, 0.0, 0.0, 0.0, 0.0, 0.0, 1.6625065091200402E9, 0.0, 2022-09-06 19:21:49.120
74.0, -12148.843663793048, -6753.333717982021, -32617.252483040393, -22449.66744776576, 3178.6639307336727, 6869.629844382983, 45694.69937022917, 23522.975864765154, -14125.877812609413, 1418.2405374336884, -15256.20552971429, -13112.181498072327, 14462.226863172873, -10003.523230972676, -22052.18637611704, 1240.678279480729, 0.15, 0.848, 0.01, 192.0, 0.0, 0.0, 0.0, 0.0, 0.0, 0.0, 0.0, 0.0, 0.0, 1.6625065091200495E9, 0.0, 2022-09-06 19:21:49.120
76.0, -12765.774162503978, -7222.250964909907, -33096.563291139995, -22800.74629792527, 2805.2780396077683, 6388.061510093393, 54172.06784153794, 23385.35617415383, -14482.38813667156, 1011.9081749806613, -15740.50077682743, -13320.58916337361, 14028.290096317542, -10722.802367544457, -22685.92538665836, 1312.0697512709799, 0.16, 0.865, -0.004000000000000001, 192.0, 2.5, 40.0, 13.5, 72.0, 127.5, 56.0, 0.0, 0.0, 0.0, 1.662506509120058E9, 0.0, 2022-09-06 19:21:49.120
78.0, -12062.72239240675, -6647.2970422860435, -32475.162443538007, -22310.773707720484, 3360.4730201331404, 6966.56936008565, 44785.81038544302, 23272.099884998785, -14194.028281453644, 1316.07071352848, -15298.405623245912, -13191.396080421935, 14383.504019201282, -10065.795191025161, -22040.183489344538, 1244.3663173158548, 0.16, 0.865, -0.004000000000000001, 192.0, 0.0, 0.0, 0.0, 0.0, 0.0, 0.0, 0.0, 0.0, 0.0, 1.6625065091200664E9, 0.0, 2022-09-06 19:21:49.120
80.0, -12722.098853838308, -7269.301386988329, -33109.32613722398, -22896.322357216162, 2812.1176734110923, 6322.68265756162, 54632.200852894886, 23734.155146378893, -14385.470972713349, 1080.9974170920154, -15630.060807473757, -13220.319237747102, 14132.315115012541, -10612.831784824346, -22597.0324989596, 1521.5503003061176, 0.16, 0.865, -0.004000000000000001, 192.0, 0.0, 0.0, 0.0, 0.0, 0.0, 0.0, 0.0, 0.0, 0.0, 1.6625065091200752E9, 0.0, 2022-09-06 19:21:49.120
82.0, -12046.42797069883, -6606.102777254913, -32434.772841307265, -22276.575538703866, 3481.3289024029855, 6997.0794912671445, 44124.891653644045, 22877.904519784992, -14291.392480300961, 1201.8309476174054, -15365.28204265619, -13311.469651635845, 14303.194201373364, -10153.324622312144, -22125.880077586186, 1175.0535577599476, 0.16, 0.865, -0.004000000000000001, 192.0, 0.0, 0.0, 0.0, 0.0, 0.0, 0.0, 0.0, 0.0, 0.0, 1.662506509120084E9, 0.0, 2022-09-06 19:21:49.120
84.0, -12722.925868383154, -7341.385762856694, -33128.593340944455, -23001.532018367296, 2816.6774292799746, 6300.666189273142, 54828.918555846045, 23979.420838286977, -14332.542041843182, 1121.0517431559258, -15542.039637808757, -13166.876216754463, 14211.976732251256, -10552.504426539474, -22490.727602330164, 1634.3819063165076, 0.16, 0.865, -0.004000000000000001, 192.0, 0.0, 0.0, 0.0, 0.0, 0.0, 0.0, 0.0, 0.0, 0.0, 1.662506509120093E9, 0.0, 2022-09-06 19:21:49.120
86.0, -12091.377328798453, -6608.472062167176, -32415.617396309066, -22213.364805384255, 3617.3839709024396, 7035.390381263541, 43950.682157359384, 22640.327827969533, -14395.931589118432, 1078.9187048576719, -15461.863930447571, -13430.984429238371, 14220.313932933084, -10271.833571414181, -22131.266847999912, 1115.977897164571, 0.195, 0.9195, -0.018000000000000002, 192.0, 3.5, 24.0, 15.0, 56.0, 127.5, 0.0, 0.0, 0.0, 0.0, 1.6625065091201017E9, 0.0, 2022-09-06 19:21:49.120
88.0, -12709.715987410067, -7375.025138261931, -33124.815896131506, -23025.873068079123, 2809.8824989655614, 6269.396098780167, 54729.83327267567, 24273.346277874265, -14255.272061261185, 1208.2235465316232, -15464.836712460126, -13103.39726250139, 14301.651931005947, -10480.822382071303, -22325.347045105344, 1708.9026223305016, 0.195, 0.9195, -0.018000000000000002, 192.0, 0.0, 0.0, 0.0, 0.0, 0.0, 0.0, 0.0, 0.0, 0.0, 1.66250650912011E9, 0.0, 2022-09-06 19:21:49.120
90.0, -12151.749390572239, -6607.890916811338, -32404.821503737156, -22172.327002564314, 3647.2235497502747, 7026.337924759141, 44146.03640389877, 22396.135019795303, -14498.481392679381, 985.1978403565694, -15568.638213710574, -13526.15815712907, 14108.197582745264, -10430.150977391122, -22181.379459068714, 988.0141601579381, 0.195, 0.9195, -0.018000000000000002, 192.0, 0.0, 0.0, 0.0, 0.0, 0.0, 0.0, 0.0, 0.0, 0.0, 1.6625065091201186E9, 0.0, 2022-09-06 19:21:49.120
92.0, -12680.7928300849, -7378.713176097057, -33091.5117968931, -23049.364751501653, 2760.2616262747797, 6262.28824404338, 54315.49898570764, 24407.143820183734, -14172.28003409863, 1273.3565298743881, -15359.55999607563, -13006.636560754367, 14378.676042398936, -10385.91687511407, -22182.094714891282, 1709.2155467528758, 0.195, 0.9195, -0.018000000000000002, 192.0, 0.0, 0.0, 0.0, 0.0, 0.0, 0.0, 0.0, 0.0, 0.0, 1.662506509120128E9, 0.0, 2022-09-06 19:21:49.120
94.0, -12175.68810888387, -6584.220419433167, -32390.09170414111, -22127.981141564982, 3654.9349015873554, 7040.307765043708, 44696.71633204417, 22239.762215585975, -14558.182902119506, 910.6100691092097, -15625.299885904777, -13562.792666291318, 14023.193898581732, -10493.875800833202, -22263.83504436434, 907.4584731410114, 0.195, 0.9195, -0.018000000000000002, 192.0, 0.0, 0.0, 0.0, 0.0, 0.0, 0.0, 0.0, 0.0, 0.0, 1.6625065091201365E9, 0.0, 2022-09-06 19:21:49.120
96.0, -12605.333340803783, -7326.030114415898, -33049.4011103393, -23036.110167039653, 2806.2391646193464, 6316.714741792052, 53619.59977383611, 24565.014191271566, -14060.476608333185, 1379.3037985925434, -15221.96265720876, -12902.611542059369, 14475.883779035066, -10266.424449255997, -22077.04151595134, 1737.110523833099, 0.20650000000000002, 0.94275, -0.029, 192.0, 3.0, 104.0, 15.0, 24.0, 127.0, 96.0, 0.0, 0.0, 0.0, 1.6625065091201456E9, 0.0, 2022-09-06 19:21:49.120
98.0, -12298.175668498954, -6666.228969839689, -32525.38681332908, -22183.569930025333, 3616.221680190764, 6976.3594241570745, 45625.63247986227, 22119.889810072164, -14627.94269656452, 824.9134808675625, -15716.20443060451, -13623.07532108728, 13936.670295795238, -10593.18460144813, -22410.775412413528, 819.2584895203697, 0.20650000000000002, 0.94275, -0.029, 192.0, 0.0, 0.0, 0.0, 0.0, 0.0, 0.0, 0.0, 0.0, 0.0, 1.662506509120154E9, 0.0, 2022-09-06 19:21:49.120
100.0, -12536.199395203519, -7283.7629656509125, -33047.92589520525, -22999.74387881087, 2819.5384525702543, 6337.457160646577, 52624.29894498574, 24582.44855194671, -14016.264857800586, 1410.6185925744287, -15172.498246729167, -12881.64560576029, 14533.417169263026, -10161.214788104868, -22051.784044716842, 1684.0251307517447, 0.20650000000000002, 0.94275, -0.029, 192.0, 0.0, 0.0, 0.0, 0.0, 0.0, 0.0, 0.0, 0.0, 0.0, 1.6625065091201649E9, 0.0, 2022-09-06 19:21:49.120
102.0, -12372.942253701956, -6717.414464642342, -32644.36514906468, -22227.4464043911, 3556.0060806281667, 6896.988379596279, 46836.00179386161, 22089.491437612945, -14659.816284157789, 779.7182535789316, -15771.703812087038, -13631.434873513565, 13895.006644130546, -10687.64307351626, -22552.954858893736, 794.2915909637918, 0.20650000000000002, 0.94275, -0.029, 192.0, 0.0, 0.0, 0.0, 0.0, 0.0, 0.0, 0.0, 0.0, 0.0, 1.662506509120174E9, 0.0, 2022-09-06 19:21:49.120
104.0, -12431.772045108324, -7202.737892000425, -32958.697731339664, -22903.206694508397, 2900.9658576209376, 6414.771844717485, 51415.69541879838, 24570.065685518468, -13964.833493808925, 1465.2686077676544, -15104.481888351667, -12838.909070361742, 14592.515181602857, -10072.768935295217, -21993.937730066507, 1674.3468254025968, 0.20650000000000002, 0.94275, -0.029, 192.0, 0.0, 0.0, 0.0, 0.0, 0.0, 0.0, 0.0, 0.0, 0.0, 1.6625065091201828E9, 0.0, 2022-09-06 19:21:49.120
106.0, -12452.089780818198, -6793.1645266013775, -32690.74501880944, -22268.193634533123, 3447.555416531017, 6840.907852757914, 48339.71540209239, 22190.767191739942, -14693.969749685497, 764.3626051381357, -15815.446175986073, -13620.236649541457, 13878.622815444805, -10761.31442324095, -22605.72732755272, 859.2904638398247, 0.21425, 0.957375, -0.0305, 192.0, 3.0, 120.0, 15.0, 48.0, 127.5, 0.0, 0.0, 0.0, 0.0, 1.6625065095988004E9, 0.0, 2022-09-06 19:21:49.598
108.0, -12323.321381011174, -7096.142422693065, -32811.600901079284, -22781.83672211608, 2996.6983791230177, 6528.117540850347, 50123.36225788144, 24413.357605142308, -13940.179519674723, 1536.1459894354332, -15052.849358659907, -12819.261886985529, 14636.123435035162, -9999.16464080389, -21869.259699494803, 1678.504249871284, 0.21425, 0.957375, -0.0305, 192.0, 0.0, 0.0, 0.0, 0.0, 0.0, 0.0, 0.0, 0.0, 0.0, 1.6625065095988588E9, 0.0, 2022-09-06 19:21:49.598
110.0, -12560.808665848812, -6907.113719834533, -32763.05291212236, -22357.24298444307, 3361.8588282893693, 6756.57472092804, 50021.14773048732, 22367.591842125876, -14679.374060556182, 799.1195677661381, -15816.183783553099, -13572.672137340563, 13903.924990168214, -10794.216191079164, -22585.14137090938, 966.9364651365835, 0.21425, 0.957375, -0.0305, 192.0, 0.0, 0.0, 0.0, 0.0, 0.0, 0.0, 0.0, 0.0, 0.0, 1.6625065095989165E9, 0.0, 2022-09-06 19:21:49.598
112.0, -12259.551854080184, -7018.24659326632, -32712.80619058683, -22693.72614547326, 3033.042315607347, 6638.937489859759, 48935.277633104044, 24241.04800713635, -13996.90824710229, 1513.570727535573, -15075.737544982141, -12878.829285958922, 14614.263428957873, -9990.514515699688, -21813.402690100993, 1583.3528737250417, 0.21425, 0.957375, -0.0305, 192.0, 0.0, 0.0, 0.0, 0.0, 0.0, 0.0, 0.0, 0.0, 0.0, 1.662506509598925E9, 0.0, 2022-09-06 19:21:49.598
114.0, -12661.682088575613, -7027.567270704183, -32845.77671835145, -22513.951064819226, 3260.426611951186, 6607.063902266491, 51808.50497585595, 22496.40494542181, -14669.829865673766, 823.862948878163, -15827.426711014119, -13539.613907291165, 13897.331225553899, -10831.007162452599, -22621.015920760146, 1002.2969248648793, 0.21425, 0.957375, -0.0305, 192.0, 0.0, 0.0, 0.0, 0.0, 0.0, 0.0, 0.0, 0.0, 0.0, 1.6625065095989475E9, 0.0, 2022-09-06 19:21:49.598
116.0, -12168.826123336092, -6903.962123866335, -32561.082549224207, -22598.798286771573, 3178.887448178226, 6748.773962113138, 47819.053866750466, 23968.714352692885, -14024.557354993505, 1518.6222217824725, -15084.45472531971, -12921.252896935093, 14609.7483765779, -10003.746748417228, -21767.49220698979, 1456.5514274300847, 0.194125, 0.9656875, -0.02325, 192.0, 2.5, 56.0, 15.0, 56.0, 127.5, 64.0, 0.0, 0.0, 0.0, 1.662506509598956E9, 0.0, 2022-09-06 19:21:49.598
118.0, -12754.173607131674, -7159.911949624056, -32948.10300446785, -22703.046822911125, 3071.9119992151263, 6506.793976639984, 53575.05274713669, 22743.279962930676, -14599.93596076202, 876.9706937039726, -15794.03320479789, -13460.600490641653, 13974.355336946886, -10851.324898162473, -22584.828446487005, 1083.8584403822947, 0.194125, 0.9656875, -0.02325, 192.0, 0.0, 0.0, 0.0, 0.0, 0.0, 0.0, 0.0, 0.0, 0.0, 1.6625065095989652E9, 0.0, 2022-09-06 19:21:49.598
120.0, -12164.959271545324, -6862.879617557481, -32578.651020366076, -22575.060734160037, 3237.6054808623176, 6790.527020755651, 46990.25118234768, 23613.81335423152, -14139.646487193882, 1418.1734822003225, -15192.48070627221, -13050.893014775875, 14503.10820378163, -10051.13244666248, -21878.08863855465, 1273.6918060412177, 0.194125, 0.9656875, -0.02325, 192.0, 0.0, 0.0, 0.0, 0.0, 0.0, 0.0, 0.0, 0.0, 0.0, 1.6625065095989735E9, 0.0, 2022-09-06 19:21:49.598
122.0, -12805.828488567888, -7267.155619520619, -33135.3212160255, -22864.33701090062, 2923.898747432083, 6379.50079196701, 55196.89532481377, 23049.431806735018, -14543.78837869029, 906.2514789404248, -15783.103201759244, -13404.721129503385, 14006.38538675134, -10811.985827921133, -22669.63096495044, 1150.0196039700036, 0.194125, 0.9656875, -0.02325, 192.0, 0.0, 0.0, 0.0, 0.0, 0.0, 0.0, 0.0, 0.0, 0.0, 1.6625065095989826E9, 0.0, 2022-09-06 19:21:49.598
124.0, -12139.970021244291, -6796.874916180959, -32629.009500623884, -22513.325215974477, 3338.3671448668415, 6852.866036041503, 46384.67536982005, 23296.865617855266, -14212.446118884816, 1323.6032514099184, -15287.565027185086, -13142.110483897983, 14438.064627416687, -10074.288853918179, -22010.00863432987, 1139.9613189651154, 0.194125, 0.9656875, -0.02325, 192.0, 0.0, 0.0, 0.0, 0.0, 0.0, 0.0, 0.0, 0.0, 0.0, 1.662506509598991E9, 0.0, 2022-09-06 19:21:49.598
126.0, -12840.585451195891, -7361.301167166373, -33301.50643605071, -23003.58837885718, 2781.5181352517766, 6310.702122533575, 56533.037904863115, 23384.015069486508, -14471.52518886628, 952.2290172849915, -15758.605689836228, -13329.999247789294, 14101.782632086592, -10781.028661850532, -22710.40054683692, 1208.648229676274, 0.1980625, 0.9038437500000001, -0.031625, 192.0, 3.0, 40.0, 13.0, 40.0, 127.0, 96.0, 0.0, 0.0, 0.0, 1.6625065095989993E9, 0.0, 2022-09-06 19:21:49.598
128.0, -12089.410375286387, -6693.498098075163, -32640.16302110708, -22416.363348527357, 3380.544886654006, 6959.372098371041, 46097.72367450281, 22980.387268112572, -14294.633483246982, 1274.8317450084382, -15381.352946919555, -13231.405702996935, 14356.950146788377, -10160.119552626556, -22139.246420770458, 1008.4660063345441, 0.1980625, 0.9038437500000001, -0.031625, 192.0, 0.0, 0.0, 0.0, 0.0, 0.0, 0.0, 0.0, 0.0, 0.0, 1.6625065095990076E9, 0.0, 2022-09-06 19:21:49.599
130.0, -12849.213224555639, -7442.862682683788, -33396.52370173022, -23136.178926966066, 2594.5234411386778, 6180.570266314777, 57470.76063999661, 23683.126113787428, -14382.744059889801, 1068.9274750861496, -15702.502811253407, -13243.609755469532, 14195.1011651875, -10694.415652086218, -22712.032224182156, 1284.2865329130332, 0.1980625, 0.9038437500000001, -0.031625, 192.0, 0.0, 0.0, 0.0, 0.0, 0.0, 0.0, 0.0, 0.0, 0.0, 1.6625065095990157E9, 0.0, 2022-09-06 19:21:49.599
132.0, -12130.49288159524, -6691.642903285373, -32670.89666973313, -22381.24875798807, 3306.3370950623867, 6932.214728857843, 46015.40219967392, 22616.657330591363, -14435.717694248879, 1157.7086040626293, -15560.301013028744, -13435.90181301854, 14232.786206339146, -10310.859717233148, -22332.36549286431, 828.1991873024926, 0.1980625, 0.9038437500000001, -0.031625, 192.0, 0.0, 0.0, 0.0, 0.0, 0.0, 0.0, 0.0, 0.0, 0.0, 1.6625065095990307E9, 0.0, 2022-09-06 19:21:49.599
