%OpenBCI Raw EEG Data
%Number of channels = 16
%Sample Rate = 125 Hz
%Board = OpenBCI_GUI$BoardCytonSerialDaisy
Sample Index, EXG Channel 0, EXG Channel 1, EXG Channel 2, EXG Channel 3, EXG Channel 4, EXG Channel 5, EXG Channel 6, EXG Channel 7, EXG Channel 8, EXG Channel 9, EXG Channel 10, EXG Channel 11, EXG Channel 12, EXG Channel 13, EXG Channel 14, EXG Channel 15, Accel Channel 0, Accel Channel 1, Accel Channel 2, Other, Other, Other, Other, Other, Other, Other, Analog Channel 0, Analog Channel 1, Analog Channel 2, Timestamp, Other, Timestamp (Formatted)
164.0, -31320.896008121494, -28572.726675597034, -33662.24123981491, -25806.45243006378, -29719.371166154287, -27471.76915070643, -33198.2860801561, -27698.460542972156, -25182.950518482987, -3073.633083538185, -32459.94090556394, -34218.64321454087, -18207.105184448385, -17558.211691166365, -30962.396378802823, -30308.451391273906, 0.0, 0.0, 0.0, 192.0, 0.0, 0.0, 0.0, 0.0, 0.0, 0.0, 0.0, 0.0, 0.0, 1.6731204331367915E9, 0.0, 2023-01-07 14:40:33.136
166.0, -31348.656874734985, -28594.47492295205, -33685.7999784708, -25816.577770302032, -29742.572276898896, -27485.76134273545, -33220.88369380042, -27709.14467682179, -25167.326649108727, -3161.8330671588265, -32461.080844531163, -34314.35338429849, -18209.832097271934, -17582.61979611156, -30970.42065506228, -30368.376418158583, 0.0, 0.0, 0.0, 192.0, 0.0, 0.0, 0.0, 0.0, 0.0, 0.0, 0.0, 0.0, 0.0, 1.6731204331367984E9, 0.0, 2023-01-07 14:40:33.136
168.0, -31329.970816370347, -28578.56048089987, -33664.722283449446, -25803.032613162115, -29726.143744724246, -27475.25602284146, -33205.99743199318, -27699.801647639473, -25200.07195473575, -3075.108298672235, -32467.451091700925, -34225.01346171063, -18220.024492743552, -17568.71701106036, -30970.577117273468, -30314.821638443667, -0.222, 0.894, -0.296, 192.0, 124.5, 8.0, 13.5, 120.0, 123.0, 96.0, 0.0, 0.0, 0.0, 1.6731204331368043E9, 0.0, 2023-01-07 14:40:33.136
170.0, -31332.63067396053, -28581.421504190148, -33663.314123548764, -25801.333880583512, -29736.44789891814, -27475.993630408484, -33208.52317911663, -27704.20494129717, -25155.68139024751, -3152.467686232053, -32451.9613327934, -34308.83250341803, -18211.575533339445, -17578.082391987133, -30956.249649077614, -30358.094615709142, -0.222, 0.894, -0.296, 192.0, 0.0, 0.0, 0.0, 0.0, 0.0, 0.0, 0.0, 0.0, 0.0, 1.6731204331368103E9, 0.0, 2023-01-07 14:40:33.136
172.0, -31325.500467479287, -28574.291297708907, -33656.58624846771, -25787.431095532313, -29713.336195151354, -27456.748778432462, -33197.36965863343, -27684.982441065604, -25180.80475101528, -3067.8663334687158, -32452.74364384933, -34207.8249702245, -18209.51917284956, -17559.731609789327, -30942.145698326316, -30289.698277675903, -0.222, 0.894, -0.296, 192.0, 0.0, 0.0, 0.0, 0.0, 0.0, 0.0, 0.0, 0.0, 0.0, 1.6731204331368165E9, 0.0, 2023-01-07 14:40:33.136
174.0, -31350.132089869036, -28600.442838721614, -33671.785434697325, -25825.317302384057, -29734.570352383897, -27486.700116002576, -33211.697126829284, -27714.95613038017, -25167.281945619816, -3150.4560292310753, -32455.403501439516, -34306.57497722805, -18207.753385037588, -17585.972557779856, -30949.78999493003, -30356.306476152717, -0.222, 0.894, -0.296, 192.0, 0.0, 0.0, 0.0, 0.0, 0.0, 0.0, 0.0, 0.0, 0.0, 1.6731204331368237E9, 0.0, 2023-01-07 14:40:33.136
176.0, -31338.017444374258, -28584.863672836265, -33666.66688521706, -25798.651671248874, -29712.419773628688, -27457.709903444043, -33192.47462659772, -27680.19916775217, -25194.908701766577, -3086.2841708998885, -32469.8650801021, -34232.34483389197, -18211.061443216975, -17568.605252338082, -30957.523698511566, -30304.47278076086, -0.222, 0.894, -0.296, 192.0, 0.0, 0.0, 0.0, 0.0, 0.0, 0.0, 0.0, 0.0, 0.0, 1.6731204331368296E9, 0.0, 2023-01-07 14:40:33.136
178.0, -31366.560622043686, -28620.58176047585, -33685.30824009279, -25852.854651552996, -29736.336140195865, -27504.6932702891, -33218.60381586597, -27729.48476427612, -25166.253765374873, -3168.113907350768, -32464.992399810842, -34314.15221859839, -18202.45602160168, -17583.044479256212, -30957.546050256024, -30359.52512735428, -0.224, 0.9, -0.292, 192.0, 124.5, 0.0, 14.0, 16.0, 123.0, 112.0, 0.0, 0.0, 0.0, 1.673120433136836E9, 0.0, 2023-01-07 14:40:33.136
180.0, -31364.39250283152, -28613.94329237262, -33701.66971703407, -25827.77599427414, -29731.50816339352, -27478.742894976487, -33218.2908914436, -27695.688926659695, -25209.593797873713, -3115.0285142694133, -32494.608461214124, -34260.39627318338, -18226.41709165777, -17584.273825201253, -30980.568347044988, -30325.170496126473, -0.224, 0.9, -0.292, 192.0, 0.0, 0.0, 0.0, 0.0, 0.0, 0.0, 0.0, 0.0, 0.0, 1.6731204331368418E9, 0.0, 2023-01-07 14:40:33.136
182.0, -31356.949371927905, -28611.66341443818, -33682.134292380135, -25848.40665440639, -29722.54511386694, -27499.4406103421, -33217.41917340984, -27723.58390373992, -25180.38006787063, -3163.2188753150554, -32475.922402849486, -34316.38739304392, -18211.441422872715, -17583.96090077888, -30974.46632080869, -30358.80987153171, -0.224, 0.9, -0.292, 192.0, 0.0, 0.0, 0.0, 0.0, 0.0, 0.0, 0.0, 0.0, 0.0, 1.6731204331368475E9, 0.0, 2023-01-07 14:40:33.136
184.0, -31353.39544455951, -28602.923882356154, -33693.801902985804, -25815.25901737917, -29726.03198600197, -27475.30072633037, -33213.70878383026, -27687.15056027777, -25209.638501362624, -3119.2529939714664, -32489.489911733857, -34260.46332841674, -18230.64157135982, -17588.319490947662, -30986.200986647727, -30327.830353716658, -0.224, 0.9, -0.292, 192.0, 0.0, 0.0, 0.0, 0.0, 0.0, 0.0, 0.0, 0.0, 0.0, 1.6731204331368532E9, 0.0, 2023-01-07 14:40:33.136
186.0, -31350.847345691604, -28604.08617306783, -33667.292734061804, -25839.465956624266, -29725.137916223757, -27501.58637780981, -33213.95465301927, -27722.86864791735, -25163.012762428854, -3139.2578052589665, -32458.353931707614, -34284.44675021729, -18203.484201846626, -17585.324357190653, -30965.190346859737, -30347.34342662614, -0.224, 0.9, -0.292, 192.0, 0.0, 0.0, 0.0, 0.0, 0.0, 0.0, 0.0, 0.0, 0.0, 1.6731204331368587E9, 0.0, 2023-01-07 14:40:33.136
188.0, -31349.461537535375, -28594.743143885513, -33684.369466825665, -25800.52921778312, -29731.955198282627, -27472.171482106627, -33216.122772231436, -27683.61898465383, -25192.204140687485, -3113.5980026242737, -32474.5142429488, -34248.50514513316, -18221.075024732952, -17578.86470304307, -30975.248631864626, -30326.980987427356, -0.22, 0.904, -0.29, 192.0, 124.5, 16.0, 14.0, 32.0, 123.0, 120.0, 0.0, 0.0, 0.0, 1.673120433136865E9, 0.0, 2023-01-07 14:40:33.136
190.0, -31333.97177862785, -28589.982222316532, -33653.52405947734, -25829.11709894146, -29718.74531730954, -27495.372592851236, -33205.30452791507, -27722.801592683983, -25164.331515351718, -3129.6465551431843, -32452.69894036042, -34263.570220896036, -18208.4462891157, -17569.38756339402, -30957.16607060028, -30337.57571429917, -0.22, 0.904, -0.29, 192.0, 0.0, 0.0, 0.0, 0.0, 0.0, 0.0, 0.0, 0.0, 0.0, 1.6731204331368706E9, 0.0, 2023-01-07 14:40:33.136
192.0, -31327.489772735807, -28573.93366979762, -33670.26551607437, -25782.916043152338, -29717.001881242024, -27453.48542374199, -33197.28025165561, -27666.519900145522, -25175.239166645904, -3107.719493832528, -32457.191640995938, -34246.44878464327, -18210.7485187946, -17559.239871411308, -30951.89105890883, -30318.844952445623, -0.22, 0.904, -0.29, 192.0, 0.0, 0.0, 0.0, 0.0, 0.0, 0.0, 0.0, 0.0, 0.0, 1.6731204331368763E9, 0.0, 2023-01-07 14:40:33.136
194.0, -31318.839647631605, -28572.88313780822, -33646.192687295996, -25824.40088086139, -29714.431430629666, -27490.410505582156, -33201.772952291125, -27711.715127434152, -25155.793148969788, -3104.4561391420534, -32438.12560297556, -34238.11158396144, -18199.326777377937, -17547.751074761283, -30941.54220122602, -30316.90035067801, -0.22, 0.904, -0.29, 192.0, 0.0, 0.0, 0.0, 0.0, 0.0, 0.0, 0.0, 0.0, 0.0, 1.673120433136882E9, 0.0, 2023-01-07 14:40:33.136
196.0, -31328.62971170303, -28570.692666851603, -33678.625068500645, -25805.64776726339, -29720.354642910323, -27459.989781378485, -33196.78851327759, -27665.312905944935, -25171.573480555235, -3124.7291713630166, -32453.637713627544, -34255.41183416985, -18209.09448970491, -17565.230138925333, -30951.08639610844, -30331.697205507426, -0.22, 0.904, -0.29, 192.0, 0.0, 0.0, 0.0, 0.0, 0.0, 0.0, 0.0, 0.0, 0.0, 1.673120433136892E9, 0.0, 2023-01-07 14:40:33.136
198.0, -31317.29737726419, -28567.831643561323, -33656.80976591227, -25847.892564283917, -29702.137971179247, -27482.833264211808, -33198.82252202303, -27693.744324892086, -25171.998163699885, -3091.1568511911455, -32446.216934468383, -34228.00859546764, -18194.923483720242, -17556.177682420934, -30944.291465794024, -30321.86243794709, -0.20600000000000002, 0.89, -0.292, 192.0, 124.5, 72.0, 13.5, 104.0, 123.0, 112.0, 0.0, 0.0, 0.0, 1.6731204331368976E9, 0.0, 2023-01-07 14:40:33.136
200.0, -31338.978569385836, -28581.063876278866, -33706.05065894731, -25836.470822867253, -29724.13208772327, -27472.99849665147, -33214.66990884184, -27665.312905944935, -25182.347021382695, -3143.392877983198, -32469.596859168636, -34282.88212810542, -18214.905943263286, -17575.601348352593, -30972.924050441274, -30370.924517026488, -0.20600000000000002, 0.89, -0.292, 192.0, 0.0, 0.0, 0.0, 0.0, 0.0, 0.0, 0.0, 0.0, 0.0, 1.6731204331369033E9, 0.0, 2023-01-07 14:40:33.136
202.0, -31320.896008121494, -28571.497329651993, -33679.92146967906, -25859.761340589685, -29718.186523698158, -27489.225863126027, -33195.84974001047, -27684.513054432042, -25176.066181190752, -3094.531964603897, -32455.627018884068, -34231.271950158116, -18197.717451777156, -17541.134958402512, -30961.189384602236, -30336.569885798683, -0.20600000000000002, 0.89, -0.292, 192.0, 0.0, 0.0, 0.0, 0.0, 0.0, 0.0, 0.0, 0.0, 0.0, 1.6731204331369092E9, 0.0, 2023-01-07 14:40:33.136
204.0, -31341.996054887302, -28585.17659725864, -33713.806714273305, -25845.2997619271, -29732.11166049381, -27473.87021468523, -33202.04117322459, -27652.795929049964, -25187.331460396228, -3152.847665887793, -32477.017638327798, -34305.50209349419, -18212.916638006765, -17571.53333086173, -30981.060085423003, -30386.861310823122, -0.20600000000000002, 0.89, -0.292, 192.0, 0.0, 0.0, 0.0, 0.0, 0.0, 0.0, 0.0, 0.0, 0.0, 1.6731204331369147E9, 0.0, 2023-01-07 14:40:33.136
206.0, -31314.458705718363, -28572.190233730107, -33680.34615282371, -25856.430930665843, -29718.96883475409, -27487.124799147226, -33188.85364399596, -27672.443112426176, -25180.670640548546, -3085.9265429886036, -32458.622152641077, -34233.216551925725, -18191.704832518677, -17539.503281057274, -30960.429425290757, -30337.24043813234, -0.20600000000000002, 0.89, -0.292, 192.0, 0.0, 0.0, 0.0, 0.0, 0.0, 0.0, 0.0, 0.0, 0.0, 1.6731204331369207E9, 0.0, 2023-01-07 14:40:33.136
208.0, -31339.649121719496, -28591.546844428405, -33711.683298550044, -25846.864384038974, -29741.052358275934, -27487.34831659178, -33210.71365007325, -27665.111740244836, -25174.23333814542, -3158.010918856969, -32469.485100446356, -34316.58855874402, -18207.149887937296, -17587.514828147272, -30975.785073731553, -30397.433685950484, -0.218, 0.896, -0.29, 192.0, 124.5, 24.0, 14.0, 0.0, 123.0, 120.0, 0.0, 0.0, 0.0, 1.6731204331369267E9, 0.0, 2023-01-07 14:40:33.136
210.0, -31309.563673682653, -28568.301030194885, -33670.019646885354, -25833.945075743806, -29706.898892748224, -27480.329868832814, -33184.69621952727, -27662.206013465646, -25180.73769578191, -3091.1568511911455, -32456.05170202872, -34233.48477285919, -18190.60959704037, -17553.62958355303, -30952.002817631106, -30335.944036953933, -0.218, 0.896, -0.29, 192.0, 0.0, 0.0, 0.0, 0.0, 0.0, 0.0, 0.0, 0.0, 0.0, 1.6731204331369324E9, 0.0, 2023-01-07 14:40:33.136
212.0, -31323.15353431148, -28574.872443064745, -33689.06333316128, -25816.53306681312, -29723.12625922278, -27474.00432515196, -33194.575690576516, -27655.4781383846, -25163.616259529146, -3139.4813227035193, -32453.414196182992, -34310.08420110753, -18190.98957669611, -17567.778237793238, -30949.812346674487, -30382.212147976417, -0.218, 0.896, -0.29, 192.0, 0.0, 0.0, 0.0, 0.0, 0.0, 0.0, 0.0, 0.0, 0.0, 1.673120433136938E9, 0.0, 2023-01-07 14:40:33.136
214.0, -31307.4402579594, -28562.400169658682, -33667.315085806265, -25814.186133645315, -29712.151552695224, -27473.043200140382, -33189.07716144052, -27661.42370240971, -25179.37423937014, -3059.1268013866907, -32446.909838546497, -34211.51300805962, -18189.78258249552, -17536.016408922245, -30938.278846535548, -30316.453315788905, -0.218, 0.896, -0.29, 192.0, 0.0, 0.0, 0.0, 0.0, 0.0, 0.0, 0.0, 0.0, 0.0, 1.673120433136944E9, 0.0, 2023-01-07 14:40:33.136
216.0, -31330.73077568183, -28585.80244610339, -33689.64447851711, -25825.607875061974, -29724.73558482356, -27482.609746767255, -33207.316184916046, -27673.33718220439, -25161.44814031698, -3148.0196890854468, -32453.078920016163, -34315.73919245472, -18194.521152320045, -17567.510016859775, -30950.03586411904, -30384.447322421947, -0.218, 0.896, -0.29, 192.0, 0.0, 0.0, 0.0, 0.0, 0.0, 0.0, 0.0, 0.0, 0.0, 1.6731204331369498E9, 0.0, 2023-01-07 14:40:33.136
218.0, -31319.174923798437, -28579.566309400358, -33679.13915862312, -25819.170572658848, -29709.91637824969, -27465.24244132548, -33190.440617852284, -27656.394559907265, -25192.07003022075, -3076.6729207841067, -32463.025446298772, -34230.556694335544, -18195.862256987366, -17543.99598169279, -30950.79582343052, -30318.33086232315, -0.224, 0.894, -0.298, 192.0, 124.0, 104.0, 13.5, 112.0, 123.0, 56.0, 0.0, 0.0, 0.0, 1.6731204331369555E9, 0.0, 2023-01-07 14:40:33.136
220.0, -31345.371168300055, -28604.95789110159, -33699.702763522, -25848.60782010649, -29726.59077961335, -27487.549482291877, -33209.28313842811, -27678.90276657376, -25168.779512498324, -3155.462819989064, -32462.645466643033, -34329.03848040563, -18193.940006964207, -17576.361307664076, -30953.07570136496, -30378.59116537466, -0.224, 0.894, -0.298, 192.0, 0.0, 0.0, 0.0, 0.0, 0.0, 0.0, 0.0, 0.0, 0.0, 1.6731204331369612E9, 0.0, 2023-01-07 14:40:33.136
222.0, -31319.599606943088, -28579.02986753343, -33687.34224883822, -25826.59135181801, -29704.060221202402, -27463.119025602227, -33184.80797824955, -27651.65599008274, -25198.64144309061, -3087.625275567207, -32475.98945808285, -34248.751014322166, -18197.53863782151, -17565.744229047803, -30963.201041603214, -30330.445507817927, -0.224, 0.894, -0.298, 192.0, 0.0, 0.0, 0.0, 0.0, 0.0, 0.0, 0.0, 0.0, 0.0, 1.673120433136967E9, 0.0, 2023-01-07 14:40:33.136
224.0, -31346.824031689648, -28609.51764697047, -33704.1060571797, -25867.78561684914, -29725.428488901674, -27506.25789240097, -33209.70782157276, -27692.872606858327, -25162.342210095194, -3153.8981978771926, -32461.57258290918, -34328.81496296108, -18185.535751049014, -17575.914272774968, -30960.89881192432, -30386.950717800944, -0.224, 0.894, -0.298, 192.0, 0.0, 0.0, 0.0, 0.0, 0.0, 0.0, 0.0, 0.0, 0.0, 1.673120433136973E9, 0.0, 2023-01-07 14:40:33.136
226.0, -31327.333310524624, -28587.992917060008, -33694.51715880837, -25833.83331702153, -29706.943596237135, -27476.597127508776, -33189.09951318497, -27655.925173273707, -25197.27798667884, -3107.0489414988688, -32480.057475573718, -34261.22328772823, -18199.393832611302, -17567.37590639304, -30973.996934175128, -30347.544592326238, -0.224, 0.894, -0.298, 192.0, 0.0, 0.0, 0.0, 0.0, 0.0, 0.0, 0.0, 0.0, 0.0, 1.6731204331369786E9, 0.0, 2023-01-07 14:40:33.136
228.0, -31335.40229027299, -28602.342737000316, -33689.3539058392, -25858.956677789294, -29715.30314866342, -27505.386174367213, -33198.75546678966, -27692.313813246947, -25160.196442627486, -3149.33844200831, -32458.46569042989, -34323.56230301408, -18181.579492280423, -17568.851121527092, -30963.37985555886, -30386.302517211738, -0.228, 0.895, -0.296, 192.0, 124.0, 96.0, 14.0, 0.0, 123.0, 104.0, 0.0, 0.0, 0.0, 1.6731204331369858E9, 0.0, 2023-01-07 14:40:33.136
230.0, -31330.462554748367, -28593.938481085122, -33701.1556269116, -25824.4455843503, -29720.68991907715, -27475.50189203047, -33195.15683593236, -27656.23809769608, -25191.913568009564, -3101.975095507514, -32475.721237149388, -34257.04351151508, -18202.210152412674, -17560.737438289816, -30976.32151559848, -30341.979007956867, -0.228, 0.895, -0.296, 192.0, 0.0, 0.0, 0.0, 0.0, 0.0, 0.0, 0.0, 0.0, 0.0, 1.6731204331369915E9, 0.0, 2023-01-07 14:40:33.136
232.0, -31324.874618634538, -28591.725658384046, -33675.361713810176, -25840.292971169114, -29713.090325962345, -27488.264738114445, -33185.16560616084, -27681.696734630674, -25158.855337960165, -3148.62318618574, -32452.542478149237, -34303.73630568222, -18187.12272490534, -17564.961917991866, -30962.73165496965, -30366.25300243533, -0.228, 0.895, -0.296, 192.0, 0.0, 0.0, 0.0, 0.0, 0.0, 0.0, 0.0, 0.0, 0.0, 1.6731204331369972E9, 0.0, 2023-01-07 14:40:33.136
234.0, -31320.091345321103, -28576.928803554634, -33687.09637964921, -25794.91892992484, -29716.197218441634, -27451.898449885663, -33174.6826380113, -27633.95340847414, -25180.31301263726, -3098.9576100060476, -32464.70182713292, -34244.280665431106, -18193.8953034753, -17555.57418532064, -30959.64711423482, -30321.99654841382, -0.228, 0.895, -0.296, 192.0, 0.0, 0.0, 0.0, 0.0, 0.0, 0.0, 0.0, 0.0, 0.0, 1.673120433137003E9, 0.0, 2023-01-07 14:40:33.137
236.0, -31317.699708664386, -28583.14258851321, -33666.97980963944, -25827.15014542939, -29713.559712595907, -27488.421200325633, -33177.588364790485, -27680.57914740791, -25153.26740184634, -3127.9478225645807, -32449.547344392224, -34279.864642603956, -18182.272396358538, -17548.555737561674, -30951.064044363982, -30349.95858072741, -0.228, 0.895, -0.296, 192.0, 0.0, 0.0, 0.0, 0.0, 0.0, 0.0, 0.0, 0.0, 0.0, 1.673120433137009E9, 0.0, 2023-01-07 14:40:33.137
238.0, -31323.19823780039, -28581.08622802332, -33695.47828381995, -25799.165761371347, -29715.68312831916, -27465.845938425773, -33193.0334202091, -27651.253658682544, -25179.150721925584, -3108.1888804660894, -32465.059455044207, -34252.662569601845, -18200.243198900604, -17550.72385677384, -30966.978486416163, -30338.648598033025, -0.226, 0.8965000000000001, -0.28900000000000003, 192.0, 124.5, 0.0, 14.0, 8.0, 123.5, 24.0, 0.0, 0.0, 0.0, 1.6731204331370144E9, 0.0, 2023-01-07 14:40:33.137
240.0, -31304.355717224567, -28572.70432385258, -33665.70576020548, -25830.860535008975, -29702.316785134888, -27492.198645138582, -33180.605850291955, -27686.703525388664, -25152.753311723867, -3116.3249154478212, -32443.668835600478, -34263.74903485168, -18179.903111446278, -17543.772464248235, -30961.32349506897, -30352.6631418065, -0.226, 0.8965000000000001, -0.28900000000000003, 192.0, 0.0, 0.0, 0.0, 0.0, 0.0, 0.0, 0.0, 0.0, 0.0, 1.67312043313702E9, 0.0, 2023-01-07 14:40:33.137
242.0, -31330.507258237274, -28591.61389966177, -33714.29845265132, -25817.605950546975, -29726.613131357808, -27479.458150799055, -33201.72824880222, -27657.445091896665, -25186.347983640193, -3131.7699708664386, -32471.027370813776, -34271.41568319985, -18204.780603025032, -17561.76561853476, -30982.26707962359, -30355.18888892995, -0.226, 0.8965000000000001, -0.28900000000000003, 192.0, 0.0, 0.0, 0.0, 0.0, 0.0, 0.0, 0.0, 0.0, 0.0, 1.6731204331370256E9, 0.0, 2023-01-07 14:40:33.137
244.0, -31310.457743460865, -28579.052219277888, -33674.73586496543, -25842.237572936723, -29704.373145624777, -27492.95860445006, -33182.818672993024, -27688.469313200632, -25171.79699799979, -3116.034342769902, -32455.694074117433, -34264.4866424187, -18187.569759794445, -17562.078542957133, -30963.93864917024, -30347.94692372643, -0.226, 0.8965000000000001, -0.28900000000000003, 192.0, 0.0, 0.0, 0.0, 0.0, 0.0, 0.0, 0.0, 0.0, 0.0, 1.673120433137032E9, 0.0, 2023-01-07 14:40:33.137
246.0, -31325.142839568, -28587.23295774853, -33708.978737470956, -25819.483497081223, -29720.68991907715, -27472.238537339992, -33197.95080398927, -27662.56364137693, -25182.190559171508, -3142.81173262736, -32473.597821426134, -34292.225157287736, -18204.11005069137, -17577.702412331393, -30980.478940067165, -30366.34240941315, -0.226, 0.8965000000000001, -0.28900000000000003, 192.0, 0.0, 0.0, 0.0, 0.0, 0.0, 0.0, 0.0, 0.0, 0.0, 1.6731204331370378E9, 0.0, 2023-01-07 14:40:33.137
248.0, -31306.00974631426, -28577.62170763275, -33669.684370718525, -25838.63894207942, -29705.960119481104, -27490.455209071068, -33176.78370199009, -27693.274938258524, -25165.5385095523, -3114.559127635852, -32448.832088569652, -34253.914267291344, -18187.614463283357, -17548.913365472956, -30959.401245045814, -30340.99553120083, -0.218, 0.89425, -0.2915, 192.0, 124.5, 56.0, 13.5, 112.0, 123.0, 104.0, 0.0, 0.0, 0.0, 1.6731204331370437E9, 0.0, 2023-01-07 14:40:33.137
250.0, -31314.928092351925, -28577.442893677104, -33692.01376342938, -25797.95876717076, -29719.84055278785, -27460.325057545313, -33173.00625717715, -27651.00778949354, -25179.664812048057, -3146.678584418128, -32463.22661199887, -34294.058000333076, -18203.797126269, -17561.63150806803, -30968.11842538338, -30363.414330889504, -0.218, 0.89425, -0.2915, 192.0, 0.0, 0.0, 0.0, 0.0, 0.0, 0.0, 0.0, 0.0, 0.0, 1.6731204331370492E9, 0.0, 2023-01-07 14:40:33.137
252.0, -31305.450952702875, -28579.365143700263, -33664.54346949381, -25824.423232605845, -29715.414907385697, -27486.96833693604, -33186.37260036142, -27694.169008036737, -25172.31108812226, -3096.521269860419, -32444.071167000675, -34229.21558966823, -18191.7942394965, -17533.267144354242, -30951.26521006408, -30318.107344878597, -0.218, 0.89425, -0.2915, 192.0, 0.0, 0.0, 0.0, 0.0, 0.0, 0.0, 0.0, 0.0, 0.0, 1.673120433137055E9, 0.0, 2023-01-07 14:40:33.137
254.0, -31336.63163621803, -28600.554597443894, -33708.24112990393, -25816.73423251322, -29737.967817541103, -27481.42510431112, -33205.37158314843, -27680.467388685633, -25183.822236516746, -3159.5531892243853, -32467.607553912112, -34301.85875914797, -18209.27330366055, -17581.412801910974, -30976.634440020855, -30371.77388331579, -0.218, 0.89425, -0.2915, 192.0, 0.0, 0.0, 0.0, 0.0, 0.0, 0.0, 0.0, 0.0, 0.0, 1.6731204331370609E9, 0.0, 2023-01-07 14:40:33.137
0.0, -31319.063165076157, -28587.90351008219, -33684.23535635893, -25829.519430341654, -29722.478058633576, -27488.912938703652, -33186.193786405776, -27698.751115650073, -25195.17692270004, -3098.9576100060476, -32466.847594600633, -34236.32344440502, -18205.78643152552, -17556.155330676476, -30975.65096326482, -30330.7584322403, -0.218, 0.89425, -0.2915, 192.0, 0.0, 0.0, 0.0, 0.0, 0.0, 0.0, 0.0, 0.0, 0.0, 1.6731204331370664E9, 0.0, 2023-01-07 14:40:33.137
2.0, -31335.938732139915, -28595.056068307887, -33706.29652813632, -25807.078278908528, -29736.760823340515, -27466.561194248345, -33193.48045509821, -27673.739513604585, -25187.75614354088, -3162.973006126047, -32472.167309780994, -34312.38643078643, -18216.55997235298, -17569.298156416196, -30988.436161093257, -30378.747627585846, -0.22, 0.8921250000000001, -0.29474999999999996, 192.0, 124.5, 8.0, 13.5, 104.0, 123.0, 88.0, 0.0, 0.0, 0.0, 1.6731204331370733E9, 0.0, 2023-01-07 14:40:33.137
4.0, -31321.141877310503, -28583.27669897994, -33679.02739990084, -25816.220142390746, -29715.75018355253, -27475.30072633037, -33185.143254416376, -27689.788066123496, -25192.874693021142, -3071.777888748394, -32456.94577180693, -34216.6762610288, -18197.53863782151, -17535.122339144033, -30970.197137617724, -30315.67100473297, -0.22, 0.8921250000000001, -0.29474999999999996, 192.0, 0.0, 0.0, 0.0, 0.0, 0.0, 0.0, 0.0, 0.0, 0.0, 1.6731204331370807E9, 0.0, 2023-01-07 14:40:33.137
6.0, -31352.85900269258, -28608.645928936712, -33706.29652813632, -25825.876095995438, -29742.25935247652, -27484.599052023776, -33208.88080702791, -27695.130133048315, -25189.16430344156, -3162.5706747258514, -32471.496757447334, -34319.561340756576, -18218.526925865048, -17578.842351298616, -30985.955117458718, -30388.0236015348, -0.22, 0.8921250000000001, -0.29474999999999996, 192.0, 0.0, 0.0, 0.0, 0.0, 0.0, 0.0, 0.0, 0.0, 0.0, 1.6731204331370864E9, 0.0, 2023-01-07 14:40:33.137
8.0, -31329.188505314414, -28588.730524627033, -33682.62603075815, -25819.72936627023, -29717.448916131132, -27470.226880339014, -33181.030533436606, -27680.42268519672, -25206.21868446096, -3085.457156355042, -32468.18869926795, -34228.63444431239, -18215.978826997143, -17550.813263751657, -30973.304030097013, -30319.716670479378, -0.22, 0.8921250000000001, -0.29474999999999996, 192.0, 0.0, 0.0, 0.0, 0.0, 0.0, 0.0, 0.0, 0.0, 0.0, 1.673120433137092E9, 0.0, 2023-01-07 14:40:33.137
10.0, -31350.221496846858, -28610.255254537497, -33701.31208912279, -25831.709901298276, -29737.967817541103, -27477.178272864614, -33200.07421971252, -27688.715182389642, -25189.209006930472, -3169.812639929371, -32472.56964118119, -34328.21146586078, -18219.152774709793, -17580.608139110584, -30979.204890633213, -30382.458017165427, -0.22, 0.8921250000000001, -0.29474999999999996, 192.0, 0.0, 0.0, 0.0, 0.0, 0.0, 0.0, 0.0, 0.0, 0.0, 1.673120433137098E9, 0.0, 2023-01-07 14:40:33.137
12.0, -31325.992205857303, -28589.691649638615, -33678.558013267284, -25814.946092956794, -29716.376032397275, -27463.677819213608, -33186.03732419459, -27672.532519403998, -25206.64336760561, -3090.955685491048, -32469.28393474626, -34230.13201119089, -18208.960379238175, -17557.071752199146, -30969.683047495255, -30316.69918497791, -0.222, 0.8910625000000001, -0.29637499999999994, 192.0, 124.5, 0.0, 13.5, 104.0, 123.0, 88.0, 0.0, 0.0, 0.0, 1.6731204331371036E9, 0.0, 2023-01-07 14:40:33.137
14.0, -31347.15930785648, -28611.08226908234, -33687.655173260595, -25836.671988567352, -29725.562599368408, -27490.410505582156, -33197.660231311354, -27696.940624349194, -25175.105056179174, -3161.274273547444, -32459.31505671919, -34318.600215745, -18196.711623276668, -17572.494455873308, -30963.245745092125, -30378.83703456367, -0.222, 0.8910625000000001, -0.29637499999999994, 192.0, 0.0, 0.0, 0.0, 0.0, 0.0, 0.0, 0.0, 0.0, 0.0, 1.67312043313711E9, 0.0, 2023-01-07 14:40:33.137
16.0, -31330.350796026087, -28595.03371656343, -33686.13525463763, -25819.97523545924, -29715.236093430056, -27469.936307661093, -33185.143254416376, -27673.963031049137, -25204.877579793643, -3097.594153594274, -32471.541460936245, -34236.77047929412, -18204.60178906939, -17556.08827544311, -30967.403169560814, -30326.779821727258, -0.222, 0.8910625000000001, -0.29637499999999994, 192.0, 0.0, 0.0, 0.0, 0.0, 0.0, 0.0, 0.0, 0.0, 0.0, 1.6731204331371157E9, 0.0, 2023-01-07 14:40:33.137
18.0, -31353.462499792877, -28618.592455219325, -33701.848530989715, -25853.413445164377, -29743.488698421563, -27501.742840020997, -33209.30549017256, -27710.48578148911, -25174.9932974569, -3179.222724345055, -32463.51718467679, -34326.1551053709, -18199.37148086685, -17576.56247336417, -30974.84630046443, -30386.235461978373, -0.222, 0.8910625000000001, -0.29637499999999994, 192.0, 0.0, 0.0, 0.0, 0.0, 0.0, 0.0, 0.0, 0.0, 0.0, 1.6731204331371217E9, 0.0, 2023-01-07 14:40:33.137
20.0, -31339.313845552668, -28595.48075145254, -33698.47341757696, -25814.230837134226, -29728.960064525614, -27467.969354149027, -33196.83321676651, -27672.309001959446, -25214.84645782071, -3095.1578134486454, -32479.968068595896, -34245.68882533179, -18214.950646752197, -17560.938603989915, -30984.211681391203, -30333.57475204167, -0.222, 0.8910625000000001, -0.29637499999999994, 192.0, 0.0, 0.0, 0.0, 0.0, 0.0, 0.0, 0.0, 0.0, 0.0, 1.6731204331371276E9, 0.0, 2023-01-07 14:40:33.137
22.0, -31350.109738124578, -28610.411716748684, -33698.58517629924, -25848.87604103995, -29745.768576356004, -27505.475581345032, -33214.60285360847, -27717.99596762609, -25193.254672676885, -3164.358814282276, -32474.626001671077, -34314.91217790987, -18215.375329896848, -17579.91523503247, -30984.345791857933, -30384.20145323294, -0.224, 0.89053125, -0.29418749999999994, 192.0, 124.0, 120.0, 13.5, 104.0, 123.0, 112.0, 0.0, 0.0, 0.0, 1.6731204331371331E9, 0.0, 2023-01-07 14:40:33.137
24.0, -31322.930016866925, -28578.314611710863, -33695.36652509767, -25796.81882820354, -29736.134974495766, -27462.96256339104, -33200.70006855727, -27673.828920582408, -25210.8007920743, -3108.5465083773743, -32476.347085994137, -34239.385633395395, -18226.059463746486, -17578.44001989842, -30994.292318140546, -30338.000397443822, -0.224, 0.89053125, -0.29418749999999994, 192.0, 0.0, 0.0, 0.0, 0.0, 0.0, 0.0, 0.0, 0.0, 0.0, 1.673120433137139E9, 0.0, 2023-01-07 14:40:33.137
26.0, -31307.753182381774, -28573.12900699723, -33666.35396079469, -25816.28719762411, -29724.892047034748, -27486.54365379139, -33193.50280684266, -27703.57909245242, -25152.954477423966, -3129.624203398729, -32435.622207596567, -34269.11345352095, -18191.7942394965, -17554.970688220346, -30967.157300371804, -30350.740891783345, -0.224, 0.89053125, -0.29418749999999994, 192.0, 0.0, 0.0, 0.0, 0.0, 0.0, 0.0, 0.0, 0.0, 0.0, 1.6731204331371448E9, 0.0, 2023-01-07 14:40:33.137
28.0, -31326.416889001954, -28585.489521681015, -33703.54726356832, -25805.044270163093, -29739.13010825278, -27477.804121709363, -33202.10822845796, -27679.685077629696, -25196.65213783409, -3107.719493832528, -32465.57354516668, -34238.759784550646, -18218.973960754152, -17569.342859905108, -30984.479902324667, -30342.42604284597, -0.224, 0.89053125, -0.29418749999999994, 192.0, 0.0, 0.0, 0.0, 0.0, 0.0, 0.0, 0.0, 0.0, 0.0, 1.6731204331371508E9, 0.0, 2023-01-07 14:40:33.137
0.0, -15623.71291204845, -14278.651985961436, -16823.733368364974, -12905.114937438362, -14850.36490563928, -13709.598923873775, -16575.62900491107, -13833.82991955637, -12588.323663273295, -1572.0428910306564, -16229.35577980945, -17143.855052453884, -9103.887868391022, -8781.553361601038, -15489.11070693859, -15186.646900969376, -0.23, 0.886, -0.274, 192.0, 124.0, 104.0, 13.5, 88.0, 123.5, 56.0, 0.0, 0.0, 0.0, 1.6731204332316823E9, 0.0, 2023-01-07 14:40:33.231
2.0, -31236.249951869246, -28543.624704316226, -33621.382250950606, -25812.375642344436, -29674.06418014338, -27420.740118114965, -33124.100640308934, -27676.868757828328, -25167.617221786648, -3054.5446937733527, -32402.74279150281, -34208.45081906925, -18195.03524244252, -17515.94454240138, -30902.44900017369, -30298.86249290258, -0.23, 0.886, -0.274, 192.0, 0.0, 0.0, 0.0, 0.0, 0.0, 0.0, 0.0, 0.0, 0.0, 1.673120433709942E9, 0.0, 2023-01-07 14:40:33.709
4.0, -31254.1760509224, -28548.966771241045, -33652.87585888813, -25786.939357154293, -29708.463514860097, -27399.170684715595, -33122.98305308617, -27638.960199232126, -25181.207082415473, -3018.7371991559507, -32405.335593859625, -34163.70262666972, -18195.32581512044, -17506.735623685792, -30884.724066820632, -30257.26589647125, -0.23, 0.886, -0.274, 192.0, 0.0, 0.0, 0.0, 0.0, 0.0, 0.0, 0.0, 0.0, 0.0, 1.6731204337099776E9, 0.0, 2023-01-07 14:40:33.709
6.0, -31240.072100171103, -28537.79089901339, -33618.11889626013, -25804.21725561825, -29705.937767736646, -27419.108440769727, -33154.63312323488, -27687.798760866972, -25161.157567639064, -3041.8041994338278, -32395.947861188397, -34187.015496136606, -18203.394794868804, -17525.645199494982, -30895.475255903635, -30289.318298020164, -0.23, 0.886, -0.274, 192.0, 0.0, 0.0, 0.0, 0.0, 0.0, 0.0, 0.0, 0.0, 0.0, 1.673120433710006E9, 0.0, 2023-01-07 14:40:33.710
8.0, -31253.393739866468, -28541.300122892873, -33630.32294873273, -25762.41949348682, -29688.39164833923, -27385.491417108944, -33151.03449237758, -27640.77069053301, -25175.149759668086, -3030.851844650727, -32397.199558877895, -34165.758987159614, -18199.37148086685, -17512.83764992209, -30882.690058075197, -30262.45150118488, -0.244, 0.878, -0.25, 192.0, 124.0, 48.0, 13.5, 56.0, 124.0, 24.0, 0.0, 0.0, 0.0, 1.6731204337100308E9, 0.0, 2023-01-07 14:40:33.710
10.0, -31217.876817926983, -28512.198151612065, -33580.65737255304, -25768.18624355629, -29682.44608431412, -27387.74894329893, -33131.63317819037, -27663.90474604425, -25157.06719840374, -3015.987934587948, -32378.31233481316, -34157.95822834471, -18190.07315517344, -17495.26917878022, -30873.59289808189, -30256.818861582145, -0.244, 0.878, -0.25, 192.0, 0.0, 0.0, 0.0, 0.0, 0.0, 0.0, 0.0, 0.0, 0.0, 1.6731204337100751E9, 0.0, 2023-01-07 14:40:33.710
12.0, -31261.149795192458, -28546.284561906406, -33635.39679472408, -25779.607984972954, -29711.190427683647, -27398.880112037674, -33171.508690298644, -27656.349856418357, -25147.858279688156, -3021.4194084905876, -32377.35120980158, -34159.56755394549, -18196.108126176372, -17493.950425857358, -30882.868872030842, -30255.164832492454, -0.244, 0.878, -0.25, 192.0, 0.0, 0.0, 0.0, 0.0, 0.0, 0.0, 0.0, 0.0, 0.0, 1.6731204337101111E9, 0.0, 2023-01-07 14:40:33.710
14.0, -31235.199419879846, -28521.965863939033, -33590.44743662446, -25799.165761371347, -29673.952421421105, -27407.440830164058, -33141.06561435051, -27683.395467209277, -25166.700800263978, -3030.404809761621, -32389.756427974276, -34162.51798421359, -18203.774774524543, -17512.256504566252, -30900.01266002806, -30271.839233856113, -0.244, 0.878, -0.25, 192.0, 0.0, 0.0, 0.0, 0.0, 0.0, 0.0, 0.0, 0.0, 0.0, 1.6731204337101197E9, 0.0, 2023-01-07 14:40:33.710
16.0, -31265.486033616788, -28545.278733405918, -33621.69517537298, -25792.773162457128, -29696.505331576507, -27401.741135327953, -33144.306617296534, -27649.33140865939, -25155.413169314048, -3042.139475600657, -32382.64857323749, -34176.62193496489, -18192.375384852337, -17516.36922554603, -30887.048648243985, -30268.687637887913, -0.244, 0.878, -0.25, 192.0, 0.0, 0.0, 0.0, 0.0, 0.0, 0.0, 0.0, 0.0, 0.0, 1.6731204337101283E9, 0.0, 2023-01-07 14:40:33.710
18.0, -31243.156640905934, -28527.173820397118, -33573.08013118269, -25805.290139352102, -29673.77360746546, -27406.345594685747, -33118.55740768402, -27670.96789729213, -25158.430654815515, -3021.7099811685066, -32378.625259235534, -34146.82705960597, -18192.062460429963, -17502.913475383935, -30879.180834195715, -30250.89564930149, -0.26, 0.884, -0.224, 192.0, 123.5, 112.0, 13.5, 80.0, 124.5, 0.0, 0.0, 0.0, 0.0, 1.673120433710137E9, 0.0, 2023-01-07 14:40:33.710
20.0, -31278.561804123143, -28552.297181164886, -33614.676727614016, -25806.228912619226, -29692.906700719202, -27401.025879505385, -33123.81006763101, -27646.89506851376, -25148.372369810626, -3054.187065862068, -32377.798244690686, -34185.29441181355, -18188.73205050612, -17508.56846673113, -30873.905822504265, -30278.812978126167, -0.26, 0.884, -0.224, 192.0, 0.0, 0.0, 0.0, 0.0, 0.0, 0.0, 0.0, 0.0, 0.0, 1.673120433710146E9, 0.0, 2023-01-07 14:40:33.710
22.0, -31273.28679243169, -28548.966771241045, -33603.634965853096, -25832.134584442927, -29680.702648246606, -27428.876153096695, -33133.30955902452, -27683.820150353928, -25181.31884113775, -3038.8984726546378, -32402.631032780533, -34160.50632721261, -18206.7475565371, -17513.865830167037, -30887.607441855365, -30265.670152386447, -0.26, 0.884, -0.224, 192.0, 0.0, 0.0, 0.0, 0.0, 0.0, 0.0, 0.0, 0.0, 0.0, 1.6731204337101552E9, 0.0, 2023-01-07 14:40:33.710
24.0, -31299.371278211034, -28566.445835405095, -33641.1411930491, -25826.121965184448, -29691.140912907234, -27423.556437916333, -33149.760442943625, -27668.822129824417, -25162.051637417277, -3073.99071144947, -32402.42986708044, -34207.422638824304, -18202.858353001877, -17525.80166170617, -30887.16040696626, -30300.404763269995, -0.26, 0.884, -0.224, 192.0, 0.0, 0.0, 0.0, 0.0, 0.0, 0.0, 0.0, 0.0, 0.0, 1.6731204337101648E9, 0.0, 2023-01-07 14:40:33.710
26.0, -31269.263478429733, -28534.482840834004, -33605.75838157635, -25809.849895220985, -29661.48014801504, -27401.785838816864, -33117.77509662808, -27661.84838555436, -25186.70561155148, -3034.4951789969423, -32414.768030019764, -34153.55493468701, -18209.6979868052, -17517.822088935627, -30891.720162835143, -30255.813033081657, -0.26, 0.884, -0.224, 192.0, 0.0, 0.0, 0.0, 0.0, 0.0, 0.0, 0.0, 0.0, 0.0, 1.673120433710173E9, 0.0, 2023-01-07 14:40:33.710
28.0, -31300.600624156075, -28563.04837024789, -33631.41818421104, -25810.96748244375, -29699.92514847817, -27415.33099595678, -33153.0237976341, -27668.08452225739, -25145.578401753715, -3066.1005456567464, -32390.114055885562, -34191.843472938956, -18197.873913988344, -17526.80749020666, -30883.45001738668, -30283.46214097287, -0.254, 0.88, -0.194, 192.0, 124.0, 8.0, 13.5, 64.0, 124.5, 120.0, 0.0, 0.0, 0.0, 1.6731204337101817E9, 0.0, 2023-01-07 14:40:33.710
30.0, -31277.757141322752, -28542.21654441554, -33607.99355602188, -25799.05400264907, -29688.190482639133, -27414.839257578762, -33148.06171036502, -27678.500435173566, -25186.236224917917, -3042.6535657231293, -32408.35307936109, -34142.46846943718, -18219.5998095989, -17526.47221403983, -30907.25462523158, -30247.02879751072, -0.254, 0.88, -0.194, 192.0, 0.0, 0.0, 0.0, 0.0, 0.0, 0.0, 0.0, 0.0, 0.0, 1.673120433710189E9, 0.0, 2023-01-07 14:40:33.710
32.0, -31273.3314959206, -28534.818117000836, -33611.79335257928, -25787.699316465776, -29691.16326465169, -27402.389335917156, -33126.916960110306, -27664.038856510982, -25140.25868657335, -3071.2190951370117, -32377.910003412966, -34179.326496043985, -18198.700928533188, -17520.481946525808, -30894.223558214137, -30280.981097338332, -0.254, 0.88, -0.194, 192.0, 0.0, 0.0, 0.0, 0.0, 0.0, 0.0, 0.0, 0.0, 0.0, 1.673120433710197E9, 0.0, 2023-01-07 14:40:33.710
34.0, -31249.616295053518, -28508.063078887833, -33600.97510826291, -25775.137636081894, -29691.476189074063, -27381.669268807087, -33100.92188130878, -27646.29157141347, -25166.41022758606, -3006.6449054056297, -32379.5416807582, -34099.24019566062, -18206.23346641463, -17489.90476011095, -30882.64535458629, -30214.395250605972, -0.254, 0.88, -0.194, 192.0, 0.0, 0.0, 0.0, 0.0, 0.0, 0.0, 0.0, 0.0, 0.0, 1.6731204337102048E9, 0.0, 2023-01-07 14:40:33.710
36.0, -31257.618219568518, -28516.959073181042, -33604.55138737576, -25784.72653445322, -29687.765799494482, -27388.061867721306, -33119.45147746223, -27654.964048262125, -25124.388948010084, -3033.1317225851685, -32358.486337481303, -34146.894114839335, -18190.676652273734, -17491.98347234529, -30879.627869084823, -30258.249373227285, -0.254, 0.88, -0.194, 192.0, 0.0, 0.0, 0.0, 0.0, 0.0, 0.0, 0.0, 0.0, 0.0, 1.6731204337102125E9, 0.0, 2023-01-07 14:40:33.710
38.0, -31270.582231352597, -28527.173820397118, -33614.74378284738, -25796.215331103245, -29692.43731408564, -27388.821827032785, -33127.676919421785, -27654.04762673946, -25173.56278581176, -3015.116216554191, -32392.259823353274, -34109.09731496541, -18216.157640952784, -17513.776423189214, -30895.274090203537, -30223.9841489773, -0.242, 0.886, -0.18, 192.0, 124.0, 56.0, 13.5, 88.0, 125.0, 48.0, 0.0, 0.0, 0.0, 1.673120433710222E9, 0.0, 2023-01-07 14:40:33.710
40.0, -31283.278022203212, -28542.01537871544, -33612.46390491294, -25820.19875290379, -29683.653078514708, -27403.059888250817, -33135.41062300332, -27673.784217093496, -25144.17024185303, -3058.724469986495, -32377.30650631267, -34162.65209468032, -18199.63970180031, -17514.357568545052, -30887.696848833188, -30273.157986778973, -0.242, 0.886, -0.18, 192.0, 0.0, 0.0, 0.0, 0.0, 0.0, 0.0, 0.0, 0.0, 0.0, 1.6731204337102296E9, 0.0, 2023-01-07 14:40:33.710
42.0, -31298.588967155098, -28555.22525968853, -33637.02847206932, -25829.139450685914, -29699.008726955504, -27406.837333063762, -33144.57483822999, -27672.80074033746, -25198.7979053018, -3039.0996383547354, -32413.829256752644, -34128.61038787489, -18226.350036424403, -17520.817222692636, -30906.87464557584, -30251.767367335247, -0.242, 0.886, -0.18, 192.0, 0.0, 0.0, 0.0, 0.0, 0.0, 0.0, 0.0, 0.0, 0.0, 1.6731204337102377E9, 0.0, 2023-01-07 14:40:33.710
44.0, -31281.176958224412, -28541.59069557079, -33604.260814697845, -25828.06656695206, -29683.228395370057, -27408.51371389791, -33122.13368679687, -27672.219594981623, -25152.865070446143, -3071.733185259484, -32388.437675051413, -34171.972772118184, -18197.248065143594, -17522.404196548963, -30892.949508780184, -30295.912062634477, -0.242, 0.886, -0.18, 192.0, 0.0, 0.0, 0.0, 0.0, 0.0, 0.0, 0.0, 0.0, 0.0, 1.6731204337102463E9, 0.0, 2023-01-07 14:40:33.710
46.0, -31301.181769511913, -28559.717960324047, -33640.06830931525, -25826.747814029197, -29707.278872403967, -27409.005452275927, -33137.06465209302, -27656.461615140634, -25182.637594060612, -3046.2969000693442, -32406.9002159715, -34135.47237342267, -18218.79514679851, -17520.169022103433, -30897.710430349165, -30256.26006797076, -0.242, 0.886, -0.18, 192.0, 0.0, 0.0, 0.0, 0.0, 0.0, 0.0, 0.0, 0.0, 0.0, 1.673120433710255E9, 0.0, 2023-01-07 14:40:33.710
48.0, -31303.48399919081, -28564.61299235976, -33631.75346037787, -25843.86925028196, -29702.942633979637, -27433.882943854685, -33151.302713311044, -27689.363382978845, -25162.722189750933, -3080.94210397507, -32401.22287287985, -34179.326496043985, -18209.787393783023, -17529.13207163001, -30906.62877638683, -30297.94607137991, -0.23600000000000002, 0.896, -0.166, 192.0, 124.0, 80.0, 14.0, 0.0, 125.0, 104.0, 0.0, 0.0, 0.0, 1.6731204337102623E9, 0.0, 2023-01-07 14:40:33.710
50.0, -31309.943653338392, -28564.389474915206, -33656.00510311188, -25813.87320922294, -29703.702593291117, -27403.886902795664, -33133.51072472462, -27640.167193432713, -25210.957254285488, -3066.234656123478, -32427.7543935483, -34153.55493468701, -18230.954495782196, -17540.41970257994, -30915.524770680044, -30264.999600052786, -0.23600000000000002, 0.896, -0.166, 192.0, 0.0, 0.0, 0.0, 0.0, 0.0, 0.0, 0.0, 0.0, 0.0, 1.67312043371027E9, 0.0, 2023-01-07 14:40:33.710
52.0, -31279.14294947898, -28535.734538523502, -33606.272471698816, -25801.311528839058, -29676.992258667025, -27407.150257486137, -33093.478750405164, -27648.839670281373, -25149.154680866563, -3048.599129748241, -32376.412436534458, -34143.67546363777, -18194.185876153217, -17515.542211001186, -30880.5889940964, -30265.647800641993, -0.23600000000000002, 0.896, -0.166, 192.0, 0.0, 0.0, 0.0, 0.0, 0.0, 0.0, 0.0, 0.0, 0.0, 1.6731204337102778E9, 0.0, 2023-01-07 14:40:33.710
54.0, -31314.123429551535, -28563.741274326003, -33647.66790243005, -25792.66140373485, -29707.994128226535, -27406.27853945238, -33127.56516069951, -27630.310074127923, -25180.245957403895, -3038.876120910182, -32394.338535587616, -34130.5549896425, -18207.775736782045, -17514.290513311687, -30883.226499942128, -30246.60411436607, -0.23600000000000002, 0.896, -0.166, 192.0, 0.0, 0.0, 0.0, 0.0, 0.0, 0.0, 0.0, 0.0, 0.0, 1.6731204337102857E9, 0.0, 2023-01-07 14:40:33.710
56.0, -31293.96215605285, -28548.095053207286, -33614.453210169464, -25805.670119007842, -29680.814406968882, -27416.2697692239, -33121.239617018655, -27661.71427508763, -25182.190559171508, -3058.5903595197633, -32401.066410668664, -34160.08164406796, -18208.066309459962, -17520.593705248084, -30889.082656989416, -30276.756617636278, -0.23600000000000002, 0.896, -0.166, 192.0, 0.0, 0.0, 0.0, 0.0, 0.0, 0.0, 0.0, 0.0, 0.0, 1.6731204337102933E9, 0.0, 2023-01-07 14:40:33.710
58.0, -31299.460685188853, -28545.97163748403, -33650.21600129795, -25784.77123794213, -29696.55003506542, -27387.57012934329, -33109.996689557636, -27614.485039053565, -25178.70368703648, -3031.947080129037, -32395.880805955032, -34144.41307120479, -18197.53863782151, -17499.203085804354, -30881.01367724105, -30249.889820801, -0.23, 0.9, -0.156, 192.0, 124.5, 0.0, 14.0, 32.0, 125.5, 56.0, 0.0, 0.0, 0.0, 1.6731204337103019E9, 0.0, 2023-01-07 14:40:33.710
60.0, -31282.965097780838, -28534.549896067372, -33634.659187157056, -25811.459220821765, -29698.539340321942, -27407.32907144178, -33117.99861407264, -27659.590859364376, -25179.776570770333, -3034.718696441495, -32400.664079268467, -34146.82705960597, -18206.03230071453, -17498.599588704063, -30902.11372400686, -30270.9451640779, -0.23, 0.9, -0.156, 192.0, 0.0, 0.0, 0.0, 0.0, 0.0, 0.0, 0.0, 0.0, 0.0, 1.6731204337103095E9, 0.0, 2023-01-07 14:40:33.710
62.0, -31289.15653099496, -28541.300122892873, -33657.90500139058, -25792.460238034757, -29704.753125280517, -27384.99967873093, -33110.51077968011, -27619.469478067098, -25176.08853293521, -3039.9266528995818, -32398.56301528967, -34151.990312575144, -18200.26555064506, -17489.41302173293, -30903.521883907546, -30268.508823932272, -0.23, 0.9, -0.156, 192.0, 0.0, 0.0, 0.0, 0.0, 0.0, 0.0, 0.0, 0.0, 0.0, 1.6731204337103171E9, 0.0, 2023-01-07 14:40:33.710
64.0, -31268.79409179617, -28532.962922211045, -33622.81276259575, -25814.20848538977, -29673.21481385408, -27404.825676062785, -33106.33100346696, -27661.71427508763, -25171.70759102197, -3030.4495132505317, -32393.086837898118, -34143.16137351529, -18192.956530208176, -17492.78813514568, -30898.001003027082, -30265.647800641993, -0.23, 0.9, -0.156, 192.0, 0.0, 0.0, 0.0, 0.0, 0.0, 0.0, 0.0, 0.0, 0.0, 1.6731204337103248E9, 0.0, 2023-01-07 14:40:33.710
66.0, -31299.080705533113, -28564.434178404117, -33663.82821367124, -25812.040366177604, -29696.885311232247, -27391.012297989408, -33106.33100346696, -27625.437393836666, -25157.380122826115, -3048.4873710259644, -32391.678677997435, -34167.39066450485, -18188.419126083747, -17496.47617298081, -30885.282860432013, -30274.208518768373, -0.23, 0.9, -0.156, 192.0, 0.0, 0.0, 0.0, 0.0, 0.0, 0.0, 0.0, 0.0, 0.0, 1.673120433710333E9, 0.0, 2023-01-07 14:40:33.710
68.0, -31283.56859488113, -28555.962867255555, -33635.26268425735, -25826.41253786237, -29680.2556133575, -27404.75862082942, -33100.631308630866, -27660.66374309823, -25182.145855682596, -3044.5758157462856, -32405.26853862626, -34150.51509744109, -18199.21501865566, -17496.051489836158, -30883.293555175493, -30258.18231799392, -0.222, 0.906, -0.14200000000000002, 192.0, 124.5, 40.0, 14.0, 64.0, 126.0, 0.0, 0.0, 0.0, 0.0, 1.6731204337103424E9, 0.0, 2023-01-07 14:40:33.710
70.0, -31315.375127241034, -28578.493425666504, -33669.3490945517, -25813.135601655915, -29704.21668341359, -27396.019088747395, -33113.68472739276, -27636.255638153034, -25172.422846844536, -3066.6816910125845, -32405.425000837447, -34179.99704837764, -18192.956530208176, -17504.299283540164, -30882.868872030842, -30278.07537055914, -0.222, 0.906, -0.14200000000000002, 192.0, 0.0, 0.0, 0.0, 0.0, 0.0, 0.0, 0.0, 0.0, 0.0, 1.6731204337103527E9, 0.0, 2023-01-07 14:40:33.710
72.0, -31290.05060077317, -28558.242745189997, -33628.98184406541, -25807.793534731096, -29679.16037787919, -27403.28340569537, -33093.83637831645, -27656.394559907265, -25195.8474750337, -3042.3853447896654, -32416.064431198174, -34139.45098393571, -18204.93706523622, -17494.956254357847, -30888.032125000016, -30245.933562032413, -0.222, 0.906, -0.14200000000000002, 192.0, 0.0, 0.0, 0.0, 0.0, 0.0, 0.0, 0.0, 0.0, 0.0, 1.6731204337103608E9, 0.0, 2023-01-07 14:40:33.710
74.0, -31302.455818945866, -28572.32434419684, -33651.55710596527, -25794.203674102268, -29688.615165783784, -27405.250359207435, -33107.44859068973, -27645.33044640189, -25157.849509459676, -3062.7701357329056, -32392.37158207555, -34163.68027492527, -18185.044012671, -17496.811449147637, -30879.046723728985, -30270.766350122256, -0.222, 0.906, -0.14200000000000002, 192.0, 0.0, 0.0, 0.0, 0.0, 0.0, 0.0, 0.0, 0.0, 0.0, 1.673120433710369E9, 0.0, 2023-01-07 14:40:33.710
76.0, -31291.212891484847, -28569.50802439547, -33642.50464946087, -25808.35232834248, -29695.432447842653, -27431.871286853708, -33126.916960110306, -27680.400333452268, -25190.058373219774, -3040.0160598774028, -32410.141218917517, -34128.342166941424, -18200.39966111179, -17514.916362156437, -30908.819247343454, -30247.565239377647, -0.222, 0.906, -0.14200000000000002, 192.0, 0.0, 0.0, 0.0, 0.0, 0.0, 0.0, 0.0, 0.0, 0.0, 1.673120433710392E9, 0.0, 2023-01-07 14:40:33.710
78.0, -31292.95632755236, -28573.821911075345, -33650.75244316488, -25800.2386451052, -29692.705535019108, -27428.60793216323, -33120.30084375153, -27665.223498967112, -25156.620163514635, -3082.842002253771, -32396.50665479978, -34174.61027796391, -18192.665957530255, -17521.89010642649, -30915.368308468856, -30293.76629516677, -0.203, 0.915, -0.13, 192.0, 125.0, 32.0, 14.0, 112.0, 126.0, 40.0, 0.0, 0.0, 0.0, 1.6731204337104003E9, 0.0, 2023-01-07 14:40:33.710
80.0, -31269.084664474092, -28550.330227652816, -33635.687367402, -25789.845083933484, -29683.07193315887, -27412.84995232224, -33099.93840455275, -27659.81437680893, -25182.21291091596, -3042.474751767487, -32406.87786422704, -34118.909730781284, -18201.249027401092, -17503.964007373335, -30916.284729991527, -30246.805280066168, -0.203, 0.915, -0.13, 192.0, 0.0, 0.0, 0.0, 0.0, 0.0, 0.0, 0.0, 0.0, 0.0, 1.6731204337104087E9, 0.0, 2023-01-07 14:40:33.710
82.0, -31276.013705255238, -28553.481823621016, -33644.873934373136, -25785.15121759787, -29690.40330534021, -27394.23094919097, -33095.445703917234, -27641.173021933202, -25135.74363419338, -3062.0325281658806, -32384.347305816093, -34149.08458579595, -18182.138285891808, -17486.730812398295, -30900.102067005882, -30276.913079847465, -0.203, 0.915, -0.13, 192.0, 0.0, 0.0, 0.0, 0.0, 0.0, 0.0, 0.0, 0.0, 0.0, 1.6731204337104173E9, 0.0, 2023-01-07 14:40:33.710
84.0, -31288.57538563912, -28565.864690049257, -33656.69800718999, -25796.95293867027, -29702.83087525736, -27401.405859161125, -33103.38057319887, -27651.678341827195, -25189.99131798641, -3028.9742981164814, -32415.12565793105, -34105.297518408006, -18209.8991525053, -17483.579216430095, -30910.36151771087, -30241.731434074813, -0.203, 0.915, -0.13, 192.0, 0.0, 0.0, 0.0, 0.0, 0.0, 0.0, 0.0, 0.0, 0.0, 1.673120433710426E9, 0.0, 2023-01-07 14:40:33.710
86.0, -31296.934938065406, -28574.358352942272, -33657.63678045711, -25803.367889328943, -29711.682166061662, -27413.587559889267, -33107.828570345475, -27665.089388500382, -25166.566689797248, -3078.617522551718, -32407.101381671597, -34163.166184802794, -18208.46864086016, -17503.114641084034, -30913.82603810144, -30299.89067314752, -0.203, 0.915, -0.13, 192.0, 0.0, 0.0, 0.0, 0.0, 0.0, 0.0, 0.0, 0.0, 0.0, 1.6731204337104352E9, 0.0, 2023-01-07 14:40:33.710
88.0, -31263.876708016007, -28541.59069557079, -33630.680576644016, -25761.4807202197, -29689.15160765071, -27381.3116408958, -33070.67997106075, -27623.71630951361, -25191.153608698085, -3015.853824121216, -32407.011974693774, -34102.41414337327, -18205.16058268077, -17484.60739667504, -30896.659898359765, -30233.0366054817, -0.1945, 0.9245000000000001, -0.12, 192.0, 125.0, 24.0, 14.5, 24.0, 126.0, 72.0, 0.0, 0.0, 0.0, 1.6731204337104445E9, 0.0, 2023-01-07 14:40:33.710
90.0, -31270.872804030518, -28557.371027156238, -33630.23354175491, -25781.664345462843, -29691.69970651862, -27407.351423186235, -33095.69157310624, -27657.735664574586, -25133.9331428925, -3045.693402969051, -32371.226831820826, -34133.93010305525, -18180.014870168554, -17490.55296070015, -30879.627869084823, -30264.194937252396, -0.1945, 0.9245000000000001, -0.12, 192.0, 0.0, 0.0, 0.0, 0.0, 0.0, 0.0, 0.0, 0.0, 0.0, 1.673120433710452E9, 0.0, 2023-01-07 14:40:33.710
92.0, -31305.696821891885, -28590.94334732811, -33673.3500568092, -25800.126886382925, -29710.274006160977, -27423.66819663861, -33137.26581779311, -27668.62096412432, -25194.841646533212, -3038.183216832068, -32413.873960241555, -34122.24014070513, -18209.22860017164, -17518.09030986909, -30912.999023556597, -30246.9393905329, -0.1945, 0.9245000000000001, -0.12, 192.0, 0.0, 0.0, 0.0, 0.0, 0.0, 0.0, 0.0, 0.0, 0.0, 1.6731204337104597E9, 0.0, 2023-01-07 14:40:33.710
94.0, -31301.67350788993, -28586.540053670415, -33648.27139953034, -25798.45050554878, -29696.2594623875, -27424.09287978326, -33123.09481180845, -27682.52374917552, -25187.465570862958, -3091.84975526926, -32420.735945789333, -34181.09228385595, -18208.870972260353, -17535.502318799772, -30920.64332016031, -30299.66715570297, -0.1945, 0.9245000000000001, -0.12, 192.0, 0.0, 0.0, 0.0, 0.0, 0.0, 0.0, 0.0, 0.0, 0.0, 1.673120433710467E9, 0.0, 2023-01-07 14:40:33.710
96.0, -31299.728906122316, -28576.884100065723, -33661.66009445907, -25776.38933377139, -29701.69093629014, -27406.18913247456, -33109.72846862418, -27654.561716861932, -25207.917417039564, -3047.5709495032966, -32425.742736547323, -34135.8076495895, -18214.59301884091, -17511.116565599033, -30907.67930837623, -30249.26397195625, -0.1945, 0.9245000000000001, -0.12, 192.0, 0.0, 0.0, 0.0, 0.0, 0.0, 0.0, 0.0, 0.0, 0.0, 1.673120433710476E9, 0.0, 2023-01-07 14:40:33.710
98.0, -31279.813501812638, -28557.303971922873, -33634.8380011127, -25781.060848362547, -29703.34496537983, -27416.91796981311, -33105.302823222024, -27676.91346131724, -25174.635669545612, -3066.7710979904055, -32406.922567715952, -34156.8629928664, -18203.037166957518, -17512.27885631071, -30904.63947113031, -30288.111303819576, -0.18925, 0.9272500000000001, -0.112, 192.0, 125.0, 32.0, 14.5, 8.0, 126.0, 96.0, 0.0, 0.0, 0.0, 1.6731204337104838E9, 0.0, 2023-01-07 14:40:33.710
100.0, -31297.605490399063, -28574.13483549772, -33668.47737651794, -25773.058923847548, -29712.59858758433, -27410.07833600978, -33133.66718693581, -27660.395522164767, -25192.293547665304, -3040.6642604666067, -32413.404573607993, -34125.972882029164, -18206.546390837, -17503.85224865106, -30910.45092468869, -30257.489413915806, -0.18925, 0.9272500000000001, -0.112, 192.0, 0.0, 0.0, 0.0, 0.0, 0.0, 0.0, 0.0, 0.0, 0.0, 1.673120433710492E9, 0.0, 2023-01-07 14:40:33.710
102.0, -31277.06423724464, -28559.60620160177, -33624.82441959673, -25775.987002371196, -29681.127331391257, -27416.493286668458, -33112.88006459237, -27681.584975908398, -25173.495730578394, -3062.926597944093, -32406.341422360114, -34147.94464682873, -18199.66205354477, -17521.018388392735, -30911.3449944669, -30289.0500770867, -0.18925, 0.9272500000000001, -0.112, 192.0, 0.0, 0.0, 0.0, 0.0, 0.0, 0.0, 0.0, 0.0, 0.0, 1.6731204337105012E9, 0.0, 2023-01-07 14:40:33.710
104.0, -31283.412132669942, -28562.64603884769, -33644.158678550564, -25742.548792666053, -29695.879482731758, -27384.977326986475, -33079.866538031885, -27627.829030493383, -25181.855283004676, -3041.848902922738, -32403.346288603105, -34122.37425117186, -18193.940006964207, -17512.591780733084, -30894.961165781162, -30249.956876034365, -0.18925, 0.9272500000000001, -0.112, 192.0, 0.0, 0.0, 0.0, 0.0, 0.0, 0.0, 0.0, 0.0, 0.0, 1.6731204337105088E9, 0.0, 2023-01-07 14:40:33.710
106.0, -31267.85531852905, -28551.917201509143, -33614.02852702481, -25749.29901949156, -29685.195348882124, -27399.28244343787, -33081.22999444366, -27659.792025064475, -25150.652247745067, -3031.3882865176543, -32377.08298886812, -34110.28195742154, -18181.758306236068, -17490.41885023342, -30878.800854539975, -30248.32519868913, -0.18925, 0.9272500000000001, -0.112, 192.0, 0.0, 0.0, 0.0, 0.0, 0.0, 0.0, 0.0, 0.0, 0.0, 1.6731204337105165E9, 0.0, 2023-01-07 14:40:33.710
108.0, -31303.39459221299, -28580.50508266748, -33660.92248689204, -25745.588629911977, -29695.723020520574, -27398.61189110421, -33117.64098616135, -27652.304190671945, -25186.392687129104, -3048.330908814777, -32405.536759559724, -34128.789201830536, -18200.42201285625, -17507.76380393074, -30900.86202631736, -30260.99863779529, -0.190625, 0.930625, -0.109, 192.0, 125.0, 0.0, 14.5, 24.0, 126.0, 88.0, 0.0, 0.0, 0.0, 1.6731204337105243E9, 0.0, 2023-01-07 14:40:33.710
110.0, -31295.19150199789, -28577.442893677104, -33638.68250115901, -25770.332011024002, -29696.438276343142, -27428.518525185413, -33130.51559096761, -27704.182589552714, -25184.31397489476, -3057.428068808087, -32407.526064816248, -34133.75128909961, -18202.813649512966, -17514.80460343416, -30917.40231721429, -30280.019972326754, -0.190625, 0.930625, -0.109, 192.0, 0.0, 0.0, 0.0, 0.0, 0.0, 0.0, 0.0, 0.0, 0.0, 1.673120433710533E9, 0.0, 2023-01-07 14:40:33.710
112.0, -31308.647252159986, -28588.909338582678, -33662.688274704014, -25747.153252023847, -29708.888198004748, -27401.696431839042, -33129.39800374484, -27660.730798331595, -25184.8951202506, -3065.4299933230873, -32408.88952122802, -34146.08945203894, -18200.153791922785, -17515.36339704554, -30918.251683503593, -30274.476739701837, -0.190625, 0.930625, -0.109, 192.0, 0.0, 0.0, 0.0, 0.0, 0.0, 0.0, 0.0, 0.0, 0.0, 1.6731204337105412E9, 0.0, 2023-01-07 14:40:33.710
114.0, -31284.06033325915, -28567.876347050234, -33620.689346872496, -25751.3777317259, -29690.82798848486, -27401.204693461026, -33097.16678824029, -27675.393542694277, -25182.190559171508, -3048.7332402149727, -32403.70391651439, -34125.972882029164, -18200.064384944963, -17505.50627774075, -30910.272110733047, -30253.197878980387, -0.190625, 0.930625, -0.109, 192.0, 0.0, 0.0, 0.0, 0.0, 0.0, 0.0, 0.0, 0.0, 0.0, 1.6731204337105489E9, 0.0, 2023-01-07 14:40:33.710
116.0, -31297.449028187875, -28577.711114610567, -33643.957512850466, -25730.43414717128, -29710.184599183158, -27376.640126304643, -33084.24747994512, -27629.550114816444, -25166.231413630416, -3057.9421589305593, -32391.768084975254, -34138.17693450176, -18195.07994593143, -17511.317731299132, -30894.44707565869, -30252.54967839118, -0.190625, 0.930625, -0.109, 192.0, 0.0, 0.0, 0.0, 0.0, 0.0, 0.0, 0.0, 0.0, 0.0, 1.6731204337105575E9, 0.0, 2023-01-07 14:40:33.710
118.0, -31290.788208340196, -28576.74998959899, -33622.05280328426, -25748.539060180075, -29701.847398501326, -27405.5185801409, -33091.71296259319, -27669.023295524516, -25178.100189936187, -3051.527208271886, -32394.293832098705, -34113.21003594519, -18200.377309367337, -17505.439222507386, -30888.12153197784, -30231.89666651448, -0.1893125, 0.9363125000000001, -0.10450000000000001, 192.0, 125.0, 16.0, 14.5, 56.0, 126.0, 112.0, 0.0, 0.0, 0.0, 1.673120433710565E9, 0.0, 2023-01-07 14:40:33.710
120.0, -31324.382880256522, -28608.601225447805, -33658.1955740685, -25746.795624112565, -29704.082572946856, -27409.497190653943, -33112.94711982574, -27655.34402791787, -25172.020515444343, -3068.5145340579193, -32401.73696300232, -34153.75610038711, -18198.41035585527, -17519.65493198096, -30889.105008733874, -30268.195899509898, -0.1893125, 0.9363125000000001, -0.10450000000000001, 192.0, 0.0, 0.0, 0.0, 0.0, 0.0, 0.0, 0.0, 0.0, 0.0, 1.6731204337105727E9, 0.0, 2023-01-07 14:40:33.710
122.0, -31310.256577760767, -28595.65956540818, -33636.17910578002, -25751.824766615006, -29689.06220067289, -27419.935455314575, -33107.87327383438, -27679.685077629696, -25209.057356006786, -3058.210379864023, -32424.625149324558, -34129.52680939756, -18216.179992697238, -17515.11752785653, -30893.620061113845, -30246.537059132705, -0.1893125, 0.9363125000000001, -0.10450000000000001, 192.0, 0.0, 0.0, 0.0, 0.0, 0.0, 0.0, 0.0, 0.0, 0.0, 1.6731204341918657E9, 0.0, 2023-01-07 14:40:34.191
124.0, -31331.781307671226, -28609.60705394829, -33668.499728262395, -25749.209612513736, -29719.88525627676, -27417.85674308023, -33123.00540483063, -27670.163234491734, -25191.08655346472, -3095.0237029819136, -32422.524085345758, -34168.57530696098, -18218.32576016495, -17525.935772172903, -30904.237139730114, -30289.966498609367, -0.1893125, 0.9363125000000001, -0.10450000000000001, 192.0, 0.0, 0.0, 0.0, 0.0, 0.0, 0.0, 0.0, 0.0, 0.0, 1.6731204341919897E9, 0.0, 2023-01-07 14:40:34.191
126.0, -31287.34603969408, -28564.545937126393, -33625.58437890821, -25718.364205165413, -29679.048619156914, -27392.71103056801, -33085.63328810135, -27654.204088950646, -25206.106925738684, -3044.5534640018304, -32419.573655077656, -34113.52296036756, -18218.661036331778, -17498.26431253723, -30895.49760764809, -30232.053128725664, -0.1893125, 0.9363125000000001, -0.10450000000000001, 192.0, 0.0, 0.0, 0.0, 0.0, 0.0, 0.0, 0.0, 0.0, 0.0, 1.673120434191997E9, 0.0, 2023-01-07 14:40:34.191
128.0, -31297.940766565895, -28571.98906803001, -33640.33653024871, -25706.18250443727, -29694.672488531174, -27380.88695775115, -33084.962735767695, -27636.23328640858, -25162.297506606283, -3064.602978778241, -32391.343401830603, -34133.41601293278, -18197.98567271062, -17497.2808357812, -30878.01854348404, -30248.03462601121, -0.1893125, 0.9363125000000001, -0.10450000000000001, 192.0, 0.0, 0.0, 0.0, 0.0, 0.0, 0.0, 0.0, 0.0, 0.0, 1.673120434192004E9, 0.0, 2023-01-07 14:40:34.192
130.0, -31297.71724912134, -28573.46428316406, -33643.35401575018, -25714.206780696724, -29703.143799679736, -27396.220254447493, -33108.43206744576, -27658.786196563986, -25198.529684368335, -3035.7468766864395, -32409.582425306136, -34089.87481473384, -18213.676597318245, -17493.03400433469, -30894.044744258495, -30210.148419159465, -0.184, 0.9380000000000001, -0.098, 192.0, 125.0, 32.0, 14.5, 40.0, 126.0, 120.0, 0.0, 0.0, 0.0, 1.6731204341920109E9, 0.0, 2023-01-07 14:40:34.192
132.0, -31310.681260905418, -28590.429257205637, -33658.776719424335, -25723.61686511241, -29711.88333176176, -27405.272710951893, -33115.159942526814, -27666.13992048978, -25176.379105613127, -3086.731205788995, -32407.32489911615, -34146.13415552785, -18215.26357117457, -17511.317731299132, -30912.104953778384, -30280.46700721586, -0.184, 0.9380000000000001, -0.098, 192.0, 0.0, 0.0, 0.0, 0.0, 0.0, 0.0, 0.0, 0.0, 0.0, 1.6731204341920178E9, 0.0, 2023-01-07 14:40:34.192
134.0, -31286.876653060517, -28568.54689938389, -33637.92254184753, -25705.444896870245, -29683.384857581244, -27388.173626443582, -33092.40586667131, -27648.392635392265, -25197.36739365666, -3040.820722677794, -32409.18009390594, -34091.77471301254, -18215.352978152394, -17485.0767833086, -30899.140941994305, -30226.398137378474, -0.184, 0.9380000000000001, -0.098, 192.0, 0.0, 0.0, 0.0, 0.0, 0.0, 0.0, 0.0, 0.0, 0.0, 1.673120434192035E9, 0.0, 2023-01-07 14:40:34.192
136.0, -31291.682278118406, -28576.481768665526, -33639.84479187069, -25717.313673176013, -29699.45576184461, -27396.309661425315, -33095.78098008406, -27655.09815872886, -25156.351942581172, -3072.56019980433, -32388.012991906762, -34130.7561553426, -18196.97984421013, -17490.88823686698, -30890.669630845743, -30270.721646633345, -0.184, 0.9380000000000001, -0.098, 192.0, 0.0, 0.0, 0.0, 0.0, 0.0, 0.0, 0.0, 0.0, 0.0, 1.673120434192042E9, 0.0, 2023-01-07 14:40:34.192
138.0, -31298.67837413292, -28581.667373379158, -33650.93125712052, -25723.683920345775, -29710.005785227513, -27398.5671876153, -33108.07443953448, -27656.23809769608, -25192.8970447656, -3044.106429112724, -32409.22479739485, -34099.977803227644, -18210.12266994985, -17491.916417111923, -30900.21382572816, -30229.46032636885, -0.184, 0.9380000000000001, -0.098, 192.0, 0.0, 0.0, 0.0, 0.0, 0.0, 0.0, 0.0, 0.0, 0.0, 1.6731204341920488E9, 0.0, 2023-01-07 14:40:34.192
140.0, -31294.699763619872, -28581.197986745596, -33633.385137723104, -25737.832574585984, -29703.2108549131, -27406.390298174658, -33101.57008189799, -27670.72202810312, -25166.320820608238, -3086.015949966425, -32398.160683889473, -34155.74540564363, -18202.32191113495, -17519.833745936605, -30903.7454013521, -30286.345516007605, -0.182, 0.936, -0.10200000000000001, 192.0, 125.0, 40.0, 14.5, 32.0, 126.0, 104.0, 0.0, 0.0, 0.0, 1.6731204341920557E9, 0.0, 2023-01-07 14:40:34.192
142.0, -31286.071990260127, -28569.329210439828, -33629.85356209917, -25710.94342600625, -29689.26336637299, -27378.405914116614, -33074.99385774063, -27627.113774670815, -25196.339213411717, -3045.112257613213, -32404.352117103594, -34115.221692946165, -18205.674672803245, -17517.956199402357, -30889.909671534264, -30230.734375802804, -0.182, 0.936, -0.10200000000000001, 192.0, 0.0, 0.0, 0.0, 0.0, 0.0, 0.0, 0.0, 0.0, 0.0, 1.6731204341920624E9, 0.0, 2023-01-07 14:40:34.192
144.0, -31279.008839012247, -28564.545937126393, -33606.58539612119, -25716.263141186613, -29676.031133655448, -27391.928719512074, -33084.403942156314, -27653.444129639167, -25136.749462693868, -3059.819705464805, -32365.571840473636, -34129.303291953, -18174.7398584771, -17495.55975145814, -30860.96416246464, -30244.391291664993, -0.182, 0.936, -0.10200000000000001, 192.0, 0.0, 0.0, 0.0, 0.0, 0.0, 0.0, 0.0, 0.0, 0.0, 1.6731204341920693E9, 0.0, 2023-01-07 14:40:34.192
146.0, -31300.24299624479, -28579.432198933628, -33638.99542558139, -25703.254425913627, -29690.62682278476, -27376.79658851583, -33096.31742195099, -27632.187620662167, -25186.973832484942, -3034.6739929525847, -32400.574672290644, -34116.965129013675, -18199.907922733775, -17503.673434695414, -30873.950525993172, -30224.07355595512, -0.182, 0.936, -0.10200000000000001, 192.0, 0.0, 0.0, 0.0, 0.0, 0.0, 0.0, 0.0, 0.0, 0.0, 1.673120434192076E9, 0.0, 2023-01-07 14:40:34.192
148.0, -31292.352830452066, -28569.97741102903, -33618.94591080498, -25708.730603305175, -29680.836758713336, -27389.492379366446, -33093.612860871894, -27662.541289632478, -25167.17018689754, -3055.9528536740368, -32391.92454718644, -34135.78529784505, -18192.509495319067, -17492.542265956672, -30871.223613169626, -30250.001579523276, -0.182, 0.936, -0.10200000000000001, 192.0, 0.0, 0.0, 0.0, 0.0, 0.0, 0.0, 0.0, 0.0, 0.0, 1.673120434192083E9, 0.0, 2023-01-07 14:40:34.192
150.0, -31312.782324884218, -28585.89185308121, -33662.08477760372, -25701.645100312842, -29700.93097697866, -27387.301908409823, -33102.710020865205, -27643.36349288982, -25197.635614590123, -3040.6866122110623, -32413.784553263733, -34117.99330925862, -18210.100318205397, -17492.74343165677, -30885.998116254585, -30231.516686858737, -0.182, 0.928, -0.106, 192.0, 125.0, 40.0, 14.5, 0.0, 126.0, 88.0, 0.0, 0.0, 0.0, 1.6731204341920896E9, 0.0, 2023-01-07 14:40:34.192
152.0, -31304.2886619912, -28582.51673966846, -33637.81078312526, -25716.956045264727, -29690.984450696047, -27406.680870852575, -33101.30186096452, -27679.215690996134, -25171.46172183296, -3053.3153478283107, -32402.139294402517, -34127.939835541234, -18198.23154189963, -17493.74926015726, -30887.87566278883, -30257.779986593723, -0.182, 0.928, -0.106, 192.0, 0.0, 0.0, 0.0, 0.0, 0.0, 0.0, 0.0, 0.0, 0.0, 1.6731204341920965E9, 0.0, 2023-01-07 14:40:34.192
154.0, -31325.94750236839, -28599.57112068786, -33677.57453651125, -25709.04352772755, -29717.82889578687, -27393.247472434938, -33123.050108319534, -27654.539365117475, -25206.28573969433, -3063.2171706220115, -32428.17907669295, -34137.14875425682, -18224.22662070115, -17522.404196548963, -30916.821171858453, -30259.36696045005, -0.182, 0.928, -0.106, 192.0, 0.0, 0.0, 0.0, 0.0, 0.0, 0.0, 0.0, 0.0, 0.0, 1.6731204341921036E9, 0.0, 2023-01-07 14:40:34.192
156.0, -31304.847455602583, -28585.511873425472, -33638.34722499218, -25720.75584182213, -29702.897930490726, -27406.211484219013, -33109.013212801605, -27682.411990453245, -25181.02826845983, -3060.780830476383, -32409.291852628216, -34134.69006236673, -18208.89332400481, -17515.27399006772, -30908.12634326534, -30262.138576762507, -0.182, 0.928, -0.106, 192.0, 0.0, 0.0, 0.0, 0.0, 0.0, 0.0, 0.0, 0.0, 0.0, 1.6731204341921103E9, 0.0, 2023-01-07 14:40:34.192
158.0, -31335.514048995265, -28612.51278072748, -33680.726132479445, -25716.576065608988, -29724.489715634554, -27393.582748601766, -33126.000538587636, -27651.499527871554, -25200.608396602678, -3071.5990747927517, -32425.89919875851, -34147.25174275062, -18223.93604802323, -17522.247734337776, -30919.995119571107, -30262.160928506964, -0.182, 0.928, -0.106, 192.0, 0.0, 0.0, 0.0, 0.0, 0.0, 0.0, 0.0, 0.0, 0.0, 1.6731204341921172E9, 0.0, 2023-01-07 14:40:34.192
160.0, -31307.417906214945, -28593.334983984827, -33633.541599934295, -25724.198010468248, -29696.751200765517, -27399.6177196047, -33091.44474165973, -27672.733685104096, -25194.30520466628, -3082.9761127205034, -32421.89823650101, -34149.46456545169, -18220.762100310578, -17519.632580236506, -30915.815343357965, -30258.003504038275, -0.194, 0.936, -0.10400000000000001, 192.0, 124.5, 120.0, 14.5, 32.0, 126.0, 96.0, 0.0, 0.0, 0.0, 1.673120434192124E9, 0.0, 2023-01-07 14:40:34.192
162.0, -31325.76868841275, -28609.763516159477, -33659.201402568986, -25710.47403937269, -29711.525703850475, -27384.6644025641, -33104.20758774371, -27638.580219576386, -25179.50834983687, -3063.954778189037, -32407.816637494165, -34147.162335772795, -18203.819478013454, -17509.261370809243, -30896.25756695957, -30241.999655008276, -0.194, 0.936, -0.10400000000000001, 192.0, 0.0, 0.0, 0.0, 0.0, 0.0, 0.0, 0.0, 0.0, 0.0, 1.6731204341921308E9, 0.0, 2023-01-07 14:40:34.192
164.0, -31317.52089470874, -28605.8519608798, -33631.12761153312, -25734.882144317886, -29691.92322396317, -27412.62643487769, -33118.35624198392, -27689.609252167855, -25193.902873266088, -3074.728319016495, -32418.590178321625, -34141.932027570256, -18216.69408281971, -17519.27495232522, -30902.180779240225, -30245.285361443206, -0.194, 0.936, -0.10400000000000001, 192.0, 0.0, 0.0, 0.0, 0.0, 0.0, 0.0, 0.0, 0.0, 0.0, 1.6731204341921377E9, 0.0, 2023-01-07 14:40:34.192
166.0, -31326.5957029576, -28606.52251321346, -33646.41620474055, -25707.255388171125, -29709.804619527415, -27387.03368747636, -33090.52832013706, -27638.736681787574, -25182.36937312715, -3086.5076883444417, -32410.7000125289, -34157.153565544315, -18212.089623461918, -17532.484833298306, -30892.5918808689, -30259.456367427872, -0.194, 0.936, -0.10400000000000001, 192.0, 0.0, 0.0, 0.0, 0.0, 0.0, 0.0, 0.0, 0.0, 0.0, 1.673120434192146E9, 0.0, 2023-01-07 14:40:34.192
168.0, -31296.2867374762, -28580.66154487867, -33609.89345430058, -25711.99395799565, -29706.74243053704, -27397.673117837086, -33088.00257301361, -27661.826033809906, -25191.444181376002, -3060.2443886094557, -32406.36377410457, -34121.34607092691, -18213.18485894023, -17517.889144168992, -30887.87566278883, -30229.84030602459, -0.194, 0.936, -0.10400000000000001, 192.0, 0.0, 0.0, 0.0, 0.0, 0.0, 0.0, 0.0, 0.0, 0.0, 1.673120434192155E9, 0.0, 2023-01-07 14:40:34.192
170.0, -31312.96113883986, -28594.161998529675, -33644.06927157274, -25707.27773991558, -29693.13021816376, -27394.90150152463, -33105.25811973311, -27647.90089701425, -25166.812558986254, -3083.8925342431708, -32393.891500698508, -34144.12249852687, -18204.825306513943, -17514.581085989605, -30879.583165595912, -30251.968533035342, -0.19, 0.9400000000000001, -0.10200000000000001, 192.0, 125.0, 8.0, 14.5, 48.0, 126.0, 104.0, 0.0, 0.0, 0.0, 1.6731204341921644E9, 0.0, 2023-01-07 14:40:34.192
172.0, -31290.899967062473, -28569.060989506364, -33620.64464338358, -25703.165018935804, -29679.428598812654, -27392.24164393445, -33090.79654107053, -27660.596687864865, -25186.92912899603, -3053.6059205062297, -32404.732096759333, -34106.258643419584, -18203.84182975791, -17502.667606194926, -30884.3887906538, -30220.273759397718, -0.19, 0.9400000000000001, -0.10200000000000001, 192.0, 0.0, 0.0, 0.0, 0.0, 0.0, 0.0, 0.0, 0.0, 0.0, 1.6731204341921735E9, 0.0, 2023-01-07 14:40:34.192
174.0, -31314.771630140738, -28588.350544971294, -33654.90986763357, -25704.774344536585, -29704.529607835964, -27390.18528344456, -33109.79552385754, -27651.253658682544, -25164.085646162708, -3082.6184848092184, -32397.803055978187, -34140.94855081422, -18202.143097179305, -17503.069937595123, -30891.094313990394, -30252.61673362455, -0.19, 0.9400000000000001, -0.10200000000000001, 192.0, 0.0, 0.0, 0.0, 0.0, 0.0, 0.0, 0.0, 0.0, 0.0, 1.6731204341921828E9, 0.0, 2023-01-07 14:40:34.192
176.0, -31312.782324884218, -28585.8471495923, -33647.39968149659, -25715.011443497115, -29698.673450788672, -27399.058925993315, -33095.33394519496, -27666.318734445424, -25204.65406234909, -3051.7954292053496, -32418.433716110438, -34103.17410268475, -18218.79514679851, -17507.56263823064, -30908.93100606573, -30227.60513157906, -0.19, 0.9400000000000001, -0.10200000000000001, 192.0, 0.0, 0.0, 0.0, 0.0, 0.0, 0.0, 0.0, 0.0, 0.0, 1.6731204341921935E9, 0.0, 2023-01-07 14:40:34.192
178.0, -31335.089365850614, -28601.6498329222, -33667.82917592874, -25718.207742954226, -29710.74339279454, -27403.193998717546, -33104.565215655, -27661.08842624288, -25175.194463156997, -3096.3201041603215, -32409.202445650393, -34144.61423690489, -18212.000216484095, -17517.55386800216, -30911.300290977993, -30272.778007123234, -0.19, 0.9400000000000001, -0.10200000000000001, 192.0, 0.0, 0.0, 0.0, 0.0, 0.0, 0.0, 0.0, 0.0, 0.0, 1.6731204341922033E9, 0.0, 2023-01-07 14:40:34.192
180.0, -31322.840609889106, -28590.004574060986, -33663.02355087084, -25717.872466787394, -29710.34106139434, -27415.688623868064, -33113.52826518157, -27679.282746229503, -25220.36733870117, -3048.107391370224, -32434.795193051723, -34103.17410268475, -18233.636705116834, -17517.97855114681, -30924.17489578425, -30239.920942773933, -0.182, 0.934, -0.106, 192.0, 125.0, 40.0, 14.5, 24.0, 126.0, 88.0, 0.0, 0.0, 0.0, 1.6731204341922128E9, 0.0, 2023-01-07 14:40:34.192
182.0, -31332.384804771522, -28602.923882356154, -33672.478338775436, -25725.494411646654, -29728.758898825516, -27426.350405973248, -33134.04716659155, -27692.91731034724, -25183.59871907219, -3095.0237029819136, -32417.830219010142, -34149.531620685055, -18223.310199178482, -17531.56841177564, -30923.347881239402, -30291.173492809954, -0.182, 0.934, -0.106, 192.0, 0.0, 0.0, 0.0, 0.0, 0.0, 0.0, 0.0, 0.0, 0.0, 1.6731204341922197E9, 0.0, 2023-01-07 14:40:34.192
184.0, -31315.933920852414, -28589.423428705148, -33654.35107402218, -25709.311748661014, -29713.89498876274, -27401.115286483204, -33108.096791278935, -27668.062170512938, -25219.495620667414, -3065.4746968119975, -32435.7563180633, -34115.73578306863, -18232.876745805355, -17524.281743083207, -30923.772564384053, -30243.69838758688, -0.182, 0.934, -0.106, 192.0, 0.0, 0.0, 0.0, 0.0, 0.0, 0.0, 0.0, 0.0, 0.0, 1.6731204341922266E9, 0.0, 2023-01-07 14:40:34.192
186.0, -31304.62393815803, -28581.46620767906, -33625.53967541929, -25704.28260615857, -29689.15160765071, -27385.446713620033, -33083.19694795572, -27653.08650172788, -25157.290715848296, -3081.9702842200145, -32395.344364088105, -34146.62589390587, -18200.354957622883, -17509.887219653992, -30888.92619477823, -30260.328085461628, -0.182, 0.934, -0.106, 192.0, 0.0, 0.0, 0.0, 0.0, 0.0, 0.0, 0.0, 0.0, 0.0, 1.6731204341922333E9, 0.0, 2023-01-07 14:40:34.192
188.0, -31317.90087436448, -28592.060934550875, -33643.75634715037, -25718.006577254127, -29701.69093629014, -27388.732420054963, -33091.44474165973, -27650.56075460443, -25201.301300680796, -3053.918844928604, -32415.103306186596, -34113.03122198954, -18213.050748473495, -17507.540286486183, -30886.892186032797, -30215.892817484477, -0.182, 0.934, -0.106, 192.0, 0.0, 0.0, 0.0, 0.0, 0.0, 0.0, 0.0, 0.0, 0.0, 1.6731204341922405E9, 0.0, 2023-01-07 14:40:34.192
190.0, -31317.409135986465, -28593.938481085122, -33637.877838358625, -25740.067749031514, -29703.099096190825, -27414.548684900845, -33113.88589309286, -27682.30023173097, -25166.54433805279, -3096.074234971313, -32401.893425213508, -34161.86978362439, -18201.47254484565, -17538.56450779015, -30889.797912811988, -30270.542832677704, -0.194, 0.928, -0.10400000000000001, 192.0, 124.5, 120.0, 14.5, 0.0, 126.0, 96.0, 0.0, 0.0, 0.0, 1.6731204341922472E9, 0.0, 2023-01-07 14:40:34.192
192.0, -31338.35272054109, -28611.57400746036, -33671.42780678604, -25744.314580478025, -29720.131125465767, -27418.10261226924, -33142.764346929114, -27681.62967939731, -25214.51118165388, -3073.9013044716485, -32431.46478312788, -34137.03699553454, -18224.338379423425, -17543.23602238131, -30912.373174711847, -30251.722663846336, -0.194, 0.928, -0.10400000000000001, 192.0, 0.0, 0.0, 0.0, 0.0, 0.0, 0.0, 0.0, 0.0, 0.0, 1.673120434192254E9, 0.0, 2023-01-07 14:40:34.192
194.0, -31309.071935304637, -28582.717905368558, -33629.764155121346, -25725.29324594656, -29695.611261798294, -27398.61189110421, -33106.44276218925, -27678.81335959594, -25179.240128903406, -3101.3268949183102, -32414.790381764222, -34170.05052209503, -18217.543449109013, -17541.71610375835, -30907.768715354054, -30285.987888096322, -0.194, 0.928, -0.10400000000000001, 192.0, 0.0, 0.0, 0.0, 0.0, 0.0, 0.0, 0.0, 0.0, 0.0, 1.6731204341922607E9, 0.0, 2023-01-07 14:40:34.192
196.0, -31309.876598105027, -28573.88896630871, -33648.40550999707, -25699.81225726751, -29700.93097697866, -27374.80728325931, -33094.90926205031, -27641.664760311218, -25185.543320839803, -3046.8109901918165, -32403.927433958943, -34107.800913786996, -18206.054652458984, -17497.303187525653, -30878.73379930661, -30214.641119794982, -0.194, 0.928, -0.10400000000000001, 192.0, 0.0, 0.0, 0.0, 0.0, 0.0, 0.0, 0.0, 0.0, 0.0, 1.6731204341922677E9, 0.0, 2023-01-07 14:40:34.192
198.0, -31307.68612714841, -28574.6936291091, -33644.583361695215, -25733.13870825037, -29713.000918984526, -27409.184266231572, -33118.13272453937, -27694.303118503467, -25171.618184044146, -3059.6408915091624, -32404.776800248244, -34138.71337636869, -18208.155716437785, -17520.41489129244, -30895.899939048286, -30267.435940198415, -0.194, 0.928, -0.10400000000000001, 192.0, 0.0, 0.0, 0.0, 0.0, 0.0, 0.0, 0.0, 0.0, 0.0, 1.6731204341922767E9, 0.0, 2023-01-07 14:40:34.192
200.0, -31333.256522805277, -28594.966661330065, -33687.11873139367, -25731.350568693946, -29717.046584730935, -27407.66434760861, -33135.50002998114, -27676.868757828328, -25209.57144612926, -3058.6797664975843, -32431.822411039164, -34132.81251583249, -18228.764024825578, -17531.456653053363, -30917.60348291439, -30261.26685872875, -0.194, 0.929, -0.10300000000000001, 192.0, 124.5, 120.0, 14.5, 8.0, 126.0, 104.0, 0.0, 0.0, 0.0, 1.6731204341922836E9, 0.0, 2023-01-07 14:40:34.192
202.0, -31320.15840055447, -28588.216434504564, -33652.45117574348, -25742.369978710412, -29704.462552602596, -27428.876153096695, -33123.899474608836, -27708.697641932686, -25184.06810570575, -3079.8692202412153, -32420.914759744974, -34149.755138129614, -18221.65617008879, -17535.32350484413, -30915.88239859133, -30284.311507262173, -0.194, 0.929, -0.10300000000000001, 192.0, 0.0, 0.0, 0.0, 0.0, 0.0, 0.0, 0.0, 0.0, 0.0, 1.6731204341922903E9, 0.0, 2023-01-07 14:40:34.192
204.0, -31337.23513331832, -28604.28733876793, -33676.412245799576, -25714.005614996626, -29707.480038104062, -27402.5681498728, -33114.02000355959, -27664.28472569999, -25204.296434437805, -3083.4231476096093, -32433.968178506875, -34146.78235611705, -18230.50746089309, -17545.13592066001, -30925.60540742939, -30273.35915247907, -0.194, 0.929, -0.10300000000000001, 192.0, 0.0, 0.0, 0.0, 0.0, 0.0, 0.0, 0.0, 0.0, 0.0, 1.6731204341922972E9, 0.0, 2023-01-07 14:40:34.192
206.0, -31312.938787095405, -28587.07649553734, -33628.75832662086, -25707.925940504785, -29693.621956541774, -27405.85385630773, -33090.751837581614, -27682.635507897798, -25183.732829538923, -3071.46496432602, -32407.660175282977, -34130.107954753395, -18211.30731240598, -17520.996036648277, -30901.93491005122, -30249.778062078723, -0.194, 0.929, -0.10300000000000001, 192.0, 0.0, 0.0, 0.0, 0.0, 0.0, 0.0, 0.0, 0.0, 0.0, 1.6731204341923044E9, 0.0, 2023-01-07 14:40:34.192
208.0, -31338.06214786317, -28606.880141124744, -33663.02355087084, -25687.809370495008, -29710.519875349986, -27377.914175738595, -33106.97920405617, -27643.072920211904, -25190.438352875513, -3075.4212230946096, -32415.50563758679, -34131.89609430982, -18216.001178741597, -17522.31478957114, -30904.617119385854, -30233.93067525991, -0.194, 0.929, -0.10300000000000001, 192.0, 0.0, 0.0, 0.0, 0.0, 0.0, 0.0, 0.0, 0.0, 0.0, 1.6731204341923113E9, 0.0, 2023-01-07 14:40:34.192
210.0, -31321.790077899706, -28596.95596658659, -33636.11205054665, -25715.19025745276, -29691.900872218714, -27406.23383596347, -33122.53601819706, -27697.879397616318, -25195.400440144593, -3071.9343509595815, -32416.55616957619, -34129.01271927509, -18216.93995200872, -17525.332275072607, -30908.01458454306, -30240.233867196308, -0.198, 0.9345000000000001, -0.10350000000000001, 192.0, 124.5, 88.0, 14.5, 48.0, 126.0, 96.0, 0.0, 0.0, 0.0, 1.673120434192318E9, 0.0, 2023-01-07 14:40:34.192
212.0, -31331.96012162687, -28600.8004666329, -33663.180013082034, -25699.879312500874, -29712.151552695224, -27389.112399710706, -33110.44372444674, -27659.032065752992, -25187.778495285333, -3083.266685398422, -32415.5503410757, -34144.793050860535, -18221.61146659988, -17527.187469862398, -30905.578244397435, -30253.8907830585, -0.198, 0.9345000000000001, -0.10350000000000001, 192.0, 0.0, 0.0, 0.0, 0.0, 0.0, 0.0, 0.0, 0.0, 0.0, 1.6731204341923249E9, 0.0, 2023-01-07 14:40:34.192
214.0, -31304.869807347037, -28577.59935588829, -33622.67865212901, -25710.541094606055, -29697.913491477193, -27405.00449001843, -33101.63713713135, -27690.14569403478, -25183.688126050012, -3059.149153131146, -32405.46970432636, -34113.7017743232, -18217.31993166446, -17514.849306923068, -30892.904805291273, -30232.477811870318, -0.198, 0.9345000000000001, -0.10350000000000001, 192.0, 0.0, 0.0, 0.0, 0.0, 0.0, 0.0, 0.0, 0.0, 0.0, 1.6731204341923316E9, 0.0, 2023-01-07 14:40:34.192
216.0, -31343.359511299077, -28614.055051094896, -33666.35396079469, -25717.60424585393, -29707.703555548618, -27406.882036552674, -33131.49906772364, -27678.366324706833, -25181.765876026857, -3100.410473395643, -32409.113038672574, -34146.62589390587, -18220.918562521765, -17533.17773737642, -30895.49760764809, -30261.870355829044, -0.198, 0.9345000000000001, -0.10350000000000001, 192.0, 0.0, 0.0, 0.0, 0.0, 0.0, 0.0, 0.0, 0.0, 0.0, 1.6731204341923385E9, 0.0, 2023-01-07 14:40:34.192
218.0, -31305.80858061416, -28579.40984718917, -33622.499838173375, -25703.99203348065, -29667.358656806788, -27387.815998532296, -33086.37089566838, -27671.861967070337, -25199.781382057834, -3065.0947171562575, -32415.93032073144, -34115.55696911299, -18220.60563809939, -17519.85609768106, -30888.009773255562, -30228.722718801826, -0.198, 0.9345000000000001, -0.10350000000000001, 192.0, 0.0, 0.0, 0.0, 0.0, 0.0, 0.0, 0.0, 0.0, 0.0, 1.6731204341923451E9, 0.0, 2023-01-07 14:40:34.192
220.0, -31321.164229054957, -28591.479789195037, -33658.217925812954, -25699.74520203414, -29696.952366465615, -27373.019143702884, -33094.261061461104, -27640.480117855088, -25172.020515444343, -3079.3774818631987, -32398.65242226749, -34131.583169887446, -18208.066309459962, -17511.161269087945, -30875.313982404947, -30232.03077698121, -0.196, 0.9332500000000001, -0.10575000000000001, 192.0, 124.5, 120.0, 14.5, 16.0, 126.0, 80.0, 0.0, 0.0, 0.0, 1.673120434192352E9, 0.0, 2023-01-07 14:40:34.192
222.0, -31302.411115456955, -28574.112483753262, -33642.86227737216, -25716.956045264727, -29695.678317031663, -27393.918024768594, -33096.20566322871, -27670.654972869754, -25194.640480833114, -3060.2443886094557, -32413.426925352447, -34102.72706779565, -18226.014760257574, -17521.867754682036, -30898.470389660644, -30211.9812622048, -0.196, 0.9332500000000001, -0.10575000000000001, 192.0, 0.0, 0.0, 0.0, 0.0, 0.0, 0.0, 0.0, 0.0, 0.0, 1.673120434192359E9, 0.0, 2023-01-07 14:40:34.192
224.0, -31317.118563308548, -28583.075533279844, -33666.97980963944, -25722.119298233905, -29703.255558402012, -27394.968556757995, -33103.53703541005, -27655.433434895687, -25161.246974616883, -3082.9761127205034, -32398.540663545213, -34137.2605129791, -18211.776699039543, -17523.030045393712, -30896.3916774263, -30256.52828890423, -0.196, 0.9332500000000001, -0.10575000000000001, 192.0, 0.0, 0.0, 0.0, 0.0, 0.0, 0.0, 0.0, 0.0, 0.0, 1.673120434192366E9, 0.0, 2023-01-07 14:40:34.192
226.0, -31317.58794994211, -28583.99195480251, -33664.34230379371, -25743.66637988882, -29706.69772704813, -27421.164801259616, -33130.62734968989, -27693.252586514067, -25211.6501583636, -3066.0558421678356, -32427.12854470355, -34106.549216097505, -18236.341266195926, -17537.044589167188, -30920.062174804472, -30248.36990217804, -0.196, 0.9332500000000001, -0.10575000000000001, 192.0, 0.0, 0.0, 0.0, 0.0, 0.0, 0.0, 0.0, 0.0, 0.0, 1.6731204341923726E9, 0.0, 2023-01-07 14:40:34.192
228.0, -31309.653080660475, -28574.358352942272, -33650.90890537607, -25717.492487131654, -29686.759970993993, -27399.19303646005, -33103.17940749877, -27663.077731499405, -25163.16922464004, -3091.4697756135197, -32398.719477500854, -34137.5063821681, -18206.65814955928, -17533.311847843153, -30900.906729806273, -30283.23862352832, -0.196, 0.9332500000000001, -0.10575000000000001, 192.0, 0.0, 0.0, 0.0, 0.0, 0.0, 0.0, 0.0, 0.0, 0.0, 1.6731204341923795E9, 0.0, 2023-01-07 14:40:34.192
230.0, -31313.38582198451, -28576.928803554634, -33647.48908847441, -25719.191219710257, -29698.69580253313, -27406.032670263372, -33099.04433477454, -27669.872661813817, -25196.070992478253, -3051.1025251272354, -32412.46580034087, -34088.578413555435, -18217.834021786934, -17522.404196548963, -30894.581186125422, -30230.913189758445, -0.197, 0.9316250000000001, -0.110875, 192.0, 124.5, 104.0, 14.5, 8.0, 126.0, 48.0, 0.0, 0.0, 0.0, 1.673120434192388E9, 0.0, 2023-01-07 14:40:34.192
232.0, -31316.783287141716, -28584.349582713796, -33647.22086754094, -25720.487620888667, -29708.17294218218, -27403.216350462004, -33100.474846419675, -27666.13992048978, -25169.87474797663, -3091.983865735992, -32400.75348624629, -34143.42959444876, -18209.675635060747, -17543.90657471497, -30890.490816890102, -30278.164777536964, -0.197, 0.9316250000000001, -0.110875, 192.0, 0.0, 0.0, 0.0, 0.0, 0.0, 0.0, 0.0, 0.0, 0.0, 1.6731204341923947E9, 0.0, 2023-01-07 14:40:34.192
234.0, -31309.72013589384, -28581.04152453441, -33643.77869889483, -25710.786963795064, -29690.44800882912, -27390.095876466738, -33094.953965539215, -27650.493699371065, -25202.597701859202, -3054.9023216846376, -32412.555207318692, -34098.144960182304, -18216.47056537516, -17525.488737283795, -30888.7920843115, -30225.191143177886, -0.197, 0.9316250000000001, -0.110875, 192.0, 0.0, 0.0, 0.0, 0.0, 0.0, 0.0, 0.0, 0.0, 0.0, 1.6731204341924016E9, 0.0, 2023-01-07 14:40:34.192
236.0, -31309.697784149386, -28582.650850135193, -33638.570742436736, -25716.263141186613, -29686.581157038352, -27386.921928754084, -33093.635212616355, -27647.23034468059, -25152.105111134664, -3084.160755176634, -32388.41532330696, -34138.355748457405, -18193.090640674905, -17516.19041159039, -30870.39659862478, -30261.0433412842, -0.197, 0.9316250000000001, -0.110875, 192.0, 0.0, 0.0, 0.0, 0.0, 0.0, 0.0, 0.0, 0.0, 0.0, 1.673120434192408E9, 0.0, 2023-01-07 14:40:34.192
238.0, -31315.15160979648, -28583.634326891224, -33651.11007107617, -25712.262178929115, -29689.911566962193, -27373.443826847535, -33092.45057016022, -27626.08559442587, -25202.485943136926, -3058.0315659083803, -32417.629053310044, -34109.65610857679, -18217.476393875648, -17513.999940633767, -30884.277031931524, -30223.17948617691, -0.197, 0.9316250000000001, -0.110875, 192.0, 0.0, 0.0, 0.0, 0.0, 0.0, 0.0, 0.0, 0.0, 0.0, 1.673120434192415E9, 0.0, 2023-01-07 14:40:34.192
240.0, -31302.165246267945, -28569.686838351114, -33619.32589046072, -25712.217475440204, -29667.96215390708, -27373.5108820809, -33073.80921528449, -27625.66091128122, -25148.327666321715, -3073.1860486490787, -32379.631087736023, -34134.62300713337, -18179.657242257268, -17497.929036370402, -30856.560868806944, -30249.062806256155, -0.20350000000000001, 0.9318125000000002, -0.1134375, 192.0, 124.5, 56.0, 14.5, 16.0, 126.0, 48.0, 0.0, 0.0, 0.0, 1.6731204341924217E9, 0.0, 2023-01-07 14:40:34.192
242.0, -31318.638481931506, -28582.002649545986, -33657.457966501475, -25716.84428654245, -29692.817293741384, -27374.60611755921, -33095.870387061885, -27613.680376253174, -25194.260501177374, -3054.6788042400844, -32405.737925259822, -34107.89032076482, -18197.31512037696, -17501.259446294243, -30870.620116069334, -30223.82768676611, -0.20350000000000001, 0.9318125000000002, -0.1134375, 192.0, 0.0, 0.0, 0.0, 0.0, 0.0, 0.0, 0.0, 0.0, 0.0, 1.6731204346712658E9, 0.0, 2023-01-07 14:40:34.671
244.0, -31303.461647446355, -28571.385570929717, -33645.43272798452, -25732.132879749883, -29682.110808147292, -27393.09101022375, -33097.39030568484, -27638.71433004312, -25165.829082230222, -3070.727356758995, -32396.64076526651, -34143.92133282677, -18190.386079595813, -17525.80166170617, -30879.985496996105, -30279.237661270818, -0.20350000000000001, 0.9318125000000002, -0.1134375, 192.0, 0.0, 0.0, 0.0, 0.0, 0.0, 0.0, 0.0, 0.0, 0.0, 1.673120434671357E9, 0.0, 2023-01-07 14:40:34.671
246.0, -31316.91739760845, -28581.600318145793, -33679.98852491242, -25721.046414500048, -29708.530570093462, -27391.79460904534, -33095.33394519496, -27615.155591387225, -25196.070992478253, -3059.596188020252, -32416.51146608728, -34118.03801274753, -18205.60761756988, -17523.119452371535, -30895.519959392546, -30262.496204673793, -0.20350000000000001, 0.9318125000000002, -0.1134375, 192.0, 0.0, 0.0, 0.0, 0.0, 0.0, 0.0, 0.0, 0.0, 0.0, 1.6731204346713629E9, 0.0, 2023-01-07 14:40:34.671
248.0, -31291.279946718212, -28564.434178404117, -33646.14798380709, -25716.911341775816, -29692.459665830098, -27397.80722830382, -33077.87723277536, -27631.360606117323, -25164.59973628518, -3071.1967433925565, -32391.902195441988, -34131.06907976497, -18189.17908539523, -17514.1340511005, -30887.629793599823, -30288.111303819576, -0.20350000000000001, 0.9318125000000002, -0.1134375, 192.0, 0.0, 0.0, 0.0, 0.0, 0.0, 0.0, 0.0, 0.0, 0.0, 1.6731204346713681E9, 0.0, 2023-01-07 14:40:34.671
250.0, -31312.134124295015, -28585.936556570123, -33679.675600490045, -25700.66162355681, -29703.948462480126, -27379.47879785047, -33078.2572124311, -27592.088591109346, -25186.83972201821, -3055.4834670404753, -32406.676698526946, -34120.317890681974, -18195.728146520632, -17508.32259754212, -30889.663802345254, -30260.506899417273, -0.21175, 0.93290625, -0.11371875000000001, 192.0, 124.5, 16.0, 14.5, 24.0, 126.0, 56.0, 0.0, 0.0, 0.0, 1.6731204346713736E9, 0.0, 2023-01-07 14:40:34.671
252.0, -31284.596775126076, -28565.75293132698, -33634.92740809052, -25705.93663524826, -29672.879537687248, -27394.23094919097, -33066.0531599585, -27620.162382145212, -25155.971962925432, -3061.026699665392, -32387.141273873007, -34133.32660595496, -18178.20437886767, -17500.164210815932, -30874.844595771385, -30270.47577744434, -0.21175, 0.93290625, -0.11371875000000001, 192.0, 0.0, 0.0, 0.0, 0.0, 0.0, 0.0, 0.0, 0.0, 0.0, 1.673120434671379E9, 0.0, 2023-01-07 14:40:34.671
254.0, -31322.773554655738, -28599.124085798754, -33688.19161512752, -25714.251484185635, -29693.97958445306, -27409.22896972048, -33109.84022734645, -27620.832934478873, -25172.333439866718, -3060.065574653813, -32400.351154846092, -34134.913579811284, -18181.98182368062, -17511.02715862121, -30880.20901444066, -30270.185204766418, -0.21175, 0.93290625, -0.11371875000000001, 192.0, 0.0, 0.0, 0.0, 0.0, 0.0, 0.0, 0.0, 0.0, 0.0, 1.6731204346713843E9, 0.0, 2023-01-07 14:40:34.671
0.0, -31289.00006878377, -28567.76458832796, -33644.62806518413, -25709.982300994674, -29676.29935458891, -27412.291158710857, -33086.23678520165, -27645.66572256872, -25177.22847190243, -3075.1530021611457, -32406.095553171108, -34145.5083066831, -18181.73595449161, -17524.460557038852, -30889.909671534264, -30294.123923078052, -0.21175, 0.93290625, -0.11371875000000001, 192.0, 0.0, 0.0, 0.0, 0.0, 0.0, 0.0, 0.0, 0.0, 0.0, 1.6731204346713896E9, 0.0, 2023-01-07 14:40:34.671
2.0, -31317.230322030824, -28594.65373690769, -33691.92435645156, -25702.293300902045, -29708.821142771383, -27402.90342603963, -33102.307689465015, -27620.721175756596, -25177.675506791533, -3068.3804235911875, -32407.280195627238, -34138.40045194631, -18187.27918711653, -17526.762786717747, -30892.97186052464, -30283.730361906335, -0.21175, 0.93290625, -0.11371875000000001, 192.0, 0.0, 0.0, 0.0, 0.0, 0.0, 0.0, 0.0, 0.0, 0.0, 1.673120434671395E9, 0.0, 2023-01-07 14:40:34.671
4.0, -31285.28967920419, -28572.257288963472, -33641.74469014939, -25699.074649700484, -29678.176901123155, -27395.236777691458, -33073.496290862124, -27633.774594518494, -25175.440332346003, -3070.6826532700843, -32411.28115788474, -34137.238161234636, -18188.374422594836, -17517.66562672444, -30895.229386714625, -30274.18616702392, -0.21487499999999998, 0.931453125, -0.10985937500000001, 192.0, 124.5, 24.0, 14.5, 8.0, 126.0, 88.0, 0.0, 0.0, 0.0, 1.6731204346714003E9, 0.0, 2023-01-07 14:40:34.671
6.0, -31309.496618449288, -28595.346640985805, -33664.81169042727, -25682.84728322593, -29689.531587306454, -27377.13186468266, -33081.56527061049, -27597.676527223175, -25159.79411122729, -3077.1199556732126, -32394.874977454543, -34145.88828633884, -18175.321003832938, -17505.12629808501, -30875.44809287168, -30253.689617358403, -0.21487499999999998, 0.931453125, -0.10985937500000001, 192.0, 0.0, 0.0, 0.0, 0.0, 0.0, 0.0, 0.0, 0.0, 0.0, 1.6731204346714132E9, 0.0, 2023-01-07 14:40:34.671
8.0, -31302.366411968043, -28593.022059562452, -33646.393852996094, -25707.14362944885, -29688.14577915022, -27402.366984172702, -33080.78295955455, -27639.876620754796, -25182.905814994076, -3078.1928394070674, -32409.716535772866, -34136.83582983445, -18187.770925494544, -17515.095176112078, -30884.858177287362, -30246.917038788444, -0.21487499999999998, 0.931453125, -0.10985937500000001, 192.0, 0.0, 0.0, 0.0, 0.0, 0.0, 0.0, 0.0, 0.0, 0.0, 1.6731204346714184E9, 0.0, 2023-01-07 14:40:34.671
10.0, -31305.38389746951, -28589.08815253832, -33669.818481185255, -25691.162132163303, -29696.885311232247, -27375.74605652643, -33064.063854701984, -27596.246015578035, -25162.49867230638, -3095.8954210156708, -32399.434733323425, -34161.53450745756, -18183.21116962566, -17519.565525003138, -30877.705619061664, -30262.496204673793, -0.21487499999999998, 0.931453125, -0.10985937500000001, 192.0, 0.0, 0.0, 0.0, 0.0, 0.0, 0.0, 0.0, 0.0, 0.0, 1.6731204346714237E9, 0.0, 2023-01-07 14:40:34.671
12.0, -31287.86012981655, -28573.598393630793, -33655.73688217841, -25716.687824331264, -29684.278927359454, -27406.055022007826, -33083.487520633644, -27637.015597464517, -25174.926242223533, -3067.3522433462435, -32405.045021181708, -34127.85042856341, -18186.228655127128, -17523.208859349354, -30875.5374998495, -30242.044358497187, -0.21487499999999998, 0.931453125, -0.10985937500000001, 192.0, 0.0, 0.0, 0.0, 0.0, 0.0, 0.0, 0.0, 0.0, 0.0, 1.673120434671429E9, 0.0, 2023-01-07 14:40:34.671
14.0, -31304.601586413573, -28582.98612630202, -33685.17412962605, -25706.94246374875, -29695.700668776117, -27400.176513216084, -33096.496235906634, -27621.23526587907, -25157.961268181953, -3097.3259326608104, -32404.01684093676, -34164.59669644794, -18190.900169718287, -17531.903687942468, -30886.02046799904, -30289.56416720917, -0.21487499999999998, 0.931453125, -0.10985937500000001, 192.0, 0.0, 0.0, 0.0, 0.0, 0.0, 0.0, 0.0, 0.0, 0.0, 1.673120434671434E9, 0.0, 2023-01-07 14:40:34.671
16.0, -31291.950499051873, -28569.150396484187, -33669.01381838487, -25712.061013229017, -29697.68997403264, -27414.682795367575, -33091.75766608211, -27645.553963846443, -25188.78432378582, -3062.7477839884505, -32416.645576554012, -34115.46756213517, -18202.590132068413, -17519.073786625122, -30901.800799584486, -30258.674056371936, -0.21, 0.934, -0.1, 192.0, 124.5, 56.0, 14.5, 24.0, 126.0, 112.0, 0.0, 0.0, 0.0, 1.6731204346714392E9, 0.0, 2023-01-07 14:40:34.671
18.0, -31310.413039971954, -28590.876292094745, -33689.48801630593, -25711.859847528918, -29704.037869457945, -27416.89561806865, -33106.17454125578, -27635.652141052742, -25157.11190189265, -3096.18599369359, -32401.98283219133, -34153.48787945365, -18197.158658165772, -17523.499432027274, -30903.41012518527, -30297.119056835065, -0.21, 0.934, -0.1, 192.0, 0.0, 0.0, 0.0, 0.0, 0.0, 0.0, 0.0, 0.0, 0.0, 1.6731204346714444E9, 0.0, 2023-01-07 14:40:34.671
20.0, -31289.089475761593, -28573.374876186237, -33662.33064679273, -25705.37784163688, -29688.458703572596, -27417.588522146765, -33080.73825606564, -27637.08265269788, -25194.953405255488, -3083.043167953869, -32418.27725389925, -34117.36746041387, -18208.200419926696, -17526.248696595278, -30906.427610686736, -30264.485509930317, -0.21, 0.934, -0.1, 192.0, 0.0, 0.0, 0.0, 0.0, 0.0, 0.0, 0.0, 0.0, 0.0, 1.6731204346714497E9, 0.0, 2023-01-07 14:40:34.671
22.0, -31288.15070249447, -28570.960887785066, -33656.20626881198, -25691.206835652214, -29683.11663664778, -27406.81498131931, -33070.88113676085, -27618.106021655327, -25142.627971485614, -3086.1947639220675, -32382.358000559572, -34143.65311189331, -18179.232559112617, -17521.733644215303, -30876.67743881672, -30289.43005674244, -0.21, 0.934, -0.1, 192.0, 0.0, 0.0, 0.0, 0.0, 0.0, 0.0, 0.0, 0.0, 0.0, 1.673120434671455E9, 0.0, 2023-01-07 14:40:34.671
24.0, -31292.822217085628, -28574.671277364647, -33656.87682114563, -25698.26998690009, -29691.811465240895, -27420.76246985942, -33093.67991610526, -27640.07778645489, -25181.207082415473, -3051.594263505252, -32403.21217813637, -34098.90491949379, -18191.257797629572, -17524.57231576113, -30887.272165688537, -30250.9403527904, -0.21, 0.934, -0.1, 192.0, 0.0, 0.0, 0.0, 0.0, 0.0, 0.0, 0.0, 0.0, 0.0, 1.67312043467146E9, 0.0, 2023-01-07 14:40:34.671
26.0, -31291.794036840685, -28570.625611618238, -33645.32096926224, -25685.216568138192, -29685.1059419043, -27402.70226033953, -33072.937497250736, -27624.3198066139, -25150.40637855606, -3092.877935514204, -32394.763218732267, -34151.990312575144, -18185.6922132602, -17530.473176297328, -30889.686154089708, -30300.67298420346, -0.20400000000000001, 0.934, -0.108, 192.0, 124.5, 80.0, 14.5, 24.0, 126.0, 80.0, 0.0, 0.0, 0.0, 1.6731204346714654E9, 0.0, 2023-01-07 14:40:34.671
28.0, -31285.893176304482, -28561.103768480276, -33637.944893591986, -25671.693762742732, -29684.569500037374, -27386.206672931516, -33063.996799468616, -27609.32178608439, -25169.539471809803, -3029.0637050943023, -32392.662154753467, -34084.175119897736, -18181.467733558147, -17493.0787078236, -30870.82128176943, -30224.520590844226, -0.20400000000000001, 0.934, -0.108, 192.0, 0.0, 0.0, 0.0, 0.0, 0.0, 0.0, 0.0, 0.0, 0.0, 1.6731204346714706E9, 0.0, 2023-01-07 14:40:34.671
30.0, -31296.666717131942, -28576.101789009786, -33635.709719146456, -25693.330251375468, -29686.379991338254, -27399.640071349153, -33082.526395622066, -27634.08751894087, -25143.20911684145, -3079.533944074386, -32380.65926798097, -34138.69102462423, -18171.096524130884, -17504.992187618278, -30872.765883537042, -30278.745922892802, -0.20400000000000001, 0.934, -0.108, 192.0, 0.0, 0.0, 0.0, 0.0, 0.0, 0.0, 0.0, 0.0, 0.0, 1.673120434671476E9, 0.0, 2023-01-07 14:40:34.671
32.0, -31314.324595251634, -28590.31749848336, -33659.961361880465, -25709.4682108722, -29702.853227001815, -27407.86551330871, -33113.282395992566, -27642.067091711415, -25188.761972041368, -3063.686557255573, -32408.97892820584, -34117.97095751416, -18194.990538953607, -17517.37505404652, -30888.233290700115, -30245.41947190994, -0.20400000000000001, 0.934, -0.108, 192.0, 0.0, 0.0, 0.0, 0.0, 0.0, 0.0, 0.0, 0.0, 0.0, 1.673120434671481E9, 0.0, 2023-01-07 14:40:34.671
34.0, -31293.5374729082, -28566.736408083012, -33626.187876008495, -25696.437143854757, -29677.998087167514, -27393.04630673484, -33084.895680534326, -27640.837745766374, -25152.909773935055, -3089.8380982682825, -32389.309393085172, -34157.19826903323, -18180.55131203548, -17535.301153099677, -30881.77363655253, -30286.70314391889, -0.20400000000000001, 0.934, -0.108, 192.0, 0.0, 0.0, 0.0, 0.0, 0.0, 0.0, 0.0, 0.0, 0.0, 1.6731204346714861E9, 0.0, 2023-01-07 14:40:34.671
36.0, -31314.10107780708, -28586.18242575913, -33665.72811194994, -25695.40896360981, -29697.39940135472, -27389.89471076664, -33093.52345389408, -27627.739623515565, -25187.97966098543, -3050.8119524493163, -32402.541625802714, -34110.885454521835, -18192.55419880798, -17516.81626043514, -30877.25858417256, -30232.07548047012, -0.20800000000000002, 0.9380000000000001, -0.116, 192.0, 124.5, 64.0, 14.5, 40.0, 126.0, 48.0, 0.0, 0.0, 0.0, 1.6731204346714914E9, 0.0, 2023-01-07 14:40:34.671
38.0, -31285.42378967092, -28560.053236490876, -33628.9371405765, -25687.65290828382, -29670.73377021954, -27376.461312349, -33063.59446806842, -27629.885390983272, -25154.362637324648, -3080.9868074639808, -32383.25207033778, -34141.39558570333, -18173.778733465522, -17510.55777198765, -30864.49573808858, -30262.563259907158, -0.20800000000000002, 0.9380000000000001, -0.116, 192.0, 0.0, 0.0, 0.0, 0.0, 0.0, 0.0, 0.0, 0.0, 0.0, 1.673120434671498E9, 0.0, 2023-01-07 14:40:34.671
40.0, -31317.878522620027, -28590.026925805443, -33684.88355694814, -25703.366184635903, -29699.388706611244, -27386.631356076166, -33103.7158493657, -27627.247885137545, -25191.198312186996, -3048.88970242616, -32407.30254737169, -34118.574454614456, -18196.041070943007, -17513.41879527793, -30882.623002841832, -30239.742128818292, -0.20800000000000002, 0.9380000000000001, -0.116, 192.0, 0.0, 0.0, 0.0, 0.0, 0.0, 0.0, 0.0, 0.0, 0.0, 1.6731204346715033E9, 0.0, 2023-01-07 14:40:34.671
42.0, -31298.61131889955, -28571.69849535209, -33652.31706527675, -25711.90455101783, -29685.575328537863, -27401.584673116766, -33101.92770980927, -27660.66374309823, -25164.040942673797, -3076.2035341505452, -32398.250090867296, -34146.536486928046, -18193.02358544154, -17517.330350557608, -30890.87079654584, -30275.549623435694, -0.20800000000000002, 0.9380000000000001, -0.116, 192.0, 0.0, 0.0, 0.0, 0.0, 0.0, 0.0, 0.0, 0.0, 0.0, 1.6731204346715083E9, 0.0, 2023-01-07 14:40:34.671
44.0, -31319.934883109916, -28587.23295774853, -33691.23145237344, -25701.578045079477, -29697.846436243828, -27393.5156933684, -33102.307689465015, -27634.17692591869, -25194.975756999942, -3064.8041444783385, -32420.445373111415, -34134.511248411094, -18205.94289373671, -17526.583972762106, -30901.376116439835, -30263.434977940917, -0.20800000000000002, 0.9380000000000001, -0.116, 192.0, 0.0, 0.0, 0.0, 0.0, 0.0, 0.0, 0.0, 0.0, 0.0, 1.6731204346715157E9, 0.0, 2023-01-07 14:40:34.671
46.0, -31306.61324341455, -28576.97350704354, -33662.95649563748, -25711.859847528918, -29689.509235561996, -27406.747926085944, -33091.84707305993, -27662.56364137693, -25174.9932974569, -3072.627255037696, -32409.6494805395, -34141.574399658966, -18198.45505934418, -17531.389597819998, -30889.507340134067, -30275.147292035497, -0.216, 0.93, -0.114, 192.0, 124.5, 32.0, 14.5, 8.0, 126.0, 56.0, 0.0, 0.0, 0.0, 1.6731204346715207E9, 0.0, 2023-01-07 14:40:34.671
48.0, -31322.348871511087, -28591.7480101285, -33697.355830354194, -25699.968719478693, -29695.36539260929, -27393.5156933684, -33107.98503255666, -27633.662835796218, -25192.94174825451, -3072.336682359777, -32423.529913846247, -34143.00491130411, -18209.630931571835, -17528.90855418546, -30894.983517525616, -30263.300867474183, -0.216, 0.93, -0.114, 192.0, 0.0, 0.0, 0.0, 0.0, 0.0, 0.0, 0.0, 0.0, 0.0, 1.673120434671526E9, 0.0, 2023-01-07 14:40:34.671
50.0, -31302.545225923688, -28581.197986745596, -33645.70094891798, -25706.696594559744, -29679.74152323503, -27403.886902795664, -33086.281488690554, -27659.90378378675, -25181.31884113775, -3082.4173191091204, -32415.639748053523, -34143.63076014886, -18200.08673668942, -17534.18356587691, -30897.531616393524, -30276.17547228044, -0.216, 0.93, -0.114, 192.0, 0.0, 0.0, 0.0, 0.0, 0.0, 0.0, 0.0, 0.0, 0.0, 1.6731204346715312E9, 0.0, 2023-01-07 14:40:34.671
52.0, -31319.2419790318, -28596.53128344194, -33672.92537366455, -25690.871559485386, -29701.020383956482, -27385.692582809043, -33083.64398284483, -27619.55888504492, -25176.915547480054, -3085.6136185662294, -32405.760277004276, -34139.473335680166, -18193.6941377752, -17525.84636519508, -30884.142921464794, -30258.338780205107, -0.216, 0.93, -0.114, 192.0, 0.0, 0.0, 0.0, 0.0, 0.0, 0.0, 0.0, 0.0, 0.0, 1.6731204346715364E9, 0.0, 2023-01-07 14:40:34.671
54.0, -31276.125463977514, -28560.857899291266, -33616.50957065935, -25684.14368440434, -29661.368389292766, -27377.824768760776, -33046.11540390437, -27631.450013095146, -25162.25280311737, -3064.7817927338833, -32391.656326252978, -34116.49574238012, -18182.831189969922, -17506.668568452427, -30869.21195616865, -30237.350492161575, -0.216, 0.93, -0.114, 192.0, 0.0, 0.0, 0.0, 0.0, 0.0, 0.0, 0.0, 0.0, 0.0, 1.6731204346715417E9, 0.0, 2023-01-07 14:40:34.671
56.0, -31308.155513781967, -28586.294184481405, -33666.733940450424, -25687.451742583722, -29687.810502983393, -27381.825731018274, -33082.9063752778, -27618.441297822155, -25143.99142789739, -3076.002368450447, -32381.329820314626, -34126.28580645154, -18170.26950958604, -17505.439222507386, -30857.834918240897, -30240.971474763333, -0.222, 0.9420000000000001, -0.114, 192.0, 124.5, 8.0, 14.5, 56.0, 126.0, 56.0, 0.0, 0.0, 0.0, 1.673120434671547E9, 0.0, 2023-01-07 14:40:34.671
58.0, -31289.044772272682, -28569.776245328936, -33642.54935294978, -25702.919149746795, -29674.511215032486, -27395.95203351403, -33084.73921832314, -27655.76871106252, -25173.272213133838, -3075.5776853057964, -32406.587291549124, -34119.37911741485, -18192.733012763623, -17527.65685649596, -30886.176930210226, -30253.2425824693, -0.222, 0.9420000000000001, -0.114, 192.0, 0.0, 0.0, 0.0, 0.0, 0.0, 0.0, 0.0, 0.0, 0.0, 1.6731204346715524E9, 0.0, 2023-01-07 14:40:34.671
60.0, -31307.373202726034, -28583.343754213307, -33675.696989977005, -25689.32928911797, -29678.31101158989, -27385.379658386668, -33093.88108180536, -27624.744489758552, -25150.02639890032, -3082.3726156202097, -32388.929413429432, -34136.56760890098, -18182.473562058636, -17525.332275072607, -30874.375209137823, -30259.143443005498, -0.222, 0.9420000000000001, -0.114, 192.0, 0.0, 0.0, 0.0, 0.0, 0.0, 0.0, 0.0, 0.0, 0.0, 1.6731204346715577E9, 0.0, 2023-01-07 14:40:34.671
62.0, -31277.175995966914, -28558.533317867914, -33642.16937329404, -25689.910434473808, -29658.239145069023, -27391.19111194505, -33063.25919190159, -27639.18371667668, -25173.831006745222, -3064.0665369113135, -32402.27340486925, -34105.58809108593, -18195.906960476277, -17519.543173258684, -30881.95245050817, -30234.422413637927, -0.222, 0.9420000000000001, -0.114, 192.0, 0.0, 0.0, 0.0, 0.0, 0.0, 0.0, 0.0, 0.0, 0.0, 1.6731204346715627E9, 0.0, 2023-01-07 14:40:34.671
64.0, -31303.640461401996, -28581.913242568167, -33671.025475385846, -25690.89391122984, -29690.962098951593, -27398.81305680431, -33087.64494510233, -27628.3207688714, -25145.734863964903, -3089.145194190168, -32385.75546571678, -34136.07587052296, -18183.702908003677, -17520.794870948183, -30873.436435870703, -30259.277553472228, -0.222, 0.9420000000000001, -0.114, 192.0, 0.0, 0.0, 0.0, 0.0, 0.0, 0.0, 0.0, 0.0, 0.0, 1.673120434671568E9, 0.0, 2023-01-07 14:40:34.671
66.0, -31286.13904549349, -28571.586736629815, -33644.11397506166, -25697.33121363297, -29661.703665459594, -27405.160952229617, -33090.2600992036, -27650.113719715326, -25183.129332438628, -3079.5115923299304, -32406.006146193286, -34109.209073687685, -18199.617350055858, -17524.75112971677, -30886.266337188048, -30235.18237294941, -0.20600000000000002, 0.936, -0.108, 192.0, 124.5, 72.0, 14.5, 32.0, 126.0, 80.0, 0.0, 0.0, 0.0, 1.6731204346715732E9, 0.0, 2023-01-07 14:40:34.671
68.0, -31291.369353696035, -28571.22910871853, -33650.4395187425, -25680.880329713862, -29663.000066638004, -27383.8150362748, -33065.382607624844, -27615.937902443162, -25135.765985937833, -3096.94595300507, -32382.559166259667, -34141.06030953649, -18174.181064865716, -17515.206934834354, -30862.998171210074, -30259.74694010579, -0.20600000000000002, 0.936, -0.108, 192.0, 0.0, 0.0, 0.0, 0.0, 0.0, 0.0, 0.0, 0.0, 0.0, 1.6731204346715791E9, 0.0, 2023-01-07 14:40:34.671
70.0, -31287.457798416355, -28565.954097027075, -33648.651379186085, -25687.876425728373, -29676.858148200292, -27395.057963735817, -33071.328171649955, -27634.98158871908, -25177.854320747178, -3063.9324264445813, -32406.408477593483, -34095.82037875895, -18195.92931222073, -17524.19233610539, -30873.816415526442, -30224.632349566502, -0.20600000000000002, 0.936, -0.108, 192.0, 0.0, 0.0, 0.0, 0.0, 0.0, 0.0, 0.0, 0.0, 0.0, 1.6731204346715856E9, 0.0, 2023-01-07 14:40:34.671
72.0, -31292.53164440771, -28570.13387324022, -33658.44144325751, -25689.441047840246, -29676.67933424465, -27400.064754493804, -33077.54195660853, -27638.33435038738, -25135.631875471103, -3097.102415216257, -32383.855567438077, -34135.94176005623, -18181.423030069236, -17522.359493060052, -30867.848499756874, -30269.492300688304, -0.20600000000000002, 0.936, -0.108, 192.0, 0.0, 0.0, 0.0, 0.0, 0.0, 0.0, 0.0, 0.0, 0.0, 1.6731204346715908E9, 0.0, 2023-01-07 14:40:34.671
74.0, -31291.637574629498, -28569.61978311775, -33663.71645494896, -25698.359393877912, -29676.20994761109, -27404.13277198467, -33088.00257301361, -27646.872716769307, -25179.530701581327, -3060.9372926875703, -32409.8506462396, -34096.73680028162, -18199.41618435576, -17518.64910348047, -30884.83582554291, -30243.519573631238, -0.20600000000000002, 0.936, -0.108, 192.0, 0.0, 0.0, 0.0, 0.0, 0.0, 0.0, 0.0, 0.0, 0.0, 1.673120434671596E9, 0.0, 2023-01-07 14:40:34.671
76.0, -31320.046641832192, -28598.542940442916, -33679.58619351223, -25725.6732256023, -29683.138988392235, -27426.439812951066, -33117.70804139472, -27670.990249036582, -25158.54241353779, -3112.815691568338, -32406.095553171108, -34161.28863826855, -18189.961396451163, -17535.435263566407, -30892.45777040217, -30309.837199430134, -0.20400000000000001, 0.932, -0.11, 192.0, 124.5, 80.0, 14.5, 16.0, 126.0, 72.0, 0.0, 0.0, 0.0, 1.6731204346716013E9, 0.0, 2023-01-07 14:40:34.671
78.0, -31304.735696880307, -28580.549786156393, -33669.10322536269, -25701.98037647967, -29683.608375025797, -27403.350460928734, -33094.819855072485, -27644.101100456846, -25198.753201812888, -3078.5504673183523, -32427.061489470187, -34120.6531668488, -18207.105184448385, -17533.937696687903, -30896.436380915213, -30260.909230817466, -0.20400000000000001, 0.932, -0.11, 192.0, 0.0, 0.0, 0.0, 0.0, 0.0, 0.0, 0.0, 0.0, 0.0, 1.6731204346716063E9, 0.0, 2023-01-07 14:40:34.671
80.0, -31300.53356892271, -28576.481768665526, -33655.96039962297, -25699.901664245328, -29687.2070058831, -27405.42917316308, -33090.55067188152, -27653.84646103936, -25151.41220705655, -3101.2374879404892, -32395.903157699486, -34152.30323699752, -18187.12272490534, -17531.79192922019, -30882.690058075197, -30287.57486195265, -0.20400000000000001, 0.932, -0.11, 192.0, 0.0, 0.0, 0.0, 0.0, 0.0, 0.0, 0.0, 0.0, 0.0, 1.6731204346716118E9, 0.0, 2023-01-07 14:40:34.671
82.0, -31292.375182196523, -28562.60133535878, -33656.13921357861, -25674.197158121726, -29684.815369226384, -27381.848082762728, -33074.97150599617, -27623.068108924403, -25182.65994580507, -3059.395022320154, -32408.330727616638, -34104.716373052164, -18195.281111631528, -17532.84246120959, -30887.428627899724, -30233.32717815962, -0.20400000000000001, 0.932, -0.11, 192.0, 0.0, 0.0, 0.0, 0.0, 0.0, 0.0, 0.0, 0.0, 0.0, 1.6731204346716168E9, 0.0, 2023-01-07 14:40:34.671
84.0, -31288.351868194568, -28557.952172512076, -33639.84479187069, -25686.535321061056, -29686.73761924954, -27395.303832924827, -33080.85001478792, -27647.498565614056, -25137.64353247208, -3074.013063193925, -32375.40660803397, -34125.838771562434, -18174.382230565814, -17517.062129624144, -30866.663857300744, -30254.02489352523, -0.20400000000000001, 0.932, -0.11, 192.0, 0.0, 0.0, 0.0, 0.0, 0.0, 0.0, 0.0, 0.0, 0.0, 1.673120434671622E9, 0.0, 2023-01-07 14:40:34.671
86.0, -31290.832911829104, -28557.683951578612, -33653.27819028833, -25669.436236552745, -29687.87755821676, -27378.85294900572, -33092.76349458259, -27623.112812413314, -25180.044791703796, -3053.8964931841488, -32398.65242226749, -34101.31890789496, -18198.276245388537, -17518.112661613544, -30880.030200485016, -30222.97832047681, -0.20900000000000002, 0.933, -0.109, 192.0, 124.5, 40.0, 14.5, 24.0, 126.0, 80.0, 0.0, 0.0, 0.0, 1.6731204346716273E9, 0.0, 2023-01-07 14:40:34.671
88.0, -31278.00301051176, -28546.329265395318, -33621.9857480509, -25670.55382377551, -29675.852319699803, -27380.730495539963, -33069.4059216268, -27638.200239920647, -25140.07987261771, -3064.334757844777, -32370.288058553706, -34116.071059235466, -18176.684460244713, -17506.288588796688, -30857.454938585157, -30242.0890619861, -0.20900000000000002, 0.933, -0.109, 192.0, 0.0, 0.0, 0.0, 0.0, 0.0, 0.0, 0.0, 0.0, 0.0, 1.6731204346716325E9, 0.0, 2023-01-07 14:40:34.671
90.0, -31299.68420263341, -28563.942440026098, -33655.42395775604, -25665.301163828513, -29685.55297679341, -27374.51671058139, -33098.798465585525, -27620.967044945606, -25174.143931167597, -3041.6700889670956, -32391.45516055288, -34094.3451636249, -18195.102297675883, -17503.8298969066, -30861.746473520576, -30208.963776703335, -0.20900000000000002, 0.933, -0.109, 192.0, 0.0, 0.0, 0.0, 0.0, 0.0, 0.0, 0.0, 0.0, 0.0, 1.6731204346716378E9, 0.0, 2023-01-07 14:40:34.671
92.0, -31287.927185049917, -28559.114463223752, -33629.339471976695, -25689.239882140148, -29656.87568865725, -27395.70616432502, -33094.819855072485, -27659.90378378675, -25150.674599489525, -3064.7817927338833, -32383.810863949166, -34122.37425117186, -18180.193684124195, -17511.764766188237, -30858.125490918817, -30245.441823654393, -0.20900000000000002, 0.933, -0.109, 192.0, 0.0, 0.0, 0.0, 0.0, 0.0, 0.0, 0.0, 0.0, 0.0, 1.673120434671643E9, 0.0, 2023-01-07 14:40:34.671
94.0, -31306.546188181186, -28574.31364945336, -33673.28300157583, -25682.400248336824, -29694.001936197514, -27383.725629296976, -33101.6147853869, -27630.4218328502, -25178.54722482529, -3061.7419554879616, -32403.323936858647, -34119.04384124802, -18198.879742488833, -17525.868716939534, -30876.610383583356, -30238.132803217508, -0.20900000000000002, 0.933, -0.109, 192.0, 0.0, 0.0, 0.0, 0.0, 0.0, 0.0, 0.0, 0.0, 0.0, 1.6731204346716483E9, 0.0, 2023-01-07 14:40:34.671
96.0, -31278.271231445222, -28550.576096841825, -33633.94393133449, -25688.725792017674, -29684.50244480401, -27392.979251501474, -33083.487520633644, -27655.880469784795, -25152.79801521278, -3059.149153131146, -32385.26372733876, -34117.27805343605, -18188.08384991692, -17521.152498859465, -30868.273182901525, -30248.32519868913, -0.21050000000000002, 0.9315, -0.1095, 192.0, 124.5, 48.0, 14.5, 8.0, 126.0, 72.0, 0.0, 0.0, 0.0, 1.6731204346716535E9, 0.0, 2023-01-07 14:40:34.671
98.0, -31297.896063076983, -28562.735445825514, -33669.10322536269, -25678.086361656948, -29694.44897108662, -27382.004544973915, -33100.38543944185, -27628.834858993872, -25161.179919383518, -3055.9752054184924, -32391.07518089714, -34112.02539348905, -18192.21892264115, -17516.950370901868, -30872.654124814766, -30244.61480910955, -0.21050000000000002, 0.9315, -0.1095, 192.0, 0.0, 0.0, 0.0, 0.0, 0.0, 0.0, 0.0, 0.0, 0.0, 1.6731204346716585E9, 0.0, 2023-01-07 14:40:34.671
100.0, -31285.42378967092, -28558.533317867914, -33634.34626273468, -25696.303033388023, -29676.701685989105, -27404.33393768477, -33106.152189511326, -27671.57139439242, -25155.32376233623, -3055.7740397183943, -32386.716590728356, -34108.89614926531, -18187.21213188316, -17513.0835191111, -30878.622040584334, -30252.013236524253, -0.21050000000000002, 0.9315, -0.1095, 192.0, 0.0, 0.0, 0.0, 0.0, 0.0, 0.0, 0.0, 0.0, 0.0, 1.6731204346716647E9, 0.0, 2023-01-07 14:40:34.671
102.0, -31325.746336668297, -28594.85490260779, -33680.34615282371, -25695.09603918744, -29701.869750245784, -27402.590501617255, -33112.231864003166, -27646.246867924558, -25175.46268409046, -3078.7069295295396, -32405.290890370718, -34132.38783268784, -18201.51724833456, -17526.80749020666, -30884.67936333172, -30258.830518583123, -0.21050000000000002, 0.9315, -0.1095, 192.0, 0.0, 0.0, 0.0, 0.0, 0.0, 0.0, 0.0, 0.0, 0.0, 1.6731204346716716E9, 0.0, 2023-01-07 14:40:34.671
104.0, -31269.84462378557, -28546.083396206308, -33614.810838080746, -25675.426504066767, -29669.370313807765, -27384.351478141725, -33060.353465122396, -27641.530649844488, -25169.561823554257, -3066.1005456567464, -32392.7962652202, -34110.19255044372, -18190.207265640172, -17510.021330120722, -30869.837805013398, -30238.42337589543, -0.21050000000000002, 0.9315, -0.1095, 192.0, 0.0, 0.0, 0.0, 0.0, 0.0, 0.0, 0.0, 0.0, 0.0, 1.6731204346716769E9, 0.0, 2023-01-07 14:40:34.671
106.0, -31305.00391781377, -28576.37000994325, -33658.32968453523, -25673.41484706579, -29678.06514240088, -27381.691620551544, -33084.761570067596, -27622.129335657282, -25133.12848009211, -3059.305615342333, -32375.83129117862, -34111.645413833314, -18176.326832333427, -17500.14185907148, -30855.376226350814, -30232.008425236756, -0.21225, 0.9357500000000001, -0.10675000000000001, 192.0, 124.5, 40.0, 14.5, 48.0, 126.0, 96.0, 0.0, 0.0, 0.0, 1.6731204351519327E9, 0.0, 2023-01-07 14:40:35.151
108.0, -31295.34796420908, -28573.576041886336, -33641.81174538276, -25696.4147921103, -29679.003915668003, -27404.400992918134, -33086.706171835205, -27660.820205309417, -25167.21489038645, -3060.467906054009, -32402.251053124794, -34103.30821315148, -18191.61542554086, -17525.354626817065, -30868.764921279544, -30227.31455890114, -0.21225, 0.9357500000000001, -0.10675000000000001, 192.0, 0.0, 0.0, 0.0, 0.0, 0.0, 0.0, 0.0, 0.0, 0.0, 1.6731204351520586E9, 0.0, 2023-01-07 14:40:35.152
110.0, -31308.87076960454, -28581.309745467872, -33668.0973968622, -25683.5625390485, -29690.738581507037, -27392.442809634547, -33087.1085032354, -27630.578295061387, -25146.316009320737, -3083.8031272653493, -32393.26565185376, -34131.76198384309, -18192.107163918874, -17527.969780918334, -30869.949563735674, -30250.403910923473, -0.21225, 0.9357500000000001, -0.10675000000000001, 192.0, 0.0, 0.0, 0.0, 0.0, 0.0, 0.0, 0.0, 0.0, 0.0, 1.6731204351520648E9, 0.0, 2023-01-07 14:40:35.152
112.0, -31277.265402944733, -28549.65967531916, -33630.524114432825, -25679.40511457981, -29663.24593582701, -27386.385486887157, -33070.54586059402, -27638.26729515401, -25166.142006652597, -3060.691423498562, -32397.356021089083, -34091.68530603472, -18197.762155266068, -17511.429490021408, -30868.608459068357, -30218.150343674464, -0.21225, 0.9357500000000001, -0.10675000000000001, 192.0, 0.0, 0.0, 0.0, 0.0, 0.0, 0.0, 0.0, 0.0, 0.0, 1.6731204351520703E9, 0.0, 2023-01-07 14:40:35.152
114.0, -31308.96017658236, -28573.88896630871, -33660.65426595858, -25686.356507105414, -29680.16620637968, -27392.018126489893, -33088.85193930291, -27631.584123561875, -25138.22467782792, -3073.9683597050143, -32384.012029649264, -34123.20126571671, -18186.474524316138, -17513.396443533475, -30860.5841828089, -30245.508878887762, -0.21225, 0.9357500000000001, -0.10675000000000001, 192.0, 0.0, 0.0, 0.0, 0.0, 0.0, 0.0, 0.0, 0.0, 0.0, 1.673120435152076E9, 0.0, 2023-01-07 14:40:35.152
116.0, -31280.126426235012, -28544.585829327803, -33634.41331796805, -25678.399286079322, -29682.043752913924, -27384.70910605301, -33072.3563518949, -27634.400443363244, -25164.59973628518, -3042.3853447896654, -32396.551358288692, -34077.62605877234, -18202.92540823524, -17505.148649829465, -30866.73091253411, -30208.941424958877, -0.207125, 0.9368750000000001, -0.10437500000000001, 192.0, 124.5, 88.0, 14.5, 40.0, 126.0, 104.0, 0.0, 0.0, 0.0, 1.6731204351520827E9, 0.0, 2023-01-07 14:40:35.152
118.0, -31303.238130001802, -28566.870518549746, -33668.566783495764, -25695.498370587633, -29682.736656992038, -27404.51275164041, -33117.752744883626, -27657.24392619657, -25131.362692280138, -3076.427051595098, -32384.88374768302, -34119.04384124802, -18191.995405196598, -17516.99507439078, -30868.20612766816, -30251.65560861297, -0.207125, 0.9368750000000001, -0.10437500000000001, 192.0, 0.0, 0.0, 0.0, 0.0, 0.0, 0.0, 0.0, 0.0, 0.0, 1.6731204351520884E9, 0.0, 2023-01-07 14:40:35.152
120.0, -31290.98937404029, -28557.88511727871, -33660.83307991423, -25698.73937353365, -29683.988354681536, -27398.880112037674, -33097.50206440712, -27658.830900052893, -25178.860149247666, -3055.7069844850284, -32415.639748053523, -34088.42195134425, -18208.736861793623, -17533.133033887512, -30880.231366185115, -30223.69357629938, -0.207125, 0.9368750000000001, -0.10437500000000001, 192.0, 0.0, 0.0, 0.0, 0.0, 0.0, 0.0, 0.0, 0.0, 0.0, 1.673120435152094E9, 0.0, 2023-01-07 14:40:35.152
122.0, -31292.174016496425, -28558.75683531247, -33656.92152463455, -25690.424524596277, -29686.469398316076, -27383.94914674153, -33077.67606707526, -27630.354777616834, -25130.22275331292, -3080.539772574875, -32383.25207033778, -34122.01662326058, -18187.70387026118, -17517.196240090878, -30854.504508317055, -30243.74309107579, -0.207125, 0.9368750000000001, -0.10437500000000001, 192.0, 0.0, 0.0, 0.0, 0.0, 0.0, 0.0, 0.0, 0.0, 0.0, 1.6731204351520996E9, 0.0, 2023-01-07 14:40:35.152
