%OpenBCI Raw EEG Data
%Number of channels = 16
%Sample Rate = 125 Hz
%Board = OpenBCI_GUI$BoardCytonSerialDaisy
Sample Index, EXG Channel 0, EXG Channel 1, EXG Channel 2, EXG Channel 3, EXG Channel 4, EXG Channel 5, EXG Channel 6, EXG Channel 7, EXG Channel 8, EXG Channel 9, EXG Channel 10, EXG Channel 11, EXG Channel 12, EXG Channel 13, EXG Channel 14, EXG Channel 15, Accel Channel 0, Accel Channel 1, Accel Channel 2, Other, Other, Other, Other, Other, Other, Other, Analog Channel 0, Analog Channel 1, Analog Channel 2, Timestamp, Other, Timestamp (Formatted)
0.0, 10705.144489424765, -8646.168845435244, -294.10425354293034, 11816.38381676481, 29553.99060892947, 28052.0204367662, 6863.0137280242125, 7043.705230200914, 0.0, 0.0, 0.0, 0.0, 0.0, 0.0, 0.0, 0.0, 0.0, 0.0, 0.0, 192.0, 0.0, 0.0, 0.0, 0.0, 0.0, 0.0, 0.0, 0.0, 0.0, 1.6625066779873996E9, 0.0, 2022-09-06 19:24:37.987
30.0, 10093.243133216278, -9222.687390170979, -837.0057746178836, 11187.964521403852, 29057.93834423284, 27873.40764682384, 7207.09648216921, 6486.297426974467, -12693.779193613434, 9596.766185374998, -14363.74507710279, 5618.1333205858855, 18859.64201207662, 17532.574240276128, 18192.04010868551, -5932.175330182949, 0.0, 0.0, 0.0, 192.0, 0.0, 0.0, 0.0, 0.0, 0.0, 0.0, 0.0, 0.0, 0.0, 1.6625066779874105E9, 0.0, 2022-09-06 19:24:37.987
32.0, 10659.479875502573, -8658.23878744111, -334.06917262901936, 11805.789089892995, 29501.240492014946, 27967.620249702963, 6590.076576480458, 7094.3989866255515, -13272.085877905594, 9545.267766149971, -14283.524666252693, 5374.1193263672985, 18920.796384906338, 17757.812769152257, 18231.51328939358, -5809.978343245786, 0.0, 0.0, 0.0, 192.0, 0.0, 0.0, 0.0, 0.0, 0.0, 0.0, 0.0, 0.0, 0.0, 1.66250667798742E9, 0.0, 2022-09-06 19:24:37.987
34.0, 10041.65530701343, -9239.182977578996, -830.7249344259423, 11120.797529315654, 29094.28228071717, 28011.139096157443, 7485.442755871148, 6422.662010510208, -12671.941539280599, 9636.90991841673, -14338.599364590571, 5639.389829562882, 18912.369777246688, 17565.252490669787, 18238.50938540809, -5887.5612482501565, 0.242, 0.9, 0.074, 192.0, 3.5, 72.0, 14.0, 16.0, 1.0, 40.0, 0.0, 0.0, 0.0, 1.66250667798743E9, 0.0, 2022-09-06 19:24:37.987
36.0, 10625.594630908327, -8663.938482277214, -381.6783883188234, 11794.680272898708, 29428.552619046288, 27887.265728386134, 6338.485340891521, 7112.302733934252, -13305.032349232717, 9459.6829366306, -14372.305795229173, 5291.306113160385, 18845.336895625223, 17666.863520963612, 18142.374532505815, -5913.064588673662, 0.242, 0.9, 0.074, 192.0, 0.0, 0.0, 0.0, 0.0, 0.0, 0.0, 0.0, 0.0, 0.0, 1.6625066779874396E9, 0.0, 2022-09-06 19:24:37.987
38.0, 10049.724286761795, -9212.740863888368, -796.3926549425906, 11114.516689123713, 29149.982827899796, 28120.66264398845, 7746.086447964483, 6478.742537348573, -12640.291469131884, 9706.692064606199, -14256.210834528309, 5689.703606331779, 18991.316138662834, 17651.82079694519, 18301.921284427797, -5807.229078677783, 0.242, 0.9, 0.074, 192.0, 0.0, 0.0, 0.0, 0.0, 0.0, 0.0, 0.0, 0.0, 0.0, 1.6625066779874487E9, 0.0, 2022-09-06 19:24:37.987
40.0, 10591.95525550309, -8689.084194789433, -446.4984472392139, 11768.61813886382, 29334.541181867266, 27703.512037219054, 6142.125265851649, 7073.343643348652, -13321.706750596375, 9389.230238107471, -14455.253118902818, 5233.839778165791, 18761.875481829105, 17543.213670636855, 18067.71970602509, -5999.409377504513, 0.242, 0.9, 0.074, 192.0, 0.0, 0.0, 0.0, 0.0, 0.0, 0.0, 0.0, 0.0, 0.0, 1.662506677987458E9, 0.0, 2022-09-06 19:24:37.987
42.0, 10086.783479068694, -9170.898398268033, -749.4763433309012, 11110.269857677205, 29219.943788044908, 28200.033688549243, 7944.234662560781, 6497.42859571321, -12636.670486530124, 9768.539341514033, -14185.33345286053, 5714.17876651034, 19052.984601615026, 17724.50866991385, 18366.473122414725, -5760.402174043915, 0.242, 0.9, 0.074, 192.0, 0.0, 0.0, 0.0, 0.0, 0.0, 0.0, 0.0, 0.0, 0.0, 1.6625066779874673E9, 0.0, 2022-09-06 19:24:37.987
44.0, 10544.167225857644, -8728.06563711949, -512.3466864045484, 11729.793158744951, 29260.445148997922, 27617.94955944414, 5969.368632956581, 7069.901474702535, -13302.461898620355, 9349.690002166033, -14512.004198074843, 5200.155699271643, 18696.586036275155, 17444.2177944443, 18001.335024992826, -6070.2867591722925, 0.232, 0.862, 0.09, 192.0, 3.5, 32.0, 13.0, 120.0, 1.0, 104.0, 0.0, 0.0, 0.0, 1.6625066779874768E9, 0.0, 2022-09-06 19:24:37.987
46.0, 10125.29553476519, -9124.339714567628, -705.353999776125, 11135.482625422792, 29283.22157659788, 28308.7302218354, 8069.695004188419, 6532.073799618936, -12668.7899433124, 9811.365283890402, -14124.357893986451, 5722.94065033682, 19103.25367489501, 17764.741809933403, 18401.431250742826, -5708.1214437629515, 0.232, 0.862, 0.09, 192.0, 0.0, 0.0, 0.0, 0.0, 0.0, 0.0, 0.0, 0.0, 0.0, 1.6625066779874864E9, 0.0, 2022-09-06 19:24:37.987
48.0, 10475.256797701932, -8803.033388022588, -594.9140304224528, 11666.224797514058, 29168.423017075424, 27543.004160285494, 5857.833428124599, 7027.321401515174, -13283.708785022352, 9298.638617830113, -14570.968099947942, 5164.59407384325, 18643.679457149443, 17345.490139185207, 17937.297277128375, -6136.447922760001, 0.232, 0.862, 0.09, 192.0, 0.0, 0.0, 0.0, 0.0, 0.0, 0.0, 0.0, 0.0, 0.0, 1.662506677987496E9, 0.0, 2022-09-06 19:24:37.987
50.0, 10223.486748157353, -9030.842367511079, -607.0733794061398, 11221.894469487008, 29370.661600907042, 28402.831065992246, 8151.27887145029, 6660.7974959370495, -12691.834591845822, 9825.379827663879, -14043.019895913589, 5737.446932488315, 19169.16896929371, 17829.964200253988, 18458.18232991485, -5624.347105544461, 0.232, 0.862, 0.09, 192.0, 0.0, 0.0, 0.0, 0.0, 0.0, 0.0, 0.0, 0.0, 0.0, 1.6625066779875052E9, 0.0, 2022-09-06 19:24:37.987
52.0, 10421.769073220381, -8849.65912695636, -649.6981560824104, 11610.613657309254, 29093.388210938956, 27475.703057730563, 5831.7265906008, 6973.207828188876, -13184.17646696287, 9281.047794943786, -14564.64255626709, 5209.342266242775, 18625.73100635183, 17322.356083673963, 17921.06991065382, -6142.281728062836, 0.232, 0.862, 0.09, 192.0, 0.0, 0.0, 0.0, 0.0, 0.0, 0.0, 0.0, 0.0, 0.0, 1.6625066779875147E9, 0.0, 2022-09-06 19:24:37.987
54.0, 10255.919129362002, -8985.870657667001, -577.8149459141429, 11259.08777226064, 29394.62267096313, 28390.76112398638, 8090.415071298489, 6690.078281173502, -12757.705182755612, 9805.598533820932, -14012.576819965461, 5735.792903398622, 19178.109667075834, 17852.740627853946, 18443.206661129792, -5610.310210026528, 0.23, 0.864, 0.088, 192.0, 3.5, 24.0, 13.5, 0.0, 1.0, 96.0, 0.0, 0.0, 0.0, 1.6625066779875245E9, 0.0, 2022-09-06 19:24:37.987
56.0, 10334.194938444489, -8924.537470881638, -730.0973808881499, 11530.3708947147, 29037.955884689796, 27434.173516532603, 5871.266826542238, 6892.473327216307, -13152.302879369603, 9251.767009707333, -14605.568600364757, 5230.062333352845, 18572.310337103645, 17225.863602860405, 17858.328563967774, -6195.098900210727, 0.23, 0.864, 0.088, 192.0, 0.0, 0.0, 0.0, 0.0, 0.0, 0.0, 0.0, 0.0, 0.0, 1.6625066779875336E9, 0.0, 2022-09-06 19:24:37.987
58.0, 10331.959763998957, -8910.969961997267, -517.4205323959031, 11341.38689534508, 29480.520424904877, 28402.182865403043, 7991.329788128113, 6772.802087402593, -12834.170500537217, 9804.637408809354, -13991.163848777278, 5722.985353825731, 19173.058172828936, 17879.20509328903, 18436.65760000439, -5589.523087683093, 0.23, 0.864, 0.088, 192.0, 0.0, 0.0, 0.0, 0.0, 0.0, 0.0, 0.0, 0.0, 0.0, 1.662506677987543E9, 0.0, 2022-09-06 19:24:37.987
60.0, 10254.198045038944, -9002.478003797294, -802.3382189677023, 11443.377905294647, 28984.423456719334, 27430.306664741835, 5965.770002099276, 6813.795186733626, -13075.882265076909, 9259.567768522236, -14602.349949163194, 5280.577275821838, 18563.079066643604, 17200.427317670266, 17851.220709230987, -6189.421557119079, 0.23, 0.864, 0.088, 192.0, 0.0, 0.0, 0.0, 0.0, 0.0, 0.0, 0.0, 0.0, 0.0, 1.6625066779875567E9, 0.0, 2022-09-06 19:24:37.987
62.0, 10430.642715769138, -8820.333638230997, -431.0980953095073, 11456.252510100903, 29511.45523923102, 28356.98763811441, 7835.02403915215, 6885.231362012788, -12891.12274540934, 9783.470306810177, -13977.417525937264, 5698.353731435983, 19180.32248977691, 17885.55298871434, 18439.160995383383, -5559.616453601891, 0.23, 0.864, 0.088, 192.0, 0.0, 0.0, 0.0, 0.0, 0.0, 0.0, 0.0, 0.0, 0.0, 1.6625066779875648E9, 0.0, 2022-09-06 19:24:37.987
64.0, 10183.186552904433, -9079.792687868201, -851.3332428137354, 11350.640517549577, 28934.310845650536, 27443.494193970466, 6140.538291995322, 6731.317249693543, -12970.337327758949, 9284.244094400894, -14572.97975694892, 5347.967785354589, 18606.307340420168, 17194.414698411787, 17870.30909899582, -6156.586844514232, 0.244, 0.894, 0.066, 192.0, 3.5, 80.0, 13.5, 120.0, 1.0, 8.0, 0.0, 0.0, 0.0, 1.662506677987573E9, 0.0, 2022-09-06 19:24:37.987
66.0, 10491.730033365493, -8771.36096612942, -414.73661836822254, 11520.938458554561, 29526.632073716173, 28269.100578916143, 7579.83417270591, 6949.246758132787, -13004.24492409765, 9703.696930849186, -14027.999523639623, 5634.628907993902, 19130.232230452566, 17829.114833964686, 18351.765674563132, -5609.818471648511, 0.244, 0.894, 0.066, 192.0, 0.0, 0.0, 0.0, 0.0, 0.0, 0.0, 0.0, 0.0, 0.0, 1.6625066779875808E9, 0.0, 2022-09-06 19:24:37.987
68.0, 10127.843633633094, -9138.488368807837, -900.9764672489724, 11259.244234471827, 28915.49067681917, 27471.076246628316, 6387.301550781912, 6658.070583113502, -12894.341396610904, 9328.254679233394, -14543.87778566811, 5419.046332722465, 18635.34225646761, 17188.826762297962, 17881.932006112576, -6132.40225701359, 0.244, 0.894, 0.066, 192.0, 0.0, 0.0, 0.0, 0.0, 0.0, 0.0, 0.0, 0.0, 0.0, 1.662506677987589E9, 0.0, 2022-09-06 19:24:37.987
70.0, 10555.097228896288, -8713.268782290075, -387.62395234393506, 11599.258971125957, 29515.299739277332, 28159.375865385042, 7323.012628914432, 7013.016285063778, -13093.517791452145, 9641.380267307792, -14072.390088127862, 5572.066375263497, 19073.01176464698, 17795.922493448557, 18287.057374365017, -5645.536559288092, 0.244, 0.894, 0.066, 192.0, 0.0, 0.0, 0.0, 0.0, 0.0, 0.0, 0.0, 0.0, 0.0, 1.6625066779875965E9, 0.0, 2022-09-06 19:24:37.987
72.0, 10091.879676804505, -9176.799258804234, -907.1231969741818, 11205.130661145527, 28940.234057931193, 27580.286870036947, 6672.733327476183, 6609.187317989746, -12811.796404337456, 9385.72101422799, -14485.159752984018, 5499.400854039294, 18674.16723658648, 17230.110434306913, 17924.17680313311, -6058.86501775563, 0.244, 0.894, 0.066, 192.0, 0.0, 0.0, 0.0, 0.0, 0.0, 0.0, 0.0, 0.0, 0.0, 1.6625066779876049E9, 0.0, 2022-09-06 19:24:37.987
74.0, 10615.804566836901, -8660.85394154238, -361.4500595867705, 11676.998338341517, 29528.979006883983, 28074.126312032502, 7035.256270796808, 7095.874201759601, -13163.791676019631, 9600.074243554383, -14111.975027558212, 5518.086912403931, 19008.459926660053, 17721.915867557032, 18233.547298139012, -5663.932044974809, 0.25, 0.92, 0.055, 192.0, 4.0, 0.0, 14.5, 72.0, 0.5, 48.0, 0.0, 0.0, 0.0, 1.6625066779876134E9, 0.0, 2022-09-06 19:24:37.987
76.0, 10057.882673487982, -9216.719474401412, -913.3146301883019, 11140.400009202958, 28971.97353505773, 27648.19146969217, 6960.646147804993, 6558.001823187092, -12738.013295890487, 9466.902550089664, -14413.589467238126, 5570.658215362813, 18737.93676351747, 17280.04423142007, 17986.538170163414, -5971.872028335575, 0.25, 0.92, 0.055, 192.0, 0.0, 0.0, 0.0, 0.0, 0.0, 0.0, 0.0, 0.0, 0.0, 1.6625066779876218E9, 0.0, 2022-09-06 19:24:37.987
78.0, 10644.146578806232, -8641.542034332995, -360.6230450419242, 11732.430664590676, 29486.287174974346, 27920.27925494662, 6730.132607237412, 7150.36775474164, -13238.625316455998, 9505.392254041702, -14186.808667994579, 5437.665335853736, 18922.405710507122, 17640.644924717537, 18145.6825906852, -5721.107807291485, 0.25, 0.92, 0.055, 192.0, 0.0, 0.0, 0.0, 0.0, 0.0, 0.0, 0.0, 0.0, 0.0, 1.6625066779876304E9, 0.0, 2022-09-06 19:24:37.987
80.0, 10061.458952600831, -9218.30644825774, -873.863801224685, 11114.717854823812, 29027.294102584616, 27799.915111054794, 7273.2576457569185, 6556.571311541952, -12686.738394110012, 9523.430111817135, -14327.624658063014, 5643.390791820382, 18816.30197957778, 17343.791406606604, 18050.017124416485, -5873.390242265492, 0.25, 0.92, 0.055, 192.0, 0.0, 0.0, 0.0, 0.0, 0.0, 0.0, 0.0, 0.0, 0.0, 1.6625066779876392E9, 0.0, 2022-09-06 19:24:37.987
82.0, 10660.888035403257, -8637.965755220146, -370.1895916687956, 11769.176932475202, 29433.82763073774, 27791.242634206134, 6442.040972952959, 7178.799173688791, -13273.136409894993, 9435.721866574511, -14246.264308245696, 5384.669349750203, 18854.277593407347, 17540.173833390934, 18056.052095419418, -5775.556656784614, 0.25, 0.92, 0.055, 192.0, 0.0, 0.0, 0.0, 0.0, 0.0, 0.0, 0.0, 0.0, 0.0, 1.6625066779876485E9, 0.0, 2022-09-06 19:24:37.987
84.0, 10065.392859624966, -9211.44446270996, -845.3653270441685, 11087.068746932597, 29069.449492627326, 27887.019859197124, 7545.658355433746, 6541.819160201449, -12638.346867364273, 9602.4658802111, -14238.597659897527, 5720.169034024362, 18887.335823456746, 17423.341265123043, 18114.703072870147, -5789.928828469376, 0.246, 0.942, 0.0325, 192.0, 3.5, 72.0, 15.0, 16.0, 0.0, 40.0, 0.0, 0.0, 0.0, 1.6625066779876573E9, 0.0, 2022-09-06 19:24:37.987
86.0, 10650.449770742629, -8656.182426951222, -421.1962725158063, 11754.737705557074, 29383.15622605756, 27664.172966977712, 6187.611065818199, 7182.956598157478, -13304.5406108547, 9377.294406568339, -14322.796681260668, 5342.983346341056, 18757.382781193588, 17441.267364176198, 17959.51491111695, -5869.836314897098, 0.246, 0.942, 0.0325, 192.0, 0.0, 0.0, 0.0, 0.0, 0.0, 0.0, 0.0, 0.0, 0.0, 1.6625066779876661E9, 0.0, 2022-09-06 19:24:37.987
88.0, 10102.80967984315, -9188.57862813218, -810.8095301162637, 11068.472095545781, 29146.831231931596, 28020.951511973326, 7773.1320587554055, 6564.72969826814, -12633.138910906186, 9674.90788399075, -14152.923423400334, 5778.61884577499, 18947.819643952804, 17528.66268499645, 18159.205396080662, -5737.536339466136, 0.246, 0.942, 0.0325, 192.0, 0.0, 0.0, 0.0, 0.0, 0.0, 0.0, 0.0, 0.0, 0.0, 1.6625066779876752E9, 0.0, 2022-09-06 19:24:37.987
90.0, 10625.237002997043, -8692.325197735452, -508.5915933360569, 11709.006036401515, 29287.98249816686, 27523.848715287295, 5941.048972731706, 7152.066487320243, -13316.811718560662, 9301.03025448683, -14393.897580372999, 5299.710369075581, 18667.88639639454, 17359.839959125515, 17860.407276202117, -5973.7272231253655, 0.246, 0.942, 0.0325, 192.0, 0.0, 0.0, 0.0, 0.0, 0.0, 0.0, 0.0, 0.0, 0.0, 1.6625066779876845E9, 0.0, 2022-09-06 19:24:37.987
92.0, 10174.2011516334, -9137.169615884974, -775.024387243317, 11071.780153725167, 29209.617282106556, 28114.113582863043, 7939.272575291703, 6597.653817850807, -12629.339114348784, 9726.316896237957, -14076.79338178556, 5809.1960321898505, 19011.879743561716, 17579.512903632272, 18207.954550737686, -5694.710397089768, 0.246, 0.942, 0.0325, 192.0, 0.0, 0.0, 0.0, 0.0, 0.0, 0.0, 0.0, 0.0, 0.0, 1.662506677987696E9, 0.0, 2022-09-06 19:24:37.987
94.0, 10616.117491259276, -8741.275518092576, -599.6973037358885, 11647.583442638332, 29206.465686138356, 27435.089938055273, 5764.537246768146, 7126.6302021301035, -13289.34142462509, 9264.239283113395, -14448.078208932664, 5282.007787466978, 18616.67854984743, 17284.626339033406, 17804.594970297214, -6065.235264925393, 0.24, 0.9139999999999999, -0.02175, 192.0, 3.5, 40.0, 13.5, 88.0, 126.5, 80.0, 0.0, 0.0, 0.0, 1.662506677987705E9, 0.0, 2022-09-06 19:24:37.987
96.0, 10280.953083151948, -9071.12021101954, -743.5531310502447, 11088.543962066648, 29292.296384846733, 28212.57301718867, 8015.849651795585, 6670.252283841644, -12659.491617618993, 9748.981565115639, -14010.542811220028, 5837.493340670269, 19075.939843170625, 17680.83336124818, 18244.343190710926, -5683.26630392865, 0.24, 0.9139999999999999, -0.02175, 192.0, 0.0, 0.0, 0.0, 0.0, 0.0, 0.0, 0.0, 0.0, 0.0, 1.662506677987713E9, 0.0, 2022-09-06 19:24:37.987
98.0, 10631.29432574443, -8780.413422633817, -675.7155866283878, 11578.941235416083, 29149.759310455243, 27366.783006999853, 5668.223579910228, 7124.305620706752, -13229.95283960734, 9247.855454427654, -14481.002328515331, 5298.749244064003, 18589.52118033423, 17256.194920086255, 17767.647536712593, -6172.6577487775985, 0.24, 0.9139999999999999, -0.02175, 192.0, 0.0, 0.0, 0.0, 0.0, 0.0, 0.0, 0.0, 0.0, 0.0, 1.662506677987722E9, 0.0, 2022-09-06 19:24:37.987
100.0, 10402.412462522087, -9016.157271403941, -682.9128483429967, 11123.926773539397, 29364.20194675946, 28249.185174606464, 8040.97301256335, 6771.550389713096, -12695.455574447582, 9780.206952119703, -13971.76253459007, 5842.321317472615, 19119.2128204361, 17753.275365027832, 18283.928130141274, -5685.657940585368, 0.24, 0.9139999999999999, -0.02175, 192.0, 0.0, 0.0, 0.0, 0.0, 0.0, 0.0, 0.0, 0.0, 0.0, 1.6625066779877307E9, 0.0, 2022-09-06 19:24:37.987
102.0, 10595.755052060491, -8864.165409107854, -754.2819683887922, 11475.296196376825, 29065.493233858735, 27308.288491760315, 5655.4607338262485, 7067.845114212646, -13187.37276641998, 9225.257840783339, -14557.288832341294, 5277.559790320372, 18542.649572211456, 17164.038677697026, 17716.774966332312, -6260.365994020223, 0.24, 0.9139999999999999, -0.02175, 192.0, 0.0, 0.0, 0.0, 0.0, 0.0, 0.0, 0.0, 0.0, 0.0, 1.6625066779877396E9, 0.0, 2022-09-06 19:24:37.987
104.0, 10545.195406102588, -8908.75713929619, -585.1910215843942, 11200.235629109817, 29453.07248271376, 28277.996573209355, 7994.302570140669, 6896.1166615625225, -12755.470008310082, 9792.433356336756, -13978.378650948842, 5796.1649651724065, 19150.46055918462, 17808.350063365706, 18294.969891902198, -5682.50634461717, 0.221, 0.856, -0.078875, 192.0, 3.0, 40.0, 12.0, 120.0, 125.5, 96.0, 0.0, 0.0, 0.0, 1.6625066779877489E9, 0.0, 2022-09-06 19:24:37.987
106.0, 10574.81146750587, -8908.62302882946, -804.5957451576884, 11375.473305639423, 29032.569114276066, 27310.121334805648, 5743.057220346596, 7035.256270796808, -13085.001776814674, 9256.237358598395, -14599.08659447272, 5297.542249863416, 18558.47460728581, 17155.746180504106, 17711.79052731878, -6277.3756715507125, 0.221, 0.856, -0.078875, 192.0, 0.0, 0.0, 0.0, 0.0, 0.0, 0.0, 0.0, 0.0, 0.0, 1.662506677987758E9, 0.0, 2022-09-06 19:24:37.987
108.0, 10639.117436303788, -8836.829225639012, -532.4185529254142, 11242.7039435749, 29505.152047294625, 28269.569965549705, 7830.285469327626, 6986.976502773346, -12822.212317253628, 9793.372129603878, -14006.944180362723, 5754.300147807616, 19162.731666890584, 17792.390917824618, 18270.673545679278, -5687.289617930605, 0.221, 0.856, -0.078875, 192.0, 0.0, 0.0, 0.0, 0.0, 0.0, 0.0, 0.0, 0.0, 0.0, 1.6625066779877672E9, 0.0, 2022-09-06 19:24:37.987
110.0, 10509.879649863202, -9000.846326452056, -866.5771325322548, 11272.968205567386, 28954.561526127047, 27264.054389483263, 5803.831613520577, 6949.425572088429, -13016.180755636782, 9256.684393487501, -14630.021408798864, 5348.012488843499, 18559.97217416432, 17095.95526408616, 17670.752724498838, -6305.069482930838, 0.221, 0.856, -0.078875, 192.0, 0.0, 0.0, 0.0, 0.0, 0.0, 0.0, 0.0, 0.0, 0.0, 1.6625066779877763E9, 0.0, 2022-09-06 19:24:37.987
112.0, 10755.100638282376, -8779.45229762224, -459.7977351901216, 11357.189578674983, 29519.770088168396, 28192.76937160127, 7597.290885125504, 7074.30476836023, -12941.056542522496, 9722.762968869563, -14034.481529531662, 5746.454685503803, 19124.35372166082, 17764.65240295558, 18197.896265732797, -5713.977600810243, 0.221, 0.856, -0.078875, 192.0, 0.0, 0.0, 0.0, 0.0, 0.0, 0.0, 0.0, 0.0, 0.0, 1.662506677987785E9, 0.0, 2022-09-06 19:24:37.987
114.0, 10540.36742930024, -9065.956958050367, -878.088280926738, 11246.74960932131, 28947.945409768276, 27343.64895148861, 6035.90977620003, 6892.920362105413, -12947.650307136812, 9262.674661001523, -14559.524006786825, 5470.32123450294, 18566.029496911706, 17084.71233662514, 17668.9198814535, -6267.3397382902795, 0.2205, 0.881, -0.1374375, 192.0, 3.0, 112.0, 14.0, 40.0, 124.5, 112.0, 0.0, 0.0, 0.0, 1.6625066779877944E9, 0.0, 2022-09-06 19:24:37.987
116.0, 10980.249760180684, -8703.657532174293, -370.2119434132509, 11517.473938163988, 29552.783614728884, 28163.712103809372, 7425.093045841819, 7173.613568975159, -13024.62971504089, 9649.896281945263, -13961.838360051914, 5731.143740551918, 19082.24303510702, 17718.540754144284, 18171.185931108706, -5707.607353640479, 0.2205, 0.881, -0.1374375, 192.0, 0.0, 0.0, 0.0, 0.0, 0.0, 0.0, 0.0, 0.0, 0.0, 1.6625066779878032E9, 0.0, 2022-09-06 19:24:37.987
118.0, 10653.19903531063, -9119.645848232014, -858.8434289507186, 11221.693303786911, 28946.626656845412, 27428.76439437442, 6340.474646148044, 6812.811709977593, -12850.084942589396, 9300.449109130992, -14388.980196592833, 5541.757409782102, 18621.797099327698, 17087.23808374859, 17756.47166448494, -6184.995911716928, 0.2205, 0.881, -0.1374375, 192.0, 0.0, 0.0, 0.0, 0.0, 0.0, 0.0, 0.0, 0.0, 0.0, 1.6625066779878125E9, 0.0, 2022-09-06 19:24:37.987
120.0, 11185.997567891785, -8653.544921105495, -308.65523918333525, 11634.507672131977, 29559.444434576566, 28088.073800572613, 7070.34850959164, 7259.824247339278, -13110.92980038283, 9568.021842005473, -13909.08824313739, 5655.6395477818905, 19034.611467672763, 17679.2240356474, 18117.8770205828, -5726.919260849865, 0.2205, 0.881, -0.1374375, 192.0, 0.0, 0.0, 0.0, 0.0, 0.0, 0.0, 0.0, 0.0, 0.0, 1.6625066779878216E9, 0.0, 2022-09-06 19:24:37.987
122.0, 10711.112405194332, -9132.542804782726, -830.8366931482188, 11197.97810291983, 28985.78691313111, 27558.73978838203, 6615.490509926142, 6827.340343873542, -12788.86351452631, 9355.769676657877, -14270.82887540208, 5591.802965617534, 18665.561814971188, 17133.43913953771, 17763.780684921825, -6107.7929863682975, 0.2205, 0.881, -0.1374375, 192.0, 0.0, 0.0, 0.0, 0.0, 0.0, 0.0, 0.0, 0.0, 0.0, 1.6625066779878309E9, 0.0, 2022-09-06 19:24:37.987
124.0, 11251.287013445737, -8585.595617961362, -257.11211646939717, 11711.97881841407, 29535.103384864735, 27975.465712006775, 6786.503706753696, 7270.329567233273, -13167.166789432382, 9535.522405567457, -13908.551801270462, 5577.944884055243, 18983.873007759215, 17618.427290728963, 18049.927717438666, -5752.1990838288175, 0.21425, 0.9235, -0.18571875, 192.0, 3.0, 64.0, 15.0, 24.0, 124.0, 88.0, 0.0, 0.0, 0.0, 1.6625066779878418E9, 0.0, 2022-09-06 19:24:37.987
126.0, 10634.512976945995, -9156.637985305546, -815.5928034296994, 11123.502090394746, 28992.917119612353, 27646.112757457824, 6834.694067799338, 6762.095601808501, -12699.300074493894, 9462.879236087709, -14154.979783890223, 5668.044765954586, 18755.304068959245, 17208.74216660764, 17832.020560743877, -6072.499581873368, 0.21425, 0.9235, -0.18571875, 192.0, 0.0, 0.0, 0.0, 0.0, 0.0, 0.0, 0.0, 0.0, 0.0, 1.662506677987851E9, 0.0, 2022-09-06 19:24:37.987
128.0, 11159.44369547888, -8608.41674905023, -299.60278267893585, 11715.577449271375, 29488.097666275225, 27852.79933843605, 6544.903700936282, 7352.6733938066245, -13244.43677001438, 9477.631387428211, -13970.667299111761, 5505.592287253415, 18894.73425087145, 17517.777385446716, 17960.632498339713, -5853.899521100464, 0.21425, 0.9235, -0.18571875, 192.0, 0.0, 0.0, 0.0, 0.0, 0.0, 0.0, 0.0, 0.0, 0.0, 1.66250667798786E9, 0.0, 2022-09-06 19:24:37.987
130.0, 10513.74650165397, -9177.648625093536, -816.9115563525626, 11061.967737909286, 29033.239666609727, 27766.320439138468, 7140.845911603679, 6720.610764099451, -12652.383762882206, 9519.74207398201, -14072.837123016969, 5732.1272173079515, 18821.800508713783, 17270.99177491567, 17915.280808839896, -6003.991485117851, 0.21425, 0.9235, -0.18571875, 192.0, 0.0, 0.0, 0.0, 0.0, 0.0, 0.0, 0.0, 0.0, 0.0, 1.6625066779878683E9, 0.0, 2022-09-06 19:24:37.987
132.0, 11053.42937152736, -8611.680103740706, -344.1498093783628, 11717.857327205817, 29428.418508579554, 27733.955113167183, 6228.402999449134, 7401.288437996917, -13297.902142751473, 9386.86095319521, -14045.523291292584, 5442.180388233708, 18800.409889270057, 17415.49580281923, 17861.48015993597, -5952.090734492628, 0.21425, 0.9235, -0.18571875, 192.0, 0.0, 0.0, 0.0, 0.0, 0.0, 0.0, 0.0, 0.0, 0.0, 1.6625066779878776E9, 0.0, 2022-09-06 19:24:37.987
134.0, 10434.867195471192, -9159.00727021781, -775.2479046878701, 11056.648022728923, 29109.5708739246, 27858.387274549877, 7379.182562730618, 6747.589319657007, -12637.765722008435, 9587.780784103965, -13982.580778906438, 5797.461366350814, 18879.378602430654, 17337.95760130377, 17956.83270178231, -5916.193832897406, 0.213125, 0.96775, -0.198859375, 192.0, 3.0, 80.0, 15.5, 80.0, 124.5, 48.0, 0.0, 0.0, 0.0, 1.662506677988078E9, 0.0, 2022-09-06 19:24:37.988
136.0, 10956.132227913407, -8613.46824329713, -378.1021092059743, 11745.484083352576, 29411.654700238076, 27632.14291717326, 6065.101154458661, 7455.357307834305, -13308.563924856655, 9331.920365324064, -14077.799210286048, 5412.1619954302305, 18714.69094928395, 17360.599918436994, 17792.56973178026, -5994.894325124541, 0.213125, 0.96775, -0.198859375, 192.0, 0.0, 0.0, 0.0, 0.0, 0.0, 0.0, 0.0, 0.0, 0.0, 1.6625066779880927E9, 0.0, 2022-09-06 19:24:37.988
138.0, 10380.686566911527, -9107.933534137432, -714.9428981474517, 11097.037624959663, 29206.21981694935, 28030.093375455544, 7604.532850329024, 6809.503651798207, -12605.758023948434, 9645.33652607638, -13854.393524455254, 5865.477724728314, 18954.279298100388, 17415.004064441215, 18059.941298954644, -5779.4905638087475, 0.213125, 0.96775, -0.198859375, 192.0, 0.0, 0.0, 0.0, 0.0, 0.0, 0.0, 0.0, 0.0, 0.0, 1.6625066779881022E9, 0.0, 2022-09-06 19:24:37.988
140.0, 10814.221002366663, -8649.007516981068, -452.2428455642278, 11739.985554216571, 29291.961108679905, 27457.799310421862, 5806.647933321945, 7423.5284237299475, -13286.212180401348, 9272.487076817402, -14123.150899785865, 5380.44487004815, 18645.512300194776, 17245.421379258798, 17737.56208867575, -6022.610488249122, 0.213125, 0.96775, -0.198859375, 192.0, 0.0, 0.0, 0.0, 0.0, 0.0, 0.0, 0.0, 0.0, 0.0, 1.6625066779881108E9, 0.0, 2022-09-06 19:24:37.988
142.0, 10319.152214426067, -9059.474952158327, -672.8098598491979, 11130.855814320543, 29298.577225038676, 28133.961931939357, 7815.958001131774, 6885.477231201796, -12616.151585120153, 9705.641532616799, -13783.806715465393, 5892.992722152797, 19005.867124303237, 17506.400347518964, 18111.082090268384, -5681.388757394405, 0.213125, 0.96775, -0.198859375, 192.0, 0.0, 0.0, 0.0, 0.0, 0.0, 0.0, 0.0, 0.0, 0.0, 1.6625066779881196E9, 0.0, 2022-09-06 19:24:37.988
144.0, 10634.244756012531, -8723.885860906346, -545.5390269206795, 11670.114001049282, 29257.53942221873, 27430.28431299738, 5724.4382172153255, 7312.8202334428115, -13259.367735310523, 9227.381256506593, -14181.511304558671, 5350.493532478039, 18582.279215130715, 17137.037770395014, 17682.196817659955, -6064.989395736385, 0.213125, 0.96775, -0.198859375, 192.0, 0.0, 0.0, 0.0, 0.0, 0.0, 0.0, 0.0, 0.0, 0.0, 1.6625066779881287E9, 0.0, 2022-09-06 19:24:37.988
146.0, 10280.193123840467, -9008.73649224478, -614.069475420651, 11204.236591367317, 29396.366107030644, 28180.028877261746, 7901.162850995404, 6997.928857556446, -12670.578082868826, 9705.4403669167, -13743.797092890394, 5876.49713474478, 19032.555107182874, 17538.877432212525, 18148.565965719936, -5605.884564624377, 0.234, 1.074, -0.15, 192.0, 3.5, 40.0, 16.5, 72.0, 125.5, 40.0, 0.0, 0.0, 0.0, 1.6625066779881377E9, 0.0, 2022-09-06 19:24:37.988
148.0, 10475.904998291135, -8810.275353226109, -620.1491499124944, 11623.421206882145, 29129.843906145565, 27313.02706158484, 5623.967125888721, 7287.987445352966, -13211.110319031515, 9203.509593428325, -14217.229392198253, 5345.799666142424, 18544.750636190252, 17071.793028329972, 17664.002497673333, -6025.337401072669, 0.234, 1.074, -0.15, 192.0, 0.0, 0.0, 0.0, 0.0, 0.0, 0.0, 0.0, 0.0, 0.0, 1.6625066779881463E9, 0.0, 2022-09-06 19:24:37.988
150.0, 10253.706306660928, -8969.82210514809, -562.6604631734447, 11249.409466911491, 29396.67903145302, 28157.833595017626, 7826.26215532567, 6945.1340371530105, -12746.864586694788, 9699.405395913767, -13720.57363040133, 5836.465160425325, 19065.836854676825, 17544.51007181526, 18148.25304129756, -5547.770029040579, 0.234, 1.074, -0.15, 192.0, 0.0, 0.0, 0.0, 0.0, 0.0, 0.0, 0.0, 0.0, 0.0, 1.6625066779881556E9, 0.0, 2022-09-06 19:24:37.988
0.0, 4866.399451064998, -4487.403272080812, -425.21958651776157, 5581.2082387457185, 14614.956333035987, 13801.196372651622, 3241.2935186974432, 3476.4338703672734, -6707.892621504381, 4586.019168617627, -7095.963608737423, 2628.0734095660937, 9277.605626297669, 8552.64914663424, 8816.399731206862, -2987.467108662976, 0.3, 1.206, 0.022, 192.0, 4.5, 48.0, 18.5, 88.0, 0.0, 88.0, 0.0, 0.0, 0.0, 1.662506678558781E9, 0.0, 2022-09-06 19:24:38.558
2.0, 9699.807727313964, -9006.031931165688, -819.9513935984843, 11122.943296783364, 29239.5015644433, 27701.34391800689, 6870.076879272089, 6940.574281284128, -12960.390801476336, 9424.121311202207, -14165.216882850753, 5418.509890855538, 18737.914411773017, 17047.69784780715, 17531.41194956445, -5879.291102801693, 0.3, 1.206, 0.022, 192.0, 0.0, 0.0, 0.0, 0.0, 0.0, 0.0, 0.0, 0.0, 0.0, 1.6625066785588665E9, 0.0, 2022-09-06 19:24:38.558
4.0, 9688.028357986017, -9002.030968908188, -885.9784467194613, 11119.836404304076, 29180.895290481483, 27611.266387852003, 6600.134861485346, 6939.210824872354, -12986.7658599336, 9381.47418278148, -14213.004912496199, 5376.130983368276, 18705.929065457472, 16987.482248244556, 17478.952405327847, -5921.871175989053, 0.3, 1.206, 0.022, 192.0, 0.0, 0.0, 0.0, 0.0, 0.0, 0.0, 0.0, 0.0, 0.0, 1.662506678558941E9, 0.0, 2022-09-06 19:24:38.558
6.0, 9709.530736152023, -8979.455707008328, -827.1486553130932, 11136.086122523086, 29245.715349401875, 27719.605293226876, 6819.003143191713, 6985.4565841503845, -12963.85532186691, 9455.30199471736, -14170.871874197946, 5390.503155053038, 18751.347810190655, 17044.881528005782, 17504.187524817888, -5880.274579557727, 0.3, 1.206, 0.022, 192.0, 0.0, 0.0, 0.0, 0.0, 0.0, 0.0, 0.0, 0.0, 0.0, 1.66250667855901E9, 0.0, 2022-09-06 19:24:38.559
8.0, 9706.557954139465, -8972.951349371833, -874.9813884474503, 11126.58663112958, 29214.847590309095, 27625.012710692015, 6612.875355824871, 6974.392470645007, -12985.692976199743, 9405.14468015965, -14207.461679871283, 5359.031898859966, 18723.005798221326, 16990.499733746023, 17465.65311737694, -5910.3376758501145, 0.302, 1.212, 0.08, 192.0, 4.5, 56.0, 18.5, 112.0, 1.0, 64.0, 0.0, 0.0, 0.0, 1.6625066785590873E9, 0.0, 2022-09-06 19:24:38.559
10.0, 9747.662812192775, -8935.847453576023, -808.7084661374648, 11150.994736074774, 29291.916405190994, 27712.989176868105, 6784.760270686183, 7036.127988830565, -12936.720304098166, 9484.940407865097, -14151.157635588364, 5386.613951517815, 18789.34577576468, 17073.00002253056, 17498.778402659704, -5859.688622914389, 0.302, 1.212, 0.08, 192.0, 0.0, 0.0, 0.0, 0.0, 0.0, 0.0, 0.0, 0.0, 0.0, 1.6625066785590963E9, 0.0, 2022-09-06 19:24:38.559
12.0, 9747.036963348028, -8941.52479666767, -844.9853473884282, 11116.215421702316, 29251.705616915897, 27686.636470155296, 6674.186190865778, 7035.4127330079955, -12948.6561356373, 9429.664543827123, -14176.035127167122, 5352.102858078821, 18774.973604079914, 17013.007940412517, 17486.708460653837, -5885.147259848984, 0.302, 1.212, 0.08, 192.0, 0.0, 0.0, 0.0, 0.0, 0.0, 0.0, 0.0, 0.0, 0.0, 1.662506678559106E9, 0.0, 2022-09-06 19:24:38.559
14.0, 9804.279780898069, -8883.879647717435, -769.4364511294904, 11164.182265303405, 29336.575190612697, 27702.506208718565, 6776.914808382369, 7085.055957443233, -12889.446364575191, 9516.07638789134, -14130.549327200571, 5373.784050200468, 18824.72858723743, 17118.61993296384, 17514.37992028951, -5857.252282768761, 0.302, 1.212, 0.08, 192.0, 0.0, 0.0, 0.0, 0.0, 0.0, 0.0, 0.0, 0.0, 0.0, 1.6625066785591156E9, 0.0, 2022-09-06 19:24:38.559
16.0, 9759.553940242999, -8919.463624890283, -813.8046638732749, 11113.041473989662, 29341.47022264841, 27709.256435544066, 6760.262758763166, 7072.717794503903, -12896.442460589704, 9471.417602469635, -14151.247042566187, 5342.871587618779, 18827.321389594246, 17051.341182153366, 17516.525687757217, -5854.5700734341235, 0.302, 1.212, 0.08, 192.0, 0.0, 0.0, 0.0, 0.0, 0.0, 0.0, 0.0, 0.0, 0.0, 1.6625066785591245E9, 0.0, 2022-09-06 19:24:38.559
18.0, 9789.728795257664, -8876.749441236192, -761.993320225873, 11142.434017948392, 29376.62951667661, 27792.20375921771, 6731.764284582649, 7120.036437515788, -12880.773887726533, 9513.729454723532, -14146.55317623057, 5335.227291015064, 18830.316523351255, 17053.66576357672, 17498.46547823733, -5847.685736141889, 0.28, 1.206, 0.14400000000000002, 192.0, 4.0, 96.0, 18.5, 88.0, 2.0, 64.0, 0.0, 0.0, 0.0, 1.6625066785591333E9, 0.0, 2022-09-06 19:24:38.559
20.0, 9741.73959991212, -8907.594848584515, -794.5598118972555, 11104.748976796744, 29311.04949844474, 27705.09901107538, 6860.778553578682, 7069.789715980258, -12873.30840507846, 9465.449686700069, -14150.37532453243, 5342.290442262941, 18836.507956565376, 16998.03227162746, 17531.94839143138, -5843.014221550729, 0.28, 1.206, 0.14400000000000002, 192.0, 0.0, 0.0, 0.0, 0.0, 0.0, 0.0, 0.0, 0.0, 0.0, 1.6625066785591424E9, 0.0, 2022-09-06 19:24:38.559
22.0, 9762.213797833181, -8864.053650385576, -780.0535297457611, 11138.053076035152, 29331.166068454513, 27695.890092359794, 6756.261796505666, 7105.5525071087495, -12844.027619842009, 9523.698332750599, -14132.873908623924, 5362.161143083709, 18852.556509084287, 17068.395563172766, 17518.783213947205, -5851.39612572147, 0.28, 1.206, 0.14400000000000002, 192.0, 0.0, 0.0, 0.0, 0.0, 0.0, 0.0, 0.0, 0.0, 0.0, 1.662506678559152E9, 0.0, 2022-09-06 19:24:38.559
24.0, 9670.996328711073, -8930.907718051401, -849.4556962794896, 11071.131953135962, 29278.684172473455, 27695.353650492867, 6821.68535252635, 7057.406849552018, -12870.626195743824, 9463.706250632555, -14166.759153218169, 5337.976555583067, 18830.80826172927, 17020.27225736049, 17481.053469306644, -5886.1530883494725, 0.28, 1.206, 0.14400000000000002, 192.0, 0.0, 0.0, 0.0, 0.0, 0.0, 0.0, 0.0, 0.0, 0.0, 1.662506678559162E9, 0.0, 2022-09-06 19:24:38.559
26.0, 9693.839811544396, -8879.319891848552, -825.2711087788474, 11120.328142682094, 29313.441135101457, 27725.1932293407, 6699.08603418899, 7121.042266016277, -12866.871102675332, 9490.058957345362, -14184.9981766937, 5308.6734186021595, 18819.29711333479, 17016.807736969917, 17445.558899111616, -5918.294896876204, 0.28, 1.206, 0.14400000000000002, 192.0, 0.0, 0.0, 0.0, 0.0, 0.0, 0.0, 0.0, 0.0, 0.0, 1.6625066785591712E9, 0.0, 2022-09-06 19:24:38.559
28.0, 9598.442566209145, -8941.413037945395, -855.3342050712354, 11050.881272659455, 29276.44899802792, 27742.560534782475, 6846.3393266605535, 7075.601169538638, -12879.49983829258, 9443.433218411592, -14206.18763043733, 5276.643368797704, 18814.983226654917, 16988.152800578213, 17449.559861369118, -5947.329812923648, 0.23800000000000002, 1.076, 0.186, 192.0, 3.5, 56.0, 16.5, 80.0, 2.5, 104.0, 0.0, 0.0, 0.0, 1.6625066785591805E9, 0.0, 2022-09-06 19:24:38.559
30.0, 9618.71559843011, -8889.489935575717, -834.0776960942384, 11083.693633519844, 29342.09607149316, 27807.872332080882, 6687.686644516783, 7131.949917310467, -12881.958530182665, 9451.256328970949, -14225.901869046911, 5265.243979125497, 18789.70340367596, 16950.512462915478, 17396.92150317687, -5989.149926799528, 0.23800000000000002, 1.076, 0.186, 192.0, 0.0, 0.0, 0.0, 0.0, 0.0, 0.0, 0.0, 0.0, 0.0, 1.662506678559189E9, 0.0, 2022-09-06 19:24:38.559
32.0, 9563.015051247485, -8932.986430285744, -824.2429285339033, 11049.227243569761, 29288.541291778245, 27734.4468515452, 6897.435414485385, 7099.07050121671, -12877.30936733596, 9428.39049439317, -14227.846470814524, 5285.204086924086, 18789.412830998044, 16924.740901558507, 17420.25672438821, -5984.478412208368, 0.23800000000000002, 1.076, 0.186, 192.0, 0.0, 0.0, 0.0, 0.0, 0.0, 0.0, 0.0, 0.0, 0.0, 1.662506678559198E9, 0.0, 2022-09-06 19:24:38.559
34.0, 9608.009112836018, -8882.09150816101, -819.057323820272, 11109.44284313236, 29311.720050778396, 27708.362365765857, 6685.853801471449, 7144.466894205439, -12881.846771460388, 9438.87346254271, -14259.58594794106, 5286.8357642693245, 18781.90264486106, 16902.21034314756, 17383.935139648336, -6016.597868990644, 0.23800000000000002, 1.076, 0.186, 192.0, 0.0, 0.0, 0.0, 0.0, 0.0, 0.0, 0.0, 0.0, 0.0, 1.6625066785592065E9, 0.0, 2022-09-06 19:24:38.559
36.0, 9549.6040045743, -8949.191445015842, -863.2690743528693, 11041.001801610208, 29243.860154612084, 27651.276010427002, 6902.084577332089, 7097.036492471278, -12867.16167535325, 9437.085322986284, -14293.068861135109, 5332.679192147159, 18815.25144758838, 16898.76817450144, 17400.83305845655, -5989.015816332796, 0.23800000000000002, 1.076, 0.186, 192.0, 0.0, 0.0, 0.0, 0.0, 0.0, 0.0, 0.0, 0.0, 0.0, 1.6625066785592191E9, 0.0, 2022-09-06 19:24:38.559
38.0, 9576.537856642944, -8897.693025790813, -868.2982168553135, 10955.081695924007, 29200.810694791162, 27687.597595166877, 6618.7091611277065, 7177.726289954936, -12901.918637981253, 9430.938593261075, -14401.51952523226, 5287.863944514268, 18787.11060131915, 16861.731333939, 17335.94594430279, -6051.801866507753, 0.13, 0.8240000000000001, 0.2, 192.0, 2.0, 8.0, 12.5, 96.0, 3.0, 32.0, 0.0, 0.0, 0.0, 1.6625066785592282E9, 0.0, 2022-09-06 19:24:38.559
40.0, 9466.388459967191, -8982.696709954347, -876.5460105593218, 10817.797281479512, 29110.353184980537, 27803.089058767448, 6873.697861873849, 7225.044932966821, -12899.21407690216, 9456.754858106955, -14433.817795970179, 5285.7852322799245, 18808.657682974062, 16902.478564081022, 17353.469711955753, -6037.630860523089, 0.13, 0.8240000000000001, 0.2, 192.0, 0.0, 0.0, 0.0, 0.0, 0.0, 0.0, 0.0, 0.0, 0.0, 1.6625066785592372E9, 0.0, 2022-09-06 19:24:38.559
42.0, 9439.365200920725, -8966.58110220207, -862.6655772525761, 10962.278957638617, 28991.821884134042, 27678.656897384753, 6539.405171800277, 7304.818308927812, -12947.22562399216, 9446.562462635335, -14558.518178286336, 5225.860205395246, 18747.838586311173, 16937.056712753383, 17288.24732163517, -6089.419852426035, 0.13, 0.8240000000000001, 0.2, 192.0, 0.0, 0.0, 0.0, 0.0, 0.0, 0.0, 0.0, 0.0, 0.0, 1.662506678559249E9, 0.0, 2022-09-06 19:24:38.559
44.0, 9341.79983637331, -9050.35544042056, -873.3497111022128, 10970.482047853715, 28871.14481581984, 27841.89168714186, 6856.64348085445, 7340.268175633929, -12912.580420086435, 9496.675073704133, -14638.76094088089, 5186.74465259846, 18782.975528594914, 16904.24435189299, 17305.189943932288, -6055.62401480961, 0.13, 0.8240000000000001, 0.2, 192.0, 0.0, 0.0, 0.0, 0.0, 0.0, 0.0, 0.0, 0.0, 0.0, 1.6625066785592587E9, 0.0, 2022-09-06 19:24:38.559
46.0, 9388.671444496089, -9020.337047617084, -884.5032315854111, 10994.778394076633, 28708.513523163027, 27958.54544145411, 6562.338061611422, 7413.291324769417, -12975.14295281684, 9440.974526521508, -14809.93059991963, 5062.245435982399, 18740.84249029666, 16804.19794371104, 17239.855794889427, -6122.053399330784, 0.13, 0.8240000000000001, 0.2, 192.0, 0.0, 0.0, 0.0, 0.0, 0.0, 0.0, 0.0, 0.0, 0.0, 1.6625066785592685E9, 0.0, 2022-09-06 19:24:38.559
48.0, 9349.399429488114, -9062.60419638207, -966.824706414307, 10964.178855917318, 28616.24552205152, 28048.064177997614, 6789.029453877146, 7472.411688853704, -12926.438501648725, 9496.362149281758, -14853.427094629658, 5123.82449195677, 18789.546941464778, 16839.603106928244, 17291.80124900356, -6099.142861264094, 0.036000000000000004, 0.39, 0.178, 192.0, 0.5, 16.0, 6.0, 24.0, 2.5, 72.0, 0.0, 0.0, 0.0, 1.6625066785592775E9, 0.0, 2022-09-06 19:24:38.559
50.0, 9371.639415221145, -9030.97647797781, -1024.8945385091947, 10981.859085781465, 28574.447759920095, 28017.2634741382, 6455.720240559607, 7618.7485598026, -12978.071031340485, 9442.717962589022, -14976.026412967018, 5054.422325423041, 18758.433313182988, 16788.55172259232, 17263.459237034233, -6168.857952220196, 0.036000000000000004, 0.39, 0.178, 192.0, 0.0, 0.0, 0.0, 0.0, 0.0, 0.0, 0.0, 0.0, 0.0, 1.6625066785592873E9, 0.0, 2022-09-06 19:24:38.559
52.0, 9330.84748159021, -9077.825734356134, -1076.8399926233283, 10931.679419479302, 28552.297181164886, 27869.496091544162, 6678.813001968027, 7755.027145746607, -12912.89334450881, 9517.395140814202, -14990.175067207227, 5125.903204191113, 18848.06380844877, 16847.560327954332, 17296.942150228282, -6117.873623117641, 0.036000000000000004, 0.39, 0.178, 192.0, 0.0, 0.0, 0.0, 0.0, 0.0, 0.0, 0.0, 0.0, 0.0, 1.6625066785592968E9, 0.0, 2022-09-06 19:24:38.559
54.0, 9343.587975929735, -9086.65467341598, -1204.9601918411483, 10903.404462743338, 28560.388512657704, 27613.948597186638, 6383.389995502233, 7899.777042839175, -12992.152630347327, 9413.727750030488, -15149.319487729013, 5066.134639517622, 18800.968682881437, 16755.135864631637, 17213.950123065726, -6210.722769584986, 0.036000000000000004, 0.39, 0.178, 192.0, 0.0, 0.0, 0.0, 0.0, 0.0, 0.0, 0.0, 0.0, 0.0, 1.662506678559306E9, 0.0, 2022-09-06 19:24:38.559
56.0, 9366.252644807417, -9101.630342201035, -1218.0136106030477, 10903.024483087598, 28741.415291001238, 27475.568947263833, 6541.975622412637, 8060.530788961743, -12941.436522178235, 9478.570160695333, -15134.120301499404, 5156.770963283892, 18858.747942298407, 16843.894641863662, 17255.010277630125, -6164.186437629037, 0.036000000000000004, 0.39, 0.178, 192.0, 0.0, 0.0, 0.0, 0.0, 0.0, 0.0, 0.0, 0.0, 0.0, 1.6625066785593157E9, 0.0, 2022-09-06 19:24:38.559
58.0, 9386.033938650364, -9112.895621406511, -1287.4157771367761, 10892.452107960238, 28847.541373675034, 27343.760710210885, 6341.994564771005, 8148.3954964155555, -12995.974778649186, 9394.058214909819, -15188.09976435897, 5139.448361331029, 18824.594476770697, 16763.361306591192, 17230.490413962652, -6210.722769584986, 0.032, 0.23600000000000002, 0.14, 192.0, 0.5, 0.0, 3.5, 48.0, 2.0, 48.0, 0.0, 0.0, 0.0, 1.6625066785593257E9, 0.0, 2022-09-06 19:24:38.559
60.0, 9428.189328693072, -9112.001551628298, -1289.9415242602258, 10893.659102160824, 29023.628416493946, 27362.133844153148, 6465.8008773089505, 8232.72862824543, -12952.455932194702, 9448.06002951384, -15140.80347309154, 5200.759196371937, 18857.742113797918, 16813.60802812672, 17270.835312704483, -6161.727745738954, 0.032, 0.23600000000000002, 0.14, 192.0, 0.0, 0.0, 0.0, 0.0, 0.0, 0.0, 0.0, 0.0, 0.0, 1.6625066785593348E9, 0.0, 2022-09-06 19:24:38.559
62.0, 9437.845282297765, -9148.725467768369, -1333.482722459164, 10850.564938850992, 29031.295064842114, 27243.937819473485, 6287.05397689986, 8227.319506087244, -13027.311924375526, 9329.126397267151, -15218.833412985017, 5136.699096763026, 18771.106752289146, 16709.672416409543, 17236.257164032122, -6230.705229128031, 0.032, 0.23600000000000002, 0.14, 192.0, 0.0, 0.0, 0.0, 0.0, 0.0, 0.0, 0.0, 0.0, 0.0, 1.662506678559344E9, 0.0, 2022-09-06 19:24:38.559
64.0, 9517.439844303113, -9104.603124213592, -1290.0532829825024, 10893.592046927459, 29145.71364470883, 27205.671632966, 6353.706878865586, 8327.812949158306, -12973.265406282593, 9404.496479570447, -15167.111476315436, 5197.898173081658, 18825.399139571087, 16783.097896945226, 17286.928568712305, -6187.208734418004, 0.032, 0.23600000000000002, 0.14, 192.0, 0.0, 0.0, 0.0, 0.0, 0.0, 0.0, 0.0, 0.0, 0.0, 1.6625066785593536E9, 0.0, 2022-09-06 19:24:38.559
66.0, 9498.88789640521, -9157.085020194652, -1369.4913827766638, 10829.934278718743, 29080.111274732506, 27173.75334188382, 6273.19589533757, 8296.475803431966, -13024.830880740987, 9346.918385853576, -15211.524392548132, 5166.203399444032, 18800.320482292234, 16719.574239203244, 17241.085140834468, -6243.37866823419, 0.032, 0.23600000000000002, 0.14, 192.0, 0.0, 0.0, 0.0, 0.0, 0.0, 0.0, 0.0, 0.0, 0.0, 1.6625066785593626E9, 0.0, 2022-09-06 19:24:38.559
68.0, 9588.540743415446, -9108.51467949327, -1330.8005131245272, 10890.328692236984, 29163.729150739808, 27231.71141525643, 6266.8703516567175, 8381.121859684214, -12992.376147791882, 9382.927046171075, -15162.752886146653, 5221.903946626657, 18820.191183113002, 16750.30788782929, 17231.339780251954, -6223.127987757682, 0.039, 0.228, 0.10400000000000001, 192.0, 0.5, 56.0, 3.0, 112.0, 1.0, 16.0, 0.0, 0.0, 0.0, 1.662506678559374E9, 0.0, 2022-09-06 19:24:38.559
70.0, 9575.75554558701, -9172.708889568912, -1378.1415078808675, 10842.227738169162, 29130.53681022368, 27046.415453721937, 6281.890723930684, 8302.3096087348, -13037.5266715916, 9316.385902927626, -15178.779086921108, 5226.910737384646, 18776.247653513867, 16713.87454436714, 17203.645968871828, -6207.146490472137, 0.039, 0.228, 0.10400000000000001, 192.0, 0.0, 0.0, 0.0, 0.0, 0.0, 0.0, 0.0, 0.0, 0.0, 1.6625066785593832E9, 0.0, 2022-09-06 19:24:38.559
72.0, 9701.707625592664, -9109.744025438313, -1298.7034080867063, 10885.120735778897, 29221.709575856876, 27158.28593472075, 6197.6022955897215, 8357.540769283863, -13029.569450565512, 9344.482045707948, -15132.958010787728, 5252.65994699716, 18771.84435985617, 16721.87646888214, 17181.96477675018, -6146.93089090954, 0.039, 0.228, 0.10400000000000001, 192.0, 0.0, 0.0, 0.0, 0.0, 0.0, 0.0, 0.0, 0.0, 0.0, 1.662506678559392E9, 0.0, 2022-09-06 19:24:38.559
74.0, 9705.619180872343, -9177.648625093536, -1288.578067848452, 10815.070368655965, 29209.103191984083, 27075.45036976938, 6298.520421805432, 8270.01133799688, -13043.91927050582, 9307.735777823422, -15087.047527676526, 5270.943673961601, 18742.04948449725, 16664.521892609824, 17192.715965833184, -6100.416910698046, 0.039, 0.228, 0.10400000000000001, 192.0, 0.0, 0.0, 0.0, 0.0, 0.0, 0.0, 0.0, 0.0, 0.0, 1.662506678559401E9, 0.0, 2022-09-06 19:24:38.559
76.0, 9809.420682122789, -9128.117159380576, -1177.4675461611207, 10866.658194858814, 29263.105006588103, 26996.72752579779, 6137.185530327026, 8299.225067999967, -13065.153427738362, 9305.545306866803, -15025.133195535327, 5264.081688413821, 18731.342998903157, 16649.14389242457, 17154.181558392236, -6111.883355603619, 0.039, 0.228, 0.10400000000000001, 192.0, 0.0, 0.0, 0.0, 0.0, 0.0, 0.0, 0.0, 0.0, 0.0, 1.66250667855941E9, 0.0, 2022-09-06 19:24:38.559
78.0, 9759.97862338765, -9200.872087582598, -1193.136119024291, 10779.32992927193, 29254.678398928452, 26961.210603858308, 6268.077345857304, 8244.955032462482, -13066.449828916768, 9275.146934407585, -14960.313136614936, 5275.682243786126, 18730.448929124945, 16646.014648200828, 17158.271927627557, -6094.337236206203, 0.0695, 0.31, 0.07200000000000001, 192.0, 1.5, 16.0, 6.0, 32.0, 0.5, 32.0, 0.0, 0.0, 0.0, 1.6625066785594196E9, 0.0, 2022-09-06 19:24:38.559
80.0, 9840.199034237747, -9149.708944524402, -1209.5199477100311, 10826.201537394707, 29315.65395780253, 26991.541921084157, 6038.48022681239, 8281.768355580372, -13092.847239118486, 9257.220835354428, -14933.133415357283, 5269.960197205567, 18690.752230972317, 16632.000104427352, 17107.488764225098, -6115.3702277386465, 0.0695, 0.31, 0.07200000000000001, 192.0, 0.0, 0.0, 0.0, 0.0, 0.0, 0.0, 0.0, 0.0, 0.0, 1.6625066785594292E9, 0.0, 2022-09-06 19:24:38.559
82.0, 9799.563562817999, -9232.566861220224, -1283.4371666237316, 10728.926745525212, 29363.889022337084, 27027.103546512553, 6245.658546168631, 8211.71798845744, -13087.214599515748, 9236.143140333073, -14900.477516708079, 5307.220555212564, 18686.84067569264, 16597.533714477267, 17088.936816327194, -6094.270180972837, 0.0695, 0.31, 0.07200000000000001, 192.0, 0.0, 0.0, 0.0, 0.0, 0.0, 0.0, 0.0, 0.0, 0.0, 1.6625066785594387E9, 0.0, 2022-09-06 19:24:38.559
84.0, 9905.980218169716, -9173.267683180295, -1217.1418925692908, 10788.695310198702, 29416.549732273787, 26954.57213575508, 6006.383121774569, 8250.2970993873, -13122.373893543947, 9210.01395106482, -14905.417252232703, 5294.725930062048, 18628.994361042307, 16579.786429379754, 17036.723141279595, -6115.705503905476, 0.0695, 0.31, 0.07200000000000001, 192.0, 0.0, 0.0, 0.0, 0.0, 0.0, 0.0, 0.0, 0.0, 0.0, 1.6625066785594473E9, 0.0, 2022-09-06 19:24:38.559
86.0, 9891.697453462775, -9241.7310764469, -1219.4217705037322, 10725.842204790379, 29403.67512746753, 27072.298773801183, 6271.072479614316, 8218.132939116114, -13075.010547043152, 9231.203404808452, -14849.13555969424, 5361.557645983416, 18692.294501339737, 16614.81161294122, 17081.09135402338, -6056.29456714327, 0.0695, 0.31, 0.07200000000000001, 192.0, 0.0, 0.0, 0.0, 0.0, 0.0, 0.0, 0.0, 0.0, 0.0, 1.6625066785594556E9, 0.0, 2022-09-06 19:24:38.559
88.0, 10016.800167179128, -9169.914921512, -1168.9962350125593, 10812.544621532516, 29481.146273749626, 27061.815805651644, 6009.37825553158, 8305.952943081014, -13116.115405096461, 9172.641834335547, -14878.192827486138, 5318.016447784477, 18659.526843968255, 16528.958562488384, 17027.04483593045, -6089.688073359499, 0.11375, 0.41700000000000004, 0.038000000000000006, 192.0, 2.0, 120.0, 8.0, 48.0, 0.0, 16.0, 0.0, 0.0, 0.0, 1.6625066785594647E9, 0.0, 2022-09-06 19:24:38.559
90.0, 10008.887649641949, -9216.942991845965, -1176.104089749347, 10783.397946762794, 29507.431925229066, 27077.842006426097, 6267.138572590181, 8244.329183617734, -13048.277860674603, 9235.718457188423, -14804.02973938343, 5413.033713463988, 18706.51021081331, 16595.119726076096, 17077.3809644438, -5999.454080993424, 0.11375, 0.41700000000000004, 0.038000000000000006, 192.0, 0.0, 0.0, 0.0, 0.0, 0.0, 0.0, 0.0, 0.0, 0.0, 1.662506678559474E9, 0.0, 2022-09-06 19:24:38.559
92.0, 10103.167307754435, -9164.05876446471, -1159.0944122188585, 10831.208328152696, 29436.062805183272, 27026.276531967706, 5969.033356789751, 8226.805415964773, -13093.048404818584, 9221.122768059107, -14827.543774550411, 5428.367010160328, 18685.834847192153, 16631.418959071514, 17051.832920531382, -6001.912772883507, 0.11375, 0.41700000000000004, 0.038000000000000006, 192.0, 0.0, 0.0, 0.0, 0.0, 0.0, 0.0, 0.0, 0.0, 0.0, 1.6625066785594833E9, 0.0, 2022-09-06 19:24:38.559
94.0, 10191.277884397256, -9198.860430581622, -1159.3626331523221, 10786.929522386734, 29453.720683302963, 26957.76843521219, 6222.4350836795675, 8127.854243261128, -13048.43432288579, 9244.033306125797, -14786.796544408387, 5467.974301335133, 18742.42946415299, 16593.71156617541, 17096.87168560883, -5974.598941159123, 0.11375, 0.41700000000000004, 0.038000000000000006, 192.0, 0.0, 0.0, 0.0, 0.0, 0.0, 0.0, 0.0, 0.0, 0.0, 1.6625066785594923E9, 0.0, 2022-09-06 19:24:38.559
96.0, 10399.953770632002, -9135.627345517558, -1060.9926058045157, 10857.181055209763, 29583.56196684384, 26724.550333565516, 5978.734013883354, 8158.051450020248, -13069.959052796252, 9216.406549979038, -14792.965625878052, 5438.402943420761, 18701.54812354423, 16603.367519780102, 17063.545234625966, -5999.364674015603, 0.11375, 0.41700000000000004, 0.038000000000000006, 192.0, 0.0, 0.0, 0.0, 0.0, 0.0, 0.0, 0.0, 0.0, 0.0, 1.6625066785595012E9, 0.0, 2022-09-06 19:24:38.559
98.0, 10525.74938842647, -9152.52526432577, -854.4177835485677, 10821.462967570182, 29521.89350389165, 26712.14511539282, 6253.8392846392735, 8153.245824962357, -12986.85526691142, 9321.191527985517, -14659.771580668878, 5535.8565492459, 18831.277648362833, 16656.34115413918, 17152.1475496468, -5907.07432115964, 0.132875, 0.6125, 0.041, 192.0, 2.0, 96.0, 12.5, 32.0, 0.5, 48.0, 0.0, 0.0, 0.0, 1.66250667855951E9, 0.0, 2022-09-06 19:24:38.559
100.0, 10559.142894642699, -9142.936365954443, -775.1808494545043, 10795.646702724303, 29459.196860694512, 26599.984061716088, 6032.6017180206445, 8140.170054456003, -13043.405180383346, 9256.237358598395, -14665.47127550498, 5475.350377005384, 18796.811258412752, 16541.47553938336, 17101.409089733253, -5969.592150401134, 0.132875, 0.6125, 0.041, 192.0, 0.0, 0.0, 0.0, 0.0, 0.0, 0.0, 0.0, 0.0, 0.0, 1.6625066785595212E9, 0.0, 2022-09-06 19:24:38.559
102.0, 10402.72538694446, -9138.108389152098, -688.0984530566279, 10789.254103810084, 29537.539725010363, 26606.130791441297, 6286.025796654916, 8181.744299142873, -12991.213857080205, 9350.293499266327, -14570.051678425274, 5534.090761433931, 18855.395180630112, 16609.04486287175, 17123.358502788367, -5903.878021702531, 0.132875, 0.6125, 0.041, 192.0, 0.0, 0.0, 0.0, 0.0, 0.0, 0.0, 0.0, 0.0, 0.0, 1.6625066785595298E9, 0.0, 2022-09-06 19:24:38.559
104.0, 9998.605847192508, -9128.251269847307, -705.9127933875077, 10748.50687366806, 29510.292948519345, 26487.398324894708, 5989.261685521804, 7939.831368903086, -13026.641372041866, 9301.477289375936, -14570.275195869828, 5520.724418249657, 18801.415717770546, 16577.573606678678, 17060.66185959123, -5936.980955240841, 0.132875, 0.6125, 0.041, 192.0, 0.0, 0.0, 0.0, 0.0, 0.0, 0.0, 0.0, 0.0, 0.0, 1.6625066785595388E9, 0.0, 2022-09-06 19:24:38.559
106.0, 9584.584484646855, -9117.947115653411, -682.5328686872565, 10789.70113869919, 29550.213164116525, 26471.19331016461, 6248.340755503268, 8190.059148080248, -12978.47336274068, 9366.565569229791, -14484.533904139269, 5597.860288364922, 18857.228023675445, 16665.81829378823, 17021.65806551672, -5933.002344727796, 0.132875, 0.6125, 0.041, 192.0, 0.0, 0.0, 0.0, 0.0, 0.0, 0.0, 0.0, 0.0, 0.0, 1.6625066785595474E9, 0.0, 2022-09-06 19:24:38.559
108.0, 9237.774817678312, -9107.7994236707, -724.8223691966974, 10851.995450496132, 29522.161724825113, 26244.05488300978, 6323.82259652884, 8235.164968391058, -12997.315883316503, 9299.353873652683, -14516.496898710358, 5602.554154700537, 18849.516671838366, 16663.449008875967, 17100.76088914405, -5855.866474612531, 0.1974375, 0.79525, 0.0735, 192.0, 4.0, 24.0, 15.0, 72.0, 1.5, 40.0, 0.0, 0.0, 0.0, 1.6625066785595562E9, 0.0, 2022-09-06 19:24:38.559
110.0, 8982.54024774316, -9087.012301327266, -736.9817181803845, 10851.727229562668, 29521.44646900254, 26284.86916838517, 6369.0625273063815, 8341.246347575945, -12935.379199430849, 9371.527656498869, -14473.380383656071, 5657.651204782868, 18918.40474824962, 16782.248530655925, 17088.80270586046, -5793.482755837769, 0.1974375, 0.79525, 0.0735, 192.0, 0.0, 0.0, 0.0, 0.0, 0.0, 0.0, 0.0, 0.0, 0.0, 1.6625066785595653E9, 0.0, 2022-09-06 19:24:38.559
112.0, 8712.53117472305, -9126.105502379598, -871.6956820125201, 10780.581626961426, 29445.49524134341, 26126.440003685955, 6230.816987850308, 8227.58772702071, -12970.024403336574, 9324.119606509163, -14529.326800027706, 5620.3014397980505, 18896.701204383517, 16720.177736303536, 17002.346158307333, -5871.177419564417, 0.1974375, 0.79525, 0.0735, 192.0, 0.0, 0.0, 0.0, 0.0, 0.0, 0.0, 0.0, 0.0, 0.0, 1.6625066785595746E9, 0.0, 2022-09-06 19:24:38.559
114.0, 8608.997894406068, -9104.290199791218, -884.7267490299641, 10786.013100864066, 29523.435774259066, 26217.210437918955, 6282.002482652961, 8268.089087973725, -12935.133330241839, 9396.7180725, -14505.410433460527, 5650.811570979545, 18937.13551010317, 16726.749149173396, 16972.26071027049, -5886.242495327294, 0.1974375, 0.79525, 0.0735, 192.0, 0.0, 0.0, 0.0, 0.0, 0.0, 0.0, 0.0, 0.0, 0.0, 1.6625066785595837E9, 0.0, 2022-09-06 19:24:38.559
116.0, 8396.835136036294, -9205.118919029108, -956.7664214094189, 10709.83835576038, 29419.92484568654, 26020.403327989978, 6193.288408909847, 8154.13989474057, -12964.503522456112, 9344.437342219037, -14584.848533254688, 5610.533727471081, 18894.68954738254, 16658.732790795897, 16895.705985511064, -5978.622255161078, 0.1974375, 0.79525, 0.0735, 192.0, 0.0, 0.0, 0.0, 0.0, 0.0, 0.0, 0.0, 0.0, 0.0, 1.6625066785595937E9, 0.0, 2022-09-06 19:24:38.559
118.0, 8331.746856182439, -9187.282226953772, -907.9502115190282, 10759.41452496225, 29473.50197714591, 26025.655987936974, 6150.976556655951, 8208.76755818934, -12977.691051684744, 9391.085432897262, -14603.93692301952, 5610.4443204932595, 18903.40672772011, 16706.7443378859, 16869.24152007598, -6008.573592731189, 0.22071875, 0.8336250000000001, 0.10775000000000001, 192.0, 3.5, 80.0, 13.5, 32.0, 2.0, 56.0, 0.0, 0.0, 0.0, 1.6625066785596025E9, 0.0, 2022-09-06 19:24:38.559
120.0, 8197.010540605848, -9270.698937260979, -966.3776715252009, 10708.564306326427, 29383.357391757658, 25910.566855736597, 6183.028958204861, 8156.732697097385, -12990.722118702188, 9357.893092381131, -14640.236156014938, 5594.731044141179, 18890.979157802958, 16678.067049749738, 16844.81106338633, -6035.932127944485, 0.22071875, 0.8336250000000001, 0.10775000000000001, 192.0, 0.0, 0.0, 0.0, 0.0, 0.0, 0.0, 0.0, 0.0, 0.0, 1.6625066785596116E9, 0.0, 2022-09-06 19:24:38.559
122.0, 8234.941450946504, -9222.374465748604, -910.4536068980226, 10758.65456565077, 29409.888912426104, 25897.69225093034, 6070.48792487239, 8227.3418578317, -12984.597740721434, 9397.612142278213, -14627.808586097788, 5593.702863896235, 18909.441698723043, 16718.948390358495, 16846.353333753745, -6032.266441853815, 0.22071875, 0.8336250000000001, 0.10775000000000001, 192.0, 0.0, 0.0, 0.0, 0.0, 0.0, 0.0, 0.0, 0.0, 0.0, 1.6625066790391276E9, 0.0, 2022-09-06 19:24:39.039
124.0, 8153.245824962357, -9287.88742874711, -975.4971832629661, 10692.001663685043, 29382.95506035746, 25898.92159687538, 6067.671605071021, 8198.753976673363, -12992.040871625051, 9384.692833983045, -14642.024295571364, 5575.821468331989, 18904.16668703159, 16678.424677661023, 16798.65471108612, -6051.6230525521105, 0.22071875, 0.8336250000000001, 0.10775000000000001, 192.0, 0.0, 0.0, 0.0, 0.0, 0.0, 0.0, 0.0, 0.0, 0.0, 1.6625066790392168E9, 0.0, 2022-09-06 19:24:39.039
126.0, 8220.882203684116, -9221.055712825742, -908.5760603637768, 10780.492219983606, 29442.857735497684, 25808.48643880921, 6266.803296423352, 8274.34757642121, -12988.576351234478, 9426.892927514664, -14619.158460993584, 5577.140221254853, 18926.98781812046, 16686.247788220382, 16839.066665061317, -6019.414188792013, 0.22071875, 0.8336250000000001, 0.10775000000000001, 192.0, 0.0, 0.0, 0.0, 0.0, 0.0, 0.0, 0.0, 0.0, 0.0, 1.662506679039274E9, 0.0, 2022-09-06 19:24:39.039
128.0, 8171.082517037692, -9278.052661186775, -941.6119386687207, 10730.469015892628, 29430.92190395855, 25815.214313890257, 6351.672870120153, 8226.87247119814, -12961.217816021182, 9441.48861664398, -14592.649292069591, 5617.4851199966815, 18946.41148405212, 16709.426547220533, 16914.30263689788, -5958.617443873578, 0.220359375, 0.8328125000000001, 0.15687500000000001, 192.0, 3.0, 112.0, 13.0, 0.0, 3.0, 56.0, 0.0, 0.0, 0.0, 1.6625066790392814E9, 0.0, 2022-09-06 19:24:39.039
130.0, 8238.361267848166, -9226.174262306007, -930.9054530746286, 10805.28030458454, 29473.613735868184, 25738.81605134202, 6192.819022276285, 8261.830599526238, -12985.067127354996, 9431.810311294832, -14614.978684780443, 5593.546401685047, 18919.589390705754, 16706.699634396988, 16841.43594997358, -5965.591188143634, 0.220359375, 0.8328125000000001, 0.15687500000000001, 192.0, 0.0, 0.0, 0.0, 0.0, 0.0, 0.0, 0.0, 0.0, 0.0, 1.662506679039289E9, 0.0, 2022-09-06 19:24:39.039
132.0, 8196.094119083182, -9296.291684662305, -960.2756452889021, 10743.522434654527, 29390.845226150184, 25752.249449759656, 6376.505658209999, 8184.337101499689, -12947.382086203348, 9431.385628150181, -14597.119640960651, 5621.575489232003, 18977.972147223016, 16711.415852477057, 16873.845979433772, -5910.762358994765, 0.220359375, 0.8328125000000001, 0.15687500000000001, 192.0, 0.0, 0.0, 0.0, 0.0, 0.0, 0.0, 0.0, 0.0, 0.0, 1.6625066790393026E9, 0.0, 2022-09-06 19:24:39.039
134.0, 8263.954015249494, -9241.082875857697, -955.6264824421982, 10796.18314459123, 29478.531119648353, 25664.116521372383, 6169.193228387026, 8235.455541068977, -12993.873714670386, 9398.57326728979, -14646.695810162522, 5582.281122479573, 18934.296838557344, 16720.423605492546, 16788.93170224806, -5932.331792394137, 0.220359375, 0.8328125000000001, 0.15687500000000001, 192.0, 0.0, 0.0, 0.0, 0.0, 0.0, 0.0, 0.0, 0.0, 0.0, 1.66250667903931E9, 0.0, 2022-09-06 19:24:39.039
136.0, 8243.30100337279, -9286.814545013254, -958.7333749214858, 10735.095826994877, 29424.86458121116, 25771.516653480132, 6404.288876567945, 8207.448805266476, -12956.03221130755, 9417.192270421061, -14616.677417359046, 5614.557041473036, 18949.764245720417, 16732.60530622069, 16817.5195834064, -5892.344521563593, 0.220359375, 0.8328125000000001, 0.15687500000000001, 192.0, 0.0, 0.0, 0.0, 0.0, 0.0, 0.0, 0.0, 0.0, 0.0, 1.6625066790393176E9, 0.0, 2022-09-06 19:24:39.039
138.0, 8328.237632302957, -9230.197576307963, -947.6692614161088, 10771.126839056831, 29424.26108411087, 25654.617029978876, 6164.633472518143, 8151.770609828307, -12968.415077735792, 9392.940627687052, -14640.057342059297, 5571.194657229741, 18935.83910892476, 16684.034965519306, 16789.22227492598, -5935.84101627362, 0.220359375, 0.8328125000000001, 0.15687500000000001, 192.0, 0.0, 0.0, 0.0, 0.0, 0.0, 0.0, 0.0, 0.0, 0.0, 1.6625066790393248E9, 0.0, 2022-09-06 19:24:39.039
140.0, 8296.296989476323, -9283.573542067235, -977.598247241765, 10714.35340814035, 29471.870299800674, 25721.918132533807, 6398.231553820558, 8223.67617174103, -12928.51721388307, 9436.079494485795, -14598.37133865015, 5602.196526789252, 18927.434853009567, 16701.044643049794, 16775.18537940805, -5921.111216677573, 0.214, 0.8220000000000001, 0.252, 192.0, 3.0, 88.0, 12.5, 88.0, 3.5, 112.0, 0.0, 0.0, 0.0, 1.6625066790393324E9, 0.0, 2022-09-06 19:24:39.039
142.0, 8369.074269422803, -9211.86914585461, -936.0687060438045, 10762.074382552431, 29433.849982482196, 25667.156358618304, 6220.892813312151, 8267.306776917789, -12977.065202839996, 9409.7714912619, -14634.290591989828, 5545.803075528512, 18919.27646628338, 16653.591889571177, 16736.226288822447, -5927.347353380604, 0.214, 0.8220000000000001, 0.252, 192.0, 0.0, 0.0, 0.0, 0.0, 0.0, 0.0, 0.0, 0.0, 0.0, 1.6625066790393395E9, 0.0, 2022-09-06 19:24:39.039
144.0, 8340.978126642482, -9239.942936890477, -943.8024096253407, 10711.78295752799, 29516.84200964475, 25740.604190898444, 6544.72488698064, 8248.01722145286, -12891.659187276267, 9490.573047467835, -14549.443370037481, 5602.978837845188, 19000.301539933866, 16691.008709789363, 16801.247513442937, -5889.036463384207, 0.214, 0.8220000000000001, 0.252, 192.0, 0.0, 0.0, 0.0, 0.0, 0.0, 0.0, 0.0, 0.0, 0.0, 1.662506679039347E9, 0.0, 2022-09-06 19:24:39.039
146.0, 8369.923635712104, -9192.803107834234, -925.9433658055503, 10754.497141182082, 29414.493371783898, 25646.011608363584, 6358.780724856941, 8327.187100313557, -12943.537586157036, 9442.181520722095, -14602.238190440918, 5549.5134651080925, 18948.154920119636, 16624.378159568092, 16784.88603650165, -5924.687495790422, 0.214, 0.8220000000000001, 0.252, 192.0, 0.0, 0.0, 0.0, 0.0, 0.0, 0.0, 0.0, 0.0, 0.0, 1.6625066790393546E9, 0.0, 2022-09-06 19:24:39.039
148.0, 8359.84299896276, -9196.021759035797, -916.3544674342237, 10769.27164426704, 29652.606505466287, 25781.507883251656, 6593.697559082218, 8323.320248522788, -12872.079059133419, 9521.17258562715, -14528.25391629385, 5631.522015514614, 19017.66884537564, 16695.791983102798, 16824.71684512101, -5851.977271077308, 0.214, 0.8220000000000001, 0.252, 192.0, 0.0, 0.0, 0.0, 0.0, 0.0, 0.0, 0.0, 0.0, 0.0, 1.662506679039362E9, 0.0, 2022-09-06 19:24:39.039
150.0, 8368.649586278152, -9187.885724054066, -943.1765607805921, 10772.333833257419, 29508.571864196285, 25641.921239128264, 6335.333744923323, 8240.596442293698, -12920.247068434604, 9465.606148911256, -14568.598815035679, 5614.802910662045, 18910.380471990167, 16658.933956495996, 16734.393445777114, -5874.619588210534, 0.202, 0.86, 0.292, 192.0, 3.0, 40.0, 13.0, 112.0, 4.5, 16.0, 0.0, 0.0, 0.0, 1.662506679039369E9, 0.0, 2022-09-06 19:24:39.039
152.0, 8413.487185655498, -9155.989784716343, -845.7900101888192, 10833.890537487334, 29500.79345712584, 25641.183631561238, 6565.668471535262, 8279.488477645931, -12832.382360980793, 9539.143388169216, -14485.807953573223, 5682.975731250731, 19028.084758291814, 16704.553866929276, 16815.75379559443, -5803.205764675828, 0.202, 0.86, 0.292, 192.0, 0.0, 0.0, 0.0, 0.0, 0.0, 0.0, 0.0, 0.0, 0.0, 1.6625066790393765E9, 0.0, 2022-09-06 19:24:39.039
154.0, 8402.780700061405, -9186.164639731007, -900.6858945710534, 10803.782737706035, 29506.06846881729, 25562.416084100736, 6411.821414449384, 8253.471047099954, -12889.98280644212, 9451.122218504217, -14538.893346654577, 5636.372344061416, 18981.816647269326, 16610.788298939264, 16742.529480758843, -5820.662477095423, 0.202, 0.86, 0.292, 192.0, 0.0, 0.0, 0.0, 0.0, 0.0, 0.0, 0.0, 0.0, 0.0, 1.662506679039384E9, 0.0, 2022-09-06 19:24:39.039
156.0, 8486.398576068708, -9134.308592594694, -812.6870766505095, 10867.686375103758, 29494.423209956076, 25529.670778473712, 6565.10967792388, 8282.573018380765, -12818.323113718405, 9520.054998404385, -14462.00334572832, 5700.387740181415, 18996.76996430993, 16672.18854095799, 16773.911329974097, -5737.5810429550465, 0.202, 0.86, 0.292, 192.0, 0.0, 0.0, 0.0, 0.0, 0.0, 0.0, 0.0, 0.0, 0.0, 1.6625066790393913E9, 0.0, 2022-09-06 19:24:39.039
158.0, 8506.381035611754, -9152.458209092405, -852.5625887587773, 10846.027534726565, 29483.247337728422, 25532.509450019534, 6452.926272502694, 8251.794666265807, -12860.657317716756, 9469.763573379943, -14472.642776089047, 5692.609333110969, 18975.915786733127, 16621.226563599892, 16775.99004220844, -5748.80161867161, 0.202, 0.86, 0.292, 192.0, 0.0, 0.0, 0.0, 0.0, 0.0, 0.0, 0.0, 0.0, 0.0, 1.6625066790393984E9, 0.0, 2022-09-06 19:24:39.039
160.0, 8559.421725204198, -9114.61670572957, -828.4897599804116, 10879.242226987151, 29586.445341878578, 25477.300641214926, 6521.344962280388, 8273.878189787649, -12817.764320107022, 9527.967515941562, -14423.804214454201, 5737.178711554851, 19009.264589460443, 16640.985505698383, 16785.198960924026, -5725.287583504628, 0.2, 0.9580000000000001, 0.304, 192.0, 3.0, 32.0, 14.5, 120.0, 4.5, 64.0, 0.0, 0.0, 0.0, 1.6625066790394056E9, 0.0, 2022-09-06 19:24:39.039
162.0, 8522.675457319672, -9152.078229436664, -885.6208188081764, 10834.024647954066, 29631.10412730028, 25430.406681347693, 6473.489877401576, 8246.743172018907, -12872.123762622328, 9502.553582495879, -14459.164674182497, 5724.862900359977, 18901.21625676349, 16594.94091212045, 16704.50916344037, -5759.373993798971, 0.2, 0.9580000000000001, 0.304, 192.0, 0.0, 0.0, 0.0, 0.0, 0.0, 0.0, 0.0, 0.0, 0.0, 1.6625066790394132E9, 0.0, 2022-09-06 19:24:39.039
164.0, 8590.803574419448, -9072.12603952003, -817.8056261307748, 10882.77380261109, 29550.637847261176, 25525.87098191631, 6463.9233307747045, 8297.816908099283, -12806.186116479174, 9563.283272180948, -14400.267827542762, 5759.910435665898, 18983.314214147835, 16644.092398177672, 16794.5643418508, -5747.952252382309, 0.2, 0.9580000000000001, 0.304, 192.0, 0.0, 0.0, 0.0, 0.0, 0.0, 0.0, 0.0, 0.0, 0.0, 1.6625066790394225E9, 0.0, 2022-09-06 19:24:39.039
166.0, 8519.747378796028, -9124.56323201218, -889.1970979210256, 10814.086891899931, 29457.855756027195, 25471.13155974526, 6457.866008027317, 8272.44767814251, -12823.888698087776, 9537.042324190417, -14432.275525602761, 5745.337098281038, 18955.955678934537, 16595.94674062094, 16731.107739342184, -5792.655741292923, 0.2, 0.9580000000000001, 0.304, 192.0, 0.0, 0.0, 0.0, 0.0, 0.0, 0.0, 0.0, 0.0, 0.0, 1.6625066790394301E9, 0.0, 2022-09-06 19:24:39.039
168.0, 8564.204998517633, -9059.497303902783, -855.7588882158861, 10865.831180313968, 29533.315245308313, 25428.21621039107, 6464.549179619454, 8303.226030257467, -12789.221142437595, 9582.885752068252, -14407.174516579453, 5765.766592713188, 19009.130478993713, 16653.658944804545, 16736.896841156107, -5794.868563993999, 0.2, 0.9580000000000001, 0.304, 192.0, 0.0, 0.0, 0.0, 0.0, 0.0, 0.0, 0.0, 0.0, 0.0, 1.662506679039438E9, 0.0, 2022-09-06 19:24:39.039
170.0, 8474.418041040664, -9128.56419426968, -936.8063136108296, 10786.549542730992, 29444.623523309652, 25424.595227789312, 6460.727031317596, 8215.070750125737, -12787.902389514731, 9535.254184633994, -14439.361028595094, 5755.708307708301, 18982.487199602987, 16601.624083712588, 16705.02325356284, -5826.786855076177, 0.178, 0.9560000000000001, 0.296, 192.0, 2.5, 72.0, 14.5, 112.0, 4.5, 32.0, 0.0, 0.0, 0.0, 1.6625066790394452E9, 0.0, 2022-09-06 19:24:39.039
172.0, 8496.72508200706, -9091.37089149605, -918.9919732799499, 10842.853587013911, 29502.000451326425, 25383.132741824717, 6306.991732953994, 8265.54098910582, -12819.083073029886, 9519.786777470921, -14466.317232408195, 5744.621842458469, 18948.17727186409, 16579.451153212925, 16641.96898245442, -5842.053096539152, 0.178, 0.9560000000000001, 0.296, 192.0, 0.0, 0.0, 0.0, 0.0, 0.0, 0.0, 0.0, 0.0, 0.0, 1.662506679039454E9, 0.0, 2022-09-06 19:24:39.039
174.0, 8397.840964536783, -9181.671939095491, -978.0229303864159, 10774.658414680769, 29490.60106165422, 25386.798427915386, 6524.429503015221, 8190.416775991533, -12837.858538372344, 9467.327233234315, -14502.258837492329, 5754.747182696722, 18946.836167196772, 16580.211112524405, 16633.430616072492, -5825.15517773094, 0.178, 0.9560000000000001, 0.296, 192.0, 0.0, 0.0, 0.0, 0.0, 0.0, 0.0, 0.0, 0.0, 0.0, 1.6625066790394635E9, 0.0, 2022-09-06 19:24:39.039
176.0, 8456.983680365525, -9108.782900426735, -919.3496011912348, 10848.597985338925, 29510.60587294172, 25374.59437544279, 6370.425983718155, 8262.143523948613, -12839.40080873976, 9449.423485925614, -14520.140233056574, 5750.56740648358, 18898.73521312895, 16556.47355991287, 16621.405377555537, -5815.231003192783, 0.178, 0.9560000000000001, 0.296, 192.0, 0.0, 0.0, 0.0, 0.0, 0.0, 0.0, 0.0, 0.0, 0.0, 1.6625066790394735E9, 0.0, 2022-09-06 19:24:39.039
178.0, 8386.307464397843, -9174.832305292166, -945.1658660371145, 10804.207420850686, 29416.1921043625, 25372.023924830428, 6499.0826248029025, 8203.827822664716, -12824.671009143713, 9442.24857595546, -14497.676729878991, 5785.078499922574, 18935.436777524566, 16590.269397529293, 16639.309124864238, -5778.663549263901, 0.178, 0.9560000000000001, 0.296, 192.0, 0.0, 0.0, 0.0, 0.0, 0.0, 0.0, 0.0, 0.0, 0.0, 1.6625066790394824E9, 0.0, 2022-09-06 19:24:39.039
180.0, 8412.414301921643, -9135.627345517558, -929.0279065403828, 10867.619319870391, 29422.33883408771, 25305.52748507589, 6317.809977270363, 8237.042514925304, -12833.924631348209, 9442.516796888924, -14512.697102152957, 5771.645101504934, 18975.89343498867, 16571.739801375843, 16610.229505327883, -5766.1689241133845, 0.234, 0.988, 0.292, 192.0, 3.5, 40.0, 15.0, 112.0, 4.5, 16.0, 0.0, 0.0, 0.0, 1.662506679039492E9, 0.0, 2022-09-06 19:24:39.039
182.0, 8312.300838506322, -9220.139291303074, -978.0676338753265, 10789.321159043451, 29418.762554974863, 25294.8209994818, 6504.402339983266, 8176.245770006868, -12847.805064654955, 9392.80651722032, -14539.854471666154, 5760.782153699655, 18963.152940649146, 16531.394902634012, 16592.817496397198, -5746.968775626276, 0.234, 0.988, 0.292, 192.0, 0.0, 0.0, 0.0, 0.0, 0.0, 0.0, 0.0, 0.0, 0.0, 1.6625066790395005E9, 0.0, 2022-09-06 19:24:39.039
184.0, 8327.097693335736, -9184.264741452305, -998.0947969072815, 10799.647664981803, 29452.44663386901, 25246.608286691702, 6290.518497290433, 8200.43035750751, -12852.767151924034, 9372.712298955, -14583.149800676085, 5722.13598753643, 18945.629172996185, 16521.18015541794, 16537.27341142576, -5774.617883517491, 0.234, 0.988, 0.292, 192.0, 0.0, 0.0, 0.0, 0.0, 0.0, 0.0, 0.0, 0.0, 0.0, 1.662506679039508E9, 0.0, 2022-09-06 19:24:39.039
186.0, 8221.239831595401, -9259.076030144219, -1049.6379196212197, 10697.50019282105, 29421.78004047633, 25299.045479183853, 6486.14096476328, 8152.3294034396895, -12846.933346621197, 9365.313871540293, -14601.500582873892, 5707.98733329622, 18945.36095206272, 16491.050003892185, 16515.59221930411, -5783.759746999711, 0.234, 0.988, 0.292, 192.0, 0.0, 0.0, 0.0, 0.0, 0.0, 0.0, 0.0, 0.0, 0.0, 1.6625066790395155E9, 0.0, 2022-09-06 19:24:39.039
188.0, 8232.996849178893, -9216.920640101509, -1028.4931693664992, 10699.467146333116, 29380.42931323401, 25306.91329323212, 6265.596302222765, 8186.996959089871, -12882.293806349493, 9330.84748159021, -14654.787141655344, 5638.0934283844745, 18928.664198954608, 16414.182354710385, 16453.87905286301, -5853.251320511261, 0.234, 0.988, 0.292, 192.0, 0.0, 0.0, 0.0, 0.0, 0.0, 0.0, 0.0, 0.0, 0.0, 1.662506679039523E9, 0.0, 2022-09-06 19:24:39.039
190.0, 8163.169999500514, -9273.31409136225, -1042.3288991843342, 10647.700506174626, 29371.130987540604, 25306.10863043173, 6500.043749814481, 8163.885255323084, -12828.694323145668, 9397.410976578114, -14604.361606164171, 5684.473298129237, 18986.734031049495, 16446.234756259295, 16519.70494028389, -5826.742151587267, 0.178, 0.922, 0.28800000000000003, 192.0, 2.5, 72.0, 14.0, 104.0, 4.5, 0.0, 0.0, 0.0, 0.0, 1.66250667903953E9, 0.0, 2022-09-06 19:24:39.039
192.0, 8118.801786756729, -9284.624074056635, -1091.212164308091, 10609.76959583397, 29376.227185276413, 25269.027086380374, 6275.833401183296, 8151.6812028504855, -12906.41133861677, 9330.892185079121, -14681.139848368151, 5614.266468795117, 18895.851838094215, 16344.646077709924, 16416.663398344925, -5918.831338743132, 0.178, 0.922, 0.28800000000000003, 192.0, 0.0, 0.0, 0.0, 0.0, 0.0, 0.0, 0.0, 0.0, 0.0, 1.6625066790395372E9, 0.0, 2022-09-06 19:24:39.039
194.0, 8067.325719276157, -9307.042873745308, -1085.6465799387192, 10592.514049114472, 29321.420707872, 25221.41787069057, 6467.656072098741, 8110.84456573064, -12876.460001046658, 9362.452848250014, -14655.815321900287, 5632.97487890421, 18923.92562913008, 16401.754784793233, 16441.38442771249, -5898.155975121972, 0.178, 0.922, 0.28800000000000003, 192.0, 0.0, 0.0, 0.0, 0.0, 0.0, 0.0, 0.0, 0.0, 0.0, 1.6625066790395448E9, 0.0, 2022-09-06 19:24:39.039
196.0, 8049.9584138343835, -9304.964161510965, -1111.2840308289565, 10594.52570611545, 29308.14377166555, 25164.040942673797, 6260.5895114647765, 8113.303257620723, -12923.577478358446, 9302.952504509987, -14714.734520284477, 5586.036215548064, 18887.96167230149, 16332.777301404156, 16366.8637116985, -5949.900263536008, 0.178, 0.922, 0.28800000000000003, 192.0, 0.0, 0.0, 0.0, 0.0, 0.0, 0.0, 0.0, 0.0, 0.0, 1.6625066790395536E9, 0.0, 2022-09-06 19:24:39.039
198.0, 8007.892430769495, -9333.552042669302, -1118.727161732574, 10573.559769816371, 29313.016451956806, 25242.85319362321, 6441.213958408112, 8113.0573884317155, -12884.752498239577, 9341.889243351132, -14678.658804733612, 5633.623079493414, 18914.13556505866, 16355.75489470421, 16390.221284654293, -5897.239553599305, 0.178, 0.922, 0.28800000000000003, 192.0, 0.0, 0.0, 0.0, 0.0, 0.0, 0.0, 0.0, 0.0, 0.0, 1.662506679039561E9, 0.0, 2022-09-06 19:24:39.039
200.0, 7993.162631173448, -9334.714333380978, -1167.5210198785092, 10558.181769631121, 29234.606532407586, 25174.702724778977, 6255.493313728966, 8092.3373213216455, -12960.927243343263, 9229.348210018661, -14758.365125461236, 5577.251979977129, 18836.709122265474, 16270.259472162661, 16339.527528229659, -5947.598033857112, 0.194, 0.886, 0.294, 192.0, 3.0, 8.0, 13.5, 88.0, 4.5, 24.0, 0.0, 0.0, 0.0, 1.6625066790395684E9, 0.0, 2022-09-06 19:24:39.039
202.0, 7954.918796410418, -9355.792028402333, -1175.9252757937045, 10545.240109591497, 29285.50145453232, 25225.642350392623, 6400.377321288267, 8097.075891146171, -12894.40845184427, 9281.606588555169, -14723.205831433039, 5636.819378950522, 18874.528273883854, 16351.552766746614, 16347.261231811195, -5901.575792023635, 0.194, 0.886, 0.294, 192.0, 0.0, 0.0, 0.0, 0.0, 0.0, 0.0, 0.0, 0.0, 0.0, 1.6625066790395756E9, 0.0, 2022-09-06 19:24:39.039
204.0, 7911.556412167122, -9384.603427005224, -1226.037886862503, 10500.648379403161, 29237.579314420145, 25147.03126514331, 6241.322307744302, 8054.048783069705, -12977.288720284549, 9175.14522971454, -14817.664303501166, 5559.169418712785, 18783.668432673032, 16247.907727707354, 16273.969861742242, -5983.338473241148, 0.194, 0.886, 0.294, 192.0, 0.0, 0.0, 0.0, 0.0, 0.0, 0.0, 0.0, 0.0, 0.0, 1.662506679039583E9, 0.0, 2022-09-06 19:24:39.039
206.0, 7897.1618887379045, -9383.932874671564, -1201.80859587295, 10495.775699111904, 29238.942770831916, 25209.303225195796, 6360.54651266891, 8058.876759872051, -12931.869975551364, 9225.548413461258, -14794.194971823094, 5586.393843459349, 18844.35341886919, 16292.36534742896, 16269.45480936227, -5970.888551579542, 0.194, 0.886, 0.294, 192.0, 0.0, 0.0, 0.0, 0.0, 0.0, 0.0, 0.0, 0.0, 0.0, 1.6625066790395901E9, 0.0, 2022-09-06 19:24:39.039
208.0, 7845.439952068324, -9420.34386638926, -1244.8580556938716, 10449.0158497114, 29208.276177439235, 25116.096450817164, 6258.443743997067, 8016.922535529439, -13013.878525957887, 9160.057802207208, -14865.474684891069, 5516.298772847506, 18790.15043856507, 16214.06718660202, 16204.053605086043, -6033.585194776678, 0.194, 0.886, 0.294, 192.0, 0.0, 0.0, 0.0, 0.0, 0.0, 0.0, 0.0, 0.0, 0.0, 1.6625066790395975E9, 0.0, 2022-09-06 19:24:39.039
210.0, 7844.903510201396, -9413.079549441285, -1217.81244490295, 10460.191721939054, 29265.049608355715, 25172.35579161117, 6336.764256568463, 8026.913765300962, -12976.104077828417, 9213.031436566287, -14839.881937489741, 5530.04509568752, 18809.10471786317, 16248.667687018835, 16212.793137168068, -6013.110996855617, 0.185, 0.885, 0.28800000000000003, 192.0, 2.5, 64.0, 13.5, 80.0, 4.0, 104.0, 0.0, 0.0, 0.0, 1.662506679039605E9, 0.0, 2022-09-06 19:24:39.039
212.0, 7773.914369811341, -9479.374823495726, -1260.4148698347653, 10390.051947838301, 29159.325857082113, 25128.054634100754, 6250.218302037514, 7976.599988532065, -13063.566453882035, 9120.495214521316, -14910.312284268413, 5447.522455158527, 18720.636513309066, 16144.374447390372, 16166.815598823501, -6070.733794061398, 0.185, 0.885, 0.28800000000000003, 192.0, 0.0, 0.0, 0.0, 0.0, 0.0, 0.0, 0.0, 0.0, 0.0, 1.662506679039612E9, 0.0, 2022-09-06 19:24:39.039
214.0, 7772.640320377389, -9459.213549997039, -1253.6422912648072, 10399.77495667636, 29198.039078478705, 25173.898061978587, 6251.559406704832, 8016.408445406967, -13035.559718079534, 9145.596223544624, -14907.80888888942, 5438.112370742842, 18743.547051375754, 16123.363807602384, 16149.358886403907, -6069.549151605267, 0.185, 0.885, 0.28800000000000003, 192.0, 0.0, 0.0, 0.0, 0.0, 0.0, 0.0, 0.0, 0.0, 0.0, 1.6625066790396194E9, 0.0, 2022-09-06 19:24:39.039
216.0, 7680.6628919438, -9528.07927466384, -1322.5750711649741, 10336.072484978735, 29136.817650415618, 25043.073301681674, 6194.182478688059, 7919.223060515293, -13081.581959913012, 9101.026845100743, -14968.091543685383, 5399.108576668332, 18711.449946337932, 16074.078211078431, 16102.889609681322, -6103.479099688423, 0.185, 0.885, 0.28800000000000003, 192.0, 0.0, 0.0, 0.0, 0.0, 0.0, 0.0, 0.0, 0.0, 0.0, 1.6625066790396266E9, 0.0, 2022-09-06 19:24:39.039
218.0, 7671.163400550295, -9518.915059437164, -1310.1251495033682, 10346.354287428176, 29123.831286887085, 25028.075281152163, 6114.319695749247, 7929.124883308993, -13098.301064765581, 9100.691568933913, -14993.371366664334, 5383.127079382787, 18652.106064809093, 16075.687536679214, 16061.002440572078, -6134.21274831447, 0.185, 0.885, 0.28800000000000003, 192.0, 0.0, 0.0, 0.0, 0.0, 0.0, 0.0, 0.0, 0.0, 0.0, 1.662506679039634E9, 0.0, 2022-09-06 19:24:39.039
220.0, 7566.624291732824, -9610.668970426199, -1387.8868684633815, 10267.095001589656, 29009.390355275915, 24962.47291117584, 6136.313812293269, 7845.015268923673, -13152.593452047522, 9026.193204664374, -15034.677390417743, 5353.734535424058, 18610.665930588955, 16020.478727874606, 16030.805233812956, -6172.590693544233, 0.1855, 0.8865000000000001, 0.276, 192.0, 2.5, 104.0, 13.5, 96.0, 4.0, 32.0, 0.0, 0.0, 0.0, 1.6625066790396411E9, 0.0, 2022-09-06 19:24:39.039
222.0, 7550.866311891832, -9615.564002461912, -1423.7167148252386, 10275.901588905048, 29033.150259631904, 24955.990905283797, 6018.386008547069, 7846.177559635349, -13184.17646696287, 8981.579122731582, -15082.577178785466, 5322.24092748653, 18591.979872224318, 15975.752887219536, 15948.036724094954, -6212.265039952403, 0.1855, 0.8865000000000001, 0.276, 192.0, 0.0, 0.0, 0.0, 0.0, 0.0, 0.0, 0.0, 0.0, 0.0, 1.6625066790396485E9, 0.0, 2022-09-06 19:24:39.039
224.0, 7443.242662339529, -9724.081721792427, -1524.478378829763, 10187.567494817675, 28911.91439770632, 24904.93952094788, 6058.686203799988, 7753.529578868101, -13259.211273099336, 8889.71345302027, -15137.920098056806, 5275.391671108207, 18532.5242319732, 15916.319598712875, 15910.664607365681, -6245.546787446355, 0.1855, 0.8865000000000001, 0.276, 192.0, 0.0, 0.0, 0.0, 0.0, 0.0, 0.0, 0.0, 0.0, 0.0, 1.6625066790396557E9, 0.0, 2022-09-06 19:24:39.039
226.0, 7423.3496097743055, -9731.055466062482, -1599.759054155237, 10178.671500524462, 28881.694839202744, 24886.78990445017, 5844.914119829431, 7725.791063999065, -13296.382224128512, 8839.869062884934, -15200.01324415365, 5225.860205395246, 18458.78582701514, 15886.837647776325, 15810.774661394915, -6299.794471239385, 0.1855, 0.8865000000000001, 0.276, 192.0, 0.0, 0.0, 0.0, 0.0, 0.0, 0.0, 0.0, 0.0, 0.0, 1.662506679039663E9, 0.0, 2022-09-06 19:24:39.039
228.0, 7317.02236140041, -9827.592650364953, -1692.1164622445658, 10100.663912375441, 28828.341225187927, 24803.842580776523, 5942.993574499318, 7648.297565972515, -13378.055498368205, 8760.498018324139, -15274.846884590017, 5184.732995597482, 18386.969672080242, 15834.042827372888, 15734.890488969148, -6344.341497938812, 0.1855, 0.8865000000000001, 0.276, 192.0, 0.0, 0.0, 0.0, 0.0, 0.0, 0.0, 0.0, 0.0, 0.0, 1.662506679039672E9, 0.0, 2022-09-06 19:24:39.039
230.0, 7316.195346855563, -9819.456615383222, -1704.3205147171636, 10108.24115374579, 28744.36572126934, 24757.842690687503, 5724.147644537407, 7642.553167647501, -13424.055388457225, 8699.522459450061, -15335.353056830534, 5141.191797398544, 18351.273936185116, 15775.861236555726, 15676.53008419634, -6405.607629490809, 0.22375, 0.88425, 0.257, 192.0, 4.0, 24.0, 13.5, 72.0, 3.5, 56.0, 0.0, 0.0, 0.0, 1.6625066790396793E9, 0.0, 2022-09-06 19:24:39.039
232.0, 7196.23353436393, -9940.759532542173, -1788.9889227138667, 9998.047053581126, 28675.835272769367, 24699.03525102559, 5833.022991779208, 7536.181215784695, -13478.794810628273, 8641.94436573319, -15388.840781312083, 5113.319172062776, 18361.421628167824, 15742.087750683755, 15625.255182415865, -6427.959373946116, 0.22375, 0.88425, 0.257, 192.0, 0.0, 0.0, 0.0, 0.0, 0.0, 0.0, 0.0, 0.0, 0.0, 1.6625066790396867E9, 0.0, 2022-09-06 19:24:39.039
234.0, 7173.188885830508, -9948.672050079353, -1834.5417779137824, 9973.862466080484, 28643.984036920552, 24596.1054678089, 5595.289837752562, 7503.7711863245, -13582.01516652288, 8540.445094161641, -15510.836602549149, 5009.249449878866, 18257.17309202827, 15632.117167963645, 15487.121401682069, -6528.922203650738, 0.22375, 0.88425, 0.257, 192.0, 0.0, 0.0, 0.0, 0.0, 0.0, 0.0, 0.0, 0.0, 0.0, 1.6625066790396938E9, 0.0, 2022-09-06 19:24:39.039
236.0, 7028.617802693582, -10080.390880154477, -1930.4754651159603, 9839.237909226169, 28531.264189632442, 24508.330167332908, 5848.602157664556, 7403.411853720171, -13622.874155387182, 8506.87277398977, -15557.372934505098, 4973.9113418950255, 18230.060426003984, 15600.981187937403, 15460.969860669358, -6540.902738678782, 0.22375, 0.88425, 0.257, 192.0, 0.0, 0.0, 0.0, 0.0, 0.0, 0.0, 0.0, 0.0, 0.0, 1.662506679039701E9, 0.0, 2022-09-06 19:24:39.039
238.0, 6919.653048473961, -10168.501456797298, -2040.9824897029985, 9738.342134754914, 28409.894217240122, 24285.460923369043, 5560.376412913372, 7276.185724280564, -13780.521009030463, 8351.259929091922, -15735.87396572518, 4801.847613078072, 18061.818845488888, 15429.342142265099, 15294.31525401059, -6712.407673884353, 0.22375, 0.88425, 0.257, 192.0, 0.0, 0.0, 0.0, 0.0, 0.0, 0.0, 0.0, 0.0, 0.0, 1.6625066790397084E9, 0.0, 2022-09-06 19:24:39.039
240.0, 6746.427028945331, -10326.684752307505, -2163.2018283846173, 9580.114135755794, 28283.07041920071, 24208.772088142883, 5636.841730694978, 7147.484379706905, -13863.55773968193, 8287.088070760736, -15823.93983887909, 4716.55335623662, 17997.51287669097, 15371.4287723814, 15206.62936051242, -6795.846735936015, 0.244875, 0.888125, 0.2515, 192.0, 4.0, 40.0, 13.5, 112.0, 3.5, 88.0, 0.0, 0.0, 0.0, 1.6625066790397155E9, 0.0, 2022-09-06 19:24:39.039
242.0, 6643.810170151016, -10406.614590479683, -2272.8371349378986, 9478.748974650976, 28186.220310475866, 24137.045340185803, 5339.988212584044, 7068.649777013037, -14048.585480282962, 8130.849377018139, -15994.438945584172, 4547.037726287571, 17854.77463659938, 15182.087145100493, 15041.338210265425, -6968.916293253457, 0.244875, 0.888125, 0.2515, 192.0, 0.0, 0.0, 0.0, 0.0, 0.0, 0.0, 0.0, 0.0, 0.0, 1.662506679518985E9, 0.0, 2022-09-06 19:24:39.518
244.0, 6537.348811310389, -10493.36171071073, -2328.627089098345, 9396.986293433463, 28164.069731720658, 24223.680701694575, 5437.799446320468, 7022.538128201739, -14104.956579799245, 8103.289676104746, -16047.323172965429, 4508.078635701971, 17783.249054342396, 15123.883202538873, 14989.772735807031, -7016.458453709895, 0.244875, 0.888125, 0.2515, 192.0, 0.0, 0.0, 0.0, 0.0, 0.0, 0.0, 0.0, 0.0, 0.0, 1.6625066795192297E9, 0.0, 2022-09-06 19:24:39.519
246.0, 6611.668361624284, -10402.2560003109, -2250.127762571307, 9487.510858477457, 28158.70531305138, 24176.160892982592, 5289.920305004157, 7075.2658933718085, -14168.793161963602, 8042.939966075417, -16095.334720055429, 4465.2303415811475, 17717.378463432608, 15058.481998262645, 14944.041066651473, -7059.977300164378, 0.244875, 0.888125, 0.2515, 192.0, 0.0, 0.0, 0.0, 0.0, 0.0, 0.0, 0.0, 0.0, 0.0, 1.6625066795192378E9, 0.0, 2022-09-06 19:24:39.519
248.0, 6771.460982735274, -10227.599469137129, -2035.483960566993, 9660.043973927972, 28329.718509878938, 24367.290659819922, 5572.24518921914, 7249.0730582562755, -13990.739165632625, 8240.3952765936, -15899.466383393574, 4657.745916574707, 17940.06889344083, 15236.848919015994, 15129.538193886066, -6890.171097537411, 0.244875, 0.888125, 0.2515, 192.0, 0.0, 0.0, 0.0, 0.0, 0.0, 0.0, 0.0, 0.0, 0.0, 1.662506679519246E9, 0.0, 2022-09-06 19:24:39.519
250.0, 6967.105801952577, -10012.21805956579, -1847.5728449312264, 9852.51484543262, 28523.083451161798, 24527.172687908733, 5585.723291125691, 7450.9987176655195, -13850.683134875671, 8414.76123508945, -15732.96823894599, 4820.801892376172, 18074.38052587277, 15398.228513983311, 15274.869236334473, -6738.894491063892, 0.2224375, 0.9040625, 0.24975, 192.0, 3.0, 32.0, 14.0, 96.0, 3.5, 96.0, 0.0, 0.0, 0.0, 1.662506679519254E9, 0.0, 2022-09-06 19:24:39.519
252.0, 7172.183057330019, -9782.106850398404, -1582.3023417356424, 10069.974967238304, 28815.868951781864, 24794.030164960644, 5923.41344635647, 7703.774595710587, -13587.200771236512, 8681.819877841459, -15485.48972433683, 5057.99860453589, 18331.827918509, 15631.603077841173, 15497.269093664778, -6498.724996891618, 0.2224375, 0.9040625, 0.24975, 192.0, 0.0, 0.0, 0.0, 0.0, 0.0, 0.0, 0.0, 0.0, 0.0, 1.6625066795192623E9, 0.0, 2022-09-06 19:24:39.519
254.0, 7389.374958202238, -9533.734266011032, -1332.029859069569, 10285.378728554098, 28974.611040903455, 25061.11115945711, 6014.072121867195, 7936.1433310679595, -13391.824172952674, 8907.036054973132, -15299.143230812935, 5252.928167930623, 18553.28900257218, 15803.689158402582, 15728.92257319958, -6311.1268056782255, 0.2224375, 0.9040625, 0.24975, 192.0, 0.0, 0.0, 0.0, 0.0, 0.0, 0.0, 0.0, 0.0, 0.0, 1.662506679519271E9, 0.0, 2022-09-06 19:24:39.519
0.0, 7595.88272522482, -9301.499641120392, -1063.9430360726162, 10522.50838548045, 29252.42087273847, 25171.394666599594, 6306.969381209538, 8163.415868689522, -13102.25732353417, 9243.407457281048, -15054.682201705242, 5525.351229351906, 18813.217438842945, 16086.237560062118, 16018.489422618082, -6067.224570181915, 0.2224375, 0.9040625, 0.24975, 192.0, 0.0, 0.0, 0.0, 0.0, 0.0, 0.0, 0.0, 0.0, 0.0, 1.6625066795192788E9, 0.0, 2022-09-06 19:24:39.519
2.0, 7715.442206316257, -9160.661299307501, -922.27767971488, 10636.34581999133, 29387.24659529288, 25335.858802301744, 6402.165460844692, 8319.140472309646, -12963.296528255527, 9409.391511606158, -14947.706752742142, 5681.008777738664, 19008.683444104605, 16252.534538809603, 16182.752392620134, -5948.536807124235, 0.2224375, 0.9040625, 0.24975, 192.0, 0.0, 0.0, 0.0, 0.0, 0.0, 0.0, 0.0, 0.0, 0.0, 1.6625066795192869E9, 0.0, 2022-09-06 19:24:39.519
4.0, 7884.667263587387, -8992.151497858942, -732.7795902227867, 10799.42414753725, 29579.650411564162, 25551.95546769565, 6578.386614130332, 8502.469480332074, -12753.950089687121, 9635.501758516046, -14760.7344103735, 5872.227951553817, 19190.291367803977, 16425.15706123794, 16336.890022383932, -5770.326348582072, 0.16021875000000002, 0.8960312500000001, 0.232875, 192.0, 1.5, 8.0, 13.5, 96.0, 3.0, 96.0, 0.0, 0.0, 0.0, 1.6625066795192997E9, 0.0, 2022-09-06 19:24:39.519
6.0, 7922.1734907833925, -8972.012576104711, -735.0147646683174, 10844.373505636871, 29564.27241137891, 25554.034179929993, 6607.756806344606, 8541.137998239756, -12677.998862027987, 9654.076058158405, -14654.965955610985, 5992.033301834262, 19285.10746778339, 16510.965408201864, 16444.088988791584, -5676.001986980676, 0.16021875000000002, 0.8960312500000001, 0.232875, 192.0, 0.0, 0.0, 0.0, 0.0, 0.0, 0.0, 0.0, 0.0, 0.0, 1.6625066795193079E9, 0.0, 2022-09-06 19:24:39.519
8.0, 7984.490154324789, -8915.306200421595, -741.2956048602588, 10932.037047390586, 29608.886493311704, 25633.248762279603, 6608.427358678265, 8604.996932148568, -12593.15164007564, 9688.855372530863, -14583.328614631728, 6086.625884369121, 19310.789622162538, 16608.32960704918, 16456.985945342298, -5618.982686875187, 0.16021875000000002, 0.8960312500000001, 0.232875, 192.0, 0.0, 0.0, 0.0, 0.0, 0.0, 0.0, 0.0, 0.0, 0.0, 1.662506679519316E9, 0.0, 2022-09-06 19:24:39.519
10.0, 7935.070447334105, -8967.855151636024, -842.4372485205232, 10908.791233157068, 29590.915690769638, 25586.287747179, 6587.72964331265, 8555.130190268777, -12619.88432644419, 9596.989702819552, -14627.987400053431, 6098.829936841719, 19282.022927048558, 16639.756159753342, 16429.269782217718, -5600.29662851055, 0.16021875000000002, 0.8960312500000001, 0.232875, 192.0, 0.0, 0.0, 0.0, 0.0, 0.0, 0.0, 0.0, 0.0, 0.0, 1.6625066795193243E9, 0.0, 2022-09-06 19:24:39.519
12.0, 7967.592235516577, -8952.320689239585, -830.1661408145596, 10945.582204530503, 29566.217013146525, 25592.25566294857, 6436.296574627945, 8573.950359100147, -12622.611239267737, 9549.268728407471, -14665.337165038249, 6101.6909601319985, 19288.504932940596, 16668.455799633957, 16391.942368977354, -5586.326788225983, 0.16021875000000002, 0.8960312500000001, 0.232875, 192.0, 0.0, 0.0, 0.0, 0.0, 0.0, 0.0, 0.0, 0.0, 0.0, 1.6625066795193326E9, 0.0, 2022-09-06 19:24:39.519
14.0, 7855.811161495586, -9081.580827424625, -925.9657175500057, 10832.705895031202, 29510.22589328598, 25588.813494302452, 6402.344274800334, 8458.369488521754, -12696.41669945916, 9426.334133903281, -14736.505119383946, 6068.6327300826, 19253.18917670121, 16606.60852272612, 16334.498385727215, -5591.490041195159, 0.16021875000000002, 0.8960312500000001, 0.232875, 192.0, 0.0, 0.0, 0.0, 0.0, 0.0, 0.0, 0.0, 0.0, 0.0, 1.6625066795193405E9, 0.0, 2022-09-06 19:24:39.519
16.0, 7847.36220209148, -9103.150260823997, -940.114371790215, 10815.271534356063, 29516.864361389205, 25614.227427748137, 6209.091092239749, 8434.743694632494, -12768.590482305346, 9300.94084750901, -14826.336780349826, 5980.522153439779, 19202.920103421224, 16489.194809102395, 16229.489890276182, -5634.897128927366, 0.302, 0.866, 0.164, 192.0, 4.5, 56.0, 13.5, 8.0, 2.5, 16.0, 0.0, 0.0, 0.0, 1.6625066795193489E9, 0.0, 2022-09-06 19:24:39.519
18.0, 7773.288520966593, -9183.840058307655, -1012.2210994030356, 10748.46217017915, 29536.444489532056, 25588.522921624535, 6331.042209987904, 8335.434894017566, -12825.92270683321, 9205.96828531841, -14876.22587397407, 5936.355106396092, 19197.242760329576, 16472.855683905564, 16210.937942378278, -5594.552230185536, 0.302, 0.866, 0.164, 192.0, 0.0, 0.0, 0.0, 0.0, 0.0, 0.0, 0.0, 0.0, 0.0, 1.6625066795193567E9, 0.0, 2022-09-06 19:24:39.519
20.0, 7761.307985938548, -9217.948820346453, -1068.6369024082308, 10722.511794866537, 29483.02382028387, 25474.84194932484, 6077.036985997795, 8239.076523670736, -12901.940989725708, 9130.017057659275, -14964.24704363907, 5835.906366813942, 19094.73766025754, 16413.53415412118, 16127.118900670876, -5640.775637719112, 0.302, 0.866, 0.164, 192.0, 0.0, 0.0, 0.0, 0.0, 0.0, 0.0, 0.0, 0.0, 0.0, 1.6625066795193648E9, 0.0, 2022-09-06 19:24:39.519
22.0, 7694.923304906286, -9291.955446237975, -1115.5085105310095, 10647.34287826334, 29410.470057781942, 25542.254810602048, 6227.1289500151815, 8198.955142373461, -12939.89425181082, 9095.70712992038, -14997.528791133022, 5782.95508419932, 19148.560660905918, 16349.71992370128, 16133.332685629452, -5663.619120552436, 0.302, 0.866, 0.164, 192.0, 0.0, 0.0, 0.0, 0.0, 0.0, 0.0, 0.0, 0.0, 0.0, 1.6625066795193727E9, 0.0, 2022-09-06 19:24:39.519
24.0, 7720.29253486306, -9270.050736671774, -1110.434664539655, 10653.958994622111, 29423.88110445513, 25489.415286709704, 6037.541453545267, 8212.545003002288, -13000.556886262524, 9061.821885326133, -15046.076780089948, 5710.378969952938, 19086.57927353135, 16284.7434025697, 16065.629251674325, -5704.120481505452, 0.302, 0.866, 0.164, 192.0, 0.0, 0.0, 0.0, 0.0, 0.0, 0.0, 0.0, 0.0, 0.0, 1.6625066795193813E9, 0.0, 2022-09-06 19:24:39.519
26.0, 7638.574557134457, -9352.841598134231, -1157.686252318174, 10544.234281091009, 29367.465301449934, 25496.94782459114, 6118.678285918032, 8120.500519335333, -13032.743398278166, 9061.039574270199, -15055.643326716821, 5675.152620691374, 19062.90877615318, 16233.26733508913, 16035.968486782132, -5721.197214269307, 0.354, 0.926, 0.16, 192.0, 5.5, 8.0, 14.0, 120.0, 2.5, 0.0, 0.0, 0.0, 0.0, 1.6625066795193892E9, 0.0, 2022-09-06 19:24:39.519
28.0, 7623.93416451623, -9362.721069183477, -1169.1526972237466, 10511.868955119724, 29291.871701702083, 25406.08798338032, 5937.785618041232, 8075.662919957987, -13120.809271432076, 8989.44693677985, -15136.80251083404, 5565.025575760076, 18981.391964124676, 16122.067406423976, 15941.174738547175, -5827.189186476372, 0.354, 0.926, 0.16, 192.0, 0.0, 0.0, 0.0, 0.0, 0.0, 0.0, 0.0, 0.0, 0.0, 1.6625066795193973E9, 0.0, 2022-09-06 19:24:39.519
30.0, 7565.864332421343, -9401.076662668786, -1154.2217319276015, 10446.378343865676, 29309.306062377225, 25412.994672417008, 6186.180554173059, 8026.869061812051, -13117.143585341406, 9002.16507937492, -15128.13003398538, 5553.939110510244, 18965.589280794775, 16114.110185397887, 15973.003622651533, -5827.05507600964, 0.354, 0.926, 0.16, 192.0, 0.0, 0.0, 0.0, 0.0, 0.0, 0.0, 0.0, 0.0, 0.0, 1.6625066795194054E9, 0.0, 2022-09-06 19:24:39.519
32.0, 7577.576646515924, -9355.926138869065, -1150.7795632814841, 10453.0168119689, 29298.04078317175, 25337.915162791633, 6033.652250010044, 8032.747570603797, -13164.17165567537, 8977.466401751804, -15160.405952978845, 5512.990714668121, 18903.339672486745, 16055.45920794716, 15917.727758613559, -5900.033521656218, 0.354, 0.926, 0.16, 192.0, 0.0, 0.0, 0.0, 0.0, 0.0, 0.0, 0.0, 0.0, 0.0, 1.6625066795194137E9, 0.0, 2022-09-06 19:24:39.519
34.0, 7552.20741655915, -9350.919348111076, -1110.7922924509398, 10432.788483236847, 29263.46263449939, 25471.22096672308, 6193.713092054498, 8055.523998203755, -13108.6946259373, 9053.507036388759, -15090.042661433537, 5575.5755991429805, 18969.880815730194, 16098.821592190456, 15988.135753647775, -5889.014111639752, 0.354, 0.926, 0.16, 192.0, 0.0, 0.0, 0.0, 0.0, 0.0, 0.0, 0.0, 0.0, 0.0, 1.6625066795194228E9, 0.0, 2022-09-06 19:24:39.519
36.0, 7571.496972024081, -9305.612362100168, -1102.2539260690126, 10456.458980615018, 29265.36253277809, 25463.911946286196, 6100.483965931412, 8098.1487748800255, -13129.794672703109, 9074.428269198927, -15086.756954998607, 5578.347215455439, 18965.23165288349, 16128.437653593739, 15983.531294289984, -5937.003306985296, 0.264, 0.92, 0.16, 192.0, 4.0, 32.0, 14.0, 96.0, 2.5, 0.0, 0.0, 0.0, 0.0, 1.6625066795194333E9, 0.0, 2022-09-06 19:24:39.519
38.0, 7563.897378909276, -9301.477289375936, -1059.919722070661, 10447.741800277448, 29333.46829813341, 25565.746494024577, 6292.664264758142, 8123.98739147036, -13066.136904494395, 9171.278377923772, -15024.753215879586, 5646.631794766402, 19015.701891863573, 16157.740790574646, 16008.431137613195, -5922.877004489542, 0.264, 0.92, 0.16, 192.0, 0.0, 0.0, 0.0, 0.0, 0.0, 0.0, 0.0, 0.0, 0.0, 1.6625066795194414E9, 0.0, 2022-09-06 19:24:39.519
40.0, 7591.859411222865, -9265.379222080615, -1043.4911898960102, 10482.051728016344, 29334.22825744489, 25523.61345572632, 6182.492516337934, 8151.971775528405, -13092.377852484924, 9155.542749827237, -15023.792090868008, 5634.897128927366, 18957.45324581304, 16085.879932150834, 16006.30772188994, -5978.398737716525, 0.264, 0.92, 0.16, 192.0, 0.0, 0.0, 0.0, 0.0, 0.0, 0.0, 0.0, 0.0, 0.0, 1.6625066795194497E9, 0.0, 2022-09-06 19:24:39.519
42.0, 7573.218056347139, -9277.158591408563, -1026.5262158544322, 10485.717414107015, 29371.37685672961, 25520.126583591293, 6318.257012159469, 8153.491694151366, -13028.317752876015, 9220.452215725449, -14936.19560434766, 5697.750234335689, 19000.972092267526, 16188.921474089799, 16057.51556843705, -5941.138379709528, 0.264, 0.92, 0.16, 192.0, 0.0, 0.0, 0.0, 0.0, 0.0, 0.0, 0.0, 0.0, 0.0, 1.6625066795194576E9, 0.0, 2022-09-06 19:24:39.519
44.0, 7618.7485598026, -9222.530927959791, -1015.1491779266809, 10534.690086208593, 29334.116498722615, 25509.978891608585, 6197.155260700615, 8158.163208742525, -13038.331334391993, 9195.038282279764, -14913.396825003247, 5703.382873938426, 19019.367577954243, 16163.172264477285, 16071.172484299243, -5961.992557286329, 0.264, 0.92, 0.16, 192.0, 0.0, 0.0, 0.0, 0.0, 0.0, 0.0, 0.0, 0.0, 0.0, 1.6625066795194657E9, 0.0, 2022-09-06 19:24:39.519
46.0, 7618.212117935672, -9208.404625464038, -994.1608898831475, 10558.114714397754, 29370.594545673677, 25582.06326747695, 6333.478550133533, 8214.24373558089, -12967.521007957579, 9258.49488478838, -14830.628315285245, 5768.985243914753, 19070.128389612244, 16236.597745012969, 16107.292903339017, -5904.034483913718, 0.228, 0.93, 0.16, 192.0, 3.5, 16.0, 14.5, 8.0, 2.5, 0.0, 0.0, 0.0, 0.0, 1.662506679519474E9, 0.0, 2022-09-06 19:24:39.519
48.0, 7608.98084747563, -9199.039244537264, -1018.434884361611, 10572.017499448955, 29390.264080794346, 25603.453886920677, 6294.050072914371, 8247.704297030485, -12997.092365871951, 9202.883744583576, -14836.596231054811, 5759.99984264372, 19035.661999662163, 16199.225628283695, 16101.459098036183, -5888.030634883718, 0.228, 0.93, 0.16, 192.0, 0.0, 0.0, 0.0, 0.0, 0.0, 0.0, 0.0, 0.0, 0.0, 1.662506679519482E9, 0.0, 2022-09-06 19:24:39.519
50.0, 7617.854490024387, -9175.659319837014, -984.4825845339996, 10594.101022970799, 29395.695554696984, 25642.63649495083, 6351.941091053616, 8224.682000241519, -12922.929277769243, 9264.015765668843, -14749.670296868122, 5807.854927522532, 19114.988340734046, 16236.754207224156, 16134.00323796311, -5825.848081809054, 0.228, 0.93, 0.16, 192.0, 0.0, 0.0, 0.0, 0.0, 0.0, 0.0, 0.0, 0.0, 0.0, 1.6625066795194902E9, 0.0, 2022-09-06 19:24:39.519
52.0, 7559.158809084751, -9215.132500545085, -1040.8089805613733, 10553.912586440158, 29347.035807017783, 25559.35389511036, 6294.653570014664, 8253.471047099954, -12963.207121277705, 9170.272549423284, -14774.59249193579, 5748.242825060228, 19083.025346162958, 16192.520104947103, 16096.13938285582, -5854.190093778383, 0.228, 0.93, 0.16, 192.0, 0.0, 0.0, 0.0, 0.0, 0.0, 0.0, 0.0, 0.0, 0.0, 1.6625066795194988E9, 0.0, 2022-09-06 19:24:39.519
54.0, 7595.770966502544, -9150.424200346972, -977.3970815416673, 10612.898840057713, 29401.886987911104, 25599.02824151853, 6395.415234019189, 8344.621460988696, -12908.825327017943, 9212.427939465993, -14714.421595862103, 5769.901665437421, 19118.676378569173, 16249.7852742416, 16125.643685536825, -5793.10277618203, 0.228, 0.93, 0.16, 192.0, 0.0, 0.0, 0.0, 0.0, 0.0, 0.0, 0.0, 0.0, 0.0, 1.6625066795195067E9, 0.0, 2022-09-06 19:24:39.519
56.0, 7575.632044748312, -9145.685630522446, -986.2930758348795, 10596.626770094248, 29430.720738258453, 25613.601578903388, 6408.245135336535, 8320.280411276866, -12905.204344416183, 9212.316180743717, -14689.00766241642, 5780.742261498244, 19112.931980244157, 16231.523899021615, 16127.90121172681, -5776.718947496289, 0.222, 0.934, 0.17200000000000001, 192.0, 3.0, 120.0, 14.5, 24.0, 2.5, 48.0, 0.0, 0.0, 0.0, 1.6625066795195153E9, 0.0, 2022-09-06 19:24:39.519
58.0, 7623.84475753841, -9079.904446590477, -924.6916681160532, 10643.207805539108, 29487.270651730378, 25703.70146080273, 6392.93419038465, 8378.84198174977, -12849.101465833362, 9281.78540251081, -14626.042798285818, 5815.432168892881, 19153.098065030346, 16297.863876564967, 16159.797151064535, -5761.9444444113315, 0.222, 0.934, 0.17200000000000001, 192.0, 0.0, 0.0, 0.0, 0.0, 0.0, 0.0, 0.0, 0.0, 0.0, 1.6625066795195231E9, 0.0, 2022-09-06 19:24:39.519
60.0, 7562.109239352852, -9125.792577957223, -960.9238458781059, 10597.029101494445, 29406.871426924637, 25670.263251097593, 6446.556025332931, 8343.70503946603, -12861.93136715071, 9270.229550627417, -14625.908687819086, 5822.115340485017, 19154.439169697664, 16251.662820775846, 16172.515293659604, -5771.935674182853, 0.222, 0.934, 0.17200000000000001, 192.0, 0.0, 0.0, 0.0, 0.0, 0.0, 0.0, 0.0, 0.0, 0.0, 1.6625066795195315E9, 0.0, 2022-09-06 19:24:39.519
62.0, 7608.511460842069, -9063.02887952672, -921.3165547033018, 10657.53527373496, 29439.750843018395, 25658.148605602815, 6381.378338501256, 8395.650493580162, -12845.011096598042, 9304.762995810866, -14619.717254604968, 5830.810169078132, 19173.03582108448, 16297.439193420316, 16171.062430270009, -5778.149459141428, 0.222, 0.934, 0.17200000000000001, 192.0, 0.0, 0.0, 0.0, 0.0, 0.0, 0.0, 0.0, 0.0, 0.0, 1.6625066795195396E9, 0.0, 2022-09-06 19:24:39.519
64.0, 7550.776904914011, -9105.407787013983, -963.8072209128405, 10628.522709431973, 29434.87816272714, 25637.2497245371, 6478.273150715012, 8351.304632580834, -12843.669991930723, 9300.40440564208, -14606.395614909605, 5865.477724728314, 19170.04068732747, 16276.205036187774, 16175.91275881681, -5749.047487860619, 0.222, 0.934, 0.17200000000000001, 192.0, 0.0, 0.0, 0.0, 0.0, 0.0, 0.0, 0.0, 0.0, 0.0, 1.6625066795195477E9, 0.0, 2022-09-06 19:24:39.519
66.0, 7583.745727985589, -9061.79953358168, -952.1396103071703, 10665.15721859422, 29449.11622394517, 25647.062140352984, 6341.927509537639, 8384.049938207858, -12854.130608335807, 9298.504507363381, -14615.917458047565, 5860.783858392699, 19138.144747989743, 16331.346789759016, 16156.936127774256, -5747.013479115186, 0.246, 0.924, 0.17, 192.0, 3.5, 88.0, 14.0, 112.0, 2.5, 40.0, 0.0, 0.0, 0.0, 1.6625066795195568E9, 0.0, 2022-09-06 19:24:39.519
68.0, 7494.696378075645, -9139.002458930308, -1011.7293610250189, 10585.294435655409, 29386.643098192588, 25660.830814937453, 6460.525865617498, 8326.047161346336, -12872.59314925589, 9260.171265622528, -14633.865908845177, 5843.77418086221, 19131.148651975232, 16260.044724946587, 16154.075104483976, -5744.264214547184, 0.246, 0.924, 0.17, 192.0, 0.0, 0.0, 0.0, 0.0, 0.0, 0.0, 0.0, 0.0, 0.0, 1.6625066795195675E9, 0.0, 2022-09-06 19:24:39.519
70.0, 7489.086090217364, -9129.033580903242, -1032.6505938351863, 10580.824086764347, 29363.889022337084, 25621.134116784826, 6271.474811014511, 8325.242498545946, -12909.60763807388, 9226.73305591739, -14679.977557656475, 5796.142613427951, 19046.323781767343, 16236.284820590596, 16101.749670714102, -5780.406985331415, 0.246, 0.924, 0.17, 192.0, 0.0, 0.0, 0.0, 0.0, 0.0, 0.0, 0.0, 0.0, 0.0, 1.662506679519576E9, 0.0, 2022-09-06 19:24:39.519
72.0, 7403.121281042252, -9200.469756182403, -1058.6456726367085, 10520.787301157392, 29325.086393962672, 25567.62404055882, 6401.651370722219, 8248.173683664047, -12944.275193724061, 9207.331741730182, -14718.020226719407, 5758.792848443133, 19087.808619476393, 16180.897197830343, 16072.178312799731, -5805.7315117992775, 0.246, 0.924, 0.17, 192.0, 0.0, 0.0, 0.0, 0.0, 0.0, 0.0, 0.0, 0.0, 0.0, 1.662506679519584E9, 0.0, 2022-09-06 19:24:39.519
74.0, 7402.406025219682, -9193.138384001062, -1056.1869807466246, 10523.89419363668, 29328.66267307552, 25497.03723156896, 6204.397225904135, 8278.929684034549, -12974.539455716545, 9160.996575474332, -14751.905471313654, 5715.408112455382, 19080.365488572777, 16171.15183724783, 16032.526318136015, -5836.82278833661, 0.246, 0.924, 0.17, 192.0, 0.0, 0.0, 0.0, 0.0, 0.0, 0.0, 0.0, 0.0, 0.0, 1.6625066795195923E9, 0.0, 2022-09-06 19:24:39.519
76.0, 7329.025248172909, -9261.758239478855, -1088.3958445067221, 10457.73303004897, 29321.04072821626, 25541.450147801657, 6372.035309318938, 8232.594517778698, -12991.705595458221, 9146.445589833927, -14767.328174987815, 5697.616123868957, 19017.154755253167, 16143.212156678697, 16007.291198645975, -5843.081276784096, 0.24, 0.96, 0.18, 192.0, 3.5, 64.0, 15.0, 0.0, 2.5, 80.0, 0.0, 0.0, 0.0, 1.6625066795196168E9, 0.0, 2022-09-06 19:24:39.519
78.0, 7350.997012972476, -9233.975021120908, -1064.7924023619178, 10482.722280350004, 29257.718236174376, 25409.328986326338, 6136.492626248912, 8240.06000042677, -13035.157386679339, 9102.18913581242, -14813.97626566604, 5648.375230833916, 18987.918673505625, 16073.720583167147, 15962.677116713181, -5889.349387806581, 0.24, 0.96, 0.18, 192.0, 0.0, 0.0, 0.0, 0.0, 0.0, 0.0, 0.0, 0.0, 0.0, 1.6625066795196257E9, 0.0, 2022-09-06 19:24:39.519
80.0, 7299.163317580619, -9277.605626297669, -1091.8380131528395, 10433.30257335932, 29251.146823304516, 25496.545493190944, 6329.745808809496, 8212.43324428001, -12992.33144430297, 9132.252232104807, -14771.73146864551, 5693.928086033832, 19020.798089599382, 16145.62614507987, 16016.477765617105, -5835.213462735827, 0.24, 0.96, 0.18, 192.0, 0.0, 0.0, 0.0, 0.0, 0.0, 0.0, 0.0, 0.0, 0.0, 1.6625066795196338E9, 0.0, 2022-09-06 19:24:39.519
82.0, 7287.272189530396, -9275.862190230155, -1122.3257925898781, 10424.026599410368, 29219.764974089263, 25386.999593615485, 6105.758977622864, 8201.39148251909, -13055.96686076723, 9048.589652608593, -14838.160853166683, 5630.180910847296, 18934.050969368338, 16034.113291992342, 15918.174793502665, -5906.470824059346, 0.24, 0.96, 0.18, 192.0, 0.0, 0.0, 0.0, 0.0, 0.0, 0.0, 0.0, 0.0, 0.0, 1.662506679519642E9, 0.0, 2022-09-06 19:24:39.519
84.0, 7246.614366366192, -9296.738719551411, -1117.9895541655487, 10398.590314220228, 29203.53760761471, 25411.430050305135, 6274.872276171717, 8173.004767060848, -13025.210860396726, 9070.248492985786, -14814.98209416653, 5662.412126351849, 18962.862367971225, 16077.453324491184, 15931.809357620403, -5878.061756856651, 0.24, 0.96, 0.18, 192.0, 0.0, 0.0, 0.0, 0.0, 0.0, 0.0, 0.0, 0.0, 0.0, 1.66250667951965E9, 0.0, 2022-09-06 19:24:39.519
86.0, 7233.024505737366, -9297.40927188507, -1159.787316296973, 10386.498020469908, 29165.67375250742, 25335.881154046197, 6064.072974213716, 8155.637461619075, -13089.807401872564, 9026.796701764668, -14871.666118105188, 5618.580355474992, 18911.632169679662, 16011.560381836938, 15884.423659375152, -5930.297783648704, 0.25, 0.954, 0.181, 192.0, 4.0, 16.0, 14.5, 80.0, 2.5, 88.0, 0.0, 0.0, 0.0, 1.6625066795196583E9, 0.0, 2022-09-06 19:24:39.519
88.0, 7186.622284248148, -9337.553004926802, -1165.464659388621, 10351.38342993062, 29171.172281643427, 25342.474918660515, 6204.911316026606, 8131.22935667388, -13078.586826156, 9029.724780288314, -14860.825522044364, 5632.237271337184, 18895.002471804914, 16025.105538976853, 15879.170999428154, -5918.160786409472, 0.25, 0.954, 0.181, 192.0, 0.0, 0.0, 0.0, 0.0, 0.0, 0.0, 0.0, 0.0, 0.0, 1.6625066795196664E9, 0.0, 2022-09-06 19:24:39.519
90.0, 7159.822542646235, -9353.959185356998, -1206.0554273194584, 10325.701275551472, 29122.780754897685, 25339.8821163037, 6046.325689116203, 8127.183690927469, -13138.914184440873, 8956.098134052532, -14921.018769862507, 5576.872000321388, 18861.586613844232, 15955.390448020751, 15822.308161533852, -5965.658243377, 0.25, 0.954, 0.181, 192.0, 0.0, 0.0, 0.0, 0.0, 0.0, 0.0, 0.0, 0.0, 0.0, 1.6625066795196748E9, 0.0, 2022-09-06 19:24:39.519
92.0, 7127.479568419406, -9378.479049024469, -1205.3848749857993, 10302.611923529139, 29139.410452772434, 25379.712924923057, 6168.232103375448, 8123.5627083257095, -13109.543992226601, 8988.508163512726, -14908.390034245258, 5591.15476502833, 18887.53698915684, 15973.562416262916, 15824.096301090278, -5951.911920536986, 0.25, 0.954, 0.181, 192.0, 0.0, 0.0, 0.0, 0.0, 0.0, 0.0, 0.0, 0.0, 0.0, 1.662506679519683E9, 0.0, 2022-09-06 19:24:39.519
94.0, 7117.957725281445, -9379.931912414064, -1208.1788430427127, 10305.361188097142, 29129.374519512003, 25295.089220415262, 6044.448142581957, 8115.001990199326, -13172.106524957006, 8921.140005724432, -14964.157636661248, 5541.62329931537, 18807.3389300512, 15907.110679997288, 15777.068230756311, -6003.924429884485, 0.25, 0.954, 0.181, 192.0, 0.0, 0.0, 0.0, 0.0, 0.0, 0.0, 0.0, 0.0, 0.0, 1.6625066795196912E9, 0.0, 2022-09-06 19:24:39.519
96.0, 7164.89638863759, -9330.176929256551, -1133.009926439515, 10354.66913636555, 29184.248052149782, 25350.25332573096, 6181.956074471006, 8164.399345445556, -13089.382718727913, 9005.8754689545, -14883.80311534442, 5615.115835084419, 18927.926591387582, 16008.632303313292, 15840.591888498295, -5939.372591897559, 0.255, 0.9450000000000001, 0.1755, 192.0, 4.0, 16.0, 14.5, 32.0, 2.5, 40.0, 0.0, 0.0, 0.0, 1.6625066795196996E9, 0.0, 2022-09-06 19:24:39.519
98.0, 7157.587368200704, -9336.79304561532, -1166.559894866931, 10328.249374419376, 29165.830214718608, 25379.26589003395, 6101.847422343186, 8161.895950066561, -13099.753928155176, 8979.880390152979, -14888.742850869043, 5607.873869880899, 18947.707885230528, 15958.005602122023, 15828.700760448071, -5954.325908938159, 0.255, 0.9450000000000001, 0.1755, 192.0, 0.0, 0.0, 0.0, 0.0, 0.0, 0.0, 0.0, 0.0, 0.0, 1.6625066795197077E9, 0.0, 2022-09-06 19:24:39.519
100.0, 7188.812755204768, -9315.335370938226, -1142.0623829439144, 10358.446581178498, 29207.82914255013, 25395.426201275135, 6175.786993001341, 8191.28849402529, -13035.000924468151, 9038.799588537167, -14849.806112027898, 5646.184759877296, 18974.798199510362, 16016.343655150373, 15838.334362308307, -5932.622365072056, 0.255, 0.9450000000000001, 0.1755, 192.0, 0.0, 0.0, 0.0, 0.0, 0.0, 0.0, 0.0, 0.0, 0.0, 1.6625066795197175E9, 0.0, 2022-09-06 19:24:39.519
102.0, 7184.118888869154, -9307.400501656593, -1165.7328803220846, 10348.164778729055, 29167.506595552757, 25369.609936429257, 6185.8676297506845, 8188.76274690184, -13061.755962581154, 8991.413890291917, -14884.071336277884, 5625.241175322673, 18950.188928865067, 15968.577977249382, 15805.723167148015, -5964.853580576609, 0.255, 0.9450000000000001, 0.1755, 192.0, 0.0, 0.0, 0.0, 0.0, 0.0, 0.0, 0.0, 0.0, 0.0, 1.6625066795197256E9, 0.0, 2022-09-06 19:24:39.519
104.0, 7215.344275873217, -9271.21302738345, -1132.9875746950597, 10381.692395412016, 29182.05758119316, 25371.286317263406, 6188.102804196215, 8204.990113376392, -12992.532610003069, 9055.69750734538, -14830.69537051861, 5679.0641759710525, 19012.974979040024, 16053.313440479451, 15844.056408888866, -5920.708885277377, 0.255, 0.9450000000000001, 0.1755, 192.0, 0.0, 0.0, 0.0, 0.0, 0.0, 0.0, 0.0, 0.0, 0.0, 1.6625066795197337E9, 0.0, 2022-09-06 19:24:39.519
106.0, 7180.184981845019, -9296.738719551411, -1178.2945607059671, 10352.232796219922, 29185.499749839277, 25356.333000222803, 6220.579888889777, 8167.975624558405, -13041.10295070445, 9013.586820791581, -14863.597138356823, 5656.913597215843, 18969.880815730194, 16013.057948715443, 15811.869896873224, -5941.048972731706, 0.2615, 0.9235, 0.16575, 192.0, 4.0, 48.0, 14.0, 24.0, 2.0, 112.0, 0.0, 0.0, 0.0, 1.662506679999307E9, 0.0, 2022-09-06 19:24:39.999
108.0, 7205.2859908683295, -9260.908873189554, -1139.4919323315542, 10386.743889658916, 29214.065279253162, 25388.854788405275, 6179.922065725573, 8239.881186471128, -13012.246848612649, 9057.999737024276, -14848.487359105035, 5677.588960837003, 18969.903167474647, 16044.730370608613, 15810.640550928183, -5921.379437611036, 0.2615, 0.9235, 0.16575, 192.0, 0.0, 0.0, 0.0, 0.0, 0.0, 0.0, 0.0, 0.0, 0.0, 1.6625066799994233E9, 0.0, 2022-09-06 19:24:39.999
110.0, 7153.899330365579, -9302.527821365336, -1168.7056623346405, 10345.862549050158, 29165.606697274055, 25467.644687610235, 6092.862021072152, 8240.797607993794, -13042.399351882857, 9035.044495468675, -14862.591309856334, 5669.251760155173, 18978.888568745682, 16035.543803637482, 15813.32276026282, -5905.777919981232, 0.2615, 0.9235, 0.16575, 192.0, 0.0, 0.0, 0.0, 0.0, 0.0, 0.0, 0.0, 0.0, 0.0, 1.6625066799995604E9, 0.0, 2022-09-06 19:24:39.999
112.0, 7201.039159421821, -9246.089666615686, -1111.239327340046, 10413.25305858291, 29259.081692586147, 25420.16958238716, 6306.969381209538, 8329.891661392649, -13026.998999953152, 9063.833542327111, -14860.51259762199, 5666.815420009544, 18980.229673413, 16050.161844511253, 15808.137155549188, -5893.529164019724, 0.2615, 0.9235, 0.16575, 192.0, 0.0, 0.0, 0.0, 0.0, 0.0, 0.0, 0.0, 0.0, 0.0, 1.6625066799995697E9, 0.0, 2022-09-06 19:24:39.999
114.0, 7147.8196558737345, -9284.825239756732, -1141.74945852154, 10364.995642303902, 29181.163511414947, 25392.855750662777, 6343.916814794161, 8272.4029746536, -13015.733720747678, 9069.153257507474, -14839.993696212017, 5690.2176964542505, 19013.533772651408, 16056.353277725373, 15882.680223307638, -5851.038497810185, 0.2615, 0.9235, 0.16575, 192.0, 0.0, 0.0, 0.0, 0.0, 0.0, 0.0, 0.0, 0.0, 0.0, 1.6625066799995787E9, 0.0, 2022-09-06 19:24:39.999
116.0, 7174.306473053274, -9242.87101541412, -1127.332583347867, 10383.212314034978, 29215.004052520282, 25395.515608252957, 6120.756998152376, 8293.63713188614, -13022.841575484465, 9061.531312648214, -14855.014068485985, 5681.701681816779, 18977.927443734105, 16034.090940247886, 15826.353827280263, -5896.211373354361, 0.25575000000000003, 0.91075, 0.163875, 192.0, 3.5, 104.0, 14.0, 8.0, 2.5, 8.0, 0.0, 0.0, 0.0, 1.6625066799995892E9, 0.0, 2022-09-06 19:24:39.999
118.0, 7118.672981104015, -9294.145917194595, -1140.073077687392, 10335.468987878441, 29184.672735294433, 25441.046111708416, 6319.843986015795, 8237.847177725695, -13024.853232485442, 9066.381641195017, -14850.722533550566, 5705.729807106234, 18972.764190764927, 16046.719675865135, 15830.935934893601, -5892.188059352406, 0.25575000000000003, 0.91075, 0.163875, 192.0, 0.0, 0.0, 0.0, 0.0, 0.0, 0.0, 0.0, 0.0, 0.0, 1.6625066799995997E9, 0.0, 2022-09-06 19:24:39.999
120.0, 7151.150065797576, -9251.11880911813, -1113.496853530032, 10375.858590109181, 29201.81652329165, 25386.284337792917, 6137.476103004945, 8284.852896315206, -13046.445017629268, 9056.278652701218, -14876.583501885356, 5680.986425994209, 18980.94492923557, 16012.253285915052, 15823.693969690083, -5919.703056776889, 0.25575000000000003, 0.91075, 0.163875, 192.0, 0.0, 0.0, 0.0, 0.0, 0.0, 0.0, 0.0, 0.0, 0.0, 1.6625066799996088E9, 0.0, 2022-09-06 19:24:39.999
122.0, 7075.5564660497275, -9311.334408680726, -1155.0487464724479, 10303.304827607255, 29221.754279345787, 25425.13166965624, 6269.016119124427, 8130.223528173391, -13045.640354828878, 9076.216408755352, -14871.934339038651, 5698.912525047365, 18985.147057193168, 16032.928649536212, 15828.611353470249, -5906.5155275482575, 0.25575000000000003, 0.91075, 0.163875, 192.0, 0.0, 0.0, 0.0, 0.0, 0.0, 0.0, 0.0, 0.0, 0.0, 1.6625066799996161E9, 0.0, 2022-09-06 19:24:39.999
124.0, 7112.213326956431, -9265.446277313982, -1125.9244234471826, 10351.964575286458, 29190.01480221925, 25340.664427359632, 6060.7202125454205, 8278.996739267915, -13071.791895841587, 9035.223309424318, -14914.268543037004, 5661.093373428986, 18943.25988808392, 15947.477930483572, 15770.563873119818, -5988.702891910421, 0.25575000000000003, 0.91075, 0.163875, 192.0, 0.0, 0.0, 0.0, 0.0, 0.0, 0.0, 0.0, 0.0, 0.0, 1.6625066799996235E9, 0.0, 2022-09-06 19:24:39.999
126.0, 7040.508930743806, -9327.271202477361, -1153.4841243605763, 10311.463214333442, 29157.62712450351, 25381.769285412942, 6353.282195720934, 8285.746966093417, -13045.416837384324, 9063.811190582657, -14885.479496178568, 5701.550030893091, 18981.302557146857, 16002.038538698976, 15819.827117899315, -5900.234687356316, 0.236875, 0.901375, 0.1749375, 192.0, 3.0, 104.0, 13.5, 112.0, 2.5, 104.0, 0.0, 0.0, 0.0, 1.6625066799996312E9, 0.0, 2022-09-06 19:24:39.999
128.0, 7066.034622911767, -9269.737812249401, -1135.6474322852412, 10347.337764184209, 29181.29762188168, 25365.72073289403, 6209.113443984204, 8317.17351879758, -13066.382773683403, 9046.533292118704, -14909.99935984604, 5682.305178917072, 18933.35806529022, 15962.766523691003, 15811.9816555955, -5932.130626694039, 0.236875, 0.901375, 0.1749375, 192.0, 0.0, 0.0, 0.0, 0.0, 0.0, 0.0, 0.0, 0.0, 0.0, 1.6625066799996383E9, 0.0, 2022-09-06 19:24:39.999
130.0, 6995.134889499533, -9307.355798167682, -1162.3130634204226, 10304.310656107744, 29178.526005569223, 25432.708911026588, 6373.979911086549, 8289.524410906364, -13021.969857450707, 9074.696490132392, -14870.816751815886, 5733.84830163101, 18979.246196656968, 15997.255265385542, 15864.061220176367, -5894.579696009123, 0.236875, 0.901375, 0.1749375, 192.0, 0.0, 0.0, 0.0, 0.0, 0.0, 0.0, 0.0, 0.0, 0.0, 1.6625066799996457E9, 0.0, 2022-09-06 19:24:39.999
132.0, 6993.3243981986525, -9281.830105999721, -1164.4364791436767, 10320.918002238037, 29176.82727299062, 25380.629346445723, 6122.433378986523, 8280.650768357607, -13065.041669016084, 9017.565431304625, -14927.992514132562, 5692.989312766709, 18951.552385276842, 15926.064959295389, 15805.052614814356, -5947.821551301665, 0.236875, 0.901375, 0.1749375, 192.0, 0.0, 0.0, 0.0, 0.0, 0.0, 0.0, 0.0, 0.0, 0.0, 1.6625066799996586E9, 0.0, 2022-09-06 19:24:39.999
134.0, 6944.776409241726, -9312.98843777042, -1172.684272847685, 10306.501127064363, 29163.01389491724, 25391.492294251002, 6133.475140747445, 8260.824771025751, -13018.371226593403, 9049.483722386805, -14900.164592285704, 5732.484845219236, 18991.740821807485, 15961.984212635067, 15800.358748478742, -5908.303667104682, 0.236875, 0.901375, 0.1749375, 192.0, 0.0, 0.0, 0.0, 0.0, 0.0, 0.0, 0.0, 0.0, 0.0, 1.662506679999666E9, 0.0, 2022-09-06 19:24:39.999
136.0, 6947.928005209924, -9287.574504324735, -1145.3480893788444, 10332.630316332617, 29175.53087181221, 25344.77714833941, 6320.112206949259, 8292.094861518724, -13076.441058688291, 8986.720023956303, -14952.087694655384, 5683.333359162016, 18920.88579188416, 15939.00661933501, 15772.419067909608, -5941.138379709528, 0.2174375, 0.9086875000000001, 0.20646875, 192.0, 3.0, 24.0, 14.0, 80.0, 3.5, 56.0, 0.0, 0.0, 0.0, 1.6625066799996736E9, 0.0, 2022-09-06 19:24:39.999
138.0, 6919.295420562676, -9289.295588647794, -1120.3811908222665, 10327.400008130075, 29226.246979981304, 25386.329041281828, 6397.0022078755155, 8250.654727298586, -13003.6190752529, 9057.686812601902, -14885.300682222925, 5751.237958817239, 18991.785525296393, 15973.0706778849, 15864.128275409732, -5869.702204430367, 0.2174375, 0.9086875000000001, 0.20646875, 192.0, 0.0, 0.0, 0.0, 0.0, 0.0, 0.0, 0.0, 0.0, 0.0, 1.6625066799996808E9, 0.0, 2022-09-06 19:24:39.999
140.0, 6917.753150195259, -9259.456009799958, -1101.9410016466381, 10335.647801834084, 29210.667814095952, 25388.16188432716, 6281.756613463952, 8265.988023994925, -13043.539290850078, 9012.73745450228, -14917.263676794015, 5717.308010734083, 18965.566929050317, 15906.663645108181, 15827.426711014119, -5936.042181973718, 0.2174375, 0.9086875000000001, 0.20646875, 192.0, 0.0, 0.0, 0.0, 0.0, 0.0, 0.0, 0.0, 0.0, 0.0, 1.6625066799996884E9, 0.0, 2022-09-06 19:24:39.999
142.0, 6899.983513353291, -9242.468684013926, -1076.1694402896692, 10369.086011539222, 29269.609364224598, 25478.57469064888, 6423.8913564552495, 8453.183883808122, -12963.922377100274, 9109.520507993759, -14841.468911346068, 5799.04834020714, 19023.43559544511, 15972.690698229158, 15875.147685426198, -5863.533122960702, 0.2174375, 0.9086875000000001, 0.20646875, 192.0, 0.0, 0.0, 0.0, 0.0, 0.0, 0.0, 0.0, 0.0, 0.0, 1.662506679999715E9, 0.0, 2022-09-06 19:24:39.999
144.0, 6858.83395181107, -9253.35398356366, -1102.946830147127, 10356.367868944153, 29185.63386030601, 25395.627366975234, 6279.09675587377, 8368.627234533697, -12995.483040271169, 9080.776164624234, -14877.544626896934, 5773.47794455027, 19014.42784242962, 15941.711180414104, 15841.329496065318, -5886.845992427587, 0.2174375, 0.9086875000000001, 0.20646875, 192.0, 0.0, 0.0, 0.0, 0.0, 0.0, 0.0, 0.0, 0.0, 0.0, 1.6625066799997227E9, 0.0, 2022-09-06 19:24:39.999
