%OpenBCI Raw EEG Data
%Number of channels = 16
%Sample Rate = 125 Hz
%Board = OpenBCI_GUI$BoardCytonSerialDaisy
Sample Index, EXG Channel 0, EXG Channel 1, EXG Channel 2, EXG Channel 3, EXG Channel 4, EXG Channel 5, EXG Channel 6, EXG Channel 7, EXG Channel 8, EXG Channel 9, EXG Channel 10, EXG Channel 11, EXG Channel 12, EXG Channel 13, EXG Channel 14, EXG Channel 15, Accel Channel 0, Accel Channel 1, Accel Channel 2, Other, Other, Other, Other, Other, Other, Other, Analog Channel 0, Analog Channel 1, Analog Channel 2, Timestamp, Other, Timestamp (Formatted)
166.0, -24618.278398308565, -9579.622397377778, -7682.227514055671, -8372.628196791196, 8684.412680198275, 18538.603906465043, 67194.7082513223, -5440.928690544211, -11759.94566201516, 3764.056118018165, -25614.138020770315, -10841.333668390951, 13246.224909570803, -9625.331714788881, -3178.8650964337703, -12778.492305099047, 0.0, 0.0, 0.0, 192.0, 0.0, 0.0, 0.0, 0.0, 0.0, 0.0, 0.0, 0.0, 0.0, 1.6625068427190704E9, 0.0, 2022-09-06 19:27:22.719
168.0, -24373.079761633846, -9300.65027483109, -7376.388594673705, -8208.633447722608, 8959.00386083172, 18964.80696973884, 64601.50356310649, -5294.971799251056, -11798.591828178387, 4198.596381973789, -24999.37564127155, -10357.261938722366, 13656.89351044816, -8969.084497581065, -2613.5671274145993, -12227.477100786818, 0.252, 0.934, 0.01, 192.0, 3.5, 112.0, 14.5, 24.0, 0.0, 40.0, 0.0, 0.0, 0.0, 1.662506842719079E9, 0.0, 2022-09-06 19:27:22.719
170.0, -24664.971192475703, -9608.970237847596, -7711.597706269945, -8421.779682848417, 8644.112484945355, 18539.98971462127, 68051.04828489403, -5496.1598510932745, -11675.232550529547, 3833.5700432741696, -25568.518110337034, -10773.160847802264, 13317.348160427591, -9586.059699780906, -3126.9866975530026, -12712.286438022427, 0.252, 0.934, 0.01, 192.0, 0.0, 0.0, 0.0, 0.0, 0.0, 0.0, 0.0, 0.0, 0.0, 1.662506842719087E9, 0.0, 2022-09-06 19:27:22.719
172.0, -24297.75438281946, -9232.633916453591, -7303.924239149599, -8118.622972801087, 9019.532384816694, 19011.94679879508, 63786.20133235471, -5211.465681966029, -11872.73256453664, 4166.29811123587, -25000.33676628313, -10375.52331394235, 13631.636039213663, -8956.835741619558, -2632.5214067127, -12241.737513749304, 0.252, 0.934, 0.01, 192.0, 0.0, 0.0, 0.0, 0.0, 0.0, 0.0, 0.0, 0.0, 0.0, 1.6625068427190957E9, 0.0, 2022-09-06 19:27:22.719
174.0, -24731.355873507964, -9680.428764871212, -7772.573265144023, -8507.386864112243, 8553.967899557103, 18480.087039481048, 68811.92401789714, -5600.587201188469, -11585.467944797034, 3885.1578694770183, -25528.53083950649, -10722.444739633173, 13370.724126186864, -9544.910138238685, -3094.196688437067, -12681.46338241856, 0.252, 0.934, 0.01, 192.0, 0.0, 0.0, 0.0, 0.0, 0.0, 0.0, 0.0, 0.0, 0.0, 1.662506842719103E9, 0.0, 2022-09-06 19:27:22.719
176.0, -24246.166556616612, -9190.523229899793, -7262.595863651737, -8052.752381891297, 9058.469123657838, 19007.00706327046, 63116.23014405133, -5161.531884852873, -11951.433056763775, 4087.9105434311086, -25057.28901115525, -10450.11108518971, 13553.896671998105, -9032.228175667307, -2702.169442435437, -12311.273790749765, 0.252, 0.934, 0.01, 192.0, 0.0, 0.0, 0.0, 0.0, 0.0, 0.0, 0.0, 0.0, 0.0, 1.6625068427191105E9, 0.0, 2022-09-06 19:27:22.719
178.0, -24775.724086251746, -9717.644419389298, -7792.8015938760755, -8561.567492671908, 8521.870794519282, 18494.168638487892, 69367.09664667805, -5628.906861413344, -11503.951132768529, 3961.779649469811, -25461.207385207104, -10654.607195211316, 13454.342002194167, -9481.699404919078, -3022.7381614134506, -12613.558782763337, 0.248, 0.9420000000000001, 0.014, 192.0, 3.5, 96.0, 14.5, 56.0, 0.0, 56.0, 0.0, 0.0, 0.0, 1.6625068427191184E9, 0.0, 2022-09-06 19:27:22.719
180.0, -24213.13067831167, -9154.603976560114, -7236.399619150116, -7999.219953920836, 9096.46708923186, 19023.502650678474, 62647.06702793444, -5069.57680816374, -12027.518394889641, 4017.2790309523384, -25126.02062535532, -10522.84366164728, 13484.650967675563, -9111.219240572362, -2757.5570651956878, -12364.87327395359, 0.248, 0.9420000000000001, 0.014, 192.0, 0.0, 0.0, 0.0, 0.0, 0.0, 0.0, 0.0, 0.0, 0.0, 1.6625068427191265E9, 0.0, 2022-09-06 19:27:22.719
182.0, -24806.390679644428, -9743.393629001812, -7812.471128996745, -8608.260286839042, 8516.752245039015, 18501.455307180324, 69707.29019728783, -5707.406187940382, -11452.922100177062, 4029.9301183140424, -25393.54865474089, -10580.980548975534, 13518.938543670005, -9400.562572546312, -2946.63047154313, -12533.450130635516, 0.248, 0.9420000000000001, 0.014, 192.0, 0.0, 0.0, 0.0, 0.0, 0.0, 0.0, 0.0, 0.0, 0.0, 1.662506842719134E9, 0.0, 2022-09-06 19:27:22.719
184.0, -24191.136561767646, -9145.439761333439, -7224.173214933064, -7973.224875119314, 9098.098766577097, 18993.081926474802, 62405.9811122395, -5064.279444727832, -12075.954625124292, 3948.1450853520737, -25196.898007023097, -10598.392557906218, 13410.264362128302, -9183.750651329834, -2837.1739789454914, -12450.435751728506, 0.248, 0.9420000000000001, 0.014, 192.0, 0.0, 0.0, 0.0, 0.0, 0.0, 0.0, 0.0, 0.0, 0.0, 1.6625068427191415E9, 0.0, 2022-09-06 19:27:22.719
186.0, -24799.349880141006, -9735.995201587106, -7795.9084863553635, -8627.438083581697, 8513.131262437257, 18515.29103699816, 69807.60482640324, -5733.937708608832, -11395.276951226826, 4097.81236622481, -25304.812229253323, -10507.778585884404, 13593.727480617463, -9326.019504787864, -2867.6841101269856, -12476.721403207946, 0.248, 0.9420000000000001, 0.014, 192.0, 0.0, 0.0, 0.0, 0.0, 0.0, 0.0, 0.0, 0.0, 0.0, 1.662506842719149E9, 0.0, 2022-09-06 19:27:22.719
188.0, -24210.98491084396, -9166.360994143604, -7249.609500123203, -7977.963444943839, 9084.128926292531, 18932.151071089636, 62426.812938071846, -5062.200732493488, -12087.845753174515, 3874.9207705164877, -25270.457598025514, -10662.922044148689, 13349.489968954322, -9271.615358783647, -2897.7248546749183, -12533.897165524622, 0.251, 0.9460000000000001, 0.015, 192.0, 3.5, 120.0, 14.5, 88.0, 0.0, 64.0, 0.0, 0.0, 0.0, 1.6625068427191572E9, 0.0, 2022-09-06 19:27:22.719
190.0, -24791.504417837194, -9717.01857054455, -7779.68111988081, -8625.873461469826, 8525.82705328787, 18560.10628463105, 69665.31362120077, -5730.964926596275, -11402.138936774605, 4148.506122649446, -25234.292475496826, -10448.769980522393, 13644.778864953383, -9269.894274460588, -2791.062330134193, -12410.64964659806, 0.251, 0.9460000000000001, 0.015, 192.0, 0.0, 0.0, 0.0, 0.0, 0.0, 0.0, 0.0, 0.0, 0.0, 1.662506842719165E9, 0.0, 2022-09-06 19:27:22.719
192.0, -24232.107309354225, -9183.169505973996, -7289.239143042463, -7977.449354821367, 9063.140638248997, 18898.198771262025, 62688.44010692121, -5048.722630586938, -12093.187820099332, 3819.2202233338626, -25355.05895078885, -10728.390303658283, 13286.927436223918, -9367.772563430377, -2974.2572276898895, -12607.456756527037, 0.251, 0.9460000000000001, 0.015, 192.0, 0.0, 0.0, 0.0, 0.0, 0.0, 0.0, 0.0, 0.0, 0.0, 1.6625068427191732E9, 0.0, 2022-09-06 19:27:22.719
194.0, -24744.543402736595, -9663.10616291835, -7737.793950771565, -8577.213713790621, 8572.184571288177, 18653.760093898785, 69277.66731711237, -5675.242027669195, -11400.797832107286, 4225.373771831247, -25139.476375517414, -10361.888749824615, 13706.447327905576, -9144.52333981077, -2716.385151909012, -12318.493404208828, 0.251, 0.9460000000000001, 0.015, 192.0, 0.0, 0.0, 0.0, 0.0, 0.0, 0.0, 0.0, 0.0, 0.0, 1.6625068427191808E9, 0.0, 2022-09-06 19:27:22.719
196.0, -24272.94394647407, -9221.547451203758, -7341.519873323426, -7994.526087585222, 9011.239887623775, 18851.461273605975, 63206.10650850613, -5055.986947534913, -12056.709773148272, 3789.9617898418655, -25415.252198606995, -10756.195873760686, 13248.795360183163, -9416.00762796493, -3042.2959378118444, -12645.588832567792, 0.251, 0.9460000000000001, 0.015, 192.0, 0.0, 0.0, 0.0, 0.0, 0.0, 0.0, 0.0, 0.0, 0.0, 1.662506842719188E9, 0.0, 2022-09-06 19:27:22.719
198.0, -24700.085783014987, -9618.00034260754, -7691.525839749079, -8542.45675116262, 8625.225260880621, 18698.150658387025, 68696.92429267458, -5636.417047550327, -11406.430471710024, 4261.494190871023, -25065.0674182257, -10311.463214333442, 13739.013819576958, -9078.205714011874, -2654.9849098902837, -12245.358496351064, 0.2515, 0.936, 0.0165, 192.0, 3.5, 112.0, 14.0, 120.0, 0.0, 72.0, 0.0, 0.0, 0.0, 1.6625068427191992E9, 0.0, 2022-09-06 19:27:22.719
200.0, -24343.307238019377, -9300.493812619903, -7417.806377149389, -8081.161449093992, 8944.966965313788, 18756.444007926468, 63888.77348766011, -5156.301576650331, -12017.750682562671, 3749.4157253999383, -25483.447370940135, -10816.880859956844, 13214.66424639991, -9495.915114392652, -3102.9585722635475, -12711.03474033293, 0.2515, 0.936, 0.0165, 192.0, 0.0, 0.0, 0.0, 0.0, 0.0, 0.0, 0.0, 0.0, 0.0, 1.6625068427192073E9, 0.0, 2022-09-06 19:27:22.719
202.0, -24645.30165735503, -9560.444600635125, -7640.27328971306, -8509.68909379114, 8683.630369142338, 18748.062103755725, 67924.26919034353, -5596.407424975327, -11478.93953072304, 4267.171533962672, -25021.10153688211, -10309.85388873266, 13740.421979477642, -9037.279669914207, -2624.094799053049, -12235.724894490826, 0.2515, 0.936, 0.0165, 192.0, 0.0, 0.0, 0.0, 0.0, 0.0, 0.0, 0.0, 0.0, 0.0, 1.6625068427192156E9, 0.0, 2022-09-06 19:27:22.719
204.0, -24406.40621261671, -9355.70262142451, -7483.140526192252, -8152.172941228502, 8880.437479071317, 18690.059326894203, 64713.01641619402, -5230.0176298639335, -11961.424286535297, 3746.174722453919, -25534.54345876497, -10850.587290595447, 13200.090909015049, -9567.932435027651, -3139.458970959064, -12757.57107228888, 0.2515, 0.936, 0.0165, 192.0, 0.0, 0.0, 0.0, 0.0, 0.0, 0.0, 0.0, 0.0, 0.0, 1.6625068427192235E9, 0.0, 2022-09-06 19:27:22.719
206.0, -24570.132740751833, -9488.270817788938, -7558.801181173466, -8429.468682941042, 8768.388184116862, 18815.58672375521, 67045.64446754986, -5488.962589378666, -11535.154168028137, 4282.773051592476, -24974.051114803686, -10295.951103681458, 13749.228566793034, -8972.236093549263, -2573.3339873950467, -12185.142896788466, 0.2515, 0.936, 0.0165, 192.0, 0.0, 0.0, 0.0, 0.0, 0.0, 0.0, 0.0, 0.0, 0.0, 1.662506842719232E9, 0.0, 2022-09-06 19:27:22.719
208.0, -24491.2310828246, -9447.903567302654, -7555.359012527349, -8225.10668338617, 8813.717521872226, 18634.448186689402, 65645.06180823587, -5305.790043567425, -11873.961910481681, 3735.781161282201, -25571.267374905037, -10864.735944835656, 13209.99273180875, -9590.32888297187, -3143.52698844993, -12749.658554751702, 0.25175000000000003, 0.929, 0.01625, 192.0, 3.5, 112.0, 14.0, 104.0, 0.0, 64.0, 0.0, 0.0, 0.0, 1.66250684271924E9, 0.0, 2022-09-06 19:27:22.719
210.0, -24490.113495601832, -9407.402206349636, -7476.926741233676, -8327.656486947119, 8853.056592113566, 18886.486457167444, 66100.34449104601, -5429.797521805468, -11618.660285313164, 4261.248321682015, -24953.889841305, -10302.27664736231, 13734.38700847471, -8950.085514794055, -2554.5138185636783, -12167.037983779668, 0.25175000000000003, 0.929, 0.01625, 192.0, 0.0, 0.0, 0.0, 0.0, 0.0, 0.0, 0.0, 0.0, 0.0, 1.662506842719248E9, 0.0, 2022-09-06 19:27:22.719
212.0, -24567.875214561845, -9516.702236736088, -7626.07993198394, -8287.602160883209, 8731.530157510062, 18585.699032032375, 66584.23740675896, -5344.078581819365, -11801.05052006847, 3773.399147200483, -25574.083694706405, -10837.757389278102, 13242.425113013402, -9580.203542733616, -3145.270424517444, -12730.838385920333, 0.25175000000000003, 0.929, 0.01625, 192.0, 0.0, 0.0, 0.0, 0.0, 0.0, 0.0, 0.0, 0.0, 0.0, 1.6625068427192564E9, 0.0, 2022-09-06 19:27:22.719
214.0, -24427.752128571527, -9345.7560951419, -7427.976420876554, -8254.499227344899, 8908.399511384907, 18937.023751380893, 65162.219424512325, -5348.906558621712, -11717.432644061166, 4241.511731327979, -24965.468044932848, -10331.04334247629, 13689.974092242015, -8949.258500249207, -2584.643970089432, -12178.303262985142, 0.25175000000000003, 0.929, 0.01625, 192.0, 0.0, 0.0, 0.0, 0.0, 0.0, 0.0, 0.0, 0.0, 0.0, 1.6625068427192647E9, 0.0, 2022-09-06 19:27:22.719
216.0, -24641.63597126436, -9588.697205626631, -7698.968970652697, -8380.965397473026, 8664.206703210677, 18535.362903519024, 67499.34017650368, -5457.401926207773, -11719.08667315086, 3798.4554527348823, -25584.49960762258, -10821.977057692655, 13265.894444691474, -9581.678757867665, -3153.875846132737, -12747.848063450821, 0.25175000000000003, 0.929, 0.01625, 192.0, 0.0, 0.0, 0.0, 0.0, 0.0, 0.0, 0.0, 0.0, 0.0, 1.6625068427192729E9, 0.0, 2022-09-06 19:27:22.719
218.0, -24359.06521786037, -9284.467611845448, -7370.487734137504, -8180.7384706423845, 8991.123317613998, 18968.18208315159, 64286.23220756438, -5258.873731955735, -11815.310933030956, 4184.112451566751, -24994.61471970257, -10378.071412810257, 13631.613687469207, -8971.990224360256, -2615.936412326862, -12221.732702461804, 0.254875, 0.9295, 0.012125, 192.0, 4.0, 8.0, 14.5, 8.0, 0.0, 32.0, 0.0, 0.0, 0.0, 1.6625068427192812E9, 0.0, 2022-09-06 19:27:22.719
220.0, -24711.46282094274, -9657.831151226897, -7758.15638997035, -8462.236340312522, 8599.565458245928, 18484.110353483004, 68321.43733756988, -5551.48041862016, -11622.884765015217, 3851.2502731383174, -25556.24700263107, -10779.486391483117, 13323.047855263694, -9583.46689742409, -3112.9050985461595, -12704.150403040696, 0.254875, 0.9295, 0.012125, 192.0, 0.0, 0.0, 0.0, 0.0, 0.0, 0.0, 0.0, 0.0, 0.0, 1.66250684271929E9, 0.0, 2022-09-06 19:27:22.719
222.0, -24292.4346676391, -9226.464834983926, -7308.68516071858, -8086.5258677632655, 9032.943431489877, 18980.542597835374, 63515.47700351203, -5200.222754505009, -11896.268951448077, 4108.720017518999, -25029.61755151958, -10432.721428003482, 13580.58465487774, -9010.479928312294, -2665.065546639627, -12257.89782499049, 0.254875, 0.9295, 0.012125, 192.0, 0.0, 0.0, 0.0, 0.0, 0.0, 0.0, 0.0, 0.0, 0.0, 1.6625068427192988E9, 0.0, 2022-09-06 19:27:22.719
224.0, -24762.22363260074, -9708.01081752906, -7799.328303257025, -8518.92036425118, 8533.046666746935, 18475.84020803454, 69006.04891849148, -5591.847669106444, -11543.111389054226, 3910.5047476893365, -25502.736926405065, -10713.97342848461, 13388.31494907319, -9522.781911227932, -3067.4863538129753, -12630.613163782737, 0.254875, 0.9295, 0.012125, 192.0, 0.0, 0.0, 0.0, 0.0, 0.0, 0.0, 0.0, 0.0, 0.0, 1.662506842719308E9, 0.0, 2022-09-06 19:27:22.719
226.0, -24257.565946288818, -9194.591247390657, -7279.404375482128, -8039.54250091821, 9051.160103220953, 19013.220848229033, 62938.332609931545, -5124.115064634689, -11980.13269664439, 4053.935891859042, -25087.553273147736, -10502.771795126415, 13503.448784762477, -9065.845199328089, -2732.187835238914, -12305.015302302278, 0.254875, 0.9295, 0.012125, 192.0, 0.0, 0.0, 0.0, 0.0, 0.0, 0.0, 0.0, 0.0, 0.0, 1.6625068427193165E9, 0.0, 2022-09-06 19:27:22.719
228.0, -24798.09818245151, -9729.624954417342, -7819.646038966899, -8572.653957921739, 8531.079713234867, 18486.859618051007, 69490.83590398263, -5664.513190330647, -11478.60425455621, 3964.64067276009, -25439.727358785556, -10654.987174867056, 13456.71128710643, -9447.30007020236, -3000.9452105695264, -12561.658032138113, 0.2584375, 0.93275, 0.009062500000000001, 192.0, 4.0, 24.0, 14.5, 32.0, 0.0, 24.0, 0.0, 0.0, 0.0, 1.662506842719324E9, 0.0, 2022-09-06 19:27:22.719
230.0, -24231.213239576013, -9169.870218023088, -7268.161448021108, -7994.794308518685, 9091.639112429513, 18988.052783972358, 62548.652297097724, -5059.473819669941, -12032.1899094808, 3965.7806117273108, -25153.82619545772, -10572.442182593606, 13439.27692643129, -9131.42521755996, -2798.214888359891, -12379.826590994191, 0.2584375, 0.93275, 0.009062500000000001, 192.0, 0.0, 0.0, 0.0, 0.0, 0.0, 0.0, 0.0, 0.0, 0.0, 1.6625068427193344E9, 0.0, 2022-09-06 19:27:22.719
232.0, -24813.25266519221, -9739.660887677775, -7834.286431585126, -8610.562516517939, 8512.97480022607, 18491.91111229791, 69761.44847410303, -5682.863972528455, -11418.07573057124, 4043.542330687324, -25367.061837561352, -10584.892104255212, 13530.181471131023, -9386.123345628184, -2931.096009146692, -12499.229609874441, 0.2584375, 0.93275, 0.009062500000000001, 192.0, 0.0, 0.0, 0.0, 0.0, 0.0, 0.0, 0.0, 0.0, 0.0, 1.6625068427193422E9, 0.0, 2022-09-06 19:27:22.719
234.0, -24212.50482946692, -9155.051011449219, -7269.256683499419, -7972.442564063378, 9084.08422280362, 18960.448379570054, 62421.94025778059, -5053.014165522357, -12063.527055207142, 3915.556241936236, -25223.250713735906, -10643.364267750296, 13369.092448841626, -9212.070311554708, -2872.3109212292343, -12459.667022188547, 0.2584375, 0.93275, 0.009062500000000001, 192.0, 0.0, 0.0, 0.0, 0.0, 0.0, 0.0, 0.0, 0.0, 0.0, 1.6625068427193503E9, 0.0, 2022-09-06 19:27:22.719
236.0, -24806.033051733146, -9729.848471861897, -7818.774320933142, -8627.728656259616, 8511.320771136376, 18525.326970258593, 69776.714715566, -5745.650022703412, -11394.181715748515, 4128.76953229541, -25277.073714384285, -10501.587152670283, 13596.342634718732, -9304.65123708859, -2853.08842099767, -12430.74386486338, 0.2584375, 0.93275, 0.009062500000000001, 192.0, 0.0, 0.0, 0.0, 0.0, 0.0, 0.0, 0.0, 0.0, 0.0, 1.6625068427193587E9, 0.0, 2022-09-06 19:27:22.719
238.0, -24245.65246649414, -9194.278322968285, -7303.901887405144, -7991.016863705739, 9053.618795111037, 18894.510733426898, 62532.60374457881, -5044.431095651519, -12085.454116517796, 3837.3474880871167, -25310.86955200071, -10719.471957620617, 13300.24907591928, -9294.995283483897, -2956.599349570197, -12560.451037937528, 0.25921875, 0.934375, 0.0025312500000000005, 192.0, 4.0, 16.0, 14.5, 32.0, 127.5, 112.0, 0.0, 0.0, 0.0, 1.6625068427193668E9, 0.0, 2022-09-06 19:27:22.719
240.0, -24803.32849065405, -9717.86793683385, -7806.994951605196, -8625.269964369532, 8538.925175538681, 18575.685450516397, 69545.06123603121, -5692.832850555522, -11404.955256575973, 4144.460456903035, -25222.28958872433, -10462.806876040326, 13623.03061759837, -9237.663058956035, -2805.74742624133, -12367.77900073278, 0.25921875, 0.934375, 0.0025312500000000005, 192.0, 0.0, 0.0, 0.0, 0.0, 0.0, 0.0, 0.0, 0.0, 0.0, 1.6625068427193744E9, 0.0, 2022-09-06 19:27:22.719
242.0, -24287.450228625567, -9233.952669376453, -7350.125294938719, -8014.754416317274, 9029.724780288314, 18839.525442066843, 62880.508647025665, -5114.570869752272, -12104.96718942728, 3772.2815599777177, -25410.960663671576, -10801.033473138032, 13222.532060448179, -9390.973674174986, -3052.17540886109, -12629.316762604329, 0.25921875, 0.934375, 0.0025312500000000005, 192.0, 0.0, 0.0, 0.0, 0.0, 0.0, 0.0, 0.0, 0.0, 0.0, 1.6625068427193823E9, 0.0, 2022-09-06 19:27:22.719
244.0, -24767.208071614277, -9684.519134106533, -7751.607328844944, -8594.312798298932, 8561.969824072103, 18616.11975623605, 69069.68433495573, -5684.987388251709, -11420.109739316671, 4205.480719266024, -25146.159547109553, -10410.0567591258, 13677.367708369222, -9150.893586980532, -2735.674707373942, -12310.156203526998, 0.25921875, 0.934375, 0.0025312500000000005, 192.0, 0.0, 0.0, 0.0, 0.0, 0.0, 0.0, 0.0, 0.0, 0.0, 1.6625068427193906E9, 0.0, 2022-09-06 19:27:22.719
246.0, -24332.779566380927, -9285.272274645838, -7404.6859031541235, -8058.720297660863, 8962.088401566554, 18763.171883007515, 63440.978639242494, -5113.0285993848565, -12086.996386885214, 3736.8093415271455, -25483.42501919568, -10854.968232508687, 13181.896589028429, -9477.318463005837, -3112.5698223793297, -12702.27285650645, 0.25921875, 0.934375, 0.0025312500000000005, 192.0, 0.0, 0.0, 0.0, 0.0, 0.0, 0.0, 0.0, 0.0, 0.0, 1.662506842719413E9, 0.0, 2022-09-06 19:27:22.719
248.0, -24703.9302830613, -9617.888583885264, -7693.42573802778, -8540.981536028568, 8633.026019695524, 18668.31107953919, 68418.24274280581, -5661.853332740466, -11455.537254278333, 4249.670118054166, -25076.377400920082, -10363.855703336681, 13696.321987667321, -9079.9938535683, -2684.556267804655, -12262.85991225957, 0.255609375, 0.9401875, 0.0032656250000000003, 192.0, 3.5, 112.0, 14.5, 72.0, 0.0, 16.0, 0.0, 0.0, 0.0, 1.662506842719422E9, 0.0, 2022-09-06 19:27:22.719
250.0, -24381.01463091548, -9325.013676287375, -7444.650822240213, -8091.845582943629, 8916.423787644362, 18729.152527946535, 64182.721278991856, -5131.178215882566, -12012.699188315772, 3728.248623400763, -25527.547362750454, -10868.513389648604, 13170.6089580785, -9527.520481052457, -3138.9225290921368, -12725.049284106408, 0.255609375, 0.9401875, 0.0032656250000000003, 192.0, 0.0, 0.0, 0.0, 0.0, 0.0, 0.0, 0.0, 0.0, 0.0, 1.6625068427194307E9, 0.0, 2022-09-06 19:27:22.719
252.0, -24624.40277628932, -9530.247393876005, -7604.555202073479, -8463.91272114667, 8723.282363806053, 18792.296206032777, 67612.66352089209, -5569.630035117869, -11501.738310067452, 4275.575789877867, -25012.80903968919, -10322.214403416445, 13722.205307746568, -9011.083425412588, -2612.0248570471836, -12189.635597423983, 0.255609375, 0.9401875, 0.0032656250000000003, 192.0, 0.0, 0.0, 0.0, 0.0, 0.0, 0.0, 0.0, 0.0, 0.0, 1.6625068427194383E9, 0.0, 2022-09-06 19:27:22.719
254.0, -24467.404123235243, -9423.651924568645, -7531.777922126999, -8191.28849402529, 8831.80008313657, 18649.289745007725, 65046.83971963403, -5284.801755523891, -11936.815015890004, 3733.858911259045, -25566.39469461378, -10885.232494501173, 13164.573987075566, -9562.70212682511, -3166.7951544279044, -12761.057944423908, 0.255609375, 0.9401875, 0.0032656250000000003, 192.0, 0.0, 0.0, 0.0, 0.0, 0.0, 0.0, 0.0, 0.0, 0.0, 1.6625068427194464E9, 0.0, 2022-09-06 19:27:22.719
0.0, -24572.993764042112, -9490.058957345362, -7559.248216062572, -8417.421092679631, 8764.49898058164, 18809.10471786317, 66711.82116410985, -5470.410641480761, -11602.119994416236, 4234.716801013566, -25007.779897186745, -10350.623470619139, 13679.960510726038, -8999.460518295828, -2617.23281350527, -12216.211821581343, 0.255609375, 0.9401875, 0.0032656250000000003, 192.0, 0.0, 0.0, 0.0, 0.0, 0.0, 0.0, 0.0, 0.0, 0.0, 1.6625068427194538E9, 0.0, 2022-09-06 19:27:22.719
2.0, -24543.601220083383, -9485.454497987568, -7604.711664284667, -8275.487515388431, 8745.745866983636, 18560.5309677757, 65981.45556228823, -5318.128206506754, -11878.566369839475, 3728.0698094451204, -25601.55398864198, -10896.67658766229, 13159.03075445065, -9616.5698309624, -3185.8835441927367, -12791.210447694117, 0.255609375, 0.9401875, 0.0032656250000000003, 192.0, 0.0, 0.0, 0.0, 0.0, 0.0, 0.0, 0.0, 0.0, 0.0, 1.662506842719462E9, 0.0, 2022-09-06 19:27:22.719
4.0, -24483.56443447643, -9401.814270235809, -7469.058927185408, -8325.622478201685, 8849.525016489628, 18870.661422093086, 65765.89533876126, -5432.323268928918, -11670.248111516014, 4239.723591771554, -24971.614774658057, -10336.966554756948, 13665.65539427464, -8964.949424856834, -2589.0919672360383, -12208.478117999806, 0.24, 0.9440000000000001, 0.002, 192.0, 3.5, 64.0, 14.5, 64.0, 0.0, 8.0, 0.0, 0.0, 0.0, 1.66250684271947E9, 0.0, 2022-09-06 19:27:22.719
6.0, -24619.0607093645, -9554.074353465361, -7661.663909156789, -8351.75166746994, 8694.090985547422, 18525.684598169875, 66927.26962891455, -5423.047294979965, -11780.308101213945, 3761.2621499612515, -25597.485971151113, -10868.334575692961, 13187.618635608987, -9622.604801965334, -3169.8349916738266, -12789.511715115514, 0.24, 0.9440000000000001, 0.002, 192.0, 0.0, 0.0, 0.0, 0.0, 0.0, 0.0, 0.0, 0.0, 0.0, 1.6625068427194796E9, 0.0, 2022-09-06 19:27:22.719
8.0, -24427.39450066024, -9337.32948748225, -7410.095025312308, -8249.738305775918, 8923.553994125605, 18922.182193062567, 64857.65455456431, -5317.547061150916, -11768.461676652632, 4210.062826879362, -24984.51173120877, -10373.265787752365, 13615.051044827826, -8972.750183671735, -2601.5642406421, -12228.974667665323, 0.24, 0.9440000000000001, 0.002, 192.0, 0.0, 0.0, 0.0, 0.0, 0.0, 0.0, 0.0, 0.0, 0.0, 1.662506842719487E9, 0.0, 2022-09-06 19:27:22.719
10.0, -24689.759277076635, -9622.560098476422, -7725.411084343325, -8425.154796261168, 8611.769510718526, 18500.13655425746, 67828.38020663026, -5477.160868306264, -11694.097422849825, 3807.8878888950217, -25582.64441283279, -10825.687447272236, 13230.623391940999, -9608.679665169677, -3143.169360538645, -12752.497226297526, 0.24, 0.9440000000000001, 0.002, 192.0, 0.0, 0.0, 0.0, 0.0, 0.0, 0.0, 0.0, 0.0, 0.0, 1.6625068427194948E9, 0.0, 2022-09-06 19:27:22.719
12.0, -24344.089549075314, -9257.220835354428, -7345.140855925186, -8143.3440021686565, 8985.624788477991, 18989.57270259532, 64006.09779430602, -5234.353868288264, -11842.669468244252, 4168.577989170312, -24996.022879603253, -10395.48342174094, 13570.97340476196, -8980.640349464458, -2632.431999734879, -12235.23315611281, 0.24, 0.9440000000000001, 0.002, 192.0, 0.0, 0.0, 0.0, 0.0, 0.0, 0.0, 0.0, 0.0, 0.0, 1.6625068427195024E9, 0.0, 2022-09-06 19:27:22.719
14.0, -24746.264487059652, -9672.605654311856, -7777.043614035084, -8485.1021748903, 8574.352690500342, 18480.824647048074, 68601.01295721685, -5592.004131317632, -11594.095718156781, 3889.784680579267, -25539.86317394533, -10758.520455184038, 13282.792363499686, -9537.399952101703, -3112.502767145964, -12690.337024967317, 0.234, 0.936, 0.004, 192.0, 3.5, 40.0, 14.5, 32.0, 0.0, 16.0, 0.0, 0.0, 0.0, 1.6625068427195103E9, 0.0, 2022-09-06 19:27:22.719
16.0, -24306.672728857127, -9216.004218578842, -7297.844564657756, -8081.384966538545, 9014.570297547614, 18972.4289145981, 63312.18788769101, -5175.88170479318, -11920.654704648818, 4104.026151183385, -25049.309438384706, -10459.543521349851, 13492.943464868482, -9023.913326729933, -2687.4396428393893, -12298.041558032222, 0.234, 0.936, 0.004, 192.0, 0.0, 0.0, 0.0, 0.0, 0.0, 0.0, 0.0, 0.0, 0.0, 1.662506842719519E9, 0.0, 2022-09-06 19:27:22.719
18.0, -24804.311967410085, -9721.220698502148, -7811.4653004962565, -8554.012603046012, 8512.34895138132, 18440.658562261888, 69218.03286290562, -5648.4199343228265, -11527.219298746502, 3953.040117387786, -25491.58340592187, -10701.50115507855, 13344.30436424069, -9518.6468385037, -3050.722545471495, -12635.664658029636, 0.234, 0.936, 0.004, 192.0, 0.0, 0.0, 0.0, 0.0, 0.0, 0.0, 0.0, 0.0, 0.0, 1.6625068427195272E9, 0.0, 2022-09-06 19:27:22.719
20.0, -24264.47263532551, -9183.035395507264, -7275.805744624823, -8036.301497972191, 9052.680021843913, 18952.26764109941, 62795.34850065094, -5114.302648818809, -12006.66421731284, 4032.5229206708577, -25118.130459562595, -10537.864033921247, 13413.393606352045, -9113.387359784527, -2762.6532629314975, -12367.846055966147, 0.234, 0.936, 0.004, 192.0, 0.0, 0.0, 0.0, 0.0, 0.0, 0.0, 0.0, 0.0, 0.0, 1.6625068427195356E9, 0.0, 2022-09-06 19:27:22.719
22.0, -24827.42367117687, -9740.890233622818, -7831.336001317025, -8607.075644382912, 8485.951541179604, 18441.79850122911, 69641.97839998941, -5680.1817631938175, -11459.046478157816, 4002.169251700551, -25421.331873098836, -10642.023163082977, 13412.097205173637, -9438.58288986479, -2982.1026899937024, -12568.38590721916, 0.234, 0.936, 0.004, 192.0, 0.0, 0.0, 0.0, 0.0, 0.0, 0.0, 0.0, 0.0, 0.0, 1.6625068427195442E9, 0.0, 2022-09-06 19:27:22.719
24.0, -24243.21612634851, -9170.697232567934, -7271.20128526703, -8009.010017992261, 9064.995833038787, 18940.220050838, 62527.194622420626, -5030.528310600318, -12057.581491182029, 3946.5357597512916, -25185.252748161885, -10618.553831404904, 13337.442378692911, -9186.812840320212, -2830.9601939869162, -12436.063580043743, 0.23600000000000002, 0.9380000000000001, 0.0, 192.0, 3.5, 48.0, 14.5, 40.0, 0.0, 0.0, 0.0, 0.0, 0.0, 1.6625068427195525E9, 0.0, 2022-09-06 19:27:22.719
26.0, -24835.42559569187, -9754.927129140751, -7833.682934484832, -8637.004630208568, 8486.555038279896, 18485.74203082824, 69824.32393125581, -5682.416937639348, -11401.44603269649, 4067.3916420211367, -25337.19990696906, -10572.553941315884, 13476.71609839393, -9371.23708382095, -2915.9191746615384, -12497.843801718212, 0.23600000000000002, 0.9380000000000001, 0.0, 192.0, 0.0, 0.0, 0.0, 0.0, 0.0, 0.0, 0.0, 0.0, 0.0, 1.6625068427195604E9, 0.0, 2022-09-06 19:27:22.719
28.0, -24238.27639082389, -9162.471790608382, -7260.360689206206, -7975.460049564845, 9072.058984286665, 18937.381379292176, 62468.32012752535, -5039.04432523779, -12081.162581582377, 3885.0461107547417, -25256.644219952133, -10683.329186836385, 13271.929415694407, -9257.399649310071, -2907.4478635129767, -12509.645522790614, 0.23600000000000002, 0.9380000000000001, 0.0, 192.0, 0.0, 0.0, 0.0, 0.0, 0.0, 0.0, 0.0, 0.0, 0.0, 1.6625068427195685E9, 0.0, 2022-09-06 19:27:22.719
30.0, -24823.556819386104, -9725.042846804005, -7792.8015938760755, -8623.99591493558, 8506.716311778584, 18522.421243479403, 69754.60884029971, -5717.106845033985, -11392.237113980904, 4159.994919299474, -25248.463481481493, -10487.237332729976, 13547.705238783985, -9273.828181484721, -2822.0418479492487, -12416.550507134261, 0.23600000000000002, 0.9380000000000001, 0.0, 192.0, 0.0, 0.0, 0.0, 0.0, 0.0, 0.0, 0.0, 0.0, 0.0, 1.662506842719576E9, 0.0, 2022-09-06 19:27:22.719
0.0, -12209.774519178214, -4772.499772608254, -3917.9031751040434, -4026.934984557031, 4187.286399279404, 8808.151937502855, 30096.601557326503, -2717.4356838984113, -6054.4393723534795, 2023.838701705778, -12523.257735163896, -5255.297452842886, 6700.494194089675, -4500.076711186971, -1351.7664494236053, -6159.31375733778, 0.262, 0.936, 0.03, 192.0, 4.0, 24.0, 14.5, 32.0, 0.0, 120.0, 0.0, 0.0, 0.0, 1.6625068433234594E9, 0.0, 2022-09-06 19:27:23.323
2.0, -24263.62326903621, -9356.082601080252, -7594.318103112949, -8019.448282652889, 8554.459637935119, 18080.728421298078, 58633.49838656168, -5390.1455271417535, -11559.159941573136, 4219.651725250688, -24860.191328548353, -10557.488865553007, 14475.995537757342, -9040.40891413795, -2947.122209921147, -12236.440150313396, 0.262, 0.936, 0.03, 192.0, 0.0, 0.0, 0.0, 0.0, 0.0, 0.0, 0.0, 0.0, 0.0, 1.6625068433235288E9, 0.0, 2022-09-06 19:27:23.323
4.0, -24818.19240071683, -9907.880116448418, -8180.447897964466, -8515.858175260804, 7961.780781958197, 17438.67456181938, 64862.14725519982, -5875.536009733201, -11302.696025692943, 3860.5038953428148, -25538.410310555737, -11034.050409084608, 14150.017696621144, -9741.381972000834, -3533.0508390725663, -12797.401880908237, 0.262, 0.936, 0.03, 192.0, 0.0, 0.0, 0.0, 0.0, 0.0, 0.0, 0.0, 0.0, 0.0, 1.6625068433236403E9, 0.0, 2022-09-06 19:27:23.323
6.0, -24190.555416411808, -9267.726155248423, -7539.623384430813, -7926.576784441088, 8625.001743436069, 18127.331808487394, 57825.46047275788, -5281.180772922132, -11657.172341009658, 4147.455590660046, -24921.74803277827, -10629.796758865925, 14393.450545483893, -9111.621571972559, -3022.3581817577106, -12316.459395463395, 0.262, 0.936, 0.03, 192.0, 0.0, 0.0, 0.0, 0.0, 0.0, 0.0, 0.0, 0.0, 0.0, 1.6625068433237095E9, 0.0, 2022-09-06 19:27:23.323
8.0, -24860.48190122627, -9947.77798030114, -8218.222346093935, -8584.902713883248, 7931.360057754524, 17427.96807622529, 65621.88304923571, -5930.320135393159, -11194.781803462722, 3954.9847191553977, -25451.9090595137, -10929.556003756048, 14254.377991482974, -9657.428819826702, -3452.517503800095, -12708.531344953937, 0.266, 0.924, 0.048, 192.0, 4.0, 40.0, 14.0, 112.0, 0.5, 64.0, 0.0, 0.0, 0.0, 1.6625068433237162E9, 0.0, 2022-09-06 19:27:23.323
10.0, -24130.83155522723, -9226.710704172934, -7483.453450614626, -7858.850998741508, 8644.671278556738, 18117.45233743815, 57272.5677219114, -5205.140138285177, -11728.809681988918, 4067.3692902766816, -24994.480609235838, -10697.567248054416, 14296.354567570039, -9175.122877970085, -3084.853659254749, -12386.97914921989, 0.266, 0.924, 0.048, 192.0, 0.0, 0.0, 0.0, 0.0, 0.0, 0.0, 0.0, 0.0, 0.0, 1.6625068433237224E9, 0.0, 2022-09-06 19:27:23.323
12.0, -24901.45264881285, -9987.139402286935, -8229.398218321589, -8641.542034332995, 7885.047243243128, 17430.62793381547, 66109.26283708368, -5970.888551579542, -11120.775177571199, 4046.448057466514, -25346.230011729007, -10833.734075276147, 14366.382582948518, -9569.139429228238, -3344.625633314328, -12598.20313432254, 0.266, 0.924, 0.048, 192.0, 0.0, 0.0, 0.0, 0.0, 0.0, 0.0, 0.0, 0.0, 0.0, 1.6625068433237302E9, 0.0, 2022-09-06 19:27:23.323
14.0, -24125.377729580134, -9214.39489297806, -7482.939360492153, -7831.000725150196, 8659.646947341795, 18063.182301900662, 56991.96392201947, -5181.894324051657, -11804.403281736766, 3963.8583617041545, -25098.572683164202, -10807.783699963535, 14217.76583406518, -9295.93405675102, -3206.0895211803345, -12486.332653323729, 0.266, 0.924, 0.048, 192.0, 0.0, 0.0, 0.0, 0.0, 0.0, 0.0, 0.0, 0.0, 0.0, 1.6625068433237383E9, 0.0, 2022-09-06 19:27:23.323
16.0, -24916.78594550919, -9991.967379089283, -8224.436131052511, -8669.325252690942, 7900.224077728281, 17467.776533100194, 66268.72018202784, -6005.734921185365, -11070.774325224678, 4130.892948018664, -25251.52567047187, -10745.198815488675, 14447.318249621183, -9477.40786998366, -3259.9572253176243, -12515.658142049091, 0.266, 0.924, 0.048, 192.0, 0.0, 0.0, 0.0, 0.0, 0.0, 0.0, 0.0, 0.0, 0.0, 1.6625068433237464E9, 0.0, 2022-09-06 19:27:23.323
18.0, -24133.31259886177, -9227.06833208422, -7494.048177486441, -7813.745178430699, 8664.184351466221, 18010.9015716197, 56988.52175337336, -5168.282111678375, -11838.53439552002, 3884.777889821278, -25199.93784426902, -10899.8728871194, 14138.0371615931, -9397.656845767122, -3294.7588914345374, -12590.447078996549, 0.264, 0.916, 0.054, 192.0, 4.0, 32.0, 14.0, 80.0, 0.5, 88.0, 0.0, 0.0, 0.0, 1.6625068433237538E9, 0.0, 2022-09-06 19:27:23.323
20.0, -24912.40500359595, -9981.238541750734, -8211.494471012888, -8679.137668506823, 7904.739130108253, 17459.551091140638, 66082.86542688197, -6021.202328348438, -11032.441083483825, 4208.967591401051, -25157.447178059483, -10662.095029603843, 14498.459040934926, -9365.47033375148, -3154.1887705551117, -12431.637934641592, 0.264, 0.916, 0.054, 192.0, 0.0, 0.0, 0.0, 0.0, 0.0, 0.0, 0.0, 0.0, 0.0, 1.6625068433237617E9, 0.0, 2022-09-06 19:27:23.323
22.0, -24183.78283784185, -9283.104155433673, -7548.832303146399, -7856.325251618058, 8596.32445529991, 17939.867727740733, 57309.381045029295, -5205.430710963096, -11864.618881299362, 3771.3874901995055, -25325.219371941017, -11005.03784478162, 14058.73317226567, -9515.584649513323, -3394.6041339163944, -12710.453594977093, 0.264, 0.916, 0.054, 192.0, 0.0, 0.0, 0.0, 0.0, 0.0, 0.0, 0.0, 0.0, 0.0, 1.6625068433237698E9, 0.0, 2022-09-06 19:27:23.323
24.0, -24880.106732858032, -9951.108390224981, -8178.995034574871, -8656.696517073693, 7975.258883864747, 17603.272807988265, 65666.58653814632, -5973.146077769527, -11066.95217692282, 4256.710917557588, -25077.226767209384, -10601.298284685408, 14566.274233612328, -9288.736795036411, -3086.9547232335476, -12360.581739018171, 0.264, 0.916, 0.054, 192.0, 0.0, 0.0, 0.0, 0.0, 0.0, 0.0, 0.0, 0.0, 0.0, 1.6625068433237784E9, 0.0, 2022-09-06 19:27:23.323
26.0, -24227.79342267435, -9324.052551275796, -7604.398739862292, -7872.84319077053, 8563.780315372982, 17849.454921419016, 57933.665267666016, -5230.129388586211, -11842.28948858851, 3722.5265768202044, -25423.835268477833, -11075.132915393462, 13988.749860376103, -9606.75741514652, -3493.3988444088513, -12771.786781762456, 0.264, 0.916, 0.054, 192.0, 0.0, 0.0, 0.0, 0.0, 0.0, 0.0, 0.0, 0.0, 0.0, 1.6625068433237867E9, 0.0, 2022-09-06 19:27:23.323
28.0, -24794.499551594206, -9856.225235012202, -8084.804783440207, -8561.947472327647, 8020.9011460424845, 17646.210509086908, 64969.972070452226, -5893.909143675464, -11058.6596797299, 4344.553273266944, -24962.584669898115, -10504.179955027099, 14621.03600752783, -9156.749744027824, -2992.920934310071, -12234.1379206345, 0.276, 0.922, 0.06, 192.0, 4.0, 80.0, 14.0, 104.0, 0.5, 112.0, 0.0, 0.0, 0.0, 1.6625068433237948E9, 0.0, 2022-09-06 19:27:23.323
30.0, -24288.009022236947, -9387.866781695699, -7671.811601139499, -7930.1530635539375, 8477.659043986683, 17781.170342108053, 58812.24528697077, -5281.538400833417, -11786.298368727967, 3684.327445546084, -25486.464856441602, -11116.997732758253, 13982.916055073269, -9687.268398674536, -3560.409374285862, -12801.872229799299, 0.276, 0.922, 0.06, 192.0, 0.0, 0.0, 0.0, 0.0, 0.0, 0.0, 0.0, 0.0, 0.0, 1.662506843323802E9, 0.0, 2022-09-06 19:27:23.323
32.0, -24716.55901867855, -9783.738527743642, -8010.77580580423, -8496.389805840232, 8114.934934965961, 17721.17825999001, 64036.27264932069, -5840.086143027084, -11086.733470765766, 4363.664014776232, -24877.469227012305, -10448.68057354457, 14641.264336259883, -9073.824772098635, -2938.4050295835773, -12176.515123428719, 0.276, 0.922, 0.06, 192.0, 0.0, 0.0, 0.0, 0.0, 0.0, 0.0, 0.0, 0.0, 0.0, 1.6625068433238096E9, 0.0, 2022-09-06 19:27:23.323
34.0, -24397.06318343439, -9504.878163919231, -7776.887151823897, -8035.139207260515, 8393.795298790372, 17699.966454501922, 59892.54979998467, -5381.897733437745, -11737.102179181837, 3645.278947982663, -25560.762055011044, -11167.535026971702, 13919.079472908912, -9768.74050721413, -3635.1983112333196, -12880.639777259801, 0.276, 0.922, 0.06, 192.0, 0.0, 0.0, 0.0, 0.0, 0.0, 0.0, 0.0, 0.0, 0.0, 1.6625068433238168E9, 0.0, 2022-09-06 19:27:23.323
36.0, -24638.953761929723, -9711.721207108641, -7921.502938449734, -8416.594078134785, 8203.134918586602, 17807.47834533195, 62994.23432281427, -5741.582005212546, -11182.845971923587, 4362.144096153271, -24828.29538921063, -10444.545500820339, 14644.684153161545, -9035.402123379961, -2906.0397036122927, -12162.187655232867, 0.276, 0.922, 0.06, 192.0, 0.0, 0.0, 0.0, 0.0, 0.0, 0.0, 0.0, 0.0, 0.0, 1.662506843323824E9, 0.0, 2022-09-06 19:27:23.323
38.0, -24502.56341726344, -9611.89831637124, -7876.866504772485, -8144.193368457958, 8281.187210224534, 17626.675084432973, 61104.05905295123, -5476.378557250328, -11656.948823565106, 3649.05639279561, -25603.275072965036, -11191.02671039423, 13958.440894894708, -9820.551850861531, -3667.1613058044086, -12925.65619059279, 0.28600000000000003, 0.922, 0.052000000000000005, 192.0, 4.0, 120.0, 14.0, 104.0, 0.5, 80.0, 0.0, 0.0, 0.0, 1.6625068433238342E9, 0.0, 2022-09-06 19:27:23.323
40.0, -24532.51475483355, -9605.729234901577, -7823.982277391229, -8294.97823655346, 8302.354312223712, 17878.601596188735, 61846.829872945535, -5627.655163723846, -11270.844789844132, 4349.872988447308, -24800.53452259714, -10445.528977576372, 14608.94371377751, -9006.478966054794, -2891.1757935495134, -12153.761047573214, 0.28600000000000003, 0.922, 0.052000000000000005, 192.0, 0.0, 0.0, 0.0, 0.0, 0.0, 0.0, 0.0, 0.0, 0.0, 1.6625068433238413E9, 0.0, 2022-09-06 19:27:23.323
42.0, -24599.525284710562, -9701.72997733712, -7966.787572716185, -8238.383619592621, 8193.724834170918, 17519.140841858487, 62339.73054167397, -5579.308340467017, -11553.683764181587, 3687.4566897698273, -25615.613235904366, -11166.216274048838, 13958.440894894708, -9812.549926346532, -3658.1088493000093, -12898.118841423851, 0.28600000000000003, 0.922, 0.052000000000000005, 192.0, 0.0, 0.0, 0.0, 0.0, 0.0, 0.0, 0.0, 0.0, 0.0, 1.6625068433238485E9, 0.0, 2022-09-06 19:27:23.323
44.0, -24447.622829392294, -9518.244507103504, -7745.1923781862715, -8205.57125873223, 8407.183993719102, 17961.861844284755, 60693.56926602951, -5532.749656766612, -11382.603512120666, 4300.073301800883, -24809.96695875728, -10475.234445957476, 14563.234396366406, -9002.008617163732, -2912.991096137893, -12169.451972180841, 0.28600000000000003, 0.922, 0.052000000000000005, 192.0, 0.0, 0.0, 0.0, 0.0, 0.0, 0.0, 0.0, 0.0, 0.0, 1.6625068433238564E9, 0.0, 2022-09-06 19:27:23.323
46.0, -24697.828256825003, -9791.628693536364, -8060.553140706199, -8347.661298234618, 8098.975789424871, 17472.001012802248, 63512.30305579938, -5687.691949330801, -11459.381754324646, 3709.9425446918663, -25610.517038168557, -11137.471930679314, 14019.952895635714, -9830.543080633055, -3658.667642911392, -12880.259797604062, 0.28600000000000003, 0.922, 0.052000000000000005, 192.0, 0.0, 0.0, 0.0, 0.0, 0.0, 0.0, 0.0, 0.0, 0.0, 1.662506843323864E9, 0.0, 2022-09-06 19:27:23.323
48.0, -24351.845604401304, -9428.658715326634, -7658.288795744038, -8076.534637991744, 8478.53076202044, 18014.500202477004, 59606.581581423474, -5417.638172821781, -11489.735423294953, 4247.010260463984, -24829.547086900126, -10514.059426076345, 14478.834209303166, -9020.225288894808, -2949.089163433214, -12197.726928916803, 0.294, 0.924, 0.058, 192.0, 4.5, 24.0, 14.0, 112.0, 0.5, 104.0, 0.0, 0.0, 0.0, 1.6625068433238723E9, 0.0, 2022-09-06 19:27:23.323
50.0, -24785.558853812083, -9884.924874892817, -8141.824083545695, -8446.724229660538, 8008.741797058797, 17449.96219276931, 64599.670720061156, -5779.7140812533, -11357.502503097356, 3802.9034498814885, -25572.54142433899, -11072.987147925753, 14053.480512318672, -9792.32159761448, -3610.074950465554, -12824.58160216589, 0.294, 0.924, 0.058, 192.0, 0.0, 0.0, 0.0, 0.0, 0.0, 0.0, 0.0, 0.0, 0.0, 1.6625068433238797E9, 0.0, 2022-09-06 19:27:23.323
52.0, -24259.42114107861, -9345.286708508338, -7569.753535956566, -7969.916816939929, 8567.602463674839, 18101.33672968587, 58701.78296587265, -5301.43145339864, -11587.412546564645, 4180.938503854097, -24878.944442146356, -10580.220589664053, 14442.713790263391, -9074.003586054276, -2998.0618355347915, -12248.845368486092, 0.294, 0.924, 0.058, 192.0, 0.0, 0.0, 0.0, 0.0, 0.0, 0.0, 0.0, 0.0, 0.0, 1.6625068433238864E9, 0.0, 2022-09-06 19:27:23.323
54.0, -24852.97171508929, -9956.02577400515, -8180.00086307536, -8528.643373089239, 7952.840084176074, 17398.799049711117, 65506.61510307969, -5858.280463013704, -11246.436684898936, 3861.2191511653846, -25498.6689089142, -10997.438251666816, 14189.602636051493, -9715.990390299607, -3526.0100395691443, -12727.865603907778, 0.294, 0.924, 0.058, 192.0, 0.0, 0.0, 0.0, 0.0, 0.0, 0.0, 0.0, 0.0, 0.0, 1.6625068433238924E9, 0.0, 2022-09-06 19:27:23.323
56.0, -24203.98881482945, -9303.712463821466, -7521.987858055575, -7924.3416099955575, 8628.71213301565, 18075.81103751791, 58001.23459115441, -5246.960252161057, -11671.522160949966, 4055.455810482003, -24951.632315115014, -10679.998776912544, 14334.777216288712, -9159.834284762655, -3079.7127580300285, -12328.574040958172, 0.294, 0.924, 0.058, 192.0, 0.0, 0.0, 0.0, 0.0, 0.0, 0.0, 0.0, 0.0, 0.0, 1.6625068433239E9, 0.0, 2022-09-06 19:27:23.323
58.0, -24910.661567528437, -10005.065501340092, -8231.611041022663, -8643.441932611697, 7903.643894629943, 17392.361747307987, 66165.18690171085, -5948.045068746218, -11146.882015094998, 3918.841948371166, -25422.51651555497, -10936.26152709264, 14265.15153231043, -9660.558064050445, -3452.8527799669246, -12684.167943497652, 0.28600000000000003, 0.924, 0.064, 192.0, 4.0, 88.0, 14.0, 112.0, 1.0, 24.0, 0.0, 0.0, 0.0, 1.6625068433239064E9, 0.0, 2022-09-06 19:27:23.323
60.0, -24167.935451023037, -9269.179018638019, -7511.728407350589, -7900.022912028184, 8641.47497909963, 18059.80718848791, 57535.08896053898, -5213.74555990047, -11739.18089141618, 3953.911835421543, -25048.035388950753, -10788.740013687613, 14207.28286591564, -9272.867056473144, -3186.688206993128, -12468.115981592653, 0.28600000000000003, 0.924, 0.064, 192.0, 0.0, 0.0, 0.0, 0.0, 0.0, 0.0, 0.0, 0.0, 0.0, 1.6625068433239136E9, 0.0, 2022-09-06 19:27:23.323
62.0, -24926.285436902697, -10017.448367768333, -8241.982250449926, -8691.408776212786, 7879.414603640391, 17384.225712326253, 66554.12960697766, -6001.421034505491, -11076.675185760878, 4009.880603537632, -25330.047348743363, -10845.62520332637, 14340.923946013922, -9587.37845270377, -3384.031758789034, -12626.50044280296, 0.28600000000000003, 0.924, 0.064, 192.0, 0.0, 0.0, 0.0, 0.0, 0.0, 0.0, 0.0, 0.0, 0.0, 1.6625068433239198E9, 0.0, 2022-09-06 19:27:23.323
64.0, -24137.738244263917, -9242.334573547194, -7483.587561081357, -7851.072591671061, 8639.530377332017, 18010.99097859752, 57377.21858945115, -5169.042070989856, -11771.725031343107, 3872.551485604225, -25125.707700932944, -10866.993471025644, 14165.686269484315, -9365.80560991831, -3270.328434744887, -12558.931119314566, 0.28600000000000003, 0.924, 0.064, 192.0, 0.0, 0.0, 0.0, 0.0, 0.0, 0.0, 0.0, 0.0, 0.0, 1.662506843323926E9, 0.0, 2022-09-06 19:27:23.323
66.0, -24919.021119954723, -10013.112129344003, -8215.76365420385, -8686.536095921529, 7901.967513795796, 17449.492806135753, 66624.20232584505, -5995.5648774582005, -11005.283713970628, 4103.534412805368, -25209.12441124015, -10735.587565372893, 14447.519415321281, -9465.181465766605, -3267.489763199063, -12505.532801810838, 0.28600000000000003, 0.924, 0.064, 192.0, 0.0, 0.0, 0.0, 0.0, 0.0, 0.0, 0.0, 0.0, 0.0, 1.6625068433239322E9, 0.0, 2022-09-06 19:27:23.323
68.0, -24155.93256425054, -9272.911759962053, -7505.358160180826, -7840.74608573271, 8622.31953410143, 18001.200914526096, 57545.750742644166, -5174.808821059325, -11799.396490978777, 3803.9539818708877, -25225.41883294807, -10948.286765609595, 14070.289024149064, -9452.910358060642, -3365.3457004243974, -12632.669524272624, 0.274, 0.926, 0.059, 192.0, 4.0, 24.0, 14.5, 0.0, 0.5, 88.0, 0.0, 0.0, 0.0, 1.662506843323939E9, 0.0, 2022-09-06 19:27:23.323
70.0, -24892.10961963053, -9975.874123081461, -8171.775421115807, -8665.19017996671, 7917.680790147876, 17502.913475383935, 66400.34960512514, -6003.52209848429, -11027.7025136593, 4176.6693206631335, -25118.24221828487, -10657.82584641288, 14482.365784927106, -9372.712298955, -3180.854401690293, -12417.958667034945, 0.274, 0.926, 0.059, 192.0, 0.0, 0.0, 0.0, 0.0, 0.0, 0.0, 0.0, 0.0, 0.0, 1.662506843323947E9, 0.0, 2022-09-06 19:27:23.323
72.0, -24176.987907527437, -9293.11773694965, -7520.132663265785, -7834.420542051857, 8575.135001556278, 17917.02424490741, 58020.52414661934, -5187.035225276378, -11811.95817136266, 3735.5352920931928, -25317.887999759674, -11019.566478677569, 14009.380520508352, -9551.056867963895, -3438.1676838597878, -12712.129975811242, 0.274, 0.926, 0.059, 192.0, 0.0, 0.0, 0.0, 0.0, 0.0, 0.0, 0.0, 0.0, 0.0, 1.6625068433239532E9, 0.0, 2022-09-06 19:27:23.323
74.0, -24827.714243854793, -9910.539974038598, -8094.3936818115335, -8597.598504733862, 7967.882808194496, 17616.86266861709, 65930.94061981924, -5931.281260404738, -11000.858068568477, 4268.89261828573, -24991.016088845266, -10550.291603838397, 14567.302413857273, -9225.39195125007, -3048.4873710259644, -12293.526505652251, 0.274, 0.926, 0.059, 192.0, 0.0, 0.0, 0.0, 0.0, 0.0, 0.0, 0.0, 0.0, 0.0, 1.6625068433239594E9, 0.0, 2022-09-06 19:27:23.323
76.0, -24251.41921656361, -9360.552949971312, -7610.433710865225, -7896.737205593254, 8537.964050527102, 17881.30615726783, 58794.60976059554, -5235.0020688774675, -11780.531618658499, 3673.0621663406096, -25413.97814917304, -11084.230075386773, 13955.356354159876, -9650.253909856548, -3522.098484289466, -12772.926720729676, 0.274, 0.926, 0.059, 192.0, 0.0, 0.0, 0.0, 0.0, 0.0, 0.0, 0.0, 0.0, 0.0, 1.6625068433239658E9, 0.0, 2022-09-06 19:27:23.323
78.0, -24782.0496299326, -9861.880226359395, -8057.245082526813, -8565.79197237396, 8042.045896297204, 17663.086076150666, 65166.063924558635, -5898.558306522168, -11041.851167899511, 4295.759415121009, -24927.201858425364, -10509.186745785088, 14565.469570811936, -9149.083095679653, -3004.49913793792, -12227.767673464738, 0.277, 0.933, 0.056499999999999995, 192.0, 4.0, 96.0, 14.5, 48.0, 0.5, 88.0, 0.0, 0.0, 0.0, 1.662506843323972E9, 0.0, 2022-09-06 19:27:23.323
80.0, -24324.397662210187, -9451.144570248673, -7691.212915326705, -7981.785593245697, 8443.013840080957, 17772.52021700385, 59742.81546387857, -5321.592726897326, -11739.292650138457, 3619.0603517365876, -25517.86905740131, -11173.726460185822, 13923.348656099875, -9742.633669690333, -3623.4859971387386, -12872.526094022525, 0.277, 0.933, 0.056499999999999995, 192.0, 0.0, 0.0, 0.0, 0.0, 0.0, 0.0, 0.0, 0.0, 0.0, 1.6625068433239784E9, 0.0, 2022-09-06 19:27:23.323
82.0, -24675.007125736134, -9765.07482112346, -7962.71955522532, -8478.731927720539, 8147.300260937245, 17773.235472826418, 64188.01864242776, -5805.753863543733, -11085.504124820725, 4322.670915445199, -24843.9639620738, -10474.139210479167, 14620.23134472744, -9059.40789692496, -2957.2699019038564, -12190.328501502097, 0.277, 0.933, 0.056499999999999995, 192.0, 0.0, 0.0, 0.0, 0.0, 0.0, 0.0, 0.0, 0.0, 0.0, 1.6625068433239844E9, 0.0, 2022-09-06 19:27:23.323
84.0, -24417.35856739981, -9536.12590266775, -7783.324454227025, -8080.692062460431, 8343.347411554743, 17679.64871879205, 60847.14810218193, -5419.828643778401, -11650.556224650887, 3601.313066639074, -25557.789272998485, -11197.195791863895, 13905.757833213549, -9779.849324208419, -3681.466422255805, -12918.302466666993, 0.277, 0.933, 0.056499999999999995, 192.0, 0.0, 0.0, 0.0, 0.0, 0.0, 0.0, 0.0, 0.0, 0.0, 1.6625068433239913E9, 0.0, 2022-09-06 19:27:23.323
86.0, -24571.451493674696, -9651.86323545733, -7849.1503416479045, -8377.590284060274, 8230.448750310989, 17858.887357579155, 63092.85021935109, -5707.450891429293, -11152.06761980863, 4324.704924190632, -24782.586071799527, -10460.504646361429, 14637.352780980204, -9030.015352966233, -2931.923023691538, -12178.16915251841, 0.277, 0.933, 0.056499999999999995, 192.0, 0.0, 0.0, 0.0, 0.0, 0.0, 0.0, 0.0, 0.0, 0.0, 1.6625068433239975E9, 0.0, 2022-09-06 19:27:23.323
88.0, -24497.95895790565, -9608.053816324928, -7858.940405719329, -8167.640348391575, 8259.953052991994, 17588.028918269745, 62071.733125654835, -5516.924621692255, -11550.152188557648, 3632.1361222429423, -25568.719276037133, -11200.056815154174, 13920.822908976426, -9829.80547306603, -3703.9075736889336, -12932.808748818488, 0.28250000000000003, 0.9335, 0.05125, 192.0, 4.5, 0.0, 14.5, 24.0, 0.5, 56.0, 0.0, 0.0, 0.0, 1.6625068433240037E9, 0.0, 2022-09-06 19:27:23.324
90.0, -24464.721913900605, -9552.643841820221, -7735.692886792766, -8255.236834911924, 8361.385269330176, 17963.672335585634, 61956.867510899014, -5588.517259182604, -11239.172367950961, 4299.983894823062, -24751.494795262195, -10467.612501098216, 14588.044832711797, -9010.301114356651, -2907.4925670018874, -12147.279041681177, 0.28250000000000003, 0.9335, 0.05125, 192.0, 0.0, 0.0, 0.0, 0.0, 0.0, 0.0, 0.0, 0.0, 0.0, 1.662506843324011E9, 0.0, 2022-09-06 19:27:23.324
92.0, -24601.559293455994, -9714.246954232092, -7945.5757672281, -8256.220311667958, 8211.516822757343, 17545.627659038026, 63312.23259117992, -5600.989532588665, -11451.424533298557, 3676.7502041757352, -25560.493834077577, -11167.7361926718, 14044.718628492194, -9830.051342255038, -3657.080669055065, -12869.977995154619, 0.28250000000000003, 0.9335, 0.05125, 192.0, 0.0, 0.0, 0.0, 0.0, 0.0, 0.0, 0.0, 0.0, 0.0, 1.6625068433240197E9, 0.0, 2022-09-06 19:27:23.324
94.0, -24402.53936082594, -9482.884047375208, -7672.079822072962, -8154.56457788522, 8481.056509143891, 17987.476943430538, 60859.28509942116, -5488.806127167479, -11377.328500429214, 4252.777010533454, -24781.66965027686, -10511.60073418626, 14433.929554692455, -8998.700558984347, -2921.730628219918, -12151.145893471945, 0.28250000000000003, 0.9335, 0.05125, 192.0, 0.0, 0.0, 0.0, 0.0, 0.0, 0.0, 0.0, 0.0, 0.0, 1.6625068433240275E9, 0.0, 2022-09-06 19:27:23.324
96.0, -24705.69607087327, -9812.348760646435, -8028.701904857387, -8371.08592642378, 8069.31502453268, 17477.79011461617, 64469.09182895325, -5726.673391660856, -11364.453895622957, 3715.955163950344, -25562.706656778653, -11144.132750526995, 14074.558207340027, -9790.89108596934, -3616.154624957398, -12835.757474393544, 0.28250000000000003, 0.9335, 0.05125, 192.0, 0.0, 0.0, 0.0, 0.0, 0.0, 0.0, 0.0, 0.0, 0.0, 1.662506843324036E9, 0.0, 2022-09-06 19:27:23.324
98.0, -24305.398679423175, -9384.178743860573, -7586.606751275868, -8047.857349855584, 8516.97576248357, 18072.279461893973, 59845.14174999497, -5391.196059131153, -11466.579016039255, 4198.551678484879, -24810.726918068758, -10565.021403434444, 14524.185898802985, -9003.774404975702, -2940.1261139066355, -12197.726928916803, 0.28125, 0.93675, 0.049625, 192.0, 4.0, 96.0, 14.5, 48.0, 0.5, 64.0, 0.0, 0.0, 0.0, 1.6625068433240442E9, 0.0, 2022-09-06 19:27:23.324
100.0, -24812.783278558647, -9908.170689126337, -8126.244917660346, -8482.285855088932, 8001.4104248774565, 17474.16913201441, 65483.61515803518, -5805.150366443439, -11276.164505024493, 3775.522562923737, -25534.118775620318, -11092.05318594613, 14136.494891225684, -9767.242940335625, -3577.530810538627, -12788.327072659384, 0.28125, 0.93675, 0.049625, 192.0, 0.0, 0.0, 0.0, 0.0, 0.0, 0.0, 0.0, 0.0, 0.0, 1.6625068433240523E9, 0.0, 2022-09-06 19:27:23.324
102.0, -24256.783635232885, -9342.336278240238, -7551.425105503215, -7978.119907155026, 8581.527600470496, 18086.29400566745, 58982.11854483111, -5350.627642944771, -11596.06267166885, 4096.091281901751, -24901.720869746314, -10667.615910484305, 14369.377716705529, -9097.763490410267, -3044.9110919131153, -12274.1475432095, 0.28125, 0.93675, 0.049625, 192.0, 0.0, 0.0, 0.0, 0.0, 0.0, 0.0, 0.0, 0.0, 0.0, 1.6625068433240626E9, 0.0, 2022-09-06 19:27:23.324
104.0, -24892.891930686466, -9982.624349906964, -8198.977494117915, -8583.762774916027, 7931.047133332149, 17401.72712823476, 66287.65210958148, -5918.093731176106, -11200.056815154174, 3846.0199649357755, -25486.107228530316, -11030.317667760572, 14192.307197130585, -9717.286791478014, -3542.438571743795, -12742.103665125807, 0.28125, 0.93675, 0.049625, 192.0, 0.0, 0.0, 0.0, 0.0, 0.0, 0.0, 0.0, 0.0, 0.0, 1.6625068433240712E9, 0.0, 2022-09-06 19:27:23.324
106.0, -24189.862512333693, -9281.450126343982, -7493.57879085288, -7899.687635861354, 8643.263118656054, 18108.668101867213, 58361.67882224069, -5177.4239751605965, -11673.466762717577, 4013.1439582281064, -24961.400027441985, -10731.765417071036, 14319.578030059103, -9162.71765979739, -3123.90215681817, -12349.20470109042, 0.28125, 0.93675, 0.049625, 192.0, 0.0, 0.0, 0.0, 0.0, 0.0, 0.0, 0.0, 0.0, 0.0, 1.6625068433240795E9, 0.0, 2022-09-06 19:27:23.324
108.0, -24926.821878769624, -10006.920696129882, -8219.272878083335, -8652.829665282925, 7905.566144653099, 17443.010800243712, 66840.99189531707, -5928.688458047922, -11102.446747117847, 3937.30448929125, -25367.73238989501, -10909.975875613198, 14317.834593991589, -9628.058627612429, -3434.479646024662, -12626.723960247513, 0.283625, 0.9313750000000001, 0.0478125, 192.0, 4.0, 120.0, 14.0, 120.0, 0.5, 56.0, 0.0, 0.0, 0.0, 1.662506843324088E9, 0.0, 2022-09-06 19:27:23.324
110.0, -24173.813959814783, -9257.086724887697, -7480.368909879793, -7868.596359324022, 8660.965700264656, 18088.283310923973, 57999.35704462016, -5156.882722006169, -11758.358688158833, 3910.5047476893365, -25061.491139112848, -10819.406607080295, 14171.22950210923, -9303.399539399094, -3216.393675374231, -12461.164589067053, 0.283625, 0.9313750000000001, 0.0478125, 192.0, 0.0, 0.0, 0.0, 0.0, 0.0, 0.0, 0.0, 0.0, 0.0, 1.662506843324096E9, 0.0, 2022-09-06 19:27:23.324
112.0, -24943.60803885556, -10008.194745563835, -8207.00177037737, -8665.748973578093, 7887.371824666479, 17466.63659413297, 67123.47324174324, -5960.159714240995, -11049.495464503225, 4044.905787099098, -25271.083446870263, -10799.111223114876, 14437.61759252758, -9529.21921363106, -3328.353563350864, -12537.898127782122, 0.283625, 0.9313750000000001, 0.0478125, 192.0, 0.0, 0.0, 0.0, 0.0, 0.0, 0.0, 0.0, 0.0, 0.0, 1.6625068433241045E9, 0.0, 2022-09-06 19:27:23.324
114.0, -24160.760541052885, -9242.35692529165, -7464.923854461176, -7822.372951790447, 8650.102752459377, 18071.877130493776, 57962.32020405772, -5138.39782934163, -11786.544237916976, 3854.938310973443, -25139.945762150975, -10878.10228801993, 14181.33249060303, -9372.801705932821, -3290.489708243574, -12535.394732403129, 0.283625, 0.9313750000000001, 0.0478125, 192.0, 0.0, 0.0, 0.0, 0.0, 0.0, 0.0, 0.0, 0.0, 0.0, 1.6625068433241131E9, 0.0, 2022-09-06 19:27:23.324
116.0, -24960.23773673031, -10018.007161379715, -8197.725796428418, -8684.90441857629, 7893.764423580697, 17503.22639980631, 67101.3897182214, -5988.926409354975, -11014.783205364134, 4138.20196845555, -25163.906832207067, -10698.349559110351, 14498.570799657202, -9427.697590315056, -3225.6025940898176, -12445.428960970517, 0.283625, 0.9313750000000001, 0.0478125, 192.0, 0.0, 0.0, 0.0, 0.0, 0.0, 0.0, 0.0, 0.0, 0.0, 1.6625068433241217E9, 0.0, 2022-09-06 19:27:23.324
118.0, -24219.88090513717, -9300.717330064455, -7510.00732302753, -7846.736353246732, 8614.876403197813, 18006.27476051745, 58229.78117820992, -5160.727222052482, -11835.360447807367, 3755.4059929139607, -25273.29626957134, -10993.973731276243, 14066.802152014036, -9519.540908281911, -3408.14929105631, -12658.865768774245, 0.2828125, 0.9256875, 0.04890625, 192.0, 4.0, 104.0, 14.0, 96.0, 0.5, 72.0, 0.0, 0.0, 0.0, 1.6625068433241296E9, 0.0, 2022-09-06 19:27:23.324
120.0, -24920.853963000056, -9973.616596891476, -8125.395551371044, -8631.953135961669, 7978.075203666116, 17611.230029014354, 66762.33610657885, -5933.941117994919, -11020.907583344888, 4201.010370374963, -25066.900261271032, -10621.48190992855, 14556.148893374073, -9317.324676194748, -3126.852587086271, -12345.606070233116, 0.2828125, 0.9256875, 0.04890625, 192.0, 0.0, 0.0, 0.0, 0.0, 0.0, 0.0, 0.0, 0.0, 0.0, 1.6625068433241367E9, 0.0, 2022-09-06 19:27:23.324
122.0, -24276.18494942009, -9360.083563337752, -7543.266718777028, -7864.260120899692, 8582.46637373762, 17956.36331514875, 58780.5728650776, -5175.680539093082, -11813.411034752255, 3699.973666664799, -25344.59833438377, -11048.869615658477, 14056.050962931033, -9595.581542918866, -3454.73032650117, -12708.397234487205, 0.2828125, 0.9256875, 0.04890625, 192.0, 0.0, 0.0, 0.0, 0.0, 0.0, 0.0, 0.0, 0.0, 0.0, 1.6625068438037622E9, 0.0, 2022-09-06 19:27:23.803
124.0, -24919.378747866005, -9965.97230028776, -8091.331492821157, -8618.989124177591, 8004.696131312387, 17677.413544346517, 66132.57570655057, -5914.025713685241, -11054.725772705768, 4250.832408765842, -24978.23089101683, -10552.99616491749, 14642.113702549184, -9228.834119896188, -3039.0996383547354, -12263.798685526692, 0.2828125, 0.9256875, 0.04890625, 192.0, 0.0, 0.0, 0.0, 0.0, 0.0, 0.0, 0.0, 0.0, 0.0, 1.6625068438038487E9, 0.0, 2022-09-06 19:27:23.803
126.0, -24375.046715145912, -9455.39140169518, -7621.922507515253, -7931.404761243434, 8520.395579385231, 17899.053442365344, 59568.60596759391, -5234.51033049945, -11827.537337248008, 3624.5588808725934, -25463.42020790818, -11136.48845392328, 13967.783924077026, -9708.770776840542, -3560.185856841309, -12796.753680319034, 0.2828125, 0.9256875, 0.04890625, 192.0, 0.0, 0.0, 0.0, 0.0, 0.0, 0.0, 0.0, 0.0, 0.0, 1.6625068438038576E9, 0.0, 2022-09-06 19:27:23.803
128.0, -24862.225337293785, -9911.568154283543, -8009.077073225627, -8551.397448944743, 8088.895152675528, 17744.491129456896, 65278.24732997982, -5847.663384397434, -11107.230020431283, 4291.400824952224, -24896.49056154377, -10500.894248592169, 14664.532502237858, -9121.456339532893, -2965.4953438634093, -12183.60062642105, 0.2828125, 0.9256875, 0.04890625, 192.0, 0.0, 0.0, 0.0, 0.0, 0.0, 0.0, 0.0, 0.0, 0.0, 1.6625068438038657E9, 0.0, 2022-09-06 19:27:23.803
130.0, -24480.368135019322, -9563.551493114412, -7712.6705900038, -8031.473521169844, 8408.323932686322, 17779.76218220737, 60569.293566858, -5325.325468221363, -11803.084528813903, 3573.954531425778, -25556.515223564533, -11210.02569318124, 13959.871406539847, -9817.400254893333, -3638.685183368347, -12872.749611467078, 0.264, 0.926, 0.044, 192.0, 4.0, 32.0, 14.0, 120.0, 0.5, 48.0, 0.0, 0.0, 0.0, 1.6625068438038745E9, 0.0, 2022-09-06 19:27:23.803
132.0, -24775.43351357383, -9818.696656071741, -7905.722606864287, -8464.203293824588, 8181.878409609606, 17817.626037314658, 64254.04569554874, -5761.072726377574, -11186.511658014257, 4312.009133340017, -24834.352711958018, -10475.949701780046, 14698.417746832103, -9054.579920122615, -2924.0328578988147, -12157.873768552992, 0.264, 0.926, 0.044, 192.0, 0.0, 0.0, 0.0, 0.0, 0.0, 0.0, 0.0, 0.0, 0.0, 1.6625068438038836E9, 0.0, 2022-09-06 19:27:23.803
134.0, -24585.890720592826, -9658.367593093824, -7796.064948566551, -8132.950440996939, 8319.900431621127, 17667.89170120856, 61716.1168713709, -5440.191082977186, -11718.84080396185, 3591.5900578010155, -25594.937872283208, -11218.474652585346, 14032.06754113049, -9826.273897442092, -3649.3022619846183, -12914.770891043056, 0.264, 0.926, 0.044, 192.0, 0.0, 0.0, 0.0, 0.0, 0.0, 0.0, 0.0, 0.0, 0.0, 1.662506843803895E9, 0.0, 2022-09-06 19:27:23.803
136.0, -24665.194709920255, -9707.183802984215, -7791.460489208757, -8343.190949343556, 8314.64777167413, 17943.466358598038, 63138.78305420674, -5640.30625108555, -11280.009005070808, 4307.248211771037, -24803.797877287612, -10469.937082521568, 14681.877455935177, -9020.35939936154, -2874.1661160190247, -12151.503521383229, 0.264, 0.926, 0.044, 192.0, 0.0, 0.0, 0.0, 0.0, 0.0, 0.0, 0.0, 0.0, 0.0, 1.6625068438039024E9, 0.0, 2022-09-06 19:27:23.803
138.0, -24684.93130027429, -9760.425658276756, -7891.283379946159, -8233.890918957106, 8247.525483074842, 17643.751817196826, 62945.35105769051, -5523.183110139741, -11615.4416341116, 3616.154624957398, -25611.79108760251, -11209.55630654768, 14035.263840587599, -9877.682909689298, -3638.059334523599, -12906.992483972608, 0.264, 0.926, 0.044, 192.0, 0.0, 0.0, 0.0, 0.0, 0.0, 0.0, 0.0, 0.0, 0.0, 1.6625068438039095E9, 0.0, 2022-09-06 19:27:23.803
140.0, -24557.414598156764, -9605.215144779104, -7699.57246775299, -8218.222346093935, 8410.42499666512, 17991.880237088233, 61985.254226357254, -5513.147176879308, -11377.574369618222, 4284.807060337908, -24793.426667860353, -10483.996329783957, 14708.43132834808, -8961.507256210716, -2861.671490868508, -12140.417056133398, 0.258, 0.93, 0.04, 192.0, 4.0, 8.0, 14.5, 8.0, 0.5, 32.0, 0.0, 0.0, 0.0, 1.662506843803916E9, 0.0, 2022-09-06 19:27:23.803
142.0, -24755.182833097322, -9829.671362599298, -7981.9867589457945, -8318.3134577648, 8153.491694151366, 17540.218536879842, 64156.12270309004, -5627.498701512659, -11501.42538564508, 3687.881372914478, -25599.229407218627, -11150.97238433032, 14166.647394495893, -9810.09123445645, -3609.9631917432775, -12866.334660808405, 0.258, 0.93, 0.04, 192.0, 0.0, 0.0, 0.0, 0.0, 0.0, 0.0, 0.0, 0.0, 0.0, 1.6625068438039224E9, 0.0, 2022-09-06 19:27:23.803
144.0, -24425.248733192533, -9478.279588017414, -7618.435635380225, -8096.830021957162, 8521.915498008191, 18086.271653922995, 60913.130451813995, -5415.850033265357, -11463.136847393138, 4259.281368169948, -24798.65697606289, -10490.858315331736, 14668.153484839617, -8976.572331973593, -2884.4255667240104, -12150.989431260758, 0.258, 0.93, 0.04, 192.0, 0.0, 0.0, 0.0, 0.0, 0.0, 0.0, 0.0, 0.0, 0.0, 1.662506843803929E9, 0.0, 2022-09-06 19:27:23.803
146.0, -24803.641415076425, -9873.547836965065, -8056.216902281869, -8401.596057605275, 8088.537524764243, 17531.255487353264, 65273.82168457767, -5720.683124146834, -11376.00974750635, 3777.623626902536, -25558.72804626561, -11078.865656717498, 14198.185705922331, -9766.393574046324, -3572.501668036183, -12800.285255942972, 0.258, 0.93, 0.04, 192.0, 0.0, 0.0, 0.0, 0.0, 0.0, 0.0, 0.0, 0.0, 0.0, 1.6625068438039396E9, 0.0, 2022-09-06 19:27:23.803
148.0, -24311.970092293035, -9374.43338327806, -7543.557291454947, -8007.020712735738, 8574.062117822423, 18129.11994804382, 59931.732408014825, -5326.733628122048, -11551.515644969422, 4199.378693029725, -24831.558743901103, -10538.445179277085, 14658.698696935022, -9009.854079467545, -2937.332145849722, -12192.31780675862, 0.258, 0.93, 0.04, 192.0, 0.0, 0.0, 0.0, 0.0, 0.0, 0.0, 0.0, 0.0, 0.0, 1.662506843803946E9, 0.0, 2022-09-06 19:27:23.803
150.0, -24850.02128482119, -9924.979200956726, -8122.936859480961, -8515.053512460412, 8001.343369644091, 17488.586007188085, 66207.2752365202, -5826.675096353901, -11252.158731479494, 3862.0238139657754, -25492.924510589186, -10996.924161544342, 14370.428248694927, -9703.249895960082, -3518.7904261100803, -12753.547758286924, 0.256, 0.926, 0.032, 192.0, 4.0, 0.0, 14.0, 120.0, 0.5, 0.0, 0.0, 0.0, 0.0, 1.6625068438039525E9, 0.0, 2022-09-06 19:27:23.803
152.0, -24217.288102780356, -9290.03319621482, -7489.466069873103, -7939.719610180809, 8644.76068553456, 18167.9896316516, 59154.71871551499, -5253.866941197746, -11626.237526683513, 4130.401209640648, -24889.49446552926, -10610.060168511889, 14567.660041768557, -9070.69552787489, -3016.345562499233, -12290.710185850881, 0.256, 0.926, 0.032, 192.0, 0.0, 0.0, 0.0, 0.0, 0.0, 0.0, 0.0, 0.0, 0.0, 1.662506843803959E9, 0.0, 2022-09-06 19:27:23.803
154.0, -24886.63344223898, -9957.411582161378, -8174.256464750346, -8606.27098158252, 7937.99852585775, 17480.114696039524, 66921.23465791163, -5911.947001450897, -11149.29600349617, 3957.264597089839, -25409.865428193265, -10908.791233157068, 14447.698229276924, -9650.969165679118, -3455.4902858126507, -12688.213609244063, 0.256, 0.926, 0.032, 192.0, 0.0, 0.0, 0.0, 0.0, 0.0, 0.0, 0.0, 0.0, 0.0, 1.662506843803965E9, 0.0, 2022-09-06 19:27:23.803
156.0, -24120.996787666892, -9202.637875394568, -7421.405008006694, -7856.705231273799, 8681.037566785522, 18186.20630338267, 58598.96494137823, -5181.424937418096, -11685.179076812157, 4066.1399443316395, -24953.59926862708, -10682.435117058172, 14489.920674553, -9147.294956123229, -3099.6728658286174, -12383.827553251691, 0.256, 0.926, 0.032, 192.0, 0.0, 0.0, 0.0, 0.0, 0.0, 0.0, 0.0, 0.0, 0.0, 1.6625068438039715E9, 0.0, 2022-09-06 19:27:23.803
158.0, -24865.555747217626, -9943.844073277007, -8155.033964518781, -8628.153339404267, 7935.003392100739, 17522.09127212659, 67336.30655244668, -5946.167522211972, -11037.626688197457, 4075.393566536137, -25283.041630153853, -10791.75749918908, 14615.246905713906, -9528.191033386116, -3334.388534353797, -12589.01656735141, 0.256, 0.926, 0.032, 192.0, 0.0, 0.0, 0.0, 0.0, 0.0, 0.0, 0.0, 0.0, 0.0, 1.662506843803978E9, 0.0, 2022-09-06 19:27:23.803
160.0, -24073.47697895491, -9166.80802903271, -7401.757824630478, -7814.1028063419835, 8700.595343183917, 18167.16261710675, 58324.172595044685, -5142.44349508804, -11718.282010350467, 4002.549231356291, -25017.212333346884, -10754.586548159903, 14431.224993613363, -9247.386067794094, -3173.72419520905, -12460.60579545567, 0.246, 0.934, 0.024, 192.0, 3.5, 88.0, 14.5, 24.0, 0.0, 96.0, 0.0, 0.0, 0.0, 1.6625068438039844E9, 0.0, 2022-09-06 19:27:23.803
162.0, -24870.182558319877, -9949.96845125776, -8165.025194290304, -8668.878217801835, 7950.157874841438, 17528.70738848536, 67454.39081840406, -5998.895287382042, -10983.513114871159, 4162.654776889655, -25180.290660892806, -10706.038559202976, 14661.939699881043, -9440.907471288141, -3241.427629164175, -12498.112022651676, 0.246, 0.934, 0.024, 192.0, 0.0, 0.0, 0.0, 0.0, 0.0, 0.0, 0.0, 0.0, 0.0, 1.6625068438039908E9, 0.0, 2022-09-06 19:27:23.803
164.0, -24080.517778458332, -9175.659319837014, -7423.37196151876, -7802.92693411433, 8694.76153788108, 18131.913916100733, 58367.98201417709, -5128.630117014661, -11757.464618380622, 3903.4415964414593, -25131.228581813408, -10864.7135930912, 14367.03078353772, -9369.739516942444, -3269.1884957776665, -12562.395639705139, 0.246, 0.934, 0.024, 192.0, 0.0, 0.0, 0.0, 0.0, 0.0, 0.0, 0.0, 0.0, 0.0, 1.6625068438039973E9, 0.0, 2022-09-06 19:27:23.803
166.0, -24827.781299088158, -9901.264000089646, -8123.205080414425, -8636.222319152632, 7961.5572645136435, 17619.0084360848, 67285.00929892174, -5953.99063277133, -10946.74449524218, 4273.0500427544175, -25061.96052574641, -10592.223476436553, 14745.222299721516, -9301.36553065366, -3106.6689618431287, -12364.87327395359, 0.246, 0.934, 0.024, 192.0, 0.0, 0.0, 0.0, 0.0, 0.0, 0.0, 0.0, 0.0, 0.0, 1.662506843804019E9, 0.0, 2022-09-06 19:27:23.804
168.0, -24093.14651407558, -9197.027587536286, -7462.778086993467, -7811.152376073883, 8653.433162383219, 18075.162836928706, 58700.86654434998, -5144.298689877831, -11765.04185975097, 3844.164770145985, -25224.860039336687, -10933.109931124442, 14304.602361274048, -9451.546901648868, -3351.264101417554, -12633.273021372917, 0.246, 0.934, 0.024, 192.0, 0.0, 0.0, 0.0, 0.0, 0.0, 0.0, 0.0, 0.0, 0.0, 1.6625068438040264E9, 0.0, 2022-09-06 19:27:23.804
170.0, -24767.632754758928, -9842.545967405555, -8084.000120639816, -8618.251516610566, 8007.713616813853, 17719.613637878138, 66815.75677582703, -5916.193832897406, -10929.891279922876, 4357.696099006665, -24948.436015657906, -10497.183859012588, 14878.684565864154, -9175.011119247809, -3026.4485509930314, -12270.370098396552, 0.23600000000000002, 0.936, 0.012, 192.0, 3.5, 48.0, 14.5, 32.0, 0.0, 48.0, 0.0, 0.0, 0.0, 1.6625068438040328E9, 0.0, 2022-09-06 19:27:23.804
172.0, -24129.87043021565, -9240.121750846118, -7529.341581981371, -7869.423373868868, 8594.201039576656, 18008.353472751794, 59309.92922901264, -5180.553219384339, -11733.123568668792, 3769.822868087634, -25316.301025903347, -11007.697702371801, 14275.008651615222, -9550.676888308155, -3449.9694049321897, -12727.329162040849, 0.23600000000000002, 0.936, 0.012, 192.0, 0.0, 0.0, 0.0, 0.0, 0.0, 0.0, 0.0, 0.0, 0.0, 1.6625068438040392E9, 0.0, 2022-09-06 19:27:23.804
174.0, -24711.999262809666, -9792.902742970318, -8032.881681070528, -8585.796783661459, 8072.2654548007795, 17741.361885233153, 66103.98782539224, -5893.953847164375, -10955.036992435098, 4394.643532591287, -24855.318648257096, -10438.44347458404, 14892.654406148722, -9092.689644418913, -2949.8044192557836, -12217.75409194876, 0.23600000000000002, 0.936, 0.012, 192.0, 0.0, 0.0, 0.0, 0.0, 0.0, 0.0, 0.0, 0.0, 0.0, 1.6625068438040552E9, 0.0, 2022-09-06 19:27:23.804
176.0, -24211.253131777423, -9326.42183618806, -7621.140196459317, -7958.830351690096, 8499.11671866378, 17907.703567469547, 60165.08462012823, -5267.2332843820195, -11714.616324259798, 3730.4167426129275, -25411.765326471967, -11079.737374751256, 14220.380988166451, -9656.355936092847, -3545.4113537563508, -12829.342523734871, 0.23600000000000002, 0.936, 0.012, 192.0, 0.0, 0.0, 0.0, 0.0, 0.0, 0.0, 0.0, 0.0, 0.0, 1.6625068438040617E9, 0.0, 2022-09-06 19:27:23.804
178.0, -24615.819706418482, -9697.304331934969, -7942.0665433486165, -8512.2595444035, 8158.207912231435, 17846.68330510656, 65165.438075713886, -5810.112453712518, -11000.142812745908, 4431.501559198089, -24772.77365598365, -10390.946017616514, 14929.020694377507, -9027.154329675952, -2897.1437093190802, -12170.815428592614, 0.23600000000000002, 0.936, 0.012, 192.0, 0.0, 0.0, 0.0, 0.0, 0.0, 0.0, 0.0, 0.0, 0.0, 1.662506843804073E9, 0.0, 2022-09-06 19:27:23.804
180.0, -24292.36761240573, -9406.28461912687, -7704.847479444442, -8051.858312113084, 8412.101377499268, 17788.546417778303, 61212.28619960383, -5361.714108194603, -11635.20057621009, 3697.7384922192687, -25473.567899890888, -11119.791700815165, 14199.392700122919, -9742.387800501323, -3606.5210230971607, -12893.02264368804, 0.226, 0.932, 0.008, 192.0, 3.5, 8.0, 14.5, 16.0, 0.0, 32.0, 0.0, 0.0, 0.0, 1.6625068438040798E9, 0.0, 2022-09-06 19:27:23.804
182.0, -24518.813135482447, -9597.682606897666, -7829.614916993966, -8412.034322265903, 8249.559491820275, 17903.479087767493, 64089.179228446395, -5736.37404875446, -11074.931749693365, 4444.912605871273, -24711.731041876203, -10363.699241125494, 14919.632961706277, -8963.854189378522, -2857.6705286110077, -12148.553091115129, 0.226, 0.932, 0.008, 192.0, 0.0, 0.0, 0.0, 0.0, 0.0, 0.0, 0.0, 0.0, 0.0, 1.662506843804086E9, 0.0, 2022-09-06 19:27:23.804
184.0, -24399.946558469124, -9514.891745435209, -7783.659730393855, -8155.458647663432, 8317.374684497678, 17716.529097143306, 62363.602204752235, -5459.681804142214, -11549.660450179632, 3713.7870447381792, -25501.79815313794, -11128.486529408281, 14221.453871900305, -9811.566449590498, -3617.9427645138226, -12923.778644058544, 0.226, 0.932, 0.008, 192.0, 0.0, 0.0, 0.0, 0.0, 0.0, 0.0, 0.0, 0.0, 0.0, 1.6625068438040924E9, 0.0, 2022-09-06 19:27:23.804
186.0, -24421.82891629087, -9498.664378960655, -7715.285744105071, -8293.994759797426, 8358.591301273264, 18000.105679047785, 62958.65034564142, -5611.070169338009, -11179.761431188756, 4420.191576503704, -24685.132465974388, -10380.194828533511, 14902.019787075495, -8952.901834595423, -2832.0107259763154, -12142.428713134375, 0.226, 0.932, 0.008, 192.0, 0.0, 0.0, 0.0, 0.0, 0.0, 0.0, 0.0, 0.0, 0.0, 1.6625068438040988E9, 0.0, 2022-09-06 19:27:23.804
188.0, -24491.521655502518, -9601.57181043289, -7858.001632452207, -8237.623660281142, 8245.513826073864, 17665.34360234065, 63558.77233252196, -5566.813715316501, -11436.270050557858, 3749.438077144394, -25506.894350873754, -11111.186279199872, 14247.873633846479, -9814.338065902957, -3599.659037549381, -12896.621274545345, 0.226, 0.932, 0.008, 192.0, 0.0, 0.0, 0.0, 0.0, 0.0, 0.0, 0.0, 0.0, 0.0, 1.6625068438041155E9, 0.0, 2022-09-06 19:27:23.804
190.0, -24338.903944361682, -9392.158316631117, -7636.27232745556, -8193.657778937553, 8462.593968223808, 18071.072467693386, 61827.2944482916, -5528.547528809015, -11275.248083501827, 4386.976884243118, -24686.07123924151, -10408.53684050284, 14891.447411948135, -8926.482072649249, -2830.3343451421674, -12139.321820655086, 0.23, 0.9500000000000001, 0.008, 192.0, 3.5, 24.0, 14.5, 88.0, 0.0, 32.0, 0.0, 0.0, 0.0, 1.662506843804122E9, 0.0, 2022-09-06 19:27:23.804
192.0, -24626.660302479304, -9704.188669227204, -7982.00911069025, -8369.029565933892, 8140.751199811841, 17576.897749531003, 64705.12625040129, -5687.200210952784, -11355.021459462818, 3767.3194727086393, -25530.743662207566, -11106.850040775544, 14344.388466404494, -9776.809486962497, -3594.6075433024816, -12885.758326740066, 0.23, 0.9500000000000001, 0.008, 192.0, 0.0, 0.0, 0.0, 0.0, 0.0, 0.0, 0.0, 0.0, 0.0, 1.6625068438041284E9, 0.0, 2022-09-06 19:27:23.804
194.0, -24265.65727778164, -9322.711446608479, -7581.421146562237, -8112.4091878425115, 8532.621983602285, 18106.67879661069, 60739.837377052, -5431.362143917339, -11405.78227112082, 4302.7555111355205, -24744.342237036497, -10484.666882117615, 14774.413677980147, -8972.526666227182, -2889.2758952708123, -12200.051510340156, 0.23, 0.9500000000000001, 0.008, 192.0, 0.0, 0.0, 0.0, 0.0, 0.0, 0.0, 0.0, 0.0, 0.0, 1.6625068438041348E9, 0.0, 2022-09-06 19:27:23.804
196.0, -24723.398652481876, -9791.807507492007, -8089.722167220375, -8510.091425191335, 8035.675649127442, 17512.301208055163, 65730.13254763276, -5811.922945013398, -11247.330754677148, 3832.810083962689, -25495.24909201254, -11059.889025674944, 14374.071583041143, -9761.096210610416, -3568.433650545317, -12855.404657769759, 0.23, 0.9500000000000001, 0.008, 192.0, 0.0, 0.0, 0.0, 0.0, 0.0, 0.0, 0.0, 0.0, 0.0, 1.6625068438041413E9, 0.0, 2022-09-06 19:27:23.804
198.0, -24189.84016058924, -9247.967213149932, -7521.339657466371, -8029.394808935501, 8608.975542661612, 18167.49789327358, 59820.59953458304, -5322.24092748653, -11520.379664943179, 4221.171643873649, -24817.275979194164, -10579.125354185744, 14699.043595676852, -9034.955088490855, -2974.2348759454344, -12289.436136416929, 0.23, 0.9500000000000001, 0.008, 192.0, 0.0, 0.0, 0.0, 0.0, 0.0, 0.0, 0.0, 0.0, 0.0, 1.6625068438041492E9, 0.0, 2022-09-06 19:27:23.804
200.0, -24809.542275612628, -9876.744136422174, -8156.308013952735, -8602.337074558387, 7969.782706473197, 17473.36446921402, 66576.50370317743, -5887.762413950255, -11161.745925157777, 3912.292887245761, -25451.7078938136, -11000.433385423827, 14454.71667703589, -9697.170221468237, -3508.5980306384604, -12795.054947740431, 0.232, 0.9500000000000001, 0.011, 192.0, 3.5, 40.0, 14.5, 88.0, 0.0, 56.0, 0.0, 0.0, 0.0, 1.6625068438041556E9, 0.0, 2022-09-06 19:27:23.804
202.0, -24121.667340000553, -9179.10148848313, -7459.022993924975, -7939.160816569426, 8673.236807970621, 18186.228655127128, 59116.47488075196, -5241.953461403067, -11619.710817302564, 4147.276776704404, -24885.493503271762, -10654.227215555575, 14575.661966283556, -9097.785842154723, -3032.3270597847772, -12355.485541282362, 0.232, 0.9500000000000001, 0.011, 192.0, 0.0, 0.0, 0.0, 0.0, 0.0, 0.0, 0.0, 0.0, 0.0, 1.662506843804162E9, 0.0, 2022-09-06 19:27:23.804
204.0, -24838.174860259875, -9889.931665650805, -8161.80654308874, -8639.932708732213, 7957.601005745055, 17493.436335734885, 67210.7121003523, -5915.07624567464, -11064.04645014363, 4024.029257777841, -25345.671218117623, -10888.495849191648, 14568.509408057858, -9605.818641879398, -3387.5409826685172, -12682.200989985586, 0.232, 0.9500000000000001, 0.011, 192.0, 0.0, 0.0, 0.0, 0.0, 0.0, 0.0, 0.0, 0.0, 0.0, 1.6625068438041685E9, 0.0, 2022-09-06 19:27:23.804
206.0, -24070.705362642453, -9135.515586795282, -7411.838461379822, -7863.2319406547485, 8704.641008930326, 18202.27720764604, 58690.67414887836, -5141.392963098641, -11671.723326650063, 4083.99898815143, -24955.789739583703, -10724.635210589793, 14542.514329256337, -9166.204531932419, -3081.4114906086315, -12408.369768663619, 0.232, 0.9500000000000001, 0.011, 192.0, 0.0, 0.0, 0.0, 0.0, 0.0, 0.0, 0.0, 0.0, 0.0, 1.662506843804175E9, 0.0, 2022-09-06 19:27:23.804
208.0, -24875.54697698915, -9923.749855011685, -8186.102889311659, -8697.823726871458, 7924.743941395753, 17521.063091881646, 67565.59074706922, -5972.475525435869, -11000.79101333511, 4116.118444933706, -25248.642295437134, -10796.317255057962, 14643.879490361154, -9498.709082449566, -3276.4528127256413, -12569.414087464105, 0.232, 0.9500000000000001, 0.011, 192.0, 0.0, 0.0, 0.0, 0.0, 0.0, 0.0, 0.0, 0.0, 0.0, 1.662506843804181E9, 0.0, 2022-09-06 19:27:23.804
210.0, -24082.90941511505, -9140.567081042182, -7435.598365735814, -7853.8442079835195, 8682.132802263834, 18158.55719549146, 58550.10402799893, -5139.895396220136, -11766.315909184923, 3944.0323643722973, -25081.63006086708, -10844.9099475038, 14398.971426364355, -9303.846574288198, -3205.307210124399, -12526.789310787835, 0.23, 0.9490000000000001, 0.0165, 192.0, 3.5, 16.0, 14.5, 80.0, 0.0, 88.0, 0.0, 0.0, 0.0, 1.6625068438041875E9, 0.0, 2022-09-06 19:27:23.804
212.0, -24864.147587316944, -9905.756700725164, -8171.775421115807, -8708.977247354656, 7932.3211827661025, 17562.458522612873, 67587.04842174631, -5988.144098299039, -10966.07875419602, 4196.294152294892, -25143.052654630264, -10697.902524221245, 14729.956058258542, -9416.991104720963, -3190.1527273837005, -12467.84776065919, 0.23, 0.9490000000000001, 0.0165, 192.0, 0.0, 0.0, 0.0, 0.0, 0.0, 0.0, 0.0, 0.0, 0.0, 1.662506843804194E9, 0.0, 2022-09-06 19:27:23.804
214.0, -24073.05229581026, -9137.996630429821, -7443.063848383886, -7838.846187454008, 8704.976285097157, 18134.88669811329, 58673.03862250312, -5127.467826302985, -11767.366441174323, 3871.612712337102, -25165.337343852207, -10917.240192561174, 14357.352478188574, -9380.200133347527, -3298.4692810141187, -12615.704550231047, 0.23, 0.9490000000000001, 0.0165, 192.0, 0.0, 0.0, 0.0, 0.0, 0.0, 0.0, 0.0, 0.0, 0.0, 1.6625068438042004E9, 0.0, 2022-09-06 19:27:23.804
216.0, -24850.356560988017, -9882.689700447287, -8158.051450020248, -8708.127881065355, 7969.872113451018, 17587.827752569647, 67319.96742724984, -5977.281150493759, -10939.368419571927, 4280.828449824864, -25031.360987587093, -10595.710348571582, 14795.178448579127, -9271.54830355028, -3089.4134151236317, -12373.903378713534, 0.23, 0.9490000000000001, 0.0165, 192.0, 0.0, 0.0, 0.0, 0.0, 0.0, 0.0, 0.0, 0.0, 0.0, 1.6625068438042068E9, 0.0, 2022-09-06 19:27:23.804
218.0, -24119.499220788388, -9179.637930350058, -7499.926686278187, -7880.778060052164, 8630.61203129435, 18062.869377478288, 59115.02201736236, -5136.900262463125, -11793.942665331682, 3797.4049207454827, -25287.087295900263, -11014.202060008296, 14256.032020572666, -9531.968478199064, -3398.5603926849835, -12721.60711546029, 0.23, 0.9490000000000001, 0.0165, 192.0, 0.0, 0.0, 0.0, 0.0, 0.0, 0.0, 0.0, 0.0, 0.0, 1.6625068438042133E9, 0.0, 2022-09-06 19:27:23.804
220.0, -24784.91065322288, -9815.880336270373, -8096.69591149043, -8667.224188712144, 8005.545497601688, 17702.69336732547, 66780.41866784319, -5932.801179027699, -10941.69300099528, 4367.396756100268, -24924.542000835183, -10509.83494637429, 14916.503717482534, -9150.245386391329, -2995.960771555993, -12285.926912537447, 0.232, 0.9455, 0.01725, 192.0, 3.5, 40.0, 14.5, 56.0, 0.0, 72.0, 0.0, 0.0, 0.0, 1.6625068438042195E9, 0.0, 2022-09-06 19:27:23.804
222.0, -24199.65257640512, -9264.686318002501, -7600.8001090049875, -7958.651537734454, 8553.297347223443, 17958.620841338736, 59817.20206942583, -5232.0739903538215, -11749.485045610076, 3736.8316932716007, -25383.64683194719, -11080.944368951843, 14248.544186180137, -9606.980932591074, -3513.381303951896, -12821.094730030864, 0.232, 0.9455, 0.01725, 192.0, 0.0, 0.0, 0.0, 0.0, 0.0, 0.0, 0.0, 0.0, 0.0, 1.662506843804226E9, 0.0, 2022-09-06 19:27:23.804
224.0, -24748.119681849443, -9780.36341433089, -8068.376251265557, -8652.717906560649, 8077.808687425696, 17757.969231363444, 65994.1737048833, -5903.766262980254, -11014.380873963937, 4369.363709612335, -24867.63445945197, -10479.570684381806, 14867.620452358778, -9110.548688238703, -2978.973445769959, -12263.686926804416, 0.232, 0.9455, 0.01725, 192.0, 0.0, 0.0, 0.0, 0.0, 0.0, 0.0, 0.0, 0.0, 0.0, 1.6625068438042324E9, 0.0, 2022-09-06 19:27:23.804
226.0, -24291.76411530544, -9353.176874301062, -7692.554019994023, -8047.834998111129, 8443.863206370259, 17832.28878167734, 60742.16195847535, -5325.459578688095, -11742.354839128833, 3669.038852338654, -25488.18594076466, -11169.278463039216, 14164.456923539272, -9753.340155284424, -3612.4889388667275, -12921.856394035387, 0.232, 0.9455, 0.01725, 192.0, 0.0, 0.0, 0.0, 0.0, 0.0, 0.0, 0.0, 0.0, 0.0, 1.6625068438042388E9, 0.0, 2022-09-06 19:27:23.804
228.0, -24639.266686352097, -9662.413258840235, -7941.23952880377, -8538.142864482745, 8155.6151098746195, 17813.468612845973, 65009.467602904755, -5837.3145267146265, -11074.19414212634, 4407.518137397545, -24786.184702656832, -10426.105311644711, 14924.90797339773, -9019.599440050059, -2908.029008868815, -12215.921248903423, 0.232, 0.9455, 0.01725, 192.0, 0.0, 0.0, 0.0, 0.0, 0.0, 0.0, 0.0, 0.0, 0.0, 1.6625068438042452E9, 0.0, 2022-09-06 19:27:23.804
230.0, -24372.029229644446, -9433.889023529175, -7757.128209725405, -8125.37319962659, 8385.905132997648, 17794.179057381043, 61818.733730165215, -5385.943399184156, -11650.980907795538, 3677.174887320386, -25518.04787135695, -11165.366907759537, 14210.277999672653, -9792.187487147748, -3627.7998838186127, -12951.204234505205, 0.227, 0.9437500000000001, 0.017625000000000002, 192.0, 3.0, 120.0, 14.5, 56.0, 0.0, 72.0, 0.0, 0.0, 0.0, 1.6625068438042543E9, 0.0, 2022-09-06 19:27:23.804
232.0, -24511.8840947013, -9534.695391022611, -7812.851108652486, -8395.672845324618, 8311.83145187276, 17957.07857097132, 63910.38762454839, -5668.581207821514, -11144.11039878254, 4429.4451987082, -24716.9837018232, -10386.542723958817, 14903.115022553806, -8975.655910450925, -2837.017516734304, -12152.755219072727, 0.227, 0.9437500000000001, 0.017625000000000002, 192.0, 0.0, 0.0, 0.0, 0.0, 0.0, 0.0, 0.0, 0.0, 0.0, 1.6625068438042624E9, 0.0, 2022-09-06 19:27:23.804
234.0, -24480.0775623414, -9535.008315444984, -7863.097830188016, -8234.069732912747, 8282.327149191755, 17690.64577706406, 62982.25378778623, -5502.574801751948, -11538.66339190762, 3717.1621581509303, -25529.491964518067, -11144.378619716004, 14232.830909828057, -9786.599551033922, -3619.7756075591574, -12923.309257424982, 0.227, 0.9437500000000001, 0.017625000000000002, 192.0, 0.0, 0.0, 0.0, 0.0, 0.0, 0.0, 0.0, 0.0, 0.0, 1.6625068438042707E9, 0.0, 2022-09-06 19:27:23.804
236.0, -24413.670529564683, -9442.919128289119, -7726.1710436548055, -8301.929629079059, 8368.582531044785, 18043.17749061316, 62751.20380535172, -5575.039157276054, -11243.150978464006, 4409.462739165156, -24708.89237033038, -10409.989703892436, 14879.109249008805, -8942.15064551242, -2840.7726098027956, -12158.566672631106, 0.227, 0.9437500000000001, 0.017625000000000002, 192.0, 0.0, 0.0, 0.0, 0.0, 0.0, 0.0, 0.0, 0.0, 0.0, 1.6625068438042793E9, 0.0, 2022-09-06 19:27:23.804
238.0, -24574.44662743171, -9631.165520091716, -7955.790514444175, -8355.12678088269, 8174.703499639452, 17671.579739043682, 64144.83507214011, -5612.746550172156, -11437.588803480721, 3740.1173997065307, -25538.76793846702, -11132.86747132152, 14285.603378487038, -9818.339028160457, -3612.086607466532, -12920.358827156882, 0.227, 0.9437500000000001, 0.017625000000000002, 192.0, 0.0, 0.0, 0.0, 0.0, 0.0, 0.0, 0.0, 0.0, 0.0, 1.6625068438042877E9, 0.0, 2022-09-06 19:27:23.804
240.0, -24329.180935523622, -9362.497551738925, -7657.931167832753, -8221.306886828766, 8493.662893016684, 18158.713657702643, 61616.7410155226, -5476.356205505873, -11353.43448560649, 4345.424991300702, -24716.156687278355, -10449.485236344963, 14798.173582336138, -8995.504259527237, -2862.409098435533, -12184.427640965896, 0.2225, 0.9408750000000001, 0.014812500000000001, 192.0, 3.0, 104.0, 14.5, 40.0, 0.0, 48.0, 0.0, 0.0, 0.0, 1.662506843804294E9, 0.0, 2022-09-06 19:27:23.804
242.0, -24681.69029732827, -9735.63757367582, -8075.640568213531, -8484.342215578821, 8153.5587493847315, 17565.69952555889, 65227.91120146647, -5736.329345265549, -11351.5792908167, 3783.5468391831923, -25533.157650608737, -11100.457441861325, 14286.810372687623, -9780.765745731085, -3610.924316754856, -12910.278190407538, 0.2225, 0.9408750000000001, 0.014812500000000001, 192.0, 0.0, 0.0, 0.0, 0.0, 0.0, 0.0, 0.0, 0.0, 0.0, 1.662506844284006E9, 0.0, 2022-09-06 19:27:24.284
244.0, -24248.580545017787, -9287.328635135727, -7598.967265959653, -8132.391647385556, 8572.631606177283, 18192.665957530255, 60574.836799482924, -5408.406902361739, -11472.479876575457, 4271.016034008984, -24769.644411759906, -10510.907830108146, 14675.730726209966, -9009.384692833984, -2951.7713727678506, -12264.983327982824, 0.2225, 0.9408750000000001, 0.014812500000000001, 192.0, 0.0, 0.0, 0.0, 0.0, 0.0, 0.0, 0.0, 0.0, 0.0, 1.662506844284156E9, 0.0, 2022-09-06 19:27:24.284
246.0, -24751.22657432873, -9807.677246055275, -8125.46260660441, -8577.705452168639, 8025.885585056018, 17514.581085989605, 66216.5288587247, -5902.939248435408, -11232.757417292289, 3862.9178837439877, -25474.819597580386, -11027.121368303462, 14403.262961299773, -9782.330367842957, -3574.915656437356, -12874.761268468055, 0.2225, 0.9408750000000001, 0.014812500000000001, 192.0, 0.0, 0.0, 0.0, 0.0, 0.0, 0.0, 0.0, 0.0, 0.0, 1.6625068442841911E9, 0.0, 2022-09-06 19:27:24.284
248.0, -24152.44569211551, -9199.888610826565, -7509.157956738229, -8019.291820441702, 8594.938647143681, 18094.452392393636, 59760.45099025381, -5245.999127149478, -11564.971395131517, 4202.239716320004, -24819.086470495044, -10577.314862884863, 14663.973708626476, -9059.02791726922, -2985.857783062194, -12339.414637018996, 0.2225, 0.9408750000000001, 0.014812500000000001, 192.0, 0.0, 0.0, 0.0, 0.0, 0.0, 0.0, 0.0, 0.0, 0.0, 1.6625068442841988E9, 0.0, 2022-09-06 19:27:24.284
250.0, -24801.495647608717, -9853.43126695529, -8172.4012699605555, -8645.94532799069, 7948.213273073826, 17511.250676065763, 67001.00803387261, -5893.506812275268, -11124.373808428503, 3977.6270362886235, -25383.22214880254, -10912.523974481104, 14532.8807273961, -9651.840883712875, -3464.9450737172456, -12749.032705906953, 0.21025, 0.9334375000000001, 0.01140625, 192.0, 3.0, 24.0, 14.0, 120.0, 0.0, 32.0, 0.0, 0.0, 0.0, 1.6625068442842066E9, 0.0, 2022-09-06 19:27:24.284
252.0, -24116.325273075734, -9171.05486047922, -7481.665311058201, -7970.900293695962, 8663.804371810482, 18183.859370214865, 59095.5983514307, -5181.067309506811, -11659.16164626618, 4134.648041087155, -24893.65188999795, -10646.15823580721, 14559.345192831182, -9129.346505325617, -3075.5106300724306, -12403.005349994344, 0.21025, 0.9334375000000001, 0.01140625, 192.0, 0.0, 0.0, 0.0, 0.0, 0.0, 0.0, 0.0, 0.0, 0.0, 1.6625068442842145E9, 0.0, 2022-09-06 19:27:24.284
254.0, -24856.77151164669, -9916.329075852524, -8201.033854607804, -8740.15793086981, 7894.32321719208, 17480.919358839914, 67516.77453717882, -5950.414353658481, -11069.880255446466, 4055.0087755928967, -25304.186380408573, -10840.059618956999, 14579.148838418585, -9581.94697880113, -3379.9190378092576, -12695.522629680949, 0.21025, 0.9334375000000001, 0.01140625, 192.0, 0.0, 0.0, 0.0, 0.0, 0.0, 0.0, 0.0, 0.0, 0.0, 1.6625068442842228E9, 0.0, 2022-09-06 19:27:24.284
0.0, -24061.161167760038, -9117.231859830841, -7433.474950012559, -7936.031572345683, 8670.979281780636, 18202.187800668216, 58793.93920826188, -5138.688402019549, -11729.32377211139, 4064.7988396643213, -24969.379600212527, -10739.946155541678, 14459.8128747717, -9251.722306218422, -3151.3500990092875, -12517.580392072248, 0.21025, 0.9334375000000001, 0.01140625, 192.0, 0.0, 0.0, 0.0, 0.0, 0.0, 0.0, 0.0, 0.0, 0.0, 1.66250684428423E9, 0.0, 2022-09-06 19:27:24.284
2.0, -24862.381799504972, -9899.162936110848, -8204.610133720653, -8792.639826850871, 7888.154135722415, 17522.448900037874, 67722.05295825636, -6003.320932784192, -11000.165164490363, 4174.367090984237, -25173.22750964493, -10724.724617567614, 14639.56560368128, -9469.5847594243, -3287.5616297199285, -12607.434404782583, 0.21025, 0.9334375000000001, 0.01140625, 192.0, 0.0, 0.0, 0.0, 0.0, 0.0, 0.0, 0.0, 0.0, 0.0, 1.6625068442842364E9, 0.0, 2022-09-06 19:27:24.284
4.0, -24058.635420636587, -9106.99476087031, -7453.837389211344, -7933.930508366884, 8656.517703118052, 18122.257962496038, 58699.95012282731, -5152.635890559661, -11768.796952819463, 3962.2490361033724, -25058.85363326712, -10826.983848450644, 14380.106554044076, -9338.51412993838, -3274.3741004912977, -12637.273983630417, 0.18312499999999998, 0.93471875, 0.013703125, 192.0, 2.0, 112.0, 14.5, 32.0, 0.0, 64.0, 0.0, 0.0, 0.0, 1.6625068442842438E9, 0.0, 2022-09-06 19:27:24.284
6.0, -24839.113633527, -9860.449714714256, -8186.169944545025, -8795.12087048541, 7905.2085167418145, 17551.14853991849, 67607.50026792292, -6009.355903787125, -10955.864006979944, 4283.175382992671, -25045.53199357176, -10600.67243584066, 14755.973488804519, -9333.149711269107, -3194.3772070857535, -12517.781557772347, 0.18312499999999998, 0.93471875, 0.013703125, 192.0, 0.0, 0.0, 0.0, 0.0, 0.0, 0.0, 0.0, 0.0, 0.0, 1.6625068442842546E9, 0.0, 2022-09-06 19:27:24.284
8.0, -24077.4332377235, -9126.686647735434, -7493.981122253075, -7949.889653907973, 8632.668391784238, 18076.28042415147, 58898.679482779444, -5193.807803846336, -11791.171049019224, 3893.5174219033033, -25159.145910638086, -10902.689206920768, 14298.50033503775, -9475.396212982681, -3388.904439080291, -12743.869452937777, 0.18312499999999998, 0.93471875, 0.013703125, 192.0, 0.0, 0.0, 0.0, 0.0, 0.0, 0.0, 0.0, 0.0, 0.0, 1.6625068442842612E9, 0.0, 2022-09-06 19:27:24.284
10.0, -24815.085508237542, -9832.666496356309, -8154.89985405205, -8796.417271663819, 7974.051889664161, 17621.712997163893, 67217.35056845553, -5963.467772420379, -10948.242062120684, 4363.641663031776, -24937.304846919164, -10511.60073418626, 14826.292076860915, -9251.319974818227, -3112.1227874902233, -12446.032458070811, 0.18312499999999998, 0.93471875, 0.013703125, 192.0, 0.0, 0.0, 0.0, 0.0, 0.0, 0.0, 0.0, 0.0, 0.0, 1.6625068442842674E9, 0.0, 2022-09-06 19:27:24.284
12.0, -24155.038494472326, -9204.493070184359, -7562.511570753047, -8020.945849531395, 8594.98335063259, 17937.721960273026, 59442.8327015439, -5198.7922428598695, -11809.72299691713, 3820.8519006791, -25265.160234589606, -10982.261417181662, 14210.657979328393, -9564.333804170348, -3473.572847076994, -12841.814797140933, 0.18312499999999998, 0.93471875, 0.013703125, 192.0, 0.0, 0.0, 0.0, 0.0, 0.0, 0.0, 0.0, 0.0, 0.0, 1.6625068442842736E9, 0.0, 2022-09-06 19:27:24.284
14.0, -24754.84755693049, -9771.445068293222, -8080.155620593503, -8764.186056159266, 8001.164555688448, 17640.756683439813, 66604.77865991338, -5968.966301556386, -11000.254571468184, 4412.413169433256, -24852.189404033354, -10438.421122839585, 14858.6574028322, -9154.112238182097, -3017.8431293777385, -12381.45826833943, 0.18312499999999998, 0.93471875, 0.013703125, 192.0, 0.0, 0.0, 0.0, 0.0, 0.0, 0.0, 0.0, 0.0, 0.0, 1.66250684428428E9, 0.0, 2022-09-06 19:27:24.284
16.0, -24197.663271148598, -9244.770913692822, -7606.879783496832, -8082.614312483587, 8505.44226234463, 17868.29744199484, 60230.91050754911, -5288.199220681098, -11763.499589383555, 3790.140603797508, -25341.223220971016, -11015.789033864623, 14228.785244081646, -9646.230595854593, -3548.540597980094, -12949.773722860065, 0.08600000000000001, 0.918, 0.004, 192.0, 1.0, 88.0, 14.0, 88.0, 0.0, 16.0, 0.0, 0.0, 0.0, 1.6625068442842865E9, 0.0, 2022-09-06 19:27:24.284
18.0, -24659.53971857306, -9670.549293821967, -7982.05381417916, -8680.948159807702, 8103.848469716128, 17739.730207887915, 65702.23757055253, -5818.382599160981, -11017.46541469877, 4484.497545301622, -24736.31796077704, -10325.209537173456, 14920.772900673497, -9032.49639660077, -2928.3914480675994, -12306.937552325435, 0.08600000000000001, 0.918, 0.004, 192.0, 0.0, 0.0, 0.0, 0.0, 0.0, 0.0, 0.0, 0.0, 0.0, 1.6625068442842927E9, 0.0, 2022-09-06 19:27:24.284
20.0, -24309.734917847505, -9362.631662205657, -7717.677380761788, -8188.8968573685725, 8400.679636082607, 17755.354077262175, 61154.0822570422, -5345.173817297676, -11694.052719360914, 3737.099914205064, -25417.867352708265, -11039.906566131898, 14174.13522888842, -9741.270213278558, -3621.854319793501, -13012.939752690763, 0.08600000000000001, 0.918, 0.004, 192.0, 0.0, 0.0, 0.0, 0.0, 0.0, 0.0, 0.0, 0.0, 0.0, 1.6625068442842991E9, 0.0, 2022-09-06 19:27:24.284
22.0, -24601.87221787837, -9627.47748225659, -7908.2036504988255, -8609.1320048728, 8199.580991218209, 17819.10125244871, 64612.79119405642, -5811.00652349073, -11098.915171493909, 4439.034097079528, -24698.92349230331, -10308.781004998804, 14878.79632458643, -8998.678207239891, -2909.012485624848, -12295.202886486399, 0.08600000000000001, 0.918, 0.004, 192.0, 0.0, 0.0, 0.0, 0.0, 0.0, 0.0, 0.0, 0.0, 0.0, 1.6625068442843056E9, 0.0, 2022-09-06 19:27:24.284
24.0, -24451.51203292752, -9523.83244321733, -7823.289373313114, -8309.015132071392, 8313.17255654008, 17626.54097396624, 62163.44233315496, -5504.541755264015, -11617.140366690204, 3668.34594826054, -25476.205405736615, -11083.00072944173, 14170.022507908645, -9815.008618236616, -3665.7084424148134, -13069.377907440414, 0.08600000000000001, 0.918, 0.004, 192.0, 0.0, 0.0, 0.0, 0.0, 0.0, 0.0, 0.0, 0.0, 0.0, 1.662506844284312E9, 0.0, 2022-09-06 19:27:24.284
26.0, -24573.083171019935, -9613.418234994202, -7854.850036484008, -8538.813416816403, 8276.135715977636, 17948.383742378206, 63376.180932066556, -5682.014606239153, -11226.007190466786, 4351.728183237098, -24701.40453593785, -10358.804209089782, 14841.468911346068, -8999.773442718202, -2914.756883949862, -12306.557572669695, 0.066, 0.934, -0.016, 192.0, 1.0, 8.0, 14.5, 24.0, 127.5, 64.0, 0.0, 0.0, 0.0, 1.6625068442843182E9, 0.0, 2022-09-06 19:27:24.284
28.0, -24617.58549423045, -9696.544372623488, -7945.016973616716, -8428.172281762634, 8196.33998827219, 17564.85015926959, 63219.785776112774, -5568.087764750453, -11558.779961917397, 3637.8134653345905, -25540.220801856616, -11120.305790937638, 14176.750382989692, -9856.582862923487, -3723.375943109506, -13077.670404633333, 0.066, 0.934, -0.016, 192.0, 0.0, 0.0, 0.0, 0.0, 0.0, 0.0, 0.0, 0.0, 0.0, 1.6625068442843244E9, 0.0, 2022-09-06 19:27:24.284
30.0, -24516.779126737016, -9573.386260674746, -7756.368250413925, -8435.011915565958, 8358.568949528808, 17884.144828813653, 62231.59280199919, -5632.1031608704525, -11358.77655253131, 4266.9480165181185, -24720.336463491498, -10412.470747526973, 14806.019044639952, -8989.715157713314, -2920.6800962305188, -12324.640133934037, 0.066, 0.934, -0.016, 192.0, 0.0, 0.0, 0.0, 0.0, 0.0, 0.0, 0.0, 0.0, 0.0, 1.6625068442843308E9, 0.0, 2022-09-06 19:27:24.284
32.0, -24749.99722838369, -9856.784028623584, -8054.540521447721, -8558.013565303512, 8083.977768895361, 17424.48120409026, 64303.15247811705, -5752.444953017825, -11449.234062341937, 3645.189541004842, -25539.214973356127, -11105.8218605306, 14262.357564253518, -9816.439129881755, -3684.886239157467, -13080.866704090442, 0.066, 0.934, -0.016, 192.0, 0.0, 0.0, 0.0, 0.0, 0.0, 0.0, 0.0, 0.0, 0.0, 1.6625068442843373E9, 0.0, 2022-09-06 19:27:24.284
34.0, -24441.45374792263, -9513.058902389874, -7696.979665396174, -8339.189987086056, 8435.52600568843, 17963.04648674089, 60979.26926365725, -5450.517588915538, -11457.07952464575, 4191.533230725912, -24741.481213746218, -10455.699021303537, 14711.62762780519, -9062.447734170883, -2975.1960009570125, -12384.408698607529, 0.066, 0.934, -0.016, 192.0, 0.0, 0.0, 0.0, 0.0, 0.0, 0.0, 0.0, 0.0, 0.0, 1.6625068442843435E9, 0.0, 2022-09-06 19:27:24.284
36.0, -24873.26709905471, -9968.386288688933, -8180.134973542092, -8678.422412684253, 7988.0887851820935, 17372.423991253854, 65104.28370288417, -5835.101704013551, -11347.980659959396, 3649.3246137290735, -25506.559074706922, -11044.980412123254, 14331.290344153686, -9808.906592000318, -3675.2973407861405, -13045.416837384324, 0.07200000000000001, 0.914, -0.07200000000000001, 192.0, 1.0, 32.0, 14.0, 72.0, 126.5, 96.0, 0.0, 0.0, 0.0, 1.66250684428435E9, 0.0, 2022-09-06 19:27:24.284
38.0, -24403.902817237715, -9493.88110564722, -7687.524877491579, -8272.045346742314, 8504.883468733247, 17972.210701967564, 59883.09501208008, -5461.022908809532, -11581.66814823963, 4041.3295079862487, -24804.893112765923, -10537.908737410156, 14682.302139079828, -9076.529333177727, -3079.623351052207, -12466.596062969693, 0.07200000000000001, 0.914, -0.07200000000000001, 192.0, 0.0, 0.0, 0.0, 0.0, 0.0, 0.0, 0.0, 0.0, 0.0, 1.6625068442843578E9, 0.0, 2022-09-06 19:27:24.284
40.0, -24994.77118191376, -10102.496755420776, -8317.374684497678, -8809.627152636904, 7909.388292954957, 17280.290100609076, 65767.25879517302, -5976.163563270994, -11282.221827771882, 3648.3187852285846, -25505.799115395443, -11030.027095082653, 14347.830635050612, -9797.261333139102, -3709.562565036126, -13035.515014590623, 0.07200000000000001, 0.914, -0.07200000000000001, 192.0, 0.0, 0.0, 0.0, 0.0, 0.0, 0.0, 0.0, 0.0, 0.0, 1.6625068442843642E9, 0.0, 2022-09-06 19:27:24.284
42.0, -24345.81063339837, -9468.82480011282, -7660.971005078674, -8196.116470827636, 8536.31002143741, 17974.535283390916, 58946.37810544707, -5430.892757283778, -11710.078920135371, 3910.884727345077, -24908.20287563835, -10660.06102085841, 14503.8234596042, -9174.608787847614, -3214.5384805844405, -12563.982613561466, 0.07200000000000001, 0.914, -0.07200000000000001, 192.0, 0.0, 0.0, 0.0, 0.0, 0.0, 0.0, 0.0, 0.0, 0.0, 1.6625068442843704E9, 0.0, 2022-09-06 19:27:24.284
44.0, -25045.7108075274, -10171.183666131934, -8377.165600915623, -8878.42582207034, 7817.634381965921, 17281.85472272095, 66233.40442578845, -5918.160786409472, -11196.927570930431, 3741.8831875185, -25430.160812158683, -10958.613271547947, 14463.858540518111, -9724.707570637176, -3633.834854821546, -12957.127446785862, 0.07200000000000001, 0.914, -0.07200000000000001, 192.0, 0.0, 0.0, 0.0, 0.0, 0.0, 0.0, 0.0, 0.0, 0.0, 1.6625068442843769E9, 0.0, 2022-09-06 19:27:24.284
46.0, -24296.681499085607, -9426.825872281299, -7646.889406071831, -8138.761894555319, 8582.22050454861, 18016.08717633333, 58431.058637029964, -5245.954423660568, -11756.414086391222, 3807.463205750371, -24985.361097498073, -10749.780923102013, 14476.420220901993, -9226.196614050463, -3272.1389260457668, -12613.178803107598, 0.116, 0.88, -0.126, 192.0, 1.5, 80.0, 13.5, 64.0, 126.0, 8.0, 0.0, 0.0, 0.0, 1.6625068442843833E9, 0.0, 2022-09-06 19:27:24.284
48.0, -25078.947851532444, -10207.169974704979, -8419.499804913976, -8964.323576012084, 7811.2864865406145, 17303.915894498336, 66569.08292401826, -6076.880523786607, -11136.220232989817, 3784.3515019835836, -25337.691645347077, -10882.751450866634, 14539.96623038843, -9633.937136404174, -3548.518246235639, -12851.11312283434, 0.116, 0.88, -0.126, 192.0, 0.0, 0.0, 0.0, 0.0, 0.0, 0.0, 0.0, 0.0, 0.0, 1.6625068442843895E9, 0.0, 2022-09-06 19:27:24.284
50.0, -24279.560062832843, -9427.988162992975, -7663.0720690574735, -8132.413999130011, 8597.397339033763, 17931.64228578118, 58249.785989497424, -5240.299432313375, -11856.706363762185, 3667.116602315498, -25093.83411333968, -10881.902084577332, 14357.397181677483, -9376.33328155676, -3405.154157299299, -12751.647860008225, 0.116, 0.88, -0.126, 192.0, 0.0, 0.0, 0.0, 0.0, 0.0, 0.0, 0.0, 0.0, 0.0, 1.662506844284396E9, 0.0, 2022-09-06 19:27:24.284
52.0, -25048.683589539956, -10176.861009223581, -8426.451197439575, -8975.410041261917, 7814.505137742179, 17307.71569105574, 66682.42862015113, -6116.420759728046, -11084.587703298057, 3887.907134045021, -25217.41690843307, -10788.85177240989, 14601.902914274087, -9533.890728222219, -3455.1326579013657, -12758.934528700654, 0.116, 0.88, -0.126, 192.0, 0.0, 0.0, 0.0, 0.0, 0.0, 0.0, 0.0, 0.0, 0.0, 1.6625068442844024E9, 0.0, 2022-09-06 19:27:24.284
54.0, -24242.45616703703, -9412.38664536317, -7697.605514240923, -8113.03503668726, 8550.88335882227, 17863.29065123685, 58455.824369886446, -5276.7998310088915, -11870.519741835564, 3609.76202604318, -25189.723097052945, -10979.914484013854, 14266.693802677848, -9475.150343793672, -3506.854594570946, -12870.469733532636, 0.116, 0.88, -0.126, 192.0, 0.0, 0.0, 0.0, 0.0, 0.0, 0.0, 0.0, 0.0, 0.0, 1.6625068442844088E9, 0.0, 2022-09-06 19:27:24.284
56.0, -25004.248321562805, -10163.673479994952, -8439.57167143484, -8980.997977375744, 7798.2554195231705, 17347.68061014183, 66595.5697411978, -6148.74138221042, -11063.219435598783, 3976.732966510411, -25121.63968344208, -10725.663390834736, 14693.500363051935, -9449.244671969971, -3383.115337266366, -12706.51968795296, 0.176, 0.89, -0.17, 192.0, 2.5, 64.0, 13.5, 104.0, 125.0, 88.0, 0.0, 0.0, 0.0, 1.6625068442844152E9, 0.0, 2022-09-06 19:27:24.284
58.0, -24276.788446520382, -9470.545884435878, -7784.196172260782, -8148.194330715458, 8513.466538604085, 17797.531819049338, 58967.92518710199, -5315.781273338946, -11907.44482367573, 3497.64567585536, -25315.6751770586, -11114.829613546088, 14181.354842347484, -9606.310380257413, -3645.7036311273137, -13019.600572538446, 0.176, 0.89, -0.17, 192.0, 0.0, 0.0, 0.0, 0.0, 0.0, 0.0, 0.0, 0.0, 0.0, 1.662506844284422E9, 0.0, 2022-09-06 19:27:24.284
60.0, -24964.75278911028, -10111.079825291614, -8410.916735043136, -8930.371276184473, 7830.151358860894, 17384.404526281898, 66317.29052272922, -6151.915329923074, -11086.800525999133, 4031.9641270594752, -25017.055871135697, -10663.324375548886, 14727.6761803241, -9287.775670024834, -3307.544089262973, -12619.929029933099, 0.176, 0.89, -0.17, 192.0, 0.0, 0.0, 0.0, 0.0, 0.0, 0.0, 0.0, 0.0, 0.0, 1.6625068442844305E9, 0.0, 2022-09-06 19:27:24.284
62.0, -24311.388946937197, -9505.45930927507, -7842.489521800223, -8164.645214634564, 8450.144046562202, 17726.296809470274, 59824.75695905173, -5357.579035470371, -11898.101794493414, 3447.0860298974553, -25402.489352523015, -11203.387225078015, 14107.705844367249, -9681.30048290497, -3755.5401033806925, -13103.821945646043, 0.176, 0.89, -0.17, 192.0, 0.0, 0.0, 0.0, 0.0, 0.0, 0.0, 0.0, 0.0, 0.0, 1.662506844284439E9, 0.0, 2022-09-06 19:27:24.284
64.0, -24886.722849216803, -10033.36280982051, -8345.22495808899, -8866.646452742392, 7932.4999967217445, 17486.909626353936, 65916.43433766774, -6070.242055683381, -11094.891857491953, 4116.2078519115275, -24887.326346317095, -10595.397424149207, 14763.148398774672, -9183.05774725172, -3203.2061461455996, -12515.367569371174, 0.176, 0.89, -0.17, 192.0, 0.0, 0.0, 0.0, 0.0, 0.0, 0.0, 0.0, 0.0, 0.0, 1.6625068442844472E9, 0.0, 2022-09-06 19:27:24.284
66.0, -24389.485942064042, -9584.942112558141, -7923.514595450712, -8249.53714007582, 8382.395909118166, 17676.720640268402, 60922.04879785166, -5377.405032802229, -11869.49156159062, 3425.091913353433, -25460.26861193998, -11272.543522422735, 14065.461047346718, -9783.202085876714, -3801.919973125455, -13144.479768810246, 0.256, 0.902, -0.216, 192.0, 4.0, 0.0, 14.0, 24.0, 124.5, 32.0, 0.0, 0.0, 0.0, 1.6625068442844548E9, 0.0, 2022-09-06 19:27:24.284
68.0, -24798.09818245151, -9939.35137264149, -8254.856855256183, -8800.21706822122, 8026.131454245026, 17580.13875247702, 65349.281173858784, -5970.128592268061, -11174.151143330473, 4171.170791527127, -24790.744458525714, -10578.767726274458, 14817.485489545525, -9101.272714289751, -3114.5814793803074, -12451.978022095922, 0.256, 0.902, -0.216, 192.0, 0.0, 0.0, 0.0, 0.0, 0.0, 0.0, 0.0, 0.0, 0.0, 1.6625068442844636E9, 0.0, 2022-09-06 19:27:24.284
70.0, -24508.41957431073, -9685.256741673558, -8023.225727465836, -8367.867275222216, 8307.74108263744, 17576.495418130806, 62215.76776692484, -5479.887781129812, -11826.844433169894, 3433.3397070574415, -25509.531856719477, -11333.317915596714, 14067.495056092152, -9829.403141665834, -3836.051086908709, -13184.020004751685, 0.256, 0.902, -0.216, 192.0, 0.0, 0.0, 0.0, 0.0, 0.0, 0.0, 0.0, 0.0, 0.0, 1.662506844284473E9, 0.0, 2022-09-06 19:27:24.284
72.0, -24717.09546054548, -9851.240795998669, -8152.1505894840475, -8715.43690150224, 8127.787188027763, 17682.8226665047, 64619.988455771025, -5893.640922742, -11263.111086262596, 4194.796585416387, -24725.298550760574, -10571.302243626385, 14807.583666751823, -9019.510033072238, -3053.136533872668, -12423.121920004121, 0.256, 0.902, -0.216, 192.0, 0.0, 0.0, 0.0, 0.0, 0.0, 0.0, 0.0, 0.0, 0.0, 1.6625068442844808E9, 0.0, 2022-09-06 19:27:24.284
74.0, -24624.380424544863, -9802.17871691927, -8137.353734654634, -8491.137145893234, 8167.550941413754, 17473.2750622362, 63537.8958032007, -5657.852370482966, -11761.309118426934, 3459.290082370053, -25542.366569324324, -11362.196369432972, 14082.806001044037, -9864.964767094227, -3875.457212383415, -13236.43484549938, 0.256, 0.902, -0.216, 192.0, 0.0, 0.0, 0.0, 0.0, 0.0, 0.0, 0.0, 0.0, 0.0, 1.6625068442844887E9, 0.0, 2022-09-06 19:27:24.284
76.0, -24584.3037467365, -9716.817404844453, -8045.800989365696, -8583.963940616124, 8230.784026477817, 17859.736723868456, 63870.10978103993, -5817.130901471484, -11368.72307881392, 4243.635147051233, -24689.826332310004, -10567.033060435422, 14775.240692524994, -8983.501372754738, -3090.531002346397, -12443.75258013637, 0.298, 0.926, -0.226, 192.0, 4.5, 40.0, 14.0, 120.0, 124.0, 120.0, 0.0, 0.0, 0.0, 1.6625068442844977E9, 0.0, 2022-09-06 19:27:24.284
78.0, -24711.32871047601, -9876.990005611182, -8242.25047138339, -8593.1281558428, 8055.479294714844, 17396.474468287764, 64757.921070804725, -5852.424305966414, -11668.996413826515, 3554.4861620052056, -25520.975949880594, -11299.276208791282, 14116.534783427094, -9843.507092417132, -3917.2102710259287, -13251.00818288424, 0.298, 0.926, -0.226, 192.0, 0.0, 0.0, 0.0, 0.0, 0.0, 0.0, 0.0, 0.0, 0.0, 1.6625068442845056E9, 0.0, 2022-09-06 19:27:24.284
80.0, -24492.572187491918, -9624.616458966311, -7954.360002799035, -8487.851439458304, 8329.914013137104, 17855.33343021076, 63045.5315763392, -5677.4772021147255, -11489.243684916937, 4134.871558531709, -24684.193692707264, -10612.921191802168, 14742.651849109156, -8984.48484951077, -3126.785531852905, -12490.668891748059, 0.298, 0.926, -0.226, 192.0, 0.0, 0.0, 0.0, 0.0, 0.0, 0.0, 0.0, 0.0, 0.0, 1.6625068442845132E9, 0.0, 2022-09-06 19:27:24.284
82.0, -24823.132136241453, -9968.721564855763, -8347.84011219026, -8706.965590353679, 7965.044136648672, 17326.33469418701, 65881.23034015064, -5959.645624118522, -11578.561255760344, 3617.0486947356103, -25500.01001358152, -11262.731106606854, 14226.214793469286, -9836.220423724702, -3900.20059349544, -13234.266726287215, 0.298, 0.926, -0.226, 192.0, 0.0, 0.0, 0.0, 0.0, 0.0, 0.0, 0.0, 0.0, 0.0, 1.662506844284521E9, 0.0, 2022-09-06 19:27:24.284
84.0, -24411.4130033747, -9530.426207831646, -7887.79650781113, -8367.196722888557, 8453.452104741586, 17917.806555963347, 62313.89192508363, -5648.30817560055, -11600.242447881992, 4173.87535260622, -24707.394803451873, -10599.778366062446, 14722.602334332745, -9021.700504028859, -3139.6377849147066, -12536.355857414706, 0.298, 0.926, -0.226, 192.0, 0.0, 0.0, 0.0, 0.0, 0.0, 0.0, 0.0, 0.0, 0.0, 1.6625068442845287E9, 0.0, 2022-09-06 19:27:24.284
86.0, -24910.907436717443, -10037.27436510019, -8427.881709084715, -8842.215996052742, 7890.948103779328, 17269.404801059343, 66922.73222479013, -6070.2867591722925, -11495.546876853334, 3714.3458383495617, -25457.362885160794, -11147.172587772917, 14309.385634587483, -9809.331275144968, -3813.0958453531084, -13189.719699587788, 0.311, 0.912, -0.23299999999999998, 192.0, 5.0, 16.0, 14.0, 8.0, 124.0, 64.0, 0.0, 0.0, 0.0, 1.6625068442845373E9, 0.0, 2022-09-06 19:27:24.284
88.0, -24309.84667656978, -9427.228203681494, -7818.014361621662, -8290.172611495569, 8487.382052824743, 18017.785908911934, 61658.82935033195, -5554.76612505509, -11699.93122815266, 4113.48093908798, -24753.1935278408, -10651.142674820743, 14648.975688096963, -9118.215336586874, -3186.397634315209, -12616.039826397877, 0.311, 0.912, -0.23299999999999998, 192.0, 0.0, 0.0, 0.0, 0.0, 0.0, 0.0, 0.0, 0.0, 0.0, 1.6625068442845457E9, 0.0, 2022-09-06 19:27:24.284
90.0, -24952.97341978233, -10074.959406251837, -8477.837857942326, -8908.198345684808, 7827.402094292891, 17303.871191009428, 67713.51459187444, -6164.387603329134, -11365.660889823544, 3858.4028313640156, -25352.801424598867, -11003.964961047765, 14439.070455917175, -9732.664791663265, -3727.332201878095, -13107.35352126998, 0.311, 0.912, -0.23299999999999998, 192.0, 0.0, 0.0, 0.0, 0.0, 0.0, 0.0, 0.0, 0.0, 0.0, 1.662506844284554E9, 0.0, 2022-09-06 19:27:24.284
92.0, -24216.192867302045, -9332.70267638, -7737.503378093646, -8174.882313595094, 8546.25654772002, 18005.80537388389, 61273.77584860037, -5466.052051311976, -11765.51124638453, 4132.815198041821, -24800.378060385952, -10668.532332006971, 14592.090498458207, -9162.561197586203, -3253.9222543146916, -12685.062013275865, 0.311, 0.912, -0.23299999999999998, 192.0, 0.0, 0.0, 0.0, 0.0, 0.0, 0.0, 0.0, 0.0, 0.0, 1.6625068442845616E9, 0.0, 2022-09-06 19:27:24.284
94.0, -24986.858664376578, -10107.391787456489, -8502.625942543262, -8963.697727167337, 7767.25354996366, 17289.722536769215, 68322.15259339244, -6261.505932987444, -11280.277226004271, 4043.452923709503, -25261.114568843197, -10884.226666000684, 14550.337439815694, -9661.139209406283, -3649.369317217984, -13010.302246845038, 0.311, 0.912, -0.23299999999999998, 192.0, 0.0, 0.0, 0.0, 0.0, 0.0, 0.0, 0.0, 0.0, 0.0, 1.66250684428457E9, 0.0, 2022-09-06 19:27:24.284
96.0, -24160.358209652688, -9298.571562596746, -7704.825127699987, -8149.736601082874, 8584.589789460873, 18046.9102319372, 61058.03681111775, -5432.569138117926, -11861.243767886612, 4017.3684379301594, -24892.489599286273, -10754.9888795601, 14488.400755930037, -9278.41028909806, -3359.1319154658217, -12773.418459107694, 0.3145, 0.909, -0.2415, 192.0, 4.5, 120.0, 14.0, 40.0, 124.0, 24.0, 0.0, 0.0, 0.0, 1.662506844284578E9, 0.0, 2022-09-06 19:27:24.284
98.0, -24975.593385171105, -10111.303342736166, -8507.163346667689, -9019.957067961344, 7766.203017974261, 17332.86140356796, 68633.44533842152, -6276.123973861215, -11219.480481085835, 4152.171808740117, -25154.31793383574, -10767.863484366357, 14627.763882608877, -9571.329900184859, -3549.546426480583, -12920.917620768265, 0.3145, 0.909, -0.2415, 192.0, 0.0, 0.0, 0.0, 0.0, 0.0, 0.0, 0.0, 0.0, 0.0, 1.662506844284587E9, 0.0, 2022-09-06 19:27:24.284
100.0, -24117.264046342858, -9299.286818419316, -7680.573484965978, -8129.977658984382, 8596.100937855355, 18008.778155896445, 61076.14172412655, -5389.87730620829, -11917.614867402895, 3960.460896546948, -24977.94031833891, -10834.024647954066, 14443.361990852594, -9373.069926866285, -3432.579747745961, -12882.114992393852, 0.3145, 0.909, -0.2415, 192.0, 0.0, 0.0, 0.0, 0.0, 0.0, 0.0, 0.0, 0.0, 0.0, 1.6625068442845953E9, 0.0, 2022-09-06 19:27:24.284
102.0, -24945.910268534455, -10115.99720907178, -8487.605570269296, -9047.226196196818, 7749.9532997552515, 17383.48810475923, 68708.50249630243, -6258.086116085782, -11169.457276994859, 4256.2638826684815, -25029.23757186384, -10686.950169438145, 14743.523567142913, -9499.35728303877, -3421.2921167960308, -12830.326000490904, 0.3145, 0.909, -0.2415, 192.0, 0.0, 0.0, 0.0, 0.0, 0.0, 0.0, 0.0, 0.0, 0.0, 1.6625068442846277E9, 0.0, 2022-09-06 19:27:24.284
104.0, -24123.790755723807, -9330.199281001005, -7716.850366216942, -8137.644307332553, 8571.066984065412, 17887.117610826208, 61354.77857050641, -5368.531390253472, -11973.717745985718, 3860.079212198164, -25093.02945053929, -10971.465524609748, 14325.41183536194, -9490.595399212289, -3571.56289476906, -12986.408232022313, 0.3145, 0.909, -0.2415, 192.0, 0.0, 0.0, 0.0, 0.0, 0.0, 0.0, 0.0, 0.0, 0.0, 1.6625068442846353E9, 0.0, 2022-09-06 19:27:24.284
106.0, -24899.820971467612, -10076.546380108164, -8445.696049415596, -9017.028989437698, 7823.825815180042, 17417.753329009214, 68537.15402330804, -6200.575077602277, -11156.605023933056, 4339.904110420241, -24897.250520855254, -10607.467366155073, 14785.5895502078, -9319.13516749563, -3341.9210722352354, -12709.447766476604, 0.30725, 0.9255, -0.24275, 192.0, 4.5, 48.0, 14.5, 56.0, 124.0, 48.0, 0.0, 0.0, 0.0, 1.662506844763374E9, 0.0, 2022-09-06 19:27:24.763
108.0, -24160.849948030707, -9381.988272903953, -7769.712241853744, -8180.336139242189, 8542.233233718067, 17860.04964829083, 61955.057019598135, -5348.39246849924, -11993.320225873022, 3780.015263559254, -25167.013724686352, -11083.559523053113, 14235.803691840612, -9611.42892973768, -3651.2692154966853, -13065.466352160734, 0.30725, 0.9255, -0.24275, 192.0, 0.0, 0.0, 0.0, 0.0, 0.0, 0.0, 0.0, 0.0, 0.0, 1.6625068447635372E9, 0.0, 2022-09-06 19:27:24.763
110.0, -24838.465432937795, -9991.609751177997, -8373.924597969604, -8958.48977070925, 7890.99280726824, 17524.549964016674, 68220.83213577654, -6145.768600197864, -11170.574864217624, 4451.349908274402, -24763.184757612322, -10535.56180424235, 14841.155986923693, -9254.940957419987, -3229.290631924943, -12614.698721730558, 0.30725, 0.9255, -0.24275, 192.0, 0.0, 0.0, 0.0, 0.0, 0.0, 0.0, 0.0, 0.0, 0.0, 1.6625068447636008E9, 0.0, 2022-09-06 19:27:24.763
112.0, -24250.61455376322, -9469.651814657667, -7844.009440423184, -8238.316564359257, 8473.121639862256, 17759.13152207512, 62687.143705742805, -5384.468184050105, -11994.929551473804, 3801.495289980804, -25239.70159765501, -11113.041473989662, 14176.057478911576, -9731.010762573573, -3747.269957932229, -13157.756705016698, 0.30725, 0.9255, -0.24275, 192.0, 0.0, 0.0, 0.0, 0.0, 0.0, 0.0, 0.0, 0.0, 0.0, 1.6625068447636075E9, 0.0, 2022-09-06 19:27:24.763
114.0, -24745.638638214903, -9895.229029086713, -8264.110477460681, -8846.708696688258, 7980.980930445306, 17525.578144261617, 67614.29519823733, -6082.334349433702, -11179.135582344006, 4535.057191259527, -24634.416357805298, -10438.935212962058, 14897.035348061961, -9098.903429377488, -3127.14315976419, -12516.798081016314, 0.30725, 0.9255, -0.24275, 192.0, 0.0, 0.0, 0.0, 0.0, 0.0, 0.0, 0.0, 0.0, 0.0, 1.6625068447636137E9, 0.0, 2022-09-06 19:27:24.763
116.0, -24312.260664970956, -9528.034571174929, -7910.505880177722, -8293.078338274758, 8366.772039743906, 17645.964639897902, 63567.98125123754, -5495.80222318199, -11949.376696273888, 3828.227976349351, -25294.083391914774, -11151.598233175067, 14134.773806902625, -9749.518006982566, -3804.3116097821726, -13217.480566201279, 0.29862500000000003, 0.94475, -0.245375, 192.0, 4.5, 8.0, 15.0, 16.0, 124.0, 32.0, 0.0, 0.0, 0.0, 1.6625068447636201E9, 0.0, 2022-09-06 19:27:24.763
118.0, -24619.127764597866, -9777.748260229619, -8153.759915084829, -8725.58459348495, 8065.649338442009, 17661.789674972257, 66895.6419105103, -5995.073139080184, -11225.917783488963, 4655.5330938736315, -24533.252362400577, -10375.612720920173, 14921.555211729434, -8996.912419427923, -3057.405717063632, -12458.594138454693, 0.29862500000000003, 0.94475, -0.245375, 192.0, 0.0, 0.0, 0.0, 0.0, 0.0, 0.0, 0.0, 0.0, 0.0, 1.6625068447636268E9, 0.0, 2022-09-06 19:27:24.763
120.0, -24383.853302461303, -9586.283217225458, -7983.685491524398, -8360.290033851867, 8268.379660651644, 17557.876414999537, 64590.81942925685, -5585.9691603146985, -11849.15147413629, 3914.259840757828, -25308.723784533, -11161.96944260233, 14143.46863549574, -9809.823013522984, -3856.815857507689, -13234.445540242856, 0.29862500000000003, 0.94475, -0.245375, 192.0, 0.0, 0.0, 0.0, 0.0, 0.0, 0.0, 0.0, 0.0, 0.0, 1.6625068447636333E9, 0.0, 2022-09-06 19:27:24.763
122.0, -24519.193115138187, -9675.801953768963, -8054.83109412564, -8634.56829006294, 8179.911456097539, 17777.459952528472, 66050.05306602157, -5865.410669494948, -11309.982694385373, 4686.713777388785, -24464.40898947823, -10363.453371936486, 14875.912949551697, -8981.48971575376, -3031.5671004732967, -12414.047111755266, 0.29862500000000003, 0.94475, -0.245375, 192.0, 0.0, 0.0, 0.0, 0.0, 0.0, 0.0, 0.0, 0.0, 0.0, 1.6625068447636397E9, 0.0, 2022-09-06 19:27:24.763
124.0, -24502.451658541162, -9715.677465877232, -8111.246897130835, -8504.928172222159, 8154.6763366074965, 17533.915344943445, 65620.11726142374, -5669.564684577547, -11792.355691475355, 3921.166529794518, -25332.707206333544, -11184.254131824271, 14071.36190788292, -9862.953110093249, -3886.6554363555238, -13254.048020130162, 0.29862500000000003, 0.94475, -0.245375, 192.0, 0.0, 0.0, 0.0, 0.0, 0.0, 0.0, 0.0, 0.0, 0.0, 1.662506844763646E9, 0.0, 2022-09-06 19:27:24.763
126.0, -24401.958215470102, -9573.386260674746, -7960.260863335236, -8528.889242278248, 8261.16004719258, 17859.960241313012, 65156.78795060968, -5736.41875224337, -11416.488756714913, 4635.081247697026, -24446.54994565844, -10407.48630851344, 14717.81906101931, -8929.588965128538, -3047.07921112528, -12421.356132192152, 0.29231250000000003, 0.9493750000000001, -0.2446875, 192.0, 4.0, 120.0, 14.5, 104.0, 124.0, 48.0, 0.0, 0.0, 0.0, 1.6625068447636523E9, 0.0, 2022-09-06 19:27:24.763
128.0, -24594.071459063467, -9808.839536766951, -8212.366189046645, -8617.603316021361, 8050.025469067749, 17392.339395563533, 66654.51129132645, -5787.134860412462, -11687.727175680064, 3942.0877626046854, -25292.407011080624, -11143.573956915612, 13996.081232557444, -9833.292345201058, -3882.967398520398, -13224.409606982425, 0.29231250000000003, 0.9493750000000001, -0.2446875, 192.0, 0.0, 0.0, 0.0, 0.0, 0.0, 0.0, 0.0, 0.0, 0.0, 1.6625068447636588E9, 0.0, 2022-09-06 19:27:24.763
130.0, -24303.498781144477, -9465.293224488882, -7872.820839026075, -8409.776796075916, 8381.2783218954, 17887.296424781853, 64369.67126961605, -5653.136152402896, -11529.990915058961, 4567.444868975266, -24418.856134278314, -10432.408503581108, 14548.348134559172, -8941.547148412126, -3054.9693769180035, -12440.802149868268, 0.29231250000000003, 0.9493750000000001, -0.2446875, 192.0, 0.0, 0.0, 0.0, 0.0, 0.0, 0.0, 0.0, 0.0, 0.0, 1.6625068447636654E9, 0.0, 2022-09-06 19:27:24.763
132.0, -24695.816599824026, -9878.889903889883, -8299.605047655708, -8706.38444499784, 7978.499886810767, 17296.13748742789, 67743.66709514464, -5912.103463662084, -11586.943159931083, 3989.227591660928, -25224.413004447582, -11077.368089838994, 13931.685856781705, -9800.32352212948, -3822.4388745354267, -13188.244484453737, 0.29231250000000003, 0.9493750000000001, -0.2446875, 192.0, 0.0, 0.0, 0.0, 0.0, 0.0, 0.0, 0.0, 0.0, 0.0, 1.6625068447636728E9, 0.0, 2022-09-06 19:27:24.763
134.0, -24222.384300516165, -9371.080621609763, -7781.983349559707, -8283.131811992147, 8438.565842934351, 17964.812274552856, 63689.75355503006, -5499.244391828107, -11643.895404803206, 4488.74437674813, -24418.610265089308, -10486.343262951763, 14352.368039175039, -8979.232189563774, -3094.5766680928077, -12491.987644670922, 0.29231250000000003, 0.9493750000000001, -0.2446875, 192.0, 0.0, 0.0, 0.0, 0.0, 0.0, 0.0, 0.0, 0.0, 0.0, 1.662506844763689E9, 0.0, 2022-09-06 19:27:24.763
136.0, -24786.207054401286, -9949.811989046573, -8360.2229786185, -8763.426096847785, 7862.22611215426, 17305.838144521495, 68688.94471990403, -5964.719470109877, -11487.813173271797, 4067.8163251657875, -25116.297616517262, -10984.250722438184, 13897.375929042808, -9768.137010113836, -3753.103763235064, -13107.465279992257, 0.27715625, 0.9416875, -0.24634375, 192.0, 4.0, 24.0, 14.5, 24.0, 124.0, 32.0, 0.0, 0.0, 0.0, 1.6625068447636957E9, 0.0, 2022-09-06 19:27:24.763
