%OpenBCI Raw EEG Data
%Number of channels = 16
%Sample Rate = 125 Hz
%Board = OpenBCI_GUI$BoardCytonSerialDaisy
Sample Index, EXG Channel 0, EXG Channel 1, EXG Channel 2, EXG Channel 3, EXG Channel 4, EXG Channel 5, EXG Channel 6, EXG Channel 7, EXG Channel 8, EXG Channel 9, EXG Channel 10, EXG Channel 11, EXG Channel 12, EXG Channel 13, EXG Channel 14, EXG Channel 15, Accel Channel 0, Accel Channel 1, Accel Channel 2, Other, Other, Other, Other, Other, Other, Other, Analog Channel 0, Analog Channel 1, Analog Channel 2, Timestamp, Other, Timestamp (Formatted)
44.0, -15553.081399569679, -5943.328850666148, -32587.97169780394, -24273.61449880773, -4853.726011958839, -2951.01141345637, 70422.50131636874, 29845.412653137762, -13516.815127946751, 1411.2667931636327, -15204.461241300254, -9106.592429470114, 13541.491453825409, -7890.165792723393, -5012.937487713992, -1325.838425855449, 0.0, 0.0, 0.0, 192.0, 0.0, 0.0, 0.0, 0.0, 0.0, 0.0, 0.0, 0.0, 0.0, 1.662506287667636E9, 0.0, 2022-09-06 19:18:07.667
46.0, -15271.762343855185, -5405.836451749379, -32508.6230049876, -23488.26360562606, -4202.195012831094, -2328.0906472314177, 67274.12399937201, 28447.199278736032, -14554.919547429032, 430.3604877424822, -16220.102157604953, -10172.63652952153, 12485.930321923533, -8877.017662169656, -5942.635946588033, -2341.8816735603423, 0.095, 0.461, 0.0, 192.0, 2.5, 120.0, 14.0, 104.0, 0.0, 0.0, 0.0, 0.0, 0.0, 1.6625062876676447E9, 0.0, 2022-09-06 19:18:07.667
48.0, -15429.990342854304, -5821.2883259401715, -32467.38403646756, -24149.763482780872, -4740.872054203994, -2857.603473377642, 68821.75878545747, 29763.35939924233, -13519.67615123703, 1480.9148288863694, -15157.14259828837, -9094.32132176415, 13530.829671720228, -7782.184515259804, -5092.241477041421, -1431.316307940043, 0.095, 0.461, 0.0, 192.0, 0.0, 0.0, 0.0, 0.0, 0.0, 0.0, 0.0, 0.0, 0.0, 1.6625062876676517E9, 0.0, 2022-09-06 19:18:07.667
50.0, -15416.355778736566, -5556.174284955774, -32624.74031743292, -23628.990188716674, -4372.381195113801, -2520.40505652488, 68902.33682421886, 28446.39461593564, -14574.052640682774, 390.4849756342144, -16282.552931613081, -10190.87555299706, 12422.920754304023, -8948.520892682183, -5892.657445985967, -2254.2181318066278, 0.095, 0.461, 0.0, 192.0, 0.0, 0.0, 0.0, 0.0, 0.0, 0.0, 0.0, 0.0, 0.0, 1.6625062876676607E9, 0.0, 2022-09-06 19:18:07.667
52.0, -15283.497009694222, -5663.0379751965975, -32319.5272468957, -23967.21678581438, -4603.431177548311, -2699.6660470564425, 67184.26998666167, 29684.21187212609, -13567.598291349208, 1504.540622775629, -15133.337990443468, -9099.931609622432, 13552.712029541974, -7735.737590281677, -5206.347132485764, -1546.316033162598, 0.095, 0.461, 0.0, 192.0, 0.0, 0.0, 0.0, 0.0, 0.0, 0.0, 0.0, 0.0, 0.0, 1.6625062876676683E9, 0.0, 2022-09-06 19:18:07.667
54.0, -15533.054236537724, -5692.542277877603, -32710.19103648556, -23774.43298988736, -4543.573205896999, -2681.1140991585376, 70505.91802667595, 28560.92495452463, -14524.275305780806, 385.88051627642113, -16276.450905376782, -10152.117628111557, 12466.394897269594, -9016.336085359584, -5792.879258737476, -2106.920135846154, 0.095, 0.461, 0.0, 192.0, 0.0, 0.0, 0.0, 0.0, 0.0, 0.0, 0.0, 0.0, 0.0, 1.6625062876676755E9, 0.0, 2022-09-06 19:18:07.667
56.0, -15110.092176209948, -5469.717737402647, -32136.22059061773, -23774.18712069835, -4423.521986427544, -2537.414734055368, 65601.56531352583, 29550.928419939093, -13567.151256460102, 1488.670884212361, -15104.280722651569, -9121.165766854974, 13480.650005418063, -7745.460599119735, -5309.321619191363, -1669.563552089161, 0.1335, 0.6865, -0.008, 192.0, 2.5, 48.0, 14.0, 64.0, 127.5, 64.0, 0.0, 0.0, 0.0, 1.662506287667683E9, 0.0, 2022-09-06 19:18:07.667
58.0, -15654.558319396774, -5825.065770753118, -32812.517322601954, -23945.26737275927, -4703.857565386005, -2795.867955192084, 72017.36533848826, 28716.269578489017, -14417.970409151365, 402.77843508463326, -16216.816451170023, -10056.876844987493, 12465.70199319148, -8979.031023863678, -5648.4199343228265, -1955.2411979724407, 0.1335, 0.6865, -0.008, 192.0, 0.0, 0.0, 0.0, 0.0, 0.0, 0.0, 0.0, 0.0, 0.0, 1.6625062876676898E9, 0.0, 2022-09-06 19:18:07.667
60.0, -15011.878611073329, -5336.7919131269355, -32057.944781535243, -23652.280706439105, -4270.971330520074, -2372.570618697479, 64222.015645744286, 29373.969659086426, -13660.782713983383, 1380.1531648818452, -15153.767484875618, -9188.82449732119, 13435.99121999636, -7756.502360880657, -5433.105579984854, -1826.1822254874976, 0.1335, 0.6865, -0.008, 192.0, 0.0, 0.0, 0.0, 0.0, 0.0, 0.0, 0.0, 0.0, 0.0, 1.662506287667696E9, 0.0, 2022-09-06 19:18:07.667
62.0, -15769.401582408142, -5962.394888686525, -32904.09241963535, -24145.58370656773, -4872.233256367834, -2980.7168818374735, 73294.4546096867, 28846.446138196727, -14344.232004193307, 400.3197431945495, -16176.851532083934, -9986.334739486545, 12559.95929955951, -8950.264328749696, -5521.953764194699, -1836.4193244480282, 0.1335, 0.6865, -0.008, 192.0, 0.0, 0.0, 0.0, 0.0, 0.0, 0.0, 0.0, 0.0, 0.0, 1.6625062876677024E9, 0.0, 2022-09-06 19:18:07.667
64.0, -14895.940112583652, -5195.506536424939, -31964.13451005632, -23504.155695933783, -4136.592642854767, -2266.533943001502, 63078.16512324395, 29180.090627681093, -13780.789229963928, 1257.1738668887458, -15249.075323233048, -9311.289705191815, 13368.399544763512, -7825.099864613994, -5578.347215455439, -1999.2741345493955, 0.1335, 0.6865, -0.008, 192.0, 0.0, 0.0, 0.0, 0.0, 0.0, 0.0, 0.0, 0.0, 0.0, 1.662506287667708E9, 0.0, 2022-09-06 19:18:07.667
66.0, -15842.84941468828, -6071.6949190729765, -32946.65014107825, -24285.080943713303, -4995.190202616478, -3110.0887787447905, 74213.17836203317, 29032.83733520953, -14202.723110046758, 510.5585468481239, -16057.180292270219, -9854.772371622608, 12733.386484788238, -8858.063382871554, -5375.192210101153, -1674.4138806359626, 0.14575, 0.79825, -0.02, 192.0, 2.0, 120.0, 14.0, 56.0, 127.5, 0.0, 0.0, 0.0, 0.0, 1.6625062876677134E9, 0.0, 2022-09-06 19:18:07.667
68.0, -14868.5592256259, -5138.0625531748, -31951.148146527787, -23396.375584170295, -4058.741516916933, -2185.441814117648, 62299.005663276395, 28948.459499890745, -13941.811197019959, 1108.4453592831326, -15396.328615704611, -9470.098849546774, 13245.442598514868, -7982.210276390348, -5737.13400806594, -2172.4554505891147, 0.14575, 0.79825, -0.02, 192.0, 0.0, 0.0, 0.0, 0.0, 0.0, 0.0, 0.0, 0.0, 0.0, 1.662506287667719E9, 0.0, 2022-09-06 19:18:07.667
70.0, -15911.648084121714, -6180.9949494594275, -32972.35464720186, -24386.71432575158, -5082.809040881281, -3180.072090634357, 74772.86604319407, 29201.68241282492, -14124.760225386648, 628.8663302500642, -15973.271843584997, -9744.757085413587, 12849.503797233558, -8725.182262084754, -5272.418889095651, -1557.4024984124303, 0.14575, 0.79825, -0.02, 192.0, 0.0, 0.0, 0.0, 0.0, 0.0, 0.0, 0.0, 0.0, 0.0, 1.6625062876677244E9, 0.0, 2022-09-06 19:18:07.667
72.0, -14855.349344652814, -5102.210355068488, -31936.708919609657, -23278.760704846467, -4010.640562849112, -2105.89195560121, 61965.49528425876, 28754.088730107396, -14113.338483969985, 979.6993112205639, -15537.435178450964, -9599.135470287261, 13126.128986612439, -8086.861143930095, -5831.7265906008, -2264.4552307671584, 0.14575, 0.79825, -0.02, 192.0, 0.0, 0.0, 0.0, 0.0, 0.0, 0.0, 0.0, 0.0, 0.0, 1.6625062876677306E9, 0.0, 2022-09-06 19:18:07.667
74.0, -15927.62958140726, -6240.607051921732, -32957.513088883534, -24458.619887664307, -5164.102335465233, -3246.523826899985, 74908.6305390156, 29394.600319218676, -14035.487358032151, 710.1372730895607, -15849.309068835864, -9611.42892973768, 12994.5666187485, -8582.89105688227, -5165.711661066015, -1425.773075315127, 0.14575, 0.79825, -0.02, 192.0, 0.0, 0.0, 0.0, 0.0, 0.0, 0.0, 0.0, 0.0, 0.0, 1.662506287667736E9, 0.0, 2022-09-06 19:18:07.667
76.0, -14859.551472610412, -5082.67493041455, -31972.158786315777, -23222.92604719711, -3950.9614051534422, -2055.5558270878587, 62078.28218678024, 28578.493425666504, -14279.456648761827, 756.4724393454122, -15697.853648406703, -9747.551053470499, 12995.214819337705, -8216.724779215428, -5936.533920351734, -2361.081822047451, 0.157875, 0.870125, -0.027000000000000003, 192.0, 2.5, 40.0, 14.5, 56.0, 127.0, 120.0, 0.0, 0.0, 0.0, 1.6625062876677446E9, 0.0, 2022-09-06 19:18:07.667
78.0, -15901.455688650096, -6251.313537515824, -32905.500579536034, -24492.929815403204, -5200.066292293822, -3255.26335898201, 74605.20560803481, 29517.84783814524, -13924.0862636669, 734.9700611794068, -15701.63109321965, -9469.852980357764, 13173.090001713039, -8394.71172031304, -5089.872192129158, -1345.9326441207702, 0.157875, 0.870125, -0.027000000000000003, 192.0, 0.0, 0.0, 0.0, 0.0, 0.0, 0.0, 0.0, 0.0, 0.0, 1.66250628766775E9, 0.0, 2022-09-06 19:18:07.667
80.0, -14907.250095278037, -5102.098596346212, -32022.561970062492, -23207.793916200866, -3980.4657078344476, -2070.3303301728165, 62607.68325420419, 28412.82229576377, -14411.846031170611, 439.50235122470275, -15841.262440831953, -9871.782049153097, 12917.274286422049, -8335.814873673306, -5995.274304780281, -2430.1934159032603, 0.157875, 0.870125, -0.027000000000000003, 192.0, 0.0, 0.0, 0.0, 0.0, 0.0, 0.0, 0.0, 0.0, 0.0, 1.6625062876677556E9, 0.0, 2022-09-06 19:18:07.667
82.0, -15823.470452245529, -6202.363217158701, -32801.52026432994, -24462.956126088637, -5165.622254088194, -3204.0778641793568, 73884.25009062888, 29694.225453642066, -13798.894142972726, 712.5959649796445, -15546.2194140219, -9327.829996088743, 13364.085658083637, -8189.925037613516, -5015.41853134853, -1281.6490270673069, 0.157875, 0.870125, -0.027000000000000003, 192.0, 0.0, 0.0, 0.0, 0.0, 0.0, 0.0, 0.0, 0.0, 0.0, 1.662506287667761E9, 0.0, 2022-09-06 19:18:07.667
84.0, -14955.932194701696, -5134.8662537176915, -32083.8728051034, -23205.514038266425, -3997.9894754874085, -2054.102963698264, 63543.17081489215, 28366.621239974647, -14506.863296850122, 171.68374916121354, -15970.388468550262, -9967.82749507755, 12812.288142715472, -8463.353927535287, -6009.266496809304, -2420.8950902098527, 0.157875, 0.870125, -0.027000000000000003, 192.0, 0.0, 0.0, 0.0, 0.0, 0.0, 0.0, 0.0, 0.0, 0.0, 1.6625062876677666E9, 0.0, 2022-09-06 19:18:07.667
86.0, -15715.220953848477, -6116.197242283492, -32676.99869596943, -24407.2108754171, -5103.976142880457, -3118.0907032597906, 72772.07199002171, 29751.669436892207, -13693.058632976847, 729.1139041321164, -15382.828162053605, -9188.846849065643, 13527.163985629557, -7982.880828724007, -4955.337042252665, -1233.682183466218, 0.1639375, 0.9020625, -0.0315, 192.0, 2.5, 40.0, 14.5, 24.0, 127.0, 112.0, 0.0, 0.0, 0.0, 1.6625062876677723E9, 0.0, 2022-09-06 19:18:07.667
88.0, -15067.534454767045, -5232.677487454115, -32203.298175728105, -23308.22030403856, -4067.0563658543074, -2151.198941612118, 64803.853905660384, 28310.943044536478, -14587.418983867048, -81.71797772860262, -16089.590321730415, -10062.42007761241, 12753.681868753656, -8612.03773165199, -5993.977903601874, -2418.7269709976877, 0.1639375, 0.9020625, -0.0315, 192.0, 0.0, 0.0, 0.0, 0.0, 0.0, 0.0, 0.0, 0.0, 0.0, 1.6625062876677778E9, 0.0, 2022-09-06 19:18:07.667
90.0, -15612.291170631788, -6021.179976603982, -32567.139871971594, -24344.76010140897, -5003.125071898112, -3027.0296963488695, 71382.7993134021, 29810.61098702085, -13628.618553712196, 689.2607437683039, -15276.635024146442, -9123.937383167433, 13663.12964715119, -7845.104675901494, -4963.160152812023, -1292.3778644058543, 0.1639375, 0.9020625, -0.0315, 192.0, 0.0, 0.0, 0.0, 0.0, 0.0, 0.0, 0.0, 0.0, 0.0, 1.6625062876677833E9, 0.0, 2022-09-06 19:18:07.667
92.0, -15195.297026073578, -5347.319584765385, -32340.716700639332, -23418.995549559066, -4238.091914426317, -2300.5756498069345, 66305.42174642345, 28274.956735963435, -14633.977667567453, -288.6057244069248, -16192.654215413835, -10124.356761498066, 12704.888010607721, -8704.05986357449, -5955.51055139429, -2387.8145084159983, 0.1639375, 0.9020625, -0.0315, 192.0, 0.0, 0.0, 0.0, 0.0, 0.0, 0.0, 0.0, 0.0, 0.0, 1.6625062876677885E9, 0.0, 2022-09-06 19:18:07.667
94.0, -15488.104878438102, -5905.375588581037, -32442.95357977791, -24218.383338258667, -4884.906695473993, -2921.373000308633, 69785.40954415912, 29769.774349901003, -13622.538879220354, 646.7030223253993, -15212.10553790397, -9079.144487278996, 13717.310275710855, -7727.489796577668, -5051.136618988111, -1373.5594002675296, 0.1639375, 0.9020625, -0.0315, 192.0, 0.0, 0.0, 0.0, 0.0, 0.0, 0.0, 0.0, 0.0, 0.0, 1.6625062876677942E9, 0.0, 2022-09-06 19:18:07.667
96.0, -15324.400702047433, -5471.952911848177, -32462.198431753928, -23534.487013159636, -4380.204305673159, -2413.071979650495, 67957.75210353758, 28353.23254504592, -14649.713295663989, -427.09713305200734, -16259.128303423919, -10142.729895440329, 12678.758821339468, -8771.226855662688, -5894.6020477535785, -2281.151983875273, 0.1639375, 0.9020625, -0.0315, 192.0, 0.0, 0.0, 0.0, 0.0, 0.0, 0.0, 0.0, 0.0, 0.0, 1.6625062876677997E9, 0.0, 2022-09-06 19:18:07.667
98.0, -15333.27434459619, -5733.647135930913, -32281.28341213267, -24043.90562104054, -4719.816710927094, -2734.6912306179083, 68070.1143229144, 29728.803602314427, -13601.483535943455, 617.0422574332068, -15141.742246358663, -9044.208710695351, 13783.96317767658, -7624.045923238507, -5116.828395942259, -1457.892532097403, 0.162, 0.932, -0.022, 192.0, 2.5, 8.0, 14.5, 16.0, 127.5, 40.0, 0.0, 0.0, 0.0, 1.6625062876678052E9, 0.0, 2022-09-06 19:18:07.667
100.0, -15453.571433254652, -5612.120701327408, -32572.906622041064, -23683.93077658782, -4510.112644447404, -2562.0463564451165, 69628.07561493822, 28438.415043165096, -14608.273161443849, -516.8393870400652, -16273.165198941851, -10120.534613196209, 12707.436109475626, -8822.054722554056, -5780.272874864683, -2164.9676161965867, 0.162, 0.932, -0.022, 192.0, 0.0, 0.0, 0.0, 0.0, 0.0, 0.0, 0.0, 0.0, 0.0, 1.662506287667811E9, 0.0, 2022-09-06 19:18:07.667
102.0, -15171.782990906597, -5555.235511688651, -32136.913494695844, -23866.05279040966, -4567.266055019624, -2592.2882666931473, 66389.1737328975, 29625.85146735328, -13623.634114698663, 550.3446519785705, -15112.014426233105, -9050.668364842935, 13817.982532737558, -7584.416280319248, -5199.976885316001, -1595.8922023644689, 0.162, 0.932, -0.022, 192.0, 0.0, 0.0, 0.0, 0.0, 0.0, 0.0, 0.0, 0.0, 0.0, 1.662506287667816E9, 0.0, 2022-09-06 19:18:07.667
104.0, -15569.018193366313, -5751.863807661987, -32684.151254195127, -23848.43961577888, -4681.081137786047, -2741.6202713990538, 71245.89487861334, 28577.822873332843, -14540.21209957744, -558.391279982481, -16252.64629753188, -10064.677603802396, 12746.059923894398, -8842.238347797198, -5679.622969582435, -2030.7453907424679, 0.162, 0.932, -0.022, 192.0, 0.0, 0.0, 0.0, 0.0, 0.0, 0.0, 0.0, 0.0, 0.0, 1.6625062876678214E9, 0.0, 2022-09-06 19:18:07.667
106.0, -15035.437349729224, -5412.743140786069, -32014.29182461403, -23691.73153540272, -4400.812614060952, -2426.751247257143, 64806.15613533928, 29467.39995090961, -13686.598978829263, 440.64229019192345, -15137.4730631677, -9110.61574347207, 13776.564750261874, -7587.746690243089, -5358.473105248583, -1727.5216254617721, 0.162, 0.932, -0.022, 192.0, 0.0, 0.0, 0.0, 0.0, 0.0, 0.0, 0.0, 0.0, 0.0, 1.662506287667827E9, 0.0, 2022-09-06 19:18:07.667
108.0, -15659.140427010112, -5874.463125999347, -32744.344502013268, -23968.043800359228, -4816.175081273924, -2842.6501563370416, 72583.132694141, 28749.327808538415, -14443.697267019425, -543.1920937528722, -16195.604645681937, -9968.20747473329, 12835.243384271073, -8787.78949830407, -5541.690354548736, -1843.0130890623439, 0.176, 0.9520000000000001, -0.01, 192.0, 2.5, 64.0, 14.5, 96.0, 127.5, 88.0, 0.0, 0.0, 0.0, 1.6625062876678352E9, 0.0, 2022-09-06 19:18:07.667
110.0, -14925.064435608916, -5278.8561914987795, -31906.22114017262, -23499.84180925391, -4254.36398438978, -2265.9975011345746, 63428.70753153653, 29312.390603112057, -13773.81548569387, 342.0263936551087, -15193.508886517155, -9176.776907059779, 13721.914735068649, -7597.514402570057, -5457.60309190787, -1844.7118216409472, 0.176, 0.9520000000000001, -0.01, 192.0, 0.0, 0.0, 0.0, 0.0, 0.0, 0.0, 0.0, 0.0, 0.0, 1.6625062876678407E9, 0.0, 2022-09-06 19:18:07.667
112.0, -15747.027486208379, -5993.352054757125, -32795.86527298275, -24095.225226309925, -4925.653925616018, -2952.7324977794287, 73722.66932996147, 28993.610023690468, -14325.41183536194, -486.66453202540066, -16109.304560339995, -9854.034764055583, 12948.857301337399, -8694.023930314057, -5380.511925281516, -1664.020319464245, 0.176, 0.9520000000000001, -0.01, 192.0, 0.0, 0.0, 0.0, 0.0, 0.0, 0.0, 0.0, 0.0, 0.0, 1.6625062876678462E9, 0.0, 2022-09-06 19:18:07.667
114.0, -14858.99267899903, -5183.213076974521, -31858.813090182914, -23360.85866223081, -4135.944442265563, -2178.803346014422, 62555.42487566768, 29101.926577320886, -13895.65484471975, 185.87710689033352, -15303.45711749281, -9300.560867853268, 13621.756568164417, -7678.383014009359, -5571.418174674293, -1985.8630878762112, 0.176, 0.9520000000000001, -0.01, 192.0, 0.0, 0.0, 0.0, 0.0, 0.0, 0.0, 0.0, 0.0, 0.0, 1.6625062876678517E9, 0.0, 2022-09-06 19:18:07.667
116.0, -15831.070045360333, -6115.526689949834, -32860.03713131394, -24241.942076914558, -5058.624453380639, -3103.4726623860197, 74565.03952324862, 29180.358848614556, -14218.324627676562, -439.16707505787315, -16024.010303498544, -9746.589928458921, 13056.503302634157, -8585.193286561167, -5253.7328307310145, -1521.3714863504752, 0.176, 0.9520000000000001, -0.01, 192.0, 0.0, 0.0, 0.0, 0.0, 0.0, 0.0, 0.0, 0.0, 0.0, 1.6625062876678572E9, 0.0, 2022-09-06 19:18:07.667
118.0, -14819.564201779867, -5110.2122795834875, -31867.68673273167, -23263.807387805868, -4034.2663567383715, -2092.5926676503027, 62076.31523326817, 28906.393516825858, -14040.87412844588, -8.44895940410607, -15448.028200629737, -9451.770419093422, 13476.224360015913, -7841.953079933296, -5707.093263518008, -2125.092104088319, 0.182, 0.9380000000000001, -0.008, 192.0, 2.5, 88.0, 14.5, 40.0, 127.5, 96.0, 0.0, 0.0, 0.0, 1.6625062876678627E9, 0.0, 2022-09-06 19:18:07.667
120.0, -15878.90277849469, -6187.298141395824, -32912.340213339354, -24353.43257825763, -5143.1140474217, -3182.553134268896, 74994.52829295734, 29363.218470003423, -14095.83706806148, -376.6045423274687, -15909.0552817649, -9631.120816602805, 13175.638100580944, -8480.497715532509, -5165.644605832649, -1423.1802729583112, 0.182, 0.9380000000000001, -0.008, 192.0, 0.0, 0.0, 0.0, 0.0, 0.0, 0.0, 0.0, 0.0, 0.0, 1.662506287667868E9, 0.0, 2022-09-06 19:18:07.667
122.0, -14814.512707532967, -5063.0948022717, -31896.78870401248, -23177.507302463928, -3999.867022021654, -2050.0349462073978, 62007.918895234936, 28713.29679647646, -14183.14298190391, -198.3717320408502, -15593.85098145616, -9603.359949989313, 13339.454035693889, -7965.692337237876, -5831.257203967239, -2248.272567781516, 0.182, 0.9380000000000001, -0.008, 192.0, 0.0, 0.0, 0.0, 0.0, 0.0, 0.0, 0.0, 0.0, 0.0, 1.6625062876678736E9, 0.0, 2022-09-06 19:18:07.667
124.0, -15847.386818812707, -6185.040615205839, -32864.08279706035, -24379.852340203804, -5196.624123647705, -3200.6133437887843, 74944.25921967736, 29570.486196337486, -13952.472979125141, -254.407555390305, -15745.865195496703, -9474.837419371297, 13340.906899083484, -8316.570021697285, -5061.5525319042845, -1304.805434323005, 0.182, 0.9380000000000001, -0.008, 192.0, 0.0, 0.0, 0.0, 0.0, 0.0, 0.0, 0.0, 0.0, 0.0, 1.662506287667879E9, 0.0, 2022-09-06 19:18:07.667
126.0, -14845.268707903471, -5051.9859852774125, -31955.171460529742, -23137.967066522488, -4000.0905394662072, -2030.7006872535574, 62392.88298998869, 28550.911373008654, -14300.489640294272, -351.52588504861416, -15727.693227254538, -9723.455872947678, 13207.958723063317, -8096.628856257064, -5929.023734214751, -2321.6980483172, 0.182, 0.9380000000000001, -0.008, 192.0, 0.0, 0.0, 0.0, 0.0, 0.0, 0.0, 0.0, 0.0, 0.0, 1.6625062876678846E9, 0.0, 2022-09-06 19:18:07.667
128.0, -15775.324794688797, -6128.825977900741, -32768.46203428054, -24363.468511518065, -5142.868178232691, -3175.422927787653, 74433.25363794013, 29736.783175084973, -13822.966971751091, -149.13083900580872, -15585.580836007695, -9339.318792738772, 13501.973569628426, -8133.397475886045, -5002.007484675346, -1240.4994655250866, 0.18, 0.908, -0.02, 192.0, 2.5, 80.0, 14.0, 48.0, 127.5, 48.0, 0.0, 0.0, 0.0, 1.6625062876678903E9, 0.0, 2022-09-06 19:18:07.667
130.0, -14890.553342169922, -5062.714822615961, -32021.980824706654, -23138.212935711497, -4018.9107082975756, -2057.1428009441856, 63125.461414511374, 28426.993301748433, -14385.046289568698, -518.1134364740177, -15839.720170464538, -9834.298173701545, 13114.64018996241, -8225.576070019732, -5955.778772327754, -2365.0604325604954, 0.18, 0.908, -0.02, 192.0, 0.0, 0.0, 0.0, 0.0, 0.0, 0.0, 0.0, 0.0, 0.0, 1.6625062876678958E9, 0.0, 2022-09-06 19:18:07.667
132.0, -15718.260791094399, -6088.68224485901, -32693.5166351219, -24342.860203130273, -5147.539692823851, -3141.71649714905, 73532.99242651372, 29836.471955355642, -13706.71554883904, -69.2904078114519, -15434.1924708119, -9215.91481160102, 13636.352257293733, -7972.397860574468, -4972.8608099056255, -1211.1516250552686, 0.18, 0.908, -0.02, 192.0, 0.0, 0.0, 0.0, 0.0, 0.0, 0.0, 0.0, 0.0, 0.0, 1.6625062876679013E9, 0.0, 2022-09-06 19:18:07.667
134.0, -14996.388852165801, -5149.4842945914625, -32132.59960801597, -23195.45575326154, -4088.7152062315, -2125.963822122076, 64249.88827108005, 28332.35601572466, -14499.57662815769, -722.0507528842394, -15991.242646127064, -9961.658413607885, 12980.485019741658, -8417.219926979533, -6008.797110175742, -2385.3558165259146, 0.18, 0.908, -0.02, 192.0, 0.0, 0.0, 0.0, 0.0, 0.0, 0.0, 0.0, 0.0, 0.0, 1.662506287667907E9, 0.0, 2022-09-06 19:18:07.667
136.0, -15606.256199628855, -6003.231525806371, -32574.314781941746, -24266.90897547114, -5041.391258405597, -3050.588435004763, 72296.62803371287, 29888.99855482561, -13638.967411395004, -34.98048007255555, -15316.868164165995, -9128.117159380576, 13742.67950566763, -7839.293222343114, -4989.803432202749, -1223.489787994598, 0.18, 0.908, -0.02, 192.0, 0.0, 0.0, 0.0, 0.0, 0.0, 0.0, 0.0, 0.0, 0.0, 1.6625062876679215E9, 0.0, 2022-09-06 19:18:07.667
138.0, -15077.056297905005, -5229.70470544156, -32248.269885572183, -23245.613067819246, -4154.742259352477, -2213.8061778314327, 65644.65947683567, 28302.717602576926, -14543.363695545639, -861.9056179410957, -16089.858542663878, -10023.393931793444, 12913.452138120192, -8517.869832261782, -5983.807859874709, -2319.50757736058, 0.186, 0.912, -0.038, 192.0, 2.5, 104.0, 14.0, 64.0, 127.0, 104.0, 0.0, 0.0, 0.0, 1.6625062876679273E9, 0.0, 2022-09-06 19:18:07.667
140.0, -15472.413953830475, -5886.510716260757, -32462.936039320954, -24143.01325595537, -4902.5422218492295, -2930.537215535309, 70795.19430341653, 29898.92272936377, -13580.696413600019, -0.08940697782122825, -15216.53118330612, -9052.255338699262, 13829.918364276691, -7691.749357193632, -5041.704182827972, -1251.6976894971956, 0.186, 0.912, -0.038, 192.0, 0.0, 0.0, 0.0, 0.0, 0.0, 0.0, 0.0, 0.0, 0.0, 1.6625062876679342E9, 0.0, 2022-09-06 19:18:07.667
142.0, -15205.176497122824, -5364.597483229338, -32388.571785518146, -23366.781874511467, -4254.69926055661, -2326.995411753108, 67221.70915862432, 28327.103355777665, -14564.441390566994, -968.5681424818209, -16163.775761577579, -10057.3238798766, 12862.154884595262, -8608.059121138946, -5935.438684873425, -2227.2619279935275, 0.186, 0.912, -0.038, 192.0, 0.0, 0.0, 0.0, 0.0, 0.0, 0.0, 0.0, 0.0, 0.0, 1.6625062876679397E9, 0.0, 2022-09-06 19:18:07.667
144.0, -15319.371559544988, -5743.750124424711, -32317.940273039374, -23999.202132129925, -4764.430792859887, -2776.801917171707, 69139.37707416738, 29836.024920466534, -13570.235797194935, 3.173947712653603, -15147.799569106051, -9026.059094197642, 13874.912425865225, -7601.7388822721105, -5111.933363906546, -1342.1551993078233, 0.186, 0.912, -0.038, 192.0, 0.0, 0.0, 0.0, 0.0, 0.0, 0.0, 0.0, 0.0, 0.0, 1.6625062876679451E9, 0.0, 2022-09-06 19:18:07.667
146.0, -15340.024571421693, -5510.755540222591, -32504.77850494129, -23510.861219270377, -4413.463701422656, -2475.3886431918913, 68911.63514991225, 28383.742676227415, -14569.515236558347, -1042.820637562351, -16211.25086680065, -10067.650385814952, 12817.406692195736, -8680.746994107603, -5849.764448376232, -2114.385618494227, 0.186, 0.912, -0.038, 192.0, 0.0, 0.0, 0.0, 0.0, 0.0, 0.0, 0.0, 0.0, 0.0, 1.6625062876679506E9, 0.0, 2022-09-06 19:18:07.667
148.0, -15208.01516866865, -5624.280050311095, -32192.859911067477, -23873.987659691295, -4640.87034951095, -2657.28713956918, 67483.87276934061, 29716.644253330738, -13625.466957743998, -42.24479702053035, -15142.345743458956, -9048.50024563077, 13852.203053498633, -7551.760381670044, -5232.3645630317405, -1467.5931891910063, 0.196, 0.9440000000000001, -0.068, 192.0, 3.0, 16.0, 14.5, 64.0, 126.5, 112.0, 0.0, 0.0, 0.0, 1.662506287667956E9, 0.0, 2022-09-06 19:18:07.667
150.0, -15457.01360190077, -5647.4811610557035, -32590.899776327584, -23667.92692755782, -4544.08729601947, -2596.982133028762, 70577.44360893292, 28537.433271102105, -14547.677582225513, -1086.361835761289, -16231.792119955078, -10054.574615308597, 12808.689511858167, -8750.238567619153, -5758.457572276303, -1982.6220849301917, 0.196, 0.9440000000000001, -0.068, 192.0, 0.0, 0.0, 0.0, 0.0, 0.0, 0.0, 0.0, 0.0, 0.0, 1.6625062876679618E9, 0.0, 2022-09-06 19:18:07.667
152.0, -15105.733586041164, -5515.203537369196, -32076.988467811167, -23749.644905286423, -4498.825013497474, -2519.9356698913184, 65898.3070729145, 29544.245248346957, -13687.448345118564, -98.92882095918905, -15144.245641737658, -9096.355330509583, 13825.090387474345, -7526.078227290896, -5347.63250918776, -1601.79306290067, 0.196, 0.9440000000000001, -0.068, 192.0, 0.0, 0.0, 0.0, 0.0, 0.0, 0.0, 0.0, 0.0, 0.0, 1.662506287667967E9, 0.0, 2022-09-06 19:18:07.667
154.0, -15600.288283859289, -5817.689695082867, -32699.641013102653, -23855.86039493804, -4700.661265928897, -2764.9778443548494, 72103.95599650813, 28677.802226281434, -14512.674750408501, -1116.849615198328, -16228.662875731336, -10033.094588887046, 12829.744855135066, -8739.0626953915, -5660.109896672952, -1871.1986388204862, 0.196, 0.9440000000000001, -0.068, 192.0, 0.0, 0.0, 0.0, 0.0, 0.0, 0.0, 0.0, 0.0, 0.0, 1.6625062876679728E9, 0.0, 2022-09-06 19:18:07.667
156.0, -14963.062401182939, -5352.147561567732, -31946.789556359003, -23560.750312894623, -4305.907107103719, -2328.4929786316134, 64471.68463131007, 29435.481659827434, -13769.367488547265, -182.47964173312687, -15182.981214878704, -9176.598093104136, 13766.171189090157, -7537.611727429835, -5467.974301335133, -1742.3855355245514, 0.196, 0.9440000000000001, -0.068, 192.0, 0.0, 0.0, 0.0, 0.0, 0.0, 0.0, 0.0, 0.0, 0.0, 1.6625062876679783E9, 0.0, 2022-09-06 19:18:07.667
158.0, -15666.650613147094, -5914.763321252265, -32748.189002059582, -23975.330469051656, -4803.14401425648, -2857.6928803554633, 73370.09291292344, 28905.030060414087, -14382.162914533963, -1034.6846025806192, -16131.723360028669, -9916.664352019352, 12917.251934677593, -8645.811217523958, -5497.545659249504, -1679.957113260879, 0.202, 0.96, -0.09, 192.0, 3.0, 40.0, 15.0, 0.0, 126.5, 24.0, 0.0, 0.0, 0.0, 1.662506287667984E9, 0.0, 2022-09-06 19:18:07.667
160.0, -14893.28025499347, -5252.369374319241, -31915.564169354937, -23452.36670403084, -4201.122129097239, -2232.626346662801, 63286.48338156741, 29189.947746985883, -13854.728800622082, -286.7728813615896, -15249.075323233048, -9282.210085655463, 13680.072269448314, -7585.802088475477, -5603.738797156668, -1897.0819588997317, 0.202, 0.96, -0.09, 192.0, 0.0, 0.0, 0.0, 0.0, 0.0, 0.0, 0.0, 0.0, 0.0, 1.6625062876679895E9, 0.0, 2022-09-06 19:18:07.667
162.0, -15776.241216211465, -6058.574445077711, -32867.72613140656, -24174.97625052646, -4969.910379637526, -2990.7975185868168, 74303.09942997688, 29066.85669027051, -14305.854058963545, -1004.6662097771418, -16089.746783941602, -9865.165932794325, 12983.413098265302, -8604.37108330382, -5414.7995012759575, -1608.4538827483516, 0.202, 0.96, -0.09, 192.0, 0.0, 0.0, 0.0, 0.0, 0.0, 0.0, 0.0, 0.0, 0.0, 1.6625062876679952E9, 0.0, 2022-09-06 19:18:07.667
164.0, -14837.535004321935, -5162.0683267198, -31916.92762576671, -23364.658458788213, -4081.830868939265, -2134.3680780372715, 62452.00335407298, 28969.648953634376, -14005.379558250852, -446.47609549475857, -15395.47924941531, -9445.266061456927, 13533.780101988328, -7704.378092810881, -5761.676223477867, -2090.312789715861, 0.202, 0.96, -0.09, 192.0, 0.0, 0.0, 0.0, 0.0, 0.0, 0.0, 0.0, 0.0, 0.0, 1.6625062876680007E9, 0.0, 2022-09-06 19:18:07.668
0.0, -7500.284314189472, -2618.484511194767, -16022.557440108949, -11653.68546887463, -2018.451931292049, -1046.2628062084682, 30318.219103600873, 14110.41040544634, -7287.339244763762, -533.9608232928305, -7997.811794020152, -5033.4340373795085, 6471.522923889509, -4164.711137379544, -3108.0994734882684, -1301.586783121441, 0.20600000000000002, 0.904, -0.004, 192.0, 3.0, 56.0, 14.0, 32.0, 127.5, 112.0, 0.0, 0.0, 0.0, 1.662506287755804E9, 0.0, 2022-09-06 19:18:07.755
2.0, -15732.565907545795, -6184.057138449805, -32609.094096314206, -24457.815224863916, -5081.557343191784, -3122.3151829618437, 70474.44677048287, 29617.71543237155, -13748.222738292545, 100.24757388205218, -15559.69751592845, -9397.120403900195, 13533.53423279932, -8031.741742103308, -5210.83983312128, -1463.5698751890511, 0.20600000000000002, 0.904, -0.004, 192.0, 0.0, 0.0, 0.0, 0.0, 0.0, 0.0, 0.0, 0.0, 0.0, 1.6625062882356775E9, 0.0, 2022-09-06 19:18:08.235
4.0, -15863.748295753992, -6164.722879495965, -32868.88842211824, -24279.940042488583, -5019.37479011712, -3036.953870887026, 73138.41708164419, 28599.548768943405, -14660.66565044709, -839.0844868522271, -16525.4493386089, -10355.317336954753, 12554.706639612514, -9036.385600135995, -5984.143136041539, -2290.182088635217, 0.20600000000000002, 0.904, -0.004, 192.0, 0.0, 0.0, 0.0, 0.0, 0.0, 0.0, 0.0, 0.0, 0.0, 1.6625062882356868E9, 0.0, 2022-09-06 19:18:08.235
6.0, -15793.69792863106, -6146.059172875783, -32684.486530361955, -24276.81079826484, -5009.852946979159, -3028.728428927473, 72350.2722204056, 28954.02508426012, -14296.220457103307, -429.7122871532783, -16058.74491438209, -9931.34944812649, 12987.414060522802, -8500.055491930902, -5755.440086774836, -2050.236111907496, 0.20600000000000002, 0.904, -0.004, 192.0, 0.0, 0.0, 0.0, 0.0, 0.0, 0.0, 0.0, 0.0, 0.0, 1.6625062882356987E9, 0.0, 2022-09-06 19:18:08.235
8.0, -15653.038400773812, -5971.8496765911195, -32638.21841933947, -24058.814234592228, -4838.660936195963, -2857.4246594219994, 71279.31073657403, 28582.494387924005, -14440.120987906575, -593.8858501775087, -16215.20712556924, -10070.824333527606, 12831.86827085832, -8662.351508420887, -5820.930698028887, -2128.154293078696, 0.18, 0.89, 0.044, 192.0, 2.5, 80.0, 13.5, 104.0, 0.5, 48.0, 0.0, 0.0, 0.0, 1.662506288235706E9, 0.0, 2022-09-06 19:18:08.235
10.0, -15630.641952829596, -5995.788394902754, -32506.76781019781, -24088.85497914016, -4816.845633607582, -2861.4926769128656, 70376.36731581298, 28995.152294057883, -14149.458903009761, -307.6494106828464, -15904.003787518, -9765.298338568013, 13128.319457569058, -8329.914013137104, -5623.92242239981, -1916.9750114649548, 0.18, 0.89, 0.044, 192.0, 0.0, 0.0, 0.0, 0.0, 0.0, 0.0, 0.0, 0.0, 0.0, 1.6625062882357142E9, 0.0, 2022-09-06 19:18:08.235
12.0, -15609.586609552696, -5948.961490268885, -32575.365313931146, -24017.955245727928, -4781.306359923645, -2791.8893446790394, 70609.5630657152, 28794.143056171306, -14345.84132979409, -550.2552450007493, -16117.842926721924, -9960.362012429478, 12930.059484250485, -8567.334242741375, -5677.097222458986, -1941.807799554801, 0.18, 0.89, 0.044, 192.0, 0.0, 0.0, 0.0, 0.0, 0.0, 0.0, 0.0, 0.0, 0.0, 1.662506288235722E9, 0.0, 2022-09-06 19:18:08.235
14.0, -15550.734466401873, -5916.506757319779, -32425.072184213663, -24000.923216452982, -4724.175301095879, -2755.7242221503525, 69160.74534186666, 29066.163786192395, -14108.443451934274, -319.56289047752506, -15856.059295661367, -9715.699817621688, 13159.276623639658, -8252.35345987719, -5595.714520897212, -1850.0985920546761, 0.18, 0.89, 0.044, 192.0, 0.0, 0.0, 0.0, 0.0, 0.0, 0.0, 0.0, 0.0, 0.0, 1.6625062882357292E9, 0.0, 2022-09-06 19:18:08.235
16.0, -15591.414641310532, -5932.421199371958, -32547.24681940637, -24013.775469514785, -4742.727248993784, -2792.5598970126985, 70221.71559592671, 28817.724146571654, -14301.07078565011, -579.8936581484865, -16065.405734229773, -9903.230953601713, 12975.18765630575, -8485.213933612578, -5616.769864174112, -1854.5912926901929, 0.18, 0.89, 0.044, 192.0, 0.0, 0.0, 0.0, 0.0, 0.0, 0.0, 0.0, 0.0, 0.0, 1.6625062882357383E9, 0.0, 2022-09-06 19:18:08.235
18.0, -15521.3642741876, -5882.845030170087, -32398.473608311848, -23952.621096685067, -4659.534056131131, -2677.649578767965, 68015.97839784365, 29060.441739611833, -14104.062510021033, -374.21290567075084, -15842.13415886571, -9707.11674775085, 13171.614786578988, -8241.177587649536, -5616.300477540551, -1866.3259585292292, 0.192, 0.912, 0.064, 192.0, 3.0, 0.0, 14.0, 64.0, 1.0, 0.0, 0.0, 0.0, 0.0, 1.6625062882357454E9, 0.0, 2022-09-06 19:18:08.235
20.0, -15582.451591783953, -5933.136455194528, -32534.305159366748, -23995.00000417233, -4762.75441202574, -2764.128478065548, 69660.12801648713, 28953.242773204183, -14257.797808384636, -621.7808272577319, -16022.535088364493, -9873.838409642984, 13007.552982277035, -8475.91560791917, -5580.850610834434, -1794.8003762722465, 0.192, 0.912, 0.064, 192.0, 0.0, 0.0, 0.0, 0.0, 0.0, 0.0, 0.0, 0.0, 0.0, 1.6625062882357523E9, 0.0, 2022-09-06 19:18:08.235
22.0, -15488.015471460281, -5848.132771030995, -32381.46393078136, -23888.62805230952, -4616.037561421104, -2683.930418959906, 67067.86210153844, 28976.577994415522, -14093.467783149217, -431.20985403178383, -15830.332437793308, -9708.569611140443, 13181.51660937269, -8227.431264809522, -5631.030277136598, -1885.6602174830698, 0.192, 0.912, 0.064, 192.0, 0.0, 0.0, 0.0, 0.0, 0.0, 0.0, 0.0, 0.0, 0.0, 1.6625062882357595E9, 0.0, 2022-09-06 19:18:08.235
24.0, -15613.609923554652, -5964.272435220771, -32556.20986893295, -24004.432440332468, -4761.793287014161, -2813.3023158672236, 69305.98697733725, 29027.472916540257, -14240.67637213187, -658.6165021200779, -15995.064794428921, -9852.961880321727, 13055.430418900301, -8443.371467992243, -5517.930450192744, -1765.9889776693558, 0.192, 0.912, 0.064, 192.0, 0.0, 0.0, 0.0, 0.0, 0.0, 0.0, 0.0, 0.0, 0.0, 1.6625062882357664E9, 0.0, 2022-09-06 19:18:08.235
26.0, -15448.966973896859, -5790.420566847392, -32370.533927742712, -23827.741900413264, -4583.247552305169, -2637.7293631707867, 66521.83133623975, 29005.41174476287, -14092.305492437541, -481.9483139453309, -15837.105016363266, -9714.917506565751, 13175.503990114212, -8224.346724074689, -5615.3170007845165, -1885.8837349276228, 0.192, 0.912, 0.064, 192.0, 0.0, 0.0, 0.0, 0.0, 0.0, 0.0, 0.0, 0.0, 0.0, 1.6625062882357748E9, 0.0, 2022-09-06 19:18:08.235
28.0, -15631.37956039662, -5970.597978901623, -32571.990200518398, -24019.631626562077, -4807.368493958533, -2839.565615602209, 69047.86903236735, 29075.41740839689, -14202.544296091117, -666.7972405907203, -15965.87341617029, -9812.393464135344, 13076.73163136621, -8381.211266662034, -5482.525286975538, -1723.8559393711018, 0.17400000000000002, 0.874, 0.07200000000000001, 192.0, 2.5, 56.0, 13.5, 40.0, 1.0, 32.0, 0.0, 0.0, 0.0, 1.6625062882357824E9, 0.0, 2022-09-06 19:18:08.235
30.0, -15439.735703436818, -5771.935674182853, -32376.278326067728, -23827.965417857817, -4602.134776369903, -2632.2531857792364, 66243.14978637097, 28946.33608416749, -14123.46382420824, -567.9131231204418, -15871.90668248018, -9745.919376125263, 13124.273791822648, -8250.431209854032, -5645.3130418435385, -1919.3889998661282, 0.17400000000000002, 0.874, 0.07200000000000001, 192.0, 0.0, 0.0, 0.0, 0.0, 0.0, 0.0, 0.0, 0.0, 0.0, 1.66250628823579E9, 0.0, 2022-09-06 19:18:08.235
32.0, -15608.401967096564, -5948.581510613145, -32525.789144729275, -24009.238065390356, -4800.2829909662005, -2803.2663826067906, 68957.18800511217, 29147.05474937615, -14155.42681877933, -659.8234963206645, -15904.316711940375, -9758.436353020234, 13105.364216013459, -8342.676859221085, -5441.688649855691, -1684.919200529957, 0.17400000000000002, 0.874, 0.07200000000000001, 192.0, 0.0, 0.0, 0.0, 0.0, 0.0, 0.0, 0.0, 0.0, 0.0, 1.662506288235798E9, 0.0, 2022-09-06 19:18:08.235
34.0, -15432.471386488842, -5765.252502590716, -32364.61071546206, -23806.32892922508, -4602.157128114358, -2630.2415287782587, 66365.19031109694, 28918.552865809546, -14135.84669063648, -603.3629898265589, -15877.248749404998, -9753.764838429075, 13093.674253663332, -8284.875248059661, -5647.9505476892655, -1913.6669532855694, 0.17400000000000002, 0.874, 0.07200000000000001, 192.0, 0.0, 0.0, 0.0, 0.0, 0.0, 0.0, 0.0, 0.0, 0.0, 1.662506288235806E9, 0.0, 2022-09-06 19:18:08.235
36.0, -15620.76248178035, -5983.494935452335, -32515.23912134637, -24027.65590282153, -4808.709598625851, -2838.7609528018183, 69086.13521887484, 29145.24425807527, -14152.498740255684, -679.1577552745051, -15892.559694356883, -9751.708477939186, 13098.16695429885, -8313.954867596016, -5446.918958058233, -1684.919200529957, 0.17400000000000002, 0.874, 0.07200000000000001, 192.0, 0.0, 0.0, 0.0, 0.0, 0.0, 0.0, 0.0, 0.0, 0.0, 1.662506288235814E9, 0.0, 2022-09-06 19:18:08.235
38.0, -15486.137924926035, -5832.665363867923, -32409.22479739485, -23863.4823397973, -4655.0637072400705, -2666.5184100292217, 66918.37363462134, 28863.075836071475, -14202.007854224188, -697.1062060721167, -15937.307886756407, -9806.224382665681, 13032.63163955589, -8332.663277705107, -5659.260530383651, -1922.7864650233348, 0.17400000000000002, 0.922, 0.056, 192.0, 2.5, 56.0, 14.0, 104.0, 0.5, 96.0, 0.0, 0.0, 0.0, 1.662506288235824E9, 0.0, 2022-09-06 19:18:08.235
40.0, -15669.265767248366, -6044.157569904038, -32525.252702862348, -24068.179615519002, -4839.018564107248, -2853.4684006534103, 69535.98642778235, 29146.09362436457, -14218.43638639884, -749.1410671640715, -15939.140729801742, -9794.400309848823, 13049.797779297565, -8349.337679068765, -5492.85179291389, -1720.7490468918143, 0.17400000000000002, 0.922, 0.056, 192.0, 0.0, 0.0, 0.0, 0.0, 0.0, 0.0, 0.0, 0.0, 0.0, 1.6625062882358325E9, 0.0, 2022-09-06 19:18:08.235
42.0, -15511.551858371718, -5876.385376022503, -32428.961387748885, -23888.404534864967, -4694.916867603883, -2694.4580905983557, 67882.53848344547, 28853.24106851114, -14265.755029410724, -783.898029792074, -15990.30387285994, -9856.71697339022, 12969.510313214101, -8384.94400798607, -5699.1360424919185, -1941.0254884988653, 0.17400000000000002, 0.922, 0.056, 192.0, 0.0, 0.0, 0.0, 0.0, 0.0, 0.0, 0.0, 0.0, 0.0, 1.6625062882358415E9, 0.0, 2022-09-06 19:18:08.235
44.0, -15690.477572736452, -6074.175962707515, -32533.656958777545, -24075.734505144897, -4878.335282604133, -2872.445031695966, 70090.77907690754, 29130.648568945955, -14231.24393597173, -787.317846693736, -15948.036724094954, -9811.208821679214, 13032.184604666783, -8366.056783921336, -5552.3297849094615, -1766.7712887252915, 0.17400000000000002, 0.922, 0.056, 192.0, 0.0, 0.0, 0.0, 0.0, 0.0, 0.0, 0.0, 0.0, 0.0, 1.66250628823585E9, 0.0, 2022-09-06 19:18:08.235
46.0, -15568.302937543744, -5923.748722523299, -32503.19153108496, -23918.53468639072, -4747.935205451871, -2745.2412540008136, 68722.96407496501, 28805.073059209953, -14357.933623544412, -856.5411992718219, -16059.504873693571, -9913.043369417594, 12893.804954743977, -8422.964325304547, -5757.787019942644, -1994.6696751916022, 0.17400000000000002, 0.922, 0.056, 192.0, 0.0, 0.0, 0.0, 0.0, 0.0, 0.0, 0.0, 0.0, 0.0, 1.662506288235858E9, 0.0, 2022-09-06 19:18:08.235
48.0, -15683.123848810656, -6062.195427679471, -32540.6307030476, -24062.681086382996, -4889.466451342875, -2862.5208571578096, 70276.09739018648, 29114.152981537936, -14285.804544187135, -784.188602469993, -15977.049288397944, -9819.389560149857, 12999.260485084116, -8344.420295288599, -5610.980762360187, -1820.3931236735732, 0.168, 0.9540000000000001, 0.03, 192.0, 2.5, 32.0, 14.5, 104.0, 0.0, 120.0, 0.0, 0.0, 0.0, 1.6625062882358663E9, 0.0, 2022-09-06 19:18:08.235
50.0, -15566.60420496514, -5921.7817690112315, -32509.159446854526, -23930.20229699639, -4772.902104008449, -2740.927367320939, 69258.06483722506, 28772.663029749758, -14359.922928800934, -874.2437808804251, -16063.327021995428, -9925.15801491237, 12906.41133861677, -8464.62797696924, -5752.80258092911, -1988.9476286110437, 0.168, 0.9540000000000001, 0.03, 192.0, 0.0, 0.0, 0.0, 0.0, 0.0, 0.0, 0.0, 0.0, 0.0, 1.6625062882358744E9, 0.0, 2022-09-06 19:18:08.235
52.0, -15621.053054458269, -5992.94972335693, -32492.105065835127, -24032.1709552015, -4859.783334706228, -2811.871804222084, 70082.2407105256, 29087.912033547407, -14261.217625286297, -759.6016835691552, -15940.235965280053, -9791.472231325179, 13033.548061078556, -8294.151222008613, -5626.0011346341535, -1848.1763420315199, 0.168, 0.9540000000000001, 0.03, 192.0, 0.0, 0.0, 0.0, 0.0, 0.0, 0.0, 0.0, 0.0, 0.0, 1.6625062882358825E9, 0.0, 2022-09-06 19:18:08.235
54.0, -15530.573192903184, -5880.587503980101, -32491.076885590184, -23910.175133964436, -4770.398708629455, -2691.6641225414423, 69245.05612195208, 28815.198399448207, -14331.625620320514, -831.1272658261378, -16021.015169741533, -9882.421479513821, 12930.46181565068, -8373.343452613766, -5711.921240320354, -1950.1897037255412, 0.168, 0.9540000000000001, 0.03, 192.0, 0.0, 0.0, 0.0, 0.0, 0.0, 0.0, 0.0, 0.0, 0.0, 1.6625062882358916E9, 0.0, 2022-09-06 19:18:08.235
56.0, -15576.327213803199, -5948.335641424137, -32446.306341446205, -23966.009791613793, -4792.549287384664, -2742.4472859439, 69233.20969739076, 29071.28233567266, -14156.522054257639, -703.2305840528708, -15872.018441202456, -9746.992259859117, 13095.954131597773, -8216.836537937706, -5604.230535534684, -1828.3726964441178, 0.168, 0.9540000000000001, 0.03, 192.0, 0.0, 0.0, 0.0, 0.0, 0.0, 0.0, 0.0, 0.0, 0.0, 1.6625062882358997E9, 0.0, 2022-09-06 19:18:08.235
58.0, -15531.824890592683, -5886.264847071749, -32483.320830264194, -23905.68243332892, -4755.937129966871, -2697.542631333188, 68847.23977413653, 28813.052631980496, -14398.345577519605, -847.4887427674225, -16031.185213468698, -9885.99775862667, 12975.366470261391, -8369.253083378444, -5663.373251363427, -1897.976028677944, 0.169, 0.9670000000000001, 0.016, 192.0, 2.5, 40.0, 15.0, 80.0, 0.0, 8.0, 0.0, 0.0, 0.0, 1.662506288235908E9, 0.0, 2022-09-06 19:18:08.235
60.0, -15504.3098931682, -5903.140414135506, -32366.488261996303, -23919.71932884685, -4755.646557288952, -2689.9877417072944, 68267.03319156566, 29059.011227966694, -14136.69605692578, -637.8070280321871, -15830.84652791578, -9722.762968869563, 13131.918088426362, -8195.803546405263, -5595.11102379692, -1820.16960622902, 0.169, 0.9670000000000001, 0.016, 192.0, 0.0, 0.0, 0.0, 0.0, 0.0, 0.0, 0.0, 0.0, 0.0, 1.6625062882359164E9, 0.0, 2022-09-06 19:18:08.235
62.0, -15505.293369924233, -5876.2289138113165, -32486.00303959883, -23911.382128165023, -4754.372507855, -2700.9177447459397, 68669.47635048347, 28878.252670556627, -14290.654872733936, -821.5607191992664, -15994.528352561994, -9874.553665465553, 12979.032156352063, -8334.607879472718, -5626.202300334251, -1854.010147334355, 0.169, 0.9670000000000001, 0.016, 192.0, 0.0, 0.0, 0.0, 0.0, 0.0, 0.0, 0.0, 0.0, 0.0, 1.6625062882359247E9, 0.0, 2022-09-06 19:18:08.235
64.0, -15449.793988441705, -5851.418477465925, -32373.88668941101, -23882.369563862034, -4691.184126279846, -2668.8206397081185, 67717.00146400946, 29031.496230542212, -14135.757283658659, -593.3494083105813, -15849.42082755814, -9721.287753735514, 13143.093960654016, -8179.307958997245, -5634.718314971723, -1852.1326008001092, 0.169, 0.9670000000000001, 0.016, 192.0, 0.0, 0.0, 0.0, 0.0, 0.0, 0.0, 0.0, 0.0, 0.0, 1.6625062882359335E9, 0.0, 2022-09-06 19:18:08.235
66.0, -15421.519031705742, -5811.095930468551, -32393.55622453168, -23835.117976083515, -4693.933390847849, -2668.91004668594, 68313.94950317735, 28960.417683174335, -14153.549272245084, -649.6087491045892, -15900.226342705053, -9806.313789643502, 13082.766602369144, -8285.434041671044, -5588.1372795268635, -1808.300829923252, 0.169, 0.9670000000000001, 0.016, 192.0, 0.0, 0.0, 0.0, 0.0, 0.0, 0.0, 0.0, 0.0, 0.0, 1.6625062882359426E9, 0.0, 2022-09-06 19:18:08.235
68.0, -15377.173170706414, -5772.293302094138, -32309.625424102003, -23782.814894058098, -4643.887835012417, -2603.553545898622, 66840.34369472787, 29040.191059135326, -14044.897442447835, -462.21172359129474, -15755.565852590305, -9644.084828386884, 13160.908300984896, -8143.388705657567, -5612.523032727603, -1821.5777661297043, 0.1735, 0.9765, -0.0010000000000000009, 192.0, 2.5, 72.0, 15.0, 104.0, 127.5, 56.0, 0.0, 0.0, 0.0, 1.6625062882359507E9, 0.0, 2022-09-06 19:18:08.235
70.0, -15386.292682444178, -5776.964816685298, -32371.807977176664, -23789.47571390578, -4672.743937104218, -2635.0471538361494, 67666.57592851829, 29009.792686676108, -14170.693060242304, -587.6050099855673, -15849.778455469424, -9744.734733669131, 13137.148396628905, -8233.846215468195, -5562.656290847814, -1743.950157636423, 0.1735, 0.9765, -0.0010000000000000009, 192.0, 0.0, 0.0, 0.0, 0.0, 0.0, 0.0, 0.0, 0.0, 0.0, 1.6625062882359605E9, 0.0, 2022-09-06 19:18:08.235
72.0, -15298.405623245912, -5691.871725543943, -32228.399184751415, -23696.157180804872, -4550.658708889331, -2531.9609084082736, 65847.05452287848, 29025.438907794825, -13997.042357569022, -366.7921265115889, -15704.782689187849, -9598.911952842707, 13283.753488511264, -8074.522980990766, -5573.72040435319, -1757.2941490762412, 0.1735, 0.9765, -0.0010000000000000009, 192.0, 0.0, 0.0, 0.0, 0.0, 0.0, 0.0, 0.0, 0.0, 0.0, 1.6625062882359688E9, 0.0, 2022-09-06 19:18:08.235
74.0, -15358.956498975338, -5754.322499552071, -32314.185179970886, -23760.46314960279, -4616.998686432682, -2596.691560350843, 66774.27193811798, 29079.351315421023, -14093.668948849316, -449.94061588533117, -15773.111971987722, -9678.461811359146, 13252.125770107004, -8164.131124512091, -5474.478658971627, -1663.5732845751388, 0.1735, 0.9765, -0.0010000000000000009, 192.0, 0.0, 0.0, 0.0, 0.0, 0.0, 0.0, 0.0, 0.0, 0.0, 1.6625062882359767E9, 0.0, 2022-09-06 19:18:08.235
76.0, -15274.444553189822, -5659.5734548060245, -32227.371004506473, -23654.62763960691, -4506.044626956538, -2488.531468931612, 64799.16003932477, 29054.31736163108, -13980.703232372194, -297.94875358924315, -15700.669968208073, -9602.577638933379, 13322.846689563596, -8062.9894808518275, -5558.521218123582, -1766.7936404697468, 0.1735, 0.9765, -0.0010000000000000009, 192.0, 0.0, 0.0, 0.0, 0.0, 0.0, 0.0, 0.0, 0.0, 0.0, 1.662506288235985E9, 0.0, 2022-09-06 19:18:08.235
78.0, -15332.804957962628, -5713.262344987673, -32298.896586763454, -23710.596407723002, -4582.822869160517, -2538.9346526783293, 65630.93550574011, 29146.741824953777, -14041.008238912611, -349.0224896696198, -15715.1091951262, -9628.058627612429, 13318.331637183624, -8081.69789096092, -5430.713943328135, -1627.6093277465498, 0.18775, 0.97125, -0.0105, 192.0, 3.0, 40.0, 15.0, 24.0, 127.5, 48.0, 0.0, 0.0, 0.0, 1.6625062882359934E9, 0.0, 2022-09-06 19:18:08.235
80.0, -15224.130776420925, -5597.502660453637, -32205.08631528453, -23626.799717760056, -4480.74245223313, -2439.8270177634977, 63462.436313919585, 29048.595315050523, -13948.293202911998, -224.79149398702313, -15666.628261402639, -9574.481496153057, 13374.188646577437, -8021.974029776339, -5536.214177157185, -1751.2815298177636, 0.18775, 0.97125, -0.0105, 192.0, 0.0, 0.0, 0.0, 0.0, 0.0, 0.0, 0.0, 0.0, 0.0, 1.6625062882360015E9, 0.0, 2022-09-06 19:18:08.236
82.0, -15268.588396142532, -5632.863120181933, -32235.395280765926, -23687.574110934034, -4537.739400594163, -2485.1340037744053, 64176.52984577774, 29227.096346270606, -13966.95690953218, -225.75261899860132, -15640.364961667654, -9554.99077498803, 13425.620010569099, -8013.525070372233, -5373.292311822452, -1580.961237068324, 0.18775, 0.97125, -0.0105, 192.0, 0.0, 0.0, 0.0, 0.0, 0.0, 0.0, 0.0, 0.0, 0.0, 1.6625062882360096E9, 0.0, 2022-09-06 19:18:08.236
84.0, -15197.487497030199, -5561.963386769698, -32184.343896430004, -23629.638389305877, -4478.596684765421, -2439.1788171742937, 62600.463640745125, 29115.024699571695, -13900.460469777641, -133.17169346471948, -15625.612810327151, -9519.250335603992, 13436.572365352198, -7947.05098236215, -5471.46117347016, -1692.0717587556553, 0.18775, 0.97125, -0.0105, 192.0, 0.0, 0.0, 0.0, 0.0, 0.0, 0.0, 0.0, 0.0, 0.0, 1.662506288236018E9, 0.0, 2022-09-06 19:18:08.236
86.0, -15326.948800915337, -5683.959208006765, -32285.23967090126, -23748.281448874648, -4607.119215383436, -2559.252388388203, 64202.502572834805, 29282.349858564125, -13958.820874550447, -210.03934264652048, -15658.112246765168, -9563.015051247485, 13430.783263538273, -8023.4268931659335, -5358.428401759673, -1581.698844635349, 0.18775, 0.97125, -0.0105, 192.0, 0.0, 0.0, 0.0, 0.0, 0.0, 0.0, 0.0, 0.0, 0.0, 1.662506288236026E9, 0.0, 2022-09-06 19:18:08.236
88.0, -15308.12863208397, -5661.898036229377, -32321.38244168549, -23764.732332793756, -4611.790729974596, -2582.3417404105357, 63719.146098988786, 29057.08897794354, -13960.184330962222, -190.43686275921618, -15712.002302646913, -9592.787574861954, 13374.680384955453, -8059.837884883629, -5505.100548875398, -1746.6100152266044, 0.19387500000000002, 0.9416249999999999, -0.01025, 192.0, 3.0, 32.0, 14.0, 64.0, 127.5, 88.0, 0.0, 0.0, 0.0, 1.662506288236034E9, 0.0, 2022-09-06 19:18:08.236
90.0, -15451.537424509219, -5787.514840068203, -32415.773858520253, -23894.595968079087, -4741.140275137458, -2709.634925083509, 65433.65900917757, 29206.041002993705, -14055.78274199757, -288.18104126227394, -15771.659108598127, -9667.643567042776, 13328.367570444057, -8140.840606789662, -5476.758536906068, -1703.6499623835043, 0.19387500000000002, 0.9416249999999999, -0.01025, 192.0, 0.0, 0.0, 0.0, 0.0, 0.0, 0.0, 0.0, 0.0, 0.0, 1.6625062882360425E9, 0.0, 2022-09-06 19:18:08.236
92.0, -15386.672662099918, -5734.876481875955, -32414.186884663926, -23874.322935858123, -4711.725379434273, -2682.321093359124, 64949.25200334215, 28964.30688670956, -14076.145181196354, -306.46476822671514, -15824.029245856911, -9719.141986267805, 13270.141276137982, -8195.535325471797, -5615.048779851053, -1871.779784176324, 0.19387500000000002, 0.9416249999999999, -0.01025, 192.0, 0.0, 0.0, 0.0, 0.0, 0.0, 0.0, 0.0, 0.0, 0.0, 1.6625062882360504E9, 0.0, 2022-09-06 19:18:08.236
94.0, -15454.309040821678, -5788.565372057602, -32425.094535958116, -23917.30534044568, -4780.121717467513, -2722.4424746564, 66257.14197839999, 29185.857377750563, -14079.699108564748, -302.307343758028, -15786.701832616549, -9699.561858124955, 13302.908933509461, -8167.2380169913795, -5527.027610186054, -1765.944274180445, 0.19387500000000002, 0.9416249999999999, -0.01025, 192.0, 0.0, 0.0, 0.0, 0.0, 0.0, 0.0, 0.0, 0.0, 0.0, 1.6625062882360587E9, 0.0, 2022-09-06 19:18:08.236
96.0, -15378.42486839591, -5718.649115401401, -32420.177152177952, -23878.122732415526, -4756.875903233994, -2700.895393001484, 65992.85495196044, 28964.552755898567, -14084.571788856005, -306.80004439354474, -15817.211963798043, -9724.037018303516, 13258.540720765677, -8200.922095885528, -5619.116797341919, -1869.0752230972319, 0.19387500000000002, 0.9416249999999999, -0.01025, 192.0, 0.0, 0.0, 0.0, 0.0, 0.0, 0.0, 0.0, 0.0, 0.0, 1.662506288236067E9, 0.0, 2022-09-06 19:18:08.236
98.0, -15503.862858279093, -5834.25233772425, -32468.501623690325, -23965.518053235777, -4851.066154368657, -2812.1400251555474, 67207.78402182866, 29101.90422557643, -14091.366719170419, -308.3870182498715, -15803.532696191394, -9715.386893199313, 13270.118924393526, -8220.77044496184, -5581.610570145914, -1813.4417311479726, 0.1859375, 0.9108125, -0.015125, 192.0, 2.5, 72.0, 13.5, 64.0, 127.5, 48.0, 0.0, 0.0, 0.0, 1.6625062882360752E9, 0.0, 2022-09-06 19:18:08.236
100.0, -15445.904784906483, -5787.000749945731, -32483.969030853397, -23948.68718966093, -4855.96118640437, -2817.7503130138293, 67599.67715736356, 28907.689918004267, -14148.676591953827, -380.18082144031786, -15877.740487783014, -9781.659815509298, 13180.957815761307, -8299.627399400164, -5669.721146788735, -1899.294781600807, 0.1859375, 0.9108125, -0.015125, 192.0, 0.0, 0.0, 0.0, 0.0, 0.0, 0.0, 0.0, 0.0, 0.0, 1.6625062882360842E9, 0.0, 2022-09-06 19:18:08.236
102.0, -15583.099792373157, -5918.7866352542205, -32528.516057552824, -24034.763757558318, -4946.061068303713, -2905.413854767544, 69075.13816060283, 29033.597294521012, -14163.965185161256, -386.28284767661665, -15886.949406498601, -9780.095193397427, 13164.775152775665, -8311.809100128306, -5661.138076917896, -1865.588350962204, 0.1859375, 0.9108125, -0.015125, 192.0, 0.0, 0.0, 0.0, 0.0, 0.0, 0.0, 0.0, 0.0, 0.0, 1.662506288236094E9, 0.0, 2022-09-06 19:18:08.236
104.0, -15541.637306408562, -5900.189983867405, -32569.039770250296, -24043.70445534044, -4955.024117830291, -2900.854098898661, 69977.14280809675, 28810.07984996794, -14252.165168781898, -480.89778195593146, -15982.950148934146, -9870.217427041225, 13069.288500462593, -8400.813746549338, -5720.7501793802, -1926.2733371583627, 0.1859375, 0.9108125, -0.015125, 192.0, 0.0, 0.0, 0.0, 0.0, 0.0, 0.0, 0.0, 0.0, 0.0, 1.662506288236102E9, 0.0, 2022-09-06 19:18:08.236
106.0, -15692.422174504063, -6046.4597995829345, -32637.391404794624, -24150.54579383681, -5046.129828230122, -3013.8645188646938, 70958.96553504057, 28859.276039514072, -14266.693802677848, -511.83259628207645, -16020.612838341338, -9912.663389761852, 13047.048514729562, -8414.649476367173, -5781.926903954376, -1981.7950703853453, 0.1859375, 0.9108125, -0.015125, 192.0, 0.0, 0.0, 0.0, 0.0, 0.0, 0.0, 0.0, 0.0, 0.0, 1.66250628823611E9, 0.0, 2022-09-06 19:18:08.236
108.0, -15663.990755556913, -6035.328630844192, -32681.536100093857, -24172.6069656142, -5059.652633625583, -3040.88777791116, 72231.51740211456, 28728.585389683893, -14381.872341856044, -638.8128565326758, -16128.035322193542, -10028.132501617969, 12962.111885799395, -8522.764864297493, -5824.3952184194595, -2030.521873297915, 0.17296875, 0.92140625, -0.0195625, 192.0, 2.5, 0.0, 14.5, 16.0, 127.5, 32.0, 0.0, 0.0, 0.0, 1.6625062882361183E9, 0.0, 2022-09-06 19:18:08.236
110.0, -15743.719428028993, -6105.177832267026, -32682.497225105435, -24186.040364031836, -5085.066567071267, -3022.335830013255, 72933.1163088222, 28929.43816535928, -14351.451617652372, -613.7341992538213, -16116.926505199255, -10008.977056619771, 12961.195464276727, -8494.959294195092, -5877.793535923188, -2052.3148241418394, 0.17296875, 0.92140625, -0.0195625, 192.0, 0.0, 0.0, 0.0, 0.0, 0.0, 0.0, 0.0, 0.0, 0.0, 1.6625062882361264E9, 0.0, 2022-09-06 19:18:08.236
112.0, -15698.546552484817, -6068.386860893591, -32710.302795207837, -24177.367887183176, -5107.48536675994, -3051.4378012940647, 73998.62396700669, 28759.251983076574, -14432.946077936422, -703.2752875417814, -16159.886558042355, -10056.250996142746, 12906.83602176142, -8542.054419762424, -5855.330032745604, -2025.5597860288367, 0.17296875, 0.92140625, -0.0195625, 192.0, 0.0, 0.0, 0.0, 0.0, 0.0, 0.0, 0.0, 0.0, 0.0, 1.6625062882361345E9, 0.0, 2022-09-06 19:18:08.236
114.0, -15707.286084566842, -6067.336328904192, -32665.800471997318, -24147.72947403544, -5076.058814055778, -3023.296955024833, 73859.30554381675, 28793.338393370916, -14360.615832879048, -667.8254208356644, -16119.42990057825, -10013.223888066279, 12934.596888374912, -8528.442207389142, -5931.549481338201, -2104.41674046716, 0.17296875, 0.92140625, -0.0195625, 192.0, 0.0, 0.0, 0.0, 0.0, 0.0, 0.0, 0.0, 0.0, 0.0, 1.6625062882361429E9, 0.0, 2022-09-06 19:18:08.236
116.0, -15661.353249711186, -6026.745560973354, -32680.32910589327, -24134.988979695914, -5077.265808256365, -3003.78388211535, 74869.78320715227, 28746.869116648333, -14409.096766602608, -733.3160320897141, -16121.374502345861, -10024.489167271753, 12937.413208176282, -8513.891221748736, -5850.814980365632, -2003.5433177403593, 0.17296875, 0.92140625, -0.0195625, 192.0, 0.0, 0.0, 0.0, 0.0, 0.0, 0.0, 0.0, 0.0, 0.0, 1.662506288236152E9, 0.0, 2022-09-06 19:18:08.236
118.0, -15657.486397920418, -6023.772778960798, -32629.5012390019, -24102.131915346614, -5010.925830713014, -2991.8480505762163, 74278.28899363149, 28690.587424109868, -14298.723852482302, -640.8915687670194, -16051.994687556587, -9947.15213145639, 12975.522932472579, -8434.47547369903, -5922.7205422783545, -2071.1349929732078, 0.186484375, 0.946703125, -0.02678125, 192.0, 3.0, 32.0, 15.0, 48.0, 127.0, 120.0, 0.0, 0.0, 0.0, 1.6625062882361603E9, 0.0, 2022-09-06 19:18:08.236
120.0, -15652.077275762234, -6030.411247064024, -32653.708178246998, -24107.29516831579, -4998.900592196059, -2975.3524631682, 75298.40025882724, 28793.248986393093, -14402.748871177302, -775.5384773657892, -16106.778813216546, -10018.364789291, 12952.32182172797, -8494.355797094799, -5847.77514311971, -1980.1410412956527, 0.186484375, 0.946703125, -0.02678125, 192.0, 0.0, 0.0, 0.0, 0.0, 0.0, 0.0, 0.0, 0.0, 0.0, 1.6625062882361684E9, 0.0, 2022-09-06 19:18:08.236
122.0, -15640.364961667654, -6013.602735233633, -32623.287454043326, -24058.367199703123, -4960.053260332735, -2925.217500354946, 74439.19920196524, 28718.63886340128, -14270.605357957525, -672.7204528713767, -16029.933515779201, -9929.606012058975, 13032.653991300343, -8400.85845003825, -5891.629265741023, -2027.25851860744, 0.186484375, 0.946703125, -0.02678125, 192.0, 0.0, 0.0, 0.0, 0.0, 0.0, 0.0, 0.0, 0.0, 0.0, 1.6625062887155998E9, 0.0, 2022-09-06 19:18:08.715
124.0, -15648.85862456067, -6025.650325495044, -32677.713951791997, -24082.864711626138, -4990.5857432586845, -2940.43903832901, 75517.26854053361, 28863.053484327018, -14388.533161703726, -804.8863178356073, -16084.918807139256, -9999.008178592703, 12989.269255312593, -8461.163456578668, -5822.6964858408555, -1942.321889677273, 0.186484375, 0.946703125, -0.02678125, 192.0, 0.0, 0.0, 0.0, 0.0, 0.0, 0.0, 0.0, 0.0, 0.0, 1.662506288715637E9, 0.0, 2022-09-06 19:18:08.715
126.0, -15567.878254399093, -5938.031487230241, -32609.049392825294, -24019.206943417426, -4935.958079809914, -2855.6588716100305, 74533.41180484436, 28800.17802717424, -14249.684125147358, -683.0246070652732, -15997.948169463656, -9897.710072721253, 13042.421703627313, -8351.41639130311, -5869.076355585618, -2009.8465096767557, 0.186484375, 0.946703125, -0.02678125, 192.0, 0.0, 0.0, 0.0, 0.0, 0.0, 0.0, 0.0, 0.0, 0.0, 1.662506288715644E9, 0.0, 2022-09-06 19:18:08.715
128.0, -15601.830554226704, -5975.627121404067, -32640.095965873716, -24070.504196942355, -4978.761670441827, -2896.4508052409656, 75591.90101526988, 28874.788150166056, -14320.494451581772, -762.3732998816133, -16004.229009655597, -9923.705151522774, 13049.39544789737, -8385.636912064185, -5768.024118903175, -1895.3161710877623, 0.186484375, 0.946703125, -0.02678125, 192.0, 0.0, 0.0, 0.0, 0.0, 0.0, 0.0, 0.0, 0.0, 0.0, 1.6625062887156508E9, 0.0, 2022-09-06 19:18:08.715
130.0, -15546.822911122194, -5934.142283695017, -32583.05431402377, -24011.65205379153, -4917.584945867651, -2832.144836443047, 74585.13374151394, 28773.355933827872, -14230.774549338168, -692.5911536921446, -15975.507018030528, -9879.806325412552, 13063.946433537774, -8335.636059717663, -5855.128867045506, -2000.257611305429, 0.202, 0.964, -0.03, 192.0, 3.0, 40.0, 15.0, 16.0, 127.5, 8.0, 0.0, 0.0, 0.0, 1.6625062887156572E9, 0.0, 2022-09-06 19:18:08.715
132.0, -15612.201763653966, -6002.158642072516, -32620.627596453145, -24066.547938173764, -4980.505106509341, -2893.7685959063288, 75611.16821899035, 28894.72590622019, -14317.342855613573, -772.7221575644205, -15995.489477573572, -9910.897601949884, 13042.444055371769, -8357.250196605944, -5768.605264259013, -1893.5280315313378, 0.202, 0.964, -0.03, 192.0, 0.0, 0.0, 0.0, 0.0, 0.0, 0.0, 0.0, 0.0, 0.0, 1.6625062887156649E9, 0.0, 2022-09-06 19:18:08.715
134.0, -15539.536242429764, -5941.428952387447, -32575.49942439788, -24013.686062536963, -4937.098018777135, -2842.1360662145694, 74697.16068472395, 28744.656293947257, -14252.72396239328, -728.28688958727, -15985.699413502147, -9886.24362781568, 13030.597630810456, -8366.727336254995, -5860.202713036861, -2017.647268491658, 0.202, 0.964, -0.03, 192.0, 0.0, 0.0, 0.0, 0.0, 0.0, 0.0, 0.0, 0.0, 0.0, 1.66250628871568E9, 0.0, 2022-09-06 19:18:08.715
136.0, -15597.874295458114, -5992.078005323173, -32583.993087290895, -24035.367254658613, -4977.040586118768, -2872.825011351706, 75739.42252867491, 28935.49548810667, -14303.820050218112, -767.6259598286105, -15971.528407517482, -9879.538104479088, 13053.172892710316, -8356.579644272286, -5742.677240690857, -1893.751548975891, 0.202, 0.964, -0.03, 192.0, 0.0, 0.0, 0.0, 0.0, 0.0, 0.0, 0.0, 0.0, 0.0, 1.6625062887156868E9, 0.0, 2022-09-06 19:18:08.715
138.0, -15552.74612340285, -5969.569798656678, -32578.762779088353, -24015.921236982496, -4966.155286569034, -2868.0417380382705, 75228.17107774867, 28767.186852358205, -14275.54509348215, -754.3937271110686, -15987.129925147286, -9873.346671264968, 13025.680247030288, -8365.766211243417, -5820.081331739585, -1983.3820442416722, 0.202, 0.964, -0.03, 192.0, 0.0, 0.0, 0.0, 0.0, 0.0, 0.0, 0.0, 0.0, 0.0, 1.6625062887156937E9, 0.0, 2022-09-06 19:18:08.715
140.0, -15664.370735212653, -6086.536477391301, -32625.679090700043, -24093.705307686963, -5052.7459445888935, -2934.1805498815243, 76889.8444640451, 28986.25629976467, -14347.07067573913, -819.2808412648251, -16017.260076673041, -9899.140584366392, 13008.625866010889, -8399.316179670832, -5755.708307708301, -1892.0975198861981, 0.20800000000000002, 0.976, -0.024, 192.0, 3.0, 64.0, 15.0, 64.0, 127.5, 32.0, 0.0, 0.0, 0.0, 1.6625062887157E9, 0.0, 2022-09-06 19:18:08.715
142.0, -15709.074224123267, -6163.8511614622075, -32721.43396394658, -24190.242491989433, -5134.978012439968, -3020.301821267822, 77706.80072388658, 28747.53966898199, -14398.680853686436, -900.4176736375897, -16121.374502345861, -9982.02085280667, 12896.576571056436, -8516.439320616642, -5870.618625953034, -2021.804692960345, 0.20800000000000002, 0.976, -0.024, 192.0, 0.0, 0.0, 0.0, 0.0, 0.0, 0.0, 0.0, 0.0, 0.0, 1.6625062887157063E9, 0.0, 2022-09-06 19:18:08.715
144.0, -15881.964967485068, -6338.01595425796, -32799.48625558451, -24320.82138309734, -5249.016612650945, -3122.203424239567, 80189.2748700708, 28916.988243697673, -14516.429843476993, -1028.560224599865, -16216.503526747649, -10081.173191210413, 12801.045215254453, -8634.098903429378, -5882.554457492168, -2034.746352999968, 0.20800000000000002, 0.976, -0.024, 192.0, 0.0, 0.0, 0.0, 0.0, 0.0, 0.0, 0.0, 0.0, 0.0, 1.6625062887157133E9, 0.0, 2022-09-06 19:18:08.715
146.0, -15948.662572939704, -6433.234385637568, -32902.88542543476, -24422.87944828027, -5363.926930895678, -3252.223521736088, 82104.57350070162, 28664.43588309716, -14623.181774995539, -1159.4073366412326, -16360.404057550915, -10205.53829735974, 12674.243768959495, -8769.662233550815, -6009.467662509402, -2176.8810959912653, 0.20800000000000002, 0.976, -0.024, 192.0, 0.0, 0.0, 0.0, 0.0, 0.0, 0.0, 0.0, 0.0, 0.0, 1.6625062887157197E9, 0.0, 2022-09-06 19:18:08.715
148.0, -16149.00125849262, -6608.2038412337115, -33018.15337159078, -24548.42919688573, -5473.785754893513, -3385.1493460117995, 84467.66697975004, 28722.34925298086, -14751.167863746628, -1278.0727479544578, -16458.46116047635, -10313.988961456891, 12595.275055798897, -8833.811740137548, -6094.896029817585, -2251.401812005259, 0.20800000000000002, 0.976, -0.024, 192.0, 0.0, 0.0, 0.0, 0.0, 0.0, 0.0, 0.0, 0.0, 0.0, 1.6625062887157264E9, 0.0, 2022-09-06 19:18:08.715
150.0, -16050.027734044521, -6530.397418784788, -33008.60917670836, -24493.443905525673, -5426.4224083927165, -3336.3331361214086, 85578.97336232345, 28494.20499732554, -14819.40773956868, -1356.415612270309, -16535.08294046914, -10392.220067050466, 12493.172287127052, -8913.071025976065, -6182.60427506021, -2363.8981418488197, 0.218, 0.968, 0.012, 192.0, 3.0, 104.0, 15.0, 32.0, 0.0, 48.0, 0.0, 0.0, 0.0, 1.6625062887157333E9, 0.0, 2022-09-06 19:18:08.715
152.0, -16075.70988842367, -6537.795846199495, -32982.055304295456, -24452.160233516723, -5400.784957502479, -3281.9960453505573, 86225.74343988222, 28643.5593537759, -14724.524584355902, -1278.810355521483, -16438.433997444394, -10305.294132863777, 12592.548142975349, -8806.74377760217, -6129.161254067571, -2304.26368764206, 0.218, 0.968, 0.012, 192.0, 0.0, 0.0, 0.0, 0.0, 0.0, 0.0, 0.0, 0.0, 0.0, 1.6625062887157402E9, 0.0, 2022-09-06 19:18:08.715
154.0, -15917.973627802567, -6384.7981554029175, -32920.49860006554, -24322.296598231387, -5259.343118589297, -3169.5667707403627, 85537.08619321421, 28450.462633426505, -14724.993970989462, -1288.3992538928096, -16426.319351949616, -10309.250391632366, 12624.108806146241, -8775.317224898008, -6112.688018404009, -2291.0314549245186, 0.218, 0.968, 0.012, 192.0, 0.0, 0.0, 0.0, 0.0, 0.0, 0.0, 0.0, 0.0, 0.0, 1.6625062887157476E9, 0.0, 2022-09-06 19:18:08.715
156.0, -15779.348108690752, -6219.238784222458, -32737.706033910043, -24126.54002029181, -5061.463124926463, -2988.2941232078224, 83232.73309859433, 28579.722771611545, -14497.96730255691, -1067.49696344101, -16192.408346224827, -10100.485098419798, 12838.730256406101, -8541.003887773024, -5990.893362867041, -2171.0696424328858, 0.218, 0.968, 0.012, 192.0, 0.0, 0.0, 0.0, 0.0, 0.0, 0.0, 0.0, 0.0, 0.0, 1.6625062887157536E9, 0.0, 2022-09-06 19:18:08.715
158.0, -15690.276407036354, -6159.8054957157965, -32747.853725892754, -24132.68675001702, -5059.876151070136, -2974.503096878898, 82916.74648722966, 28564.7918063154, -14417.501022517805, -1009.0471516903821, -16121.9556477017, -10026.50082427273, 12922.817519046965, -8494.713425006083, -5813.487567125269, -1974.195477270541, 0.218, 0.968, 0.012, 192.0, 0.0, 0.0, 0.0, 0.0, 0.0, 0.0, 0.0, 0.0, 0.0, 1.6625062887157588E9, 0.0, 2022-09-06 19:18:08.715
160.0, -15758.270413669397, -6191.455565864511, -32805.36476437626, -24167.82369230076, -5082.540819947818, -2927.4526748004764, 82375.92367838904, 28766.56100351346, -14345.573108860626, -952.5642934518211, -16108.321083583962, -10008.574725219576, 12921.61052484638, -8490.556000537395, -5849.183303020394, -1987.5394687103594, 0.252, 0.8320000000000001, 0.0, 192.0, 3.5, 112.0, 13.0, 0.0, 0.0, 0.0, 0.0, 0.0, 0.0, 1.662506288715764E9, 0.0, 2022-09-06 19:18:08.715
162.0, -15676.395973729608, -6082.043776755783, -32783.68357225461, -24122.896685945594, -4991.546868270262, -2857.84934256665, 81946.45726042477, 28804.51426559857, -14403.911161888976, -991.4563288040554, -16140.619354321881, -10046.617394282508, 12907.439518861715, -8430.295697485888, -5773.321482339083, -1879.6699499690474, 0.252, 0.8320000000000001, 0.0, 192.0, 0.0, 0.0, 0.0, 0.0, 0.0, 0.0, 0.0, 0.0, 0.0, 1.6625062887157693E9, 0.0, 2022-09-06 19:18:08.715
164.0, -15680.195770287011, -6017.022552135295, -32713.655556876132, -24080.24955752487, -4980.750975698349, -2824.344077628145, 80474.61723978726, 28826.642492609324, -14236.094264518531, -832.4236670045457, -16069.004365087078, -9914.943267696293, 13015.532555047579, -8321.442701988542, -5693.3245889335385, -1855.84299037969, 0.252, 0.8320000000000001, 0.0, 192.0, 0.0, 0.0, 0.0, 0.0, 0.0, 0.0, 0.0, 0.0, 0.0, 1.6625062887157743E9, 0.0, 2022-09-06 19:18:08.715
166.0, -15648.724514093938, -5967.938121311441, -32701.540911381355, -24052.15341474455, -5017.810168005249, -2833.8212172771955, 80242.96376025246, 28863.34405700494, -14272.706421936326, -870.086356411738, -16108.723414984157, -9905.95786642526, 13096.758794398165, -8302.220201756978, -5548.2841191630505, -1656.5548368161724, 0.252, 0.8320000000000001, 0.0, 192.0, 0.0, 0.0, 0.0, 0.0, 0.0, 0.0, 0.0, 0.0, 0.0, 1.6625062887157807E9, 0.0, 2022-09-06 19:18:08.715
168.0, -15670.025726559847, -5980.94683658443, -32680.642030315645, -24022.2691324078, -5048.85674105367, -2853.580159375687, 79216.28108218683, 28833.102146756908, -14172.23533060972, -740.0215554263062, -16090.819667675456, -9825.603345108431, 13109.633399204422, -8275.666329344074, -5477.1385165618085, -1615.4499787628627, 0.252, 0.8320000000000001, 0.0, 192.0, 0.0, 0.0, 0.0, 0.0, 0.0, 0.0, 0.0, 0.0, 0.0, 1.662506288715786E9, 0.0, 2022-09-06 19:18:08.715
170.0, -15673.646709161605, -6013.893307911552, -32676.61871631369, -24031.23218193438, -5104.177308580555, -2903.67041870003, 80134.73661359986, 28877.023324611586, -14280.238959817763, -819.5043587093782, -16134.673790296769, -9893.932627908305, 13058.29144219058, -8354.098600637746, -5297.251677185497, -1440.6593371223614, 0.20600000000000002, 0.6880000000000001, -0.002, 192.0, 3.0, 56.0, 10.5, 64.0, 127.5, 120.0, 0.0, 0.0, 0.0, 1.6625062887157912E9, 0.0, 2022-09-06 19:18:08.715
172.0, -15722.082939396256, -6086.044739013283, -32679.70325704852, -24041.201059961448, -5061.105497015178, -2949.8714744891495, 79765.73166438719, 28710.793401097468, -14240.229337242763, -791.2070502289594, -16134.785549019045, -9925.605049801476, 13030.798796510553, -8416.28115371241, -5359.523637237983, -1515.2694601141764, 0.20600000000000002, 0.6880000000000001, -0.002, 192.0, 0.0, 0.0, 0.0, 0.0, 0.0, 0.0, 0.0, 0.0, 0.0, 1.6625062887157965E9, 0.0, 2022-09-06 19:18:08.715
174.0, -15672.1491422831, -6062.754221290854, -32654.490489302934, -23998.956262940916, -5100.556325978795, -2926.826825955728, 80341.31143585581, 28769.109102381364, -14350.244623451785, -864.7219377424643, -16136.551336831015, -9992.302655256111, 12985.625920966379, -8399.383234904199, -5277.336272875818, -1413.1666914423338, 0.20600000000000002, 0.6880000000000001, -0.002, 192.0, 0.0, 0.0, 0.0, 0.0, 0.0, 0.0, 0.0, 0.0, 0.0, 1.6625062887158012E9, 0.0, 2022-09-06 19:18:08.715
176.0, -15653.641897874106, -6081.239113955393, -32631.624654725154, -24009.461582834912, -5081.780860636337, -2908.654857713563, 79699.97283219968, 28680.797360038443, -14260.882349119467, -802.2935154787917, -16092.004310131588, -9975.02475679216, 13034.822110512509, -8397.975075003515, -5400.963771458122, -1534.4025533679192, 0.20600000000000002, 0.6880000000000001, -0.002, 192.0, 0.0, 0.0, 0.0, 0.0, 0.0, 0.0, 0.0, 0.0, 0.0, 1.6625062887158065E9, 0.0, 2022-09-06 19:18:08.715
178.0, -15733.77290174638, -6197.915220012095, -32688.554547852822, -24094.778191420817, -5154.893416749646, -2953.850085002194, 81236.16352512402, 28824.250855952607, -14390.9471501049, -909.5818888642656, -16145.760255546602, -10072.835990528583, 12970.963176603696, -8471.53466600593, -5436.056010252954, -1496.2481255827101, 0.20600000000000002, 0.6880000000000001, -0.002, 192.0, 0.0, 0.0, 0.0, 0.0, 0.0, 0.0, 0.0, 0.0, 0.0, 1.6625062887158115E9, 0.0, 2022-09-06 19:18:08.715
180.0, -15722.239401607443, -6217.115368499204, -32705.43011491658, -24132.954970950483, -5174.473544892496, -3030.1589405726127, 81678.59395487237, 28667.38631336526, -14366.31552771515, -890.1805746770591, -16178.930244318277, -10111.660970647452, 12915.106167209884, -8519.948544496125, -5605.124605312897, -1662.4556973523734, 0.216, 0.808, -0.024, 192.0, 3.0, 96.0, 12.5, 32.0, 127.5, 32.0, 0.0, 0.0, 0.0, 1.6625062887158167E9, 0.0, 2022-09-06 19:18:08.715
182.0, -15798.101222288755, -6310.858584744762, -32775.14520587268, -24225.044158106346, -5260.751278489981, -3123.8351015848043, 83455.28941813581, 28762.045951133485, -14504.046977048753, -1001.5593172978541, -16231.188622854785, -10199.503326356808, 12844.11702681983, -8589.998911619057, -5655.036050681598, -1647.792952989692, 0.216, 0.808, -0.024, 192.0, 0.0, 0.0, 0.0, 0.0, 0.0, 0.0, 0.0, 0.0, 0.0, 1.662506288715822E9, 0.0, 2022-09-06 19:18:08.715
184.0, -15784.287844215376, -6329.142311709204, -32807.10820044377, -24269.39001910568, -5256.415040065652, -3139.0342878144133, 83824.22731211512, 28552.610105587257, -14493.00521528783, -1002.3863318427005, -16270.8406175185, -10244.117408289601, 12784.974310991087, -8645.90062450178, -5822.875299796498, -1834.1617982580422, 0.216, 0.808, -0.024, 192.0, 0.0, 0.0, 0.0, 0.0, 0.0, 0.0, 0.0, 0.0, 0.0, 1.662506288715827E9, 0.0, 2022-09-06 19:18:08.715
186.0, -15883.797810530403, -6444.544368331954, -32875.0575035879, -24353.81255791337, -5340.256433517508, -3220.5734515873733, 85788.7444840365, 28689.335726420373, -14629.552022165302, -1099.1023301008142, -16346.23305156625, -10331.289211665298, 12708.576048442847, -8714.118148579377, -5861.409707237448, -1818.7390945838804, 0.216, 0.808, -0.024, 192.0, 0.0, 0.0, 0.0, 0.0, 0.0, 0.0, 0.0, 0.0, 0.0, 1.6625062887158322E9, 0.0, 2022-09-06 19:18:08.715
188.0, -15789.808725095836, -6399.974989888071, -32865.06627381638, -24346.48118573203, -5339.585881183849, -3213.39854161722, 86168.43356709881, 28480.72689541899, -14639.118568792173, -1144.9681097231044, -16385.080383429573, -10381.804154134292, 12695.254408747483, -8748.003393173623, -5991.407452989513, -1978.4646604615048, 0.216, 0.808, -0.024, 192.0, 0.0, 0.0, 0.0, 0.0, 0.0, 0.0, 0.0, 0.0, 0.0, 1.6625062887158372E9, 0.0, 2022-09-06 19:18:08.715
190.0, -15831.718245949538, -6464.884455786283, -32896.1128468648, -24392.749296754515, -5341.910462607201, -3222.4733498660744, 87725.12080968867, 28644.00638866501, -14646.964031095986, -1101.270449312979, -16359.398229050426, -10363.855703336681, 12692.236923246017, -8735.017029645089, -5979.046938305729, -1942.2324826994518, 0.25, 0.9400000000000001, -0.082, 192.0, 3.5, 104.0, 14.5, 48.0, 126.5, 56.0, 0.0, 0.0, 0.0, 1.6625062887158434E9, 0.0, 2022-09-06 19:18:08.715
192.0, -15711.130584613156, -6407.753396958518, -32871.30241051941, -24356.11478759227, -5316.094197761321, -3203.630829290251, 87985.7197982931, 28462.91255508811, -14662.543196981336, -1119.7106384886074, -16402.738261549268, -10414.482404527951, 12638.346867364273, -8763.604910803428, -6077.618131353633, -2085.5295164024255, 0.25, 0.9400000000000001, -0.082, 192.0, 0.0, 0.0, 0.0, 0.0, 0.0, 0.0, 0.0, 0.0, 0.0, 1.6625062887158484E9, 0.0, 2022-09-06 19:18:08.715
194.0, -15753.263622911409, -6492.354749721855, -32905.25471034702, -24433.943561785647, -5347.051363831922, -3226.7648848014933, 89436.54917914262, 28647.515612544492, -14642.963068838486, -1056.142277257714, -16353.050333625119, -10380.306587255787, 12691.141687767707, -8726.053980118511, -6066.442259125979, -2100.08050204283, 0.25, 0.9400000000000001, -0.082, 192.0, 0.0, 0.0, 0.0, 0.0, 0.0, 0.0, 0.0, 0.0, 0.0, 1.6625062887158537E9, 0.0, 2022-09-06 19:18:08.715
196.0, -15720.987703917946, -6519.266250046045, -32975.46153968114, -24497.51192301654, -5347.878378376768, -3285.2146965521215, 90740.48289543187, 28464.655991155625, -14708.699549281544, -1138.9554904646268, -16427.526346150204, -10482.78933558337, 12607.143832104664, -8835.13049306041, -6183.3418826272355, -2292.439614825203, 0.25, 0.9400000000000001, -0.082, 192.0, 0.0, 0.0, 0.0, 0.0, 0.0, 0.0, 0.0, 0.0, 0.0, 1.6625062887158585E9, 0.0, 2022-09-06 19:18:08.715
198.0, -15926.91432558469, -6721.907165277858, -33140.55152422804, -24675.901195514347, -5529.709819520691, -3471.292969142553, 93408.63298280633, 28549.682027063613, -14776.268872769937, -1191.169165512224, -16496.995567917296, -10562.763877244459, 12539.48510163845, -8899.592924069515, -6252.766400905419, -2377.3762437553696, 0.25, 0.9400000000000001, -0.082, 192.0, 0.0, 0.0, 0.0, 0.0, 0.0, 0.0, 0.0, 0.0, 0.0, 1.662506288715865E9, 0.0, 2022-09-06 19:18:08.715
200.0, -15890.056298977888, -6689.117156161923, -33180.51644331413, -24664.725323286693, -5527.698162519713, -3480.054852969033, 95016.28220275429, 28287.272547158307, -14916.19079306016, -1320.2728414860776, -16620.44425254396, -10704.004550457545, 12405.26287618433, -9036.139730946987, -6411.463786538099, -2533.3690683089576, 0.266, 0.978, -0.098, 192.0, 4.0, 104.0, 15.5, 96.0, 126.0, 56.0, 0.0, 0.0, 0.0, 1.6625062887158697E9, 0.0, 2022-09-06 19:18:08.715
202.0, -15946.717971172093, -6730.467883404242, -33192.072295197526, -24677.130541459388, -5522.870185717366, -3490.3590071629296, 96040.68500288547, 28370.24222257641, -14875.890597807242, -1274.1835444192345, -16566.867121084586, -10668.39822154024, 12437.315277733242, -8988.530515257182, -6416.895260440739, -2543.7626294806755, 0.266, 0.978, -0.098, 192.0, 0.0, 0.0, 0.0, 0.0, 0.0, 0.0, 0.0, 0.0, 0.0, 1.662506288715875E9, 0.0, 2022-09-06 19:18:08.715
204.0, -15826.219716813532, -6616.228117493167, -33155.46013777973, -24594.496142208118, -5449.779981348513, -3428.8917099108353, 96534.99383151458, 28230.43206100846, -14911.675740680188, -1300.2233267096672, -16584.524999204277, -10701.344692867362, 12402.871239527612, -9003.416777064416, -6427.802911734929, -2552.9268447073514, 0.266, 0.978, -0.098, 192.0, 0.0, 0.0, 0.0, 0.0, 0.0, 0.0, 0.0, 0.0, 0.0, 1.66250628871588E9, 0.0, 2022-09-06 19:18:08.715
206.0, -15815.781452152904, -6581.9628932431815, -33108.27560523458, -24567.606993628382, -5395.889925466768, -3376.6556831187827, 96348.71439322406, 28376.23249009043, -14766.50116044297, -1159.273226174501, -16450.794512128177, -10575.571426817349, 12548.403447676117, -8862.019641640145, -6359.11600102377, -2498.030960325117, 0.266, 0.978, -0.098, 192.0, 0.0, 0.0, 0.0, 0.0, 0.0, 0.0, 0.0, 0.0, 0.0, 1.662506288715885E9, 0.0, 2022-09-06 19:18:08.715
208.0, -15736.365704103197, -6500.490784703587, -33112.164808769805, -24531.978312966625, -5392.11248065382, -3333.8520924868694, 96540.20178797268, 28307.769096823824, -14798.821782925343, -1192.2196975016234, -16470.866378649043, -10594.43629913763, 12567.514189185404, -8880.102202904487, -6323.889651762206, -2445.616119577422, 0.266, 0.978, -0.098, 192.0, 0.0, 0.0, 0.0, 0.0, 0.0, 0.0, 0.0, 0.0, 0.0, 1.6625062887158902E9, 0.0, 2022-09-06 19:18:08.715
210.0, -15726.39682607613, -6471.411165167233, -33063.438005857235, -24499.903559673257, -5327.851215344813, -3283.113632573323, 95595.55001205803, 28414.968063231478, -14650.070923575275, -1065.5747134178537, -16366.059048898107, -10481.425879171597, 12672.142704980697, -8786.873076781401, -6308.109320176759, -2426.4383228347688, 0.261, 0.96, -0.11900000000000001, 192.0, 4.0, 0.0, 14.5, 56.0, 125.5, 80.0, 0.0, 0.0, 0.0, 1.6625062887158952E9, 0.0, 2022-09-06 19:18:08.715
212.0, -15660.503883421885, -6407.418120791688, -33046.651845771295, -24449.23215499308, -5323.134997264743, -3240.399448919231, 95690.92490564882, 28386.357830328685, -14697.993063687452, -1111.239327340046, -16405.15224995044, -10502.280056748397, 12653.322536149328, -8811.527050915605, -6224.983182547472, -2333.0527345004957, 0.261, 0.96, -0.11900000000000001, 192.0, 0.0, 0.0, 0.0, 0.0, 0.0, 0.0, 0.0, 0.0, 0.0, 1.6625062887159002E9, 0.0, 2022-09-06 19:18:08.715
214.0, -15601.338815848687, -6330.192843698603, -32967.4819669106, -24378.243014603024, -5250.871807440735, -3176.5181632659633, 94201.44935863608, 28456.20703175152, -14531.673733195512, -969.439860515578, -16294.42170791885, -10375.679776153538, 12765.215368892596, -8678.400060939797, -6200.396263646635, -2311.662115056767, 0.261, 0.96, -0.11900000000000001, 192.0, 0.0, 0.0, 0.0, 0.0, 0.0, 0.0, 0.0, 0.0, 0.0, 1.6625062887159052E9, 0.0, 2022-09-06 19:18:08.715
216.0, -15568.3252892882, -6278.694424473575, -32966.99022853258, -24339.127461806234, -5256.772667976937, -3198.5122798099856, 94319.95830773811, 28470.333334247272, -14593.252789169883, -1014.6797912931194, -16314.627684906447, -10378.585502932729, 12755.380601332261, -8684.300921475999, -6121.785178397319, -2163.3359388513495, 0.261, 0.96, -0.11900000000000001, 192.0, 0.0, 0.0, 0.0, 0.0, 0.0, 0.0, 0.0, 0.0, 0.0, 1.6625062887159104E9, 0.0, 2022-09-06 19:18:08.715
218.0, -15489.714204038884, -6191.053234464316, -32840.23348572654, -24249.675780496094, -5209.0293418204, -3099.426996639609, 92519.8829197744, 28501.53636950688, -14440.411560584495, -861.1233068851599, -16170.101305258431, -10229.722884860383, 12882.316158093949, -8542.054419762424, -6095.141899006593, -2170.8684767327877, 0.261, 0.96, -0.11900000000000001, 192.0, 0.0, 0.0, 0.0, 0.0, 0.0, 0.0, 0.0, 0.0, 0.0, 1.6625062887159154E9, 0.0, 2022-09-06 19:18:08.715
220.0, -15518.235029963857, -6237.90249084264, -32864.1051488048, -24281.124684944712, -5241.9311096586125, -3096.3648076492323, 92926.99759328338, 28567.228146461028, -14508.807898617733, -935.3534502212347, -16199.002110839143, -10261.350603264644, 12861.819608428432, -8641.609089566362, -6017.491938768857, -2067.178734204618, 0.2245, 0.944, -0.1355, 192.0, 2.5, 112.0, 14.5, 0.0, 125.5, 32.0, 0.0, 0.0, 0.0, 1.6625062887159207E9, 0.0, 2022-09-06 19:18:08.715
222.0, -15429.565659709653, -6150.507170022389, -32723.66913839211, -24160.87229977516, -5129.7030007485155, -3056.3104815853217, 91176.45367103264, 28511.125267878208, -14401.56422872117, -837.1175333401601, -16113.014949919576, -10175.72107025636, 12929.590097616923, -8527.995172500036, -6030.344191830658, -2136.960880394087, 0.2245, 0.944, -0.1355, 192.0, 0.0, 0.0, 0.0, 0.0, 0.0, 0.0, 0.0, 0.0, 0.0, 1.6625062887159257E9, 0.0, 2022-09-06 19:18:08.715
224.0, -15500.3089309107, -6224.983182547472, -32780.844900708784, -24239.1704606021, -5228.296545540875, -3115.073217758324, 91847.69890876996, 28620.872333153766, -14451.587432812148, -894.8520892682183, -16125.867202981379, -10193.669521053973, 12930.484167395136, -8570.016452076014, -5920.798292255198, -2008.0583701203311, 0.2245, 0.944, -0.1355, 192.0, 0.0, 0.0, 0.0, 0.0, 0.0, 0.0, 0.0, 0.0, 0.0, 1.6625062887159307E9, 0.0, 2022-09-06 19:18:08.715
226.0, -15405.604589653563, -6139.063076861272, -32692.04141998785, -24150.009351969882, -5127.579585025262, -2962.991948484415, 90205.24802270508, 28540.517811836937, -14364.616795136548, -850.9532631579951, -16077.743897169103, -10148.586052487619, 12975.165304561295, -8543.93196629667, -6011.233450321371, -2131.4623512580815, 0.2245, 0.944, -0.1355, 192.0, 0.0, 0.0, 0.0, 0.0, 0.0, 0.0, 0.0, 0.0, 0.0, 1.6625062887159357E9, 0.0, 2022-09-06 19:18:08.715
228.0, -15518.816175319693, -6256.365031762723, -32790.97024094704, -24252.31328634182, -5227.313068784842, -3056.4222403075983, 90988.85547981925, 28656.657476026714, -14406.101632845597, -898.763644547897, -16106.398833560806, -10159.96309041537, 12969.286795769549, -8550.861007077814, -5936.93625175193, -2013.8251201898004, 0.2245, 0.944, -0.1355, 192.0, 0.0, 0.0, 0.0, 0.0, 0.0, 0.0, 0.0, 0.0, 0.0, 1.6625062887159407E9, 0.0, 2022-09-06 19:18:08.715
230.0, -15415.28289500271, -6154.4634287909785, -32718.14825751165, -24156.78193053984, -5107.239497570932, -2947.4574860879766, 89409.86119626298, 28526.950302952566, -14379.927740088433, -882.2233536509698, -16096.586417744926, -10155.559796757674, 12971.410211492803, -8539.774541827983, -6054.886407242586, -2149.0308223999527, 0.17925000000000002, 0.9219999999999999, -0.15675, 192.0, 2.0, 24.0, 14.0, 16.0, 125.0, 56.0, 0.0, 0.0, 0.0, 1.6625062887159472E9, 0.0, 2022-09-06 19:18:08.715
232.0, -15491.859971506594, -6249.592453192766, -32795.261775882456, -24225.17826857308, -5172.618350102705, -2958.4545443599877, 90108.28615525797, 28727.512505950035, -14370.60706265057, -886.2243159084697, -16066.970356341644, -10141.947584384392, 13023.310962118027, -8541.383867428764, -5942.658298332489, -2000.1905560720631, 0.17925000000000002, 0.9219999999999999, -0.15675, 192.0, 0.0, 0.0, 0.0, 0.0, 0.0, 0.0, 0.0, 0.0, 0.0, 1.6625062887159524E9, 0.0, 2022-09-06 19:18:08.715
234.0, -15399.882543073005, -6129.407123256579, -32788.265679867945, -24129.333988348724, -5102.120948090666, -2863.2584647248345, 88637.16139044303, 28538.461451347048, -14333.346704643573, -883.407996107101, -16055.973298069634, -10163.226445105845, 13025.836709241476, -8536.64529760424, -6020.978810903885, -2110.541118447914, 0.17925000000000002, 0.9219999999999999, -0.15675, 192.0, 0.0, 0.0, 0.0, 0.0, 0.0, 0.0, 0.0, 0.0, 0.0, 1.6625062887159576E9, 0.0, 2022-09-06 19:18:08.715
236.0, -15522.370102688088, -6258.7119649305305, -32892.581271240866, -24219.322111525787, -5194.724225369004, -2981.499192893409, 89280.15402318884, 28733.16749729723, -14342.130940214509, -889.6217810656764, -16035.588507126393, -10158.621985748052, 13055.6315846004, -8514.427663615665, -5938.210301185883, -1980.7668901404013, 0.17925000000000002, 0.9219999999999999, -0.15675, 192.0, 0.0, 0.0, 0.0, 0.0, 0.0, 0.0, 0.0, 0.0, 0.0, 1.6625062887159626E9, 0.0, 2022-09-06 19:18:08.715
238.0, -15425.519993963242, -6164.544065540322, -32847.341340463325, -24147.68477054653, -5113.453282529507, -2904.0056948668594, 88156.80005035401, 28534.63930304519, -14380.106554044076, -934.0570490428269, -16091.557275242481, -10236.182539007967, 13011.464537556712, -8606.338036815887, -6037.049715167251, -2114.027990582942, 0.17925000000000002, 0.9219999999999999, -0.15675, 192.0, 0.0, 0.0, 0.0, 0.0, 0.0, 0.0, 0.0, 0.0, 0.0, 1.6625062887159677E9, 0.0, 2022-09-06 19:18:08.715
240.0, -15529.679123124974, -6252.162903805126, -32898.63859398825, -24245.428949049587, -5186.722300854004, -2954.6100443136747, 88875.96742820353, 28755.273372563526, -14349.305850184663, -888.5265455873664, -16044.640963630793, -10189.981483218848, 13063.141770737384, -8538.656954605218, -5939.663164575478, -1989.349960011239, 0.16262500000000002, 0.919, -0.181375, 192.0, 2.0, 72.0, 14.0, 80.0, 124.5, 72.0, 0.0, 0.0, 0.0, 1.662506288715973E9, 0.0, 2022-09-06 19:18:08.715
242.0, -15453.794950699204, -6170.869609221174, -32866.78735813944, -24200.144314783134, -5126.551404780317, -2908.3866367800997, 88288.11654902894, 28526.79384074138, -14390.500115215793, -937.275700244391, -16098.352205556896, -10256.053239828736, 12997.449993783235, -8594.290446554476, -6021.403494048535, -2092.771481605945, 0.16262500000000002, 0.919, -0.181375, 192.0, 0.0, 0.0, 0.0, 0.0, 0.0, 0.0, 0.0, 0.0, 0.0, 1.6625062891966932E9, 0.0, 2022-09-06 19:18:09.196
244.0, -15575.902530658548, -6275.207552338547, -32925.23716989007, -24319.234409241013, -5227.402475762663, -3004.432082704554, 89051.24980822204, 28713.699127876658, -14377.960786576366, -907.7266940744752, -16055.168635269241, -10206.812346793693, 13032.609287811434, -8555.845446091347, -5970.37446145707, -2043.3070711263504, 0.16262500000000002, 0.919, -0.181375, 192.0, 0.0, 0.0, 0.0, 0.0, 0.0, 0.0, 0.0, 0.0, 0.0, 1.66250628919678E9, 0.0, 2022-09-06 19:18:09.196
246.0, -15554.198986792444, -6233.56625241831, -32948.706501568144, -24317.602731895775, -5231.805769420358, -2974.726614323451, 89098.97078263412, 28478.29055527336, -14476.621386602092, -1026.2579949209685, -16140.418188621783, -10295.45936530344, 12922.571649857957, -8671.33690969192, -6065.458782369946, -2169.370909854282, 0.16262500000000002, 0.919, -0.181375, 192.0, 0.0, 0.0, 0.0, 0.0, 0.0, 0.0, 0.0, 0.0, 0.0, 1.6625062891968367E9, 0.0, 2022-09-06 19:18:09.196
248.0, -15645.975249525936, -6319.084026704315, -33005.70344992918, -24401.377070114264, -5294.927095762146, -3040.239577321956, 89931.66267057213, 28656.590420793345, -14440.52331930677, -995.8372707172956, -16097.055804378488, -10249.45947521442, 12956.300432241016, -8637.764589520048, -6025.918546428507, -2142.8617409302883, 0.16262500000000002, 0.919, -0.181375, 192.0, 0.0, 0.0, 0.0, 0.0, 0.0, 0.0, 0.0, 0.0, 0.0, 1.6625062891968434E9, 0.0, 2022-09-06 19:18:09.196
250.0, -15615.912153233547, -6288.395081567179, -33038.269941600556, -24389.240072875033, -5286.165211935665, -3067.4863538129753, 90539.89834068995, 28465.01361906691, -14558.205253863962, -1112.1781006071687, -16210.803831911546, -10365.554435915285, 12839.937250606687, -8728.512672008595, -6105.356646222669, -2218.2318232335833, 0.16131250000000003, 0.9175, -0.2236875, 192.0, 2.5, 0.0, 14.0, 80.0, 123.5, 88.0, 0.0, 0.0, 0.0, 1.6625062891968508E9, 0.0, 2022-09-06 19:18:09.196
252.0, -15679.81579063127, -6347.649556118197, -33083.1075409779, -24457.859928352827, -5333.014468313989, -3092.6991215585617, 91093.17107119216, 28627.980187890553, -14477.403697658026, -1034.4610851360662, -16137.177185675764, -10307.104624164656, 12919.88944052332, -8645.006554723568, -6072.879561529107, -2193.1084624658183, 0.16131250000000003, 0.9175, -0.2236875, 192.0, 0.0, 0.0, 0.0, 0.0, 0.0, 0.0, 0.0, 0.0, 0.0, 1.662506289196856E9, 0.0, 2022-09-06 19:18:09.196
254.0, -15684.822581389259, -6345.503788650488, -33144.28426555208, -24472.857948882338, -5380.914256681712, -3098.6223338392183, 91886.99327552239, 28456.16232826261, -14597.477268871937, -1151.4054121262327, -16272.785219286112, -10440.723352518482, 12806.7225583461, -8786.850725036946, -6134.391562270112, -2253.2570067950496, 0.16131250000000003, 0.9175, -0.2236875, 192.0, 0.0, 0.0, 0.0, 0.0, 0.0, 0.0, 0.0, 0.0, 0.0, 1.662506289196861E9, 0.0, 2022-09-06 19:18:09.196
0.0, -15740.277259382876, -6383.434698991144, -33138.98690211617, -24508.46427779964, -5374.678119978681, -3122.941031806592, 91850.67169078252, 28534.192268156086, -14531.45021575096, -1092.9556003756047, -16232.060340888542, -10374.606892419684, 12858.176274082218, -8710.29600027752, -6148.428457788045, -2280.772004219533, 0.16131250000000003, 0.9175, -0.2236875, 192.0, 0.0, 0.0, 0.0, 0.0, 0.0, 0.0, 0.0, 0.0, 0.0, 1.662506289196866E9, 0.0, 2022-09-06 19:18:09.196
2.0, -15781.471524414006, -6400.757300944007, -33203.181112191814, -24554.687685333218, -5415.626515820803, -3196.0088844309907, 92684.90584908794, 28362.285001550317, -14685.72195598149, -1259.7666692455614, -16390.19893290984, -10499.374329969207, 12742.930679670655, -8857.146961348888, -6198.071682223283, -2327.040115242018, 0.16131250000000003, 0.9175, -0.2236875, 192.0, 0.0, 0.0, 0.0, 0.0, 0.0, 0.0, 0.0, 0.0, 0.0, 1.6625062891968713E9, 0.0, 2022-09-06 19:18:09.196
4.0, -15745.082884440768, -6344.944995039105, -33130.15796305632, -24511.012376667546, -5383.931742183178, -3145.7398111510056, 92159.28222647693, 28446.48402291346, -14553.131407872608, -1137.8379032418613, -16270.259472162661, -10368.124886527645, 12838.30557326145, -8736.045209890033, -6166.8462952192185, -2316.244222670105, 0.16131250000000003, 0.9175, -0.2236875, 192.0, 0.0, 0.0, 0.0, 0.0, 0.0, 0.0, 0.0, 0.0, 0.0, 1.6625062891968768E9, 0.0, 2022-09-06 19:18:09.196
6.0, -15758.426875880585, -6346.241396217513, -33170.949896687256, -24527.910295475758, -5446.538978402493, -3182.530782524441, 93057.10709775772, 28366.062446363267, -14669.829865673766, -1265.421660592754, -16369.52356928868, -10451.87687300168, 12736.694542967623, -8843.043010597588, -6175.786993001341, -2282.336626331404, 0.18, 0.898, -0.32, 192.0, 2.5, 80.0, 14.0, 8.0, 123.0, 0.0, 0.0, 0.0, 0.0, 1.6625062891968868E9, 0.0, 2022-09-06 19:18:09.196
8.0, -15743.384151862163, -6326.482454119022, -33100.474846419675, -24490.784047935493, -5396.918105711711, -3167.242189317011, 91931.31678477727, 28358.32874278173, -14574.164399405052, -1182.9884270415816, -16269.74538204019, -10361.57582540224, 12818.747796863056, -8747.154026884322, -6198.675179323576, -2346.7320021071437, 0.18, 0.898, -0.32, 192.0, 0.0, 0.0, 0.0, 0.0, 0.0, 0.0, 0.0, 0.0, 0.0, 1.6625062891968918E9, 0.0, 2022-09-06 19:18:09.196
10.0, -15689.427040747052, -6275.386366294189, -33057.47009008766, -24433.004788518523, -5369.179590842676, -3129.8700725877375, 92779.47607987834, 28448.49567991444, -14626.199260497006, -1231.6481747207852, -16280.273053678638, -10359.072430023245, 12772.122057929286, -8782.559190101527, -6119.550003951789, -2225.317326225916, 0.18, 0.898, -0.32, 192.0, 0.0, 0.0, 0.0, 0.0, 0.0, 0.0, 0.0, 0.0, 0.0, 1.6625062891968968E9, 0.0, 2022-09-06 19:18:09.196
12.0, -15625.322237649232, -6209.135795728659, -32958.071882494914, -24352.516156734964, -5299.151575464199, -3035.277490052878, 91180.27581933449, 28424.176981947065, -14491.328834453683, -1101.650428968719, -16148.554223603514, -10243.98329782287, 12871.36380331085, -8644.157188434267, -6122.7015999199875, -2259.671957453723, 0.18, 0.898, -0.32, 192.0, 0.0, 0.0, 0.0, 0.0, 0.0, 0.0, 0.0, 0.0, 0.0, 1.6625062891969018E9, 0.0, 2022-09-06 19:18:09.196
14.0, -15675.81482837377, -6264.791639422374, -32984.223423507625, -24386.91549145168, -5287.28279915843, -3066.279359612389, 91791.90895460952, 28495.568453737316, -14560.73100098741, -1151.6959848041517, -16184.764049621112, -10274.538132493273, 12839.199643039661, -8717.314448036486, -6040.178959390993, -2145.029860142453, 0.18, 0.898, -0.32, 192.0, 0.0, 0.0, 0.0, 0.0, 0.0, 0.0, 0.0, 0.0, 0.0, 1.6625062891969068E9, 0.0, 2022-09-06 19:18:09.196
16.0, -15537.88221334007, -6107.413006712557, -32840.9487415491, -24236.13062335618, -5163.6329488316715, -2933.3311835922223, 89612.43505626143, 28416.24211266543, -14489.987729786364, -1090.206335807602, -16111.316217340973, -10234.908489574014, 12903.907943237775, -8625.560537047451, -6102.830899099219, -2270.6243122368232, 0.162, 0.9480000000000001, -0.37, 192.0, 2.5, 8.0, 14.5, 80.0, 122.0, 56.0, 0.0, 0.0, 0.0, 1.662506289196912E9, 0.0, 2022-09-06 19:18:09.196
18.0, -15520.000817775825, -6093.420814683534, -32833.215037967566, -24216.483439979966, -5169.623216345694, -2917.7743694513288, 89674.14822270254, 28592.910300840176, -14425.704112732901, -1018.9936779729936, -16024.814966298934, -10133.923308124937, 12964.838798622943, -8547.441190176152, -5926.408580113481, -2054.0806119538083, 0.162, 0.9480000000000001, -0.37, 192.0, 0.0, 0.0, 0.0, 0.0, 0.0, 0.0, 0.0, 0.0, 0.0, 1.6625062891969168E9, 0.0, 2022-09-06 19:18:09.196
20.0, -15350.216966893313, -5919.7254085213435, -32666.582783053254, -24033.84733603565, -4960.7685161553045, -2741.486160932322, 86810.30861262187, 28493.579148480792, -14334.665457566436, -947.3563369937345, -15928.657761652204, -10071.293720161168, 13009.76580497811, -8450.009936095468, -5968.340452711636, -2150.550741022914, 0.162, 0.9480000000000001, -0.37, 192.0, 0.0, 0.0, 0.0, 0.0, 0.0, 0.0, 0.0, 0.0, 0.0, 1.662506289196922E9, 0.0, 2022-09-06 19:18:09.196
22.0, -15313.291885053146, -5873.993739365786, -32618.437125496523, -23984.98642265635, -4908.73365506335, -2695.352160376568, 85723.79031464939, 28695.504807890036, -14266.15736081092, -879.2729233828692, -15830.287734304398, -9970.263835223179, 13106.392396258403, -8350.36585931371, -5767.219456102784, -1938.0080029973988, 0.162, 0.9480000000000001, -0.37, 192.0, 0.0, 0.0, 0.0, 0.0, 0.0, 0.0, 0.0, 0.0, 0.0, 1.6625062891969268E9, 0.0, 2022-09-06 19:18:09.196
24.0, -14987.425802639224, -5556.509561122604, -32328.19972374436, -23651.207822705248, -4596.412729789345, -2363.272293004071, 80950.15060307391, 28603.728545156548, -14080.861399276424, -717.1780725929824, -15628.317371406243, -9812.281705413068, 13242.894499646962, -8159.347851198656, -5724.2594032596835, -1937.8068372973012, 0.162, 0.9480000000000001, -0.37, 192.0, 0.0, 0.0, 0.0, 0.0, 0.0, 0.0, 0.0, 0.0, 0.0, 1.662506289196932E9, 0.0, 2022-09-06 19:18:09.196
26.0, -14892.162667770705, -5455.725545373624, -32206.13684727393, -23552.79309186853, -4492.722987261175, -2266.377480790315, 78064.94272529396, 28921.43624084428, -13865.70350714964, -503.16011943341726, -15386.359737677543, -9567.574807116367, 13453.09030450467, -7938.199691557848, -5448.014193536544, -1606.3975222584634, 0.154, 0.966, -0.404, 192.0, 2.0, 104.0, 15.0, 24.0, 121.5, 48.0, 0.0, 0.0, 0.0, 1.662506289196937E9, 0.0, 2022-09-06 19:18:09.196
28.0, -14793.21149506706, -5374.25343683403, -32120.104982865454, -23501.138210432317, -4425.578346917432, -2207.145357983751, 74921.77336475533, 28919.692804776765, -13750.882595882726, -417.7764556141443, -15281.17242827087, -9478.167829295138, 13521.643104749097, -7811.577059218534, -5408.563364572927, -1578.6366556449718, 0.154, 0.966, -0.404, 192.0, 0.0, 0.0, 0.0, 0.0, 0.0, 0.0, 0.0, 0.0, 0.0, 1.662506289196942E9, 0.0, 2022-09-06 19:18:09.196
30.0, -14936.19560434766, -5520.433845571738, -32213.84819911101, -23639.182584188293, -4577.212581302236, -2345.592063139923, 75422.6536062543, 29197.12265695604, -13794.177924892656, -475.8462877090321, -15326.769986959695, -9512.88008843423, 13438.13698746407, -7884.756670565209, -5346.872549876279, -1463.5922269335065, 0.154, 0.966, -0.404, 192.0, 0.0, 0.0, 0.0, 0.0, 0.0, 0.0, 0.0, 0.0, 0.0, 1.6625062891969476E9, 0.0, 2022-09-06 19:18:09.196
32.0, -14910.155822057228, -5532.5484910665145, -32205.533350173635, -23634.19814517476, -4511.2525834146245, -2315.88659475882, 74005.50830429891, 28964.329238454015, -13879.829809645393, -634.5436733417122, -15395.389842437487, -9607.517374458, 13326.288858209713, -7959.09857262356, -5457.089001785398, -1597.5462314541617, 0.154, 0.966, -0.404, 192.0, 0.0, 0.0, 0.0, 0.0, 0.0, 0.0, 0.0, 0.0, 0.0, 1.6625062891969535E9, 0.0, 2022-09-06 19:18:09.196
34.0, -14990.622102096333, -5572.312244452506, -32267.447682314836, -23682.20969226476, -4595.988046644694, -2387.0545491045177, 73497.18493189632, 29117.550446695146, -13965.280528698031, -804.9757248134285, -15400.128412262013, -9681.121668949327, 13317.974009272339, -7891.328083435069, -5413.793672775469, -1549.8699605309916, 0.154, 0.966, -0.404, 192.0, 0.0, 0.0, 0.0, 0.0, 0.0, 0.0, 0.0, 0.0, 0.0, 1.6625062891969588E9, 0.0, 2022-09-06 19:18:09.196
36.0, -14973.277148399015, -5595.379244730383, -32304.238653688273, -23667.09991301297, -4531.436208657767, -2343.602757883401, 71985.00001251698, 28916.228284386194, -14056.274480375587, -489.12322391548446, -15475.92317770996, -9634.294764315458, 13212.04909229864, -7969.8944651954735, -5494.014083625565, -1640.0368976637005, 0.162, 1.036, -0.418, 192.0, 2.5, 8.0, 16.0, 48.0, 121.0, 120.0, 0.0, 0.0, 0.0, 1.6625062891969635E9, 0.0, 2022-09-06 19:18:09.196
38.0, -14946.410351563734, -5600.564849444014, -32301.66820307591, -23682.88024459842, -4598.916125168339, -2383.3218077804813, 71717.80725929824, 29127.85460088904, -14145.614402963449, -642.2326734343378, -15512.557686872207, -9659.418125083224, 13227.896479117451, -7935.159854311926, -5451.344603460384, -1589.8348796170808, 0.162, 1.036, -0.418, 192.0, 0.0, 0.0, 0.0, 0.0, 0.0, 0.0, 0.0, 0.0, 0.0, 1.66250628919697E9, 0.0, 2022-09-06 19:18:09.196
40.0, -14897.370624228792, -5622.268393310117, -32238.74804243422, -23721.41465203937, -4614.24942186468, -2395.391749786347, 71410.31431082658, 28989.16202654386, -13893.062042362935, -857.8376004502297, -15431.353799266077, -9690.464698131645, 13231.070426830105, -7985.026596191717, -5447.656565625259, -1607.1127780810332, 0.162, 1.036, -0.418, 192.0, 0.0, 0.0, 0.0, 0.0, 0.0, 0.0, 0.0, 0.0, 0.0, 1.662506289196975E9, 0.0, 2022-09-06 19:18:09.196
42.0, -15006.648302870788, -5663.350899618972, -32357.77108165873, -23801.94798731184, -4758.03819394567, -2487.7715096201314, 72071.90359495922, 29129.508629978733, -13969.125028744344, -483.98232269076385, -15455.516035022263, -9686.284921918503, 13176.152190703415, -7980.19861938937, -5482.838211397911, -1644.440191321396, 0.162, 1.036, -0.418, 192.0, 0.0, 0.0, 0.0, 0.0, 0.0, 0.0, 0.0, 0.0, 0.0, 1.66250628919698E9, 0.0, 2022-09-06 19:18:09.196
44.0, -15067.780323956053, -5768.359395070004, -32489.825187900686, -23896.182941935414, -4789.352987927555, -2558.9841674547397, 72908.48468643245, 28943.92209576632, -13984.324214973953, -602.6030305150784, -15554.310745514722, -9738.185672543726, 13057.39737241237, -8204.721892442929, -5575.195619487241, -1736.8870063885458, 0.162, 1.036, -0.418, 192.0, 0.0, 0.0, 0.0, 0.0, 0.0, 0.0, 0.0, 0.0, 0.0, 1.6625062891969852E9, 0.0, 2022-09-06 19:18:09.196
46.0, -15188.680909714809, -5895.2502483427825, -32639.73833796243, -24055.595583390666, -4914.902736533015, -2663.1432966164707, 73716.70141419189, 29012.40784077738, -14287.950311654844, -875.9201617145732, -15708.671892723072, -9882.108555091449, 13165.780981276153, -8177.944502585471, -5677.968940492742, -1837.7604291153466, 0.124, 0.978, -0.446, 192.0, 1.5, 112.0, 15.0, 72.0, 121.0, 8.0, 0.0, 0.0, 0.0, 1.6625062891969907E9, 0.0, 2022-09-06 19:18:09.196
48.0, -15097.08346093696, -5813.53227061418, -32540.67540653651, -23996.072887906183, -4938.863806589104, -2697.743797033286, 75171.241184621, 28881.113693846906, -14061.370678111396, -781.0817099907053, -15693.986796615935, -9957.322175183555, 12843.759398908544, -8237.131921903125, -5691.715263332756, -1861.296816026785, 0.124, 0.978, -0.446, 192.0, 0.0, 0.0, 0.0, 0.0, 0.0, 0.0, 0.0, 0.0, 0.0, 1.6625062891969957E9, 0.0, 2022-09-06 19:18:09.196
50.0, -15258.440704159822, -5965.859409077098, -32710.52631265239, -24094.599377465176, -5000.956952685947, -2773.5832659701427, 75819.15120114699, 28897.318708577004, -14106.275332722109, -604.4582253048688, -15666.069467791256, -9865.590615938976, 12847.469788488126, -8260.087163458726, -5729.959098095786, -1898.9371536895221, 0.124, 0.978, -0.446, 192.0, 0.0, 0.0, 0.0, 0.0, 0.0, 0.0, 0.0, 0.0, 0.0, 1.6625062891970012E9, 0.0, 2022-09-06 19:18:09.197
52.0, -15274.153980511903, -5995.319008269193, -32827.202418709094, -24162.280459675847, -5091.459165985485, -2850.8532465521394, 77452.63903768528, 28767.723294225132, -14372.685774884912, -866.3983185766124, -15903.310883439886, -10089.510391892241, 12776.972386476087, -8427.926412573626, -5831.167796989417, -1978.7999366283343, 0.124, 0.978, -0.446, 192.0, 0.0, 0.0, 0.0, 0.0, 0.0, 0.0, 0.0, 0.0, 0.0, 1.6625062891970062E9, 0.0, 2022-09-06 19:18:09.197
54.0, -15316.890515910449, -6058.775610777809, -32863.30048600441, -24201.79834387283, -5156.681556306071, -2865.8065635927396, 77804.72371634528, 28772.68538149421, -14263.229282287275, -653.5426561287233, -15851.790112470402, -9986.446498208821, 12826.526203933503, -8408.323932686322, -5858.705146158355, -2019.3460010702613, 0.124, 0.978, -0.446, 192.0, 0.0, 0.0, 0.0, 0.0, 0.0, 0.0, 0.0, 0.0, 0.0, 1.6625062891970117E9, 0.0, 2022-09-06 19:18:09.197
56.0, -15363.650365310952, -6121.047570830295, -32920.29743436544, -24281.415257622633, -5240.075914868822, -2953.0901256907136, 79783.16602506232, 28717.990662812077, -14407.733310190835, -685.9750373333737, -15983.508942545528, -10099.680435619406, 12716.37680725775, -8510.1584804247, -5870.01512885274, -2003.6550764626356, 0.094, 0.9380000000000001, -0.418, 192.0, 1.0, 120.0, 14.5, 40.0, 121.0, 120.0, 0.0, 0.0, 0.0, 1.6625062891970167E9, 0.0, 2022-09-06 19:18:09.197
58.0, -15376.167342205925, -6158.151466626105, -32961.156423229746, -24320.866086586248, -5250.13419987371, -2971.105631721691, 79974.0275709662, 28665.218194153094, -14391.818868138656, -675.0897377836392, -15979.01624191001, -10130.995229601293, 12722.121205582764, -8464.940901391614, -5950.615519358578, -2117.7830836514336, 0.094, 0.9380000000000001, -0.418, 192.0, 0.0, 0.0, 0.0, 0.0, 0.0, 0.0, 0.0, 0.0, 0.0, 1.6625062891970222E9, 0.0, 2022-09-06 19:18:09.197
60.0, -15586.966644163926, -6401.740777700041, -33182.79632124857, -24508.03959465499, -5375.303968823429, -3142.05177331588, 82024.01781368468, 28607.57304520286, -14563.659079511057, -815.3245824962357, -16124.123766913865, -10281.824801185705, 12629.629687026703, -8597.956132645146, -5985.752461642321, -2111.6587056706794, 0.094, 0.9380000000000001, -0.418, 192.0, 0.0, 0.0, 0.0, 0.0, 0.0, 0.0, 0.0, 0.0, 0.0, 1.6625062891970272E9, 0.0, 2022-09-06 19:18:09.197
62.0, -15645.28234544782, -6453.440362625166, -33270.839842658024, -24501.24466434058, -5332.05334330241, -3115.9225840476256, 81688.69694336617, 28457.995171307943, -14768.669279655132, -934.9511188210391, -16232.440320544281, -10489.60661764224, 12641.163187165641, -8557.07479203639, -6146.528559509345, -2333.0527345004957, 0.094, 0.9380000000000001, -0.418, 192.0, 0.0, 0.0, 0.0, 0.0, 0.0, 0.0, 0.0, 0.0, 0.0, 1.6625062891970325E9, 0.0, 2022-09-06 19:18:09.197
64.0, -15519.017341019791, -6287.456308300056, -33231.88075207243, -24447.64518113675, -5377.896771180245, -3164.9846631270248, 83093.28056493767, 28507.75015446546, -14919.454147750635, -528.1717214789059, -16334.654847938402, -10419.623305752672, 12712.621714189258, -8619.2349933666, -6156.6315480031435, -2240.2035880331505, 0.094, 0.9380000000000001, -0.418, 192.0, 0.0, 0.0, 0.0, 0.0, 0.0, 0.0, 0.0, 0.0, 0.0, 1.6625062891970375E9, 0.0, 2022-09-06 19:18:09.197
66.0, -15321.673789223885, -6086.849401813674, -32852.437538199134, -24107.00459563787, -5154.044050460345, -2948.8209424997503, 81734.7415369441, 28417.04677546582, -14207.215810682275, 40.41195397519517, -15954.563433475905, -10082.380185410999, 12632.02132368342, -8627.862766726348, -6065.481134114401, -2216.331924954882, 0.152, 0.972, -0.366, 192.0, 2.0, 96.0, 15.0, 48.0, 122.0, 72.0, 0.0, 0.0, 0.0, 1.6625062891970432E9, 0.0, 2022-09-06 19:18:09.197
68.0, -15526.616934134596, -6362.379355714244, -33090.975355026174, -24332.466641958552, -5301.006770253989, -3074.303635871844, 82028.17523815337, 28492.26039555793, -14410.326112547651, -261.11307872689713, -15983.933625690179, -10079.809734798639, 12691.70048137909, -8648.985165236612, -5946.74866756781, -2085.2389437245065, 0.152, 0.972, -0.366, 192.0, 0.0, 0.0, 0.0, 0.0, 0.0, 0.0, 0.0, 0.0, 0.0, 1.6625062891970482E9, 0.0, 2022-09-06 19:18:09.197
70.0, -15496.889114009038, -6285.511706532444, -33220.6378246114, -24317.446269684588, -5223.7367896719925, -2977.1853062135347, 79511.99466133055, 28288.568948336717, -14804.856753928276, -654.2579119512931, -16189.882599101378, -10405.273485812366, 12943.381123945848, -8540.623908117284, -6168.656786520099, -2329.4764553876466, 0.152, 0.972, -0.366, 192.0, 0.0, 0.0, 0.0, 0.0, 0.0, 0.0, 0.0, 0.0, 0.0, 1.6625062891970544E9, 0.0, 2022-09-06 19:18:09.197
72.0, -15237.92180274985, -5971.5591039132005, -32782.56598503184, -24028.751138299842, -5061.396069693097, -2832.2789469097793, 78428.98558723755, 28517.897846448166, -14461.869235261589, 31.158331770698044, -15992.628454283293, -10118.210031772856, 12979.970929619185, -8446.835988382816, -5997.822403648187, -2133.7422291925227, 0.152, 0.972, -0.366, 192.0, 0.0, 0.0, 0.0, 0.0, 0.0, 0.0, 0.0, 0.0, 0.0, 1.66250628919706E9, 0.0, 2022-09-06 19:18:09.197
74.0, -15079.98437642865, -5786.106680167518, -32758.224935320013, -23792.29203370715, -4871.875628456549, -2555.8549232309965, 73419.84789608096, 28301.912939776535, -14101.201486730753, 521.5779568645903, -15640.968458767948, -9793.439184837245, 12940.073065766463, -8375.13159217019, -5828.887919054976, -2049.7890770183894, 0.152, 0.972, -0.366, 192.0, 0.0, 0.0, 0.0, 0.0, 0.0, 0.0, 0.0, 0.0, 0.0, 1.662506289197065E9, 0.0, 2022-09-06 19:18:09.197
76.0, -15193.330072561512, -5943.84294078862, -33104.20758774371, -23967.105027092104, -5015.217365648433, -2589.516650380689, 69182.09125782148, 28486.49364548846, -14420.47380453036, 123.87336777131173, -15826.42088251363, -9968.319233455568, 13895.543085997473, -8124.70264729293, -5918.138434665017, -1952.581340382259, 0.149, 0.9410000000000001, -0.36, 192.0, 2.0, 72.0, 14.0, 56.0, 122.0, 120.0, 0.0, 0.0, 0.0, 1.66250628919707E9, 0.0, 2022-09-06 19:18:09.197
78.0, -14898.42115621819, -5695.626818612435, -32484.43841748696, -23707.131887332427, -4589.126061096914, -2345.927339306753, 65206.31941632264, 28648.610848022803, -14385.269807013252, 577.8820011475088, -15606.189144395488, -9744.354754013391, 13341.666858394965, -7875.681862316354, -5633.779541704601, -1824.1482167420647, 0.149, 0.9410000000000001, -0.36, 192.0, 0.0, 0.0, 0.0, 0.0, 0.0, 0.0, 0.0, 0.0, 0.0, 1.6625062891970751E9, 0.0, 2022-09-06 19:18:09.197
80.0, -14969.857331497353, -5671.59869332298, -32336.64868314847, -23793.14139999645, -4656.248349696201, -2509.1844808083156, 65532.58783013676, 29034.93839918833, -14133.857385379957, 488.5420785596465, -15472.704526508394, -9756.424696019256, 13741.025476577935, -7856.437010340334, -5423.382571146795, -1633.3984295604741, 0.149, 0.9410000000000001, -0.36, 192.0, 0.0, 0.0, 0.0, 0.0, 0.0, 0.0, 0.0, 0.0, 0.0, 1.6625062891970801E9, 0.0, 2022-09-06 19:18:09.197
82.0, -14887.13352526826, -5582.728157368679, -32387.16362561746, -23618.507220567135, -4702.292943274134, -2503.484785972212, 66037.82666180452, 28880.845472913443, -14198.453926855795, 1172.5054588920425, -15509.674311837472, -9563.886769281242, 13026.44020634177, -7804.916239370852, -5440.1016759993645, -1720.950212591912, 0.149, 0.9410000000000001, -0.36, 192.0, 0.0, 0.0, 0.0, 0.0, 0.0, 0.0, 0.0, 0.0, 0.0, 1.6625062891970851E9, 0.0, 2022-09-06 19:18:09.197
84.0, -14914.067377336905, -5603.068244823008, -32418.36666087707, -23675.52652067262, -4741.341440837556, -2530.1504171073934, 66730.17194630766, 28989.944337599798, -13418.825080254685, 1237.1914073457012, -15294.31525401059, -9399.981427190474, 12846.106332076351, -8454.279119286433, -5363.502247751027, -1584.7163301368155, 0.149, 0.9410000000000001, -0.36, 192.0, 0.0, 0.0, 0.0, 0.0, 0.0, 0.0, 0.0, 0.0, 0.0, 1.6625062891970901E9, 0.0, 2022-09-06 19:18:09.197
86.0, -14939.928345671697, -5643.703716242757, -32524.805667973244, -23716.094936859005, -4737.496940791242, -2520.203890824782, 65353.75152274985, 28675.902328002732, -13702.982807515004, 987.500070035466, -15472.592767786118, -9639.659182984733, 12819.954791063643, -8391.00133073346, -5551.949805253721, -1770.4146230715064, 0.1255, 0.9205000000000001, -0.33699999999999997, 192.0, 1.5, 24.0, 14.0, 16.0, 123.0, 24.0, 0.0, 0.0, 0.0, 1.6625062891970959E9, 0.0, 2022-09-06 19:18:09.197
88.0, -14951.417142321723, -5654.589015792491, -32512.087525378174, -23729.528335276646, -4749.4551240748315, -2497.986256836207, 63773.684355459736, 28815.690137826223, -13826.92323051968, 1077.5776001903535, -15434.90772663447, -9611.071301826394, 13000.154554862327, -8202.374959275123, -5525.0383049295315, -1722.5818899371493, 0.1255, 0.9205000000000001, -0.33699999999999997, 192.0, 0.0, 0.0, 0.0, 0.0, 0.0, 0.0, 0.0, 0.0, 0.0, 1.662506289197101E9, 0.0, 2022-09-06 19:18:09.197
90.0, -14878.818676330886, -5589.008997560621, -32463.405425954516, -23667.54694790208, -4730.74671396574, -2451.2934626690703, 62638.26044061905, 28759.229631332117, -13874.84537063186, 1113.653315741219, -15453.169101854457, -9622.62715370979, 13014.683188758278, -8165.941615812972, -5517.595174025914, -1703.918183316968, 0.1255, 0.9205000000000001, -0.33699999999999997, 192.0, 0.0, 0.0, 0.0, 0.0, 0.0, 0.0, 0.0, 0.0, 0.0, 1.662506289197106E9, 0.0, 2022-09-06 19:18:09.197
92.0, -14961.00604069305, -5677.052518970075, -32490.540443723257, -23751.27658263166, -4764.900179493449, -2524.674239715843, 62348.00068712243, 28931.941560738276, -13821.536460105952, 1206.5471656974753, -15402.43064194091, -9562.635071591743, 13053.217596199227, -8067.079850087149, -5463.548655932982, -1639.4781040523178, 0.1255, 0.9205000000000001, -0.33699999999999997, 192.0, 0.0, 0.0, 0.0, 0.0, 0.0, 0.0, 0.0, 0.0, 0.0, 1.662506289197111E9, 0.0, 2022-09-06 19:18:09.197
94.0, -14968.672689041221, -5693.302237189083, -32511.796952700253, -23768.174501439873, -4832.693020426395, -2562.940426223329, 62598.00494885504, 28794.03129744903, -13952.405923891774, 1103.103292358314, -15528.226259735378, -9676.897189247275, 12942.330591956448, -8187.24282827888, -5530.805054999001, -1679.7335958163258, 0.1255, 0.9205000000000001, -0.33699999999999997, 192.0, 0.0, 0.0, 0.0, 0.0, 0.0, 0.0, 0.0, 0.0, 0.0, 1.662506289197116E9, 0.0, 2022-09-06 19:18:09.197
96.0, -15076.944539182728, -5802.24463966425, -32591.97266006144, -23864.66698225343, -4926.25742271631, -2645.485418496778, 62987.349985522036, 28882.790074681056, -13929.18246140271, 1133.4346095841659, -15512.378872916564, -9652.109104646339, 12872.59314925589, -8177.788040374285, -5549.915796508289, -1691.7141308443704, 0.13574999999999998, 0.9192500000000001, -0.3285, 192.0, 2.0, 72.0, 14.0, 88.0, 123.0, 0.0, 0.0, 0.0, 0.0, 1.6625062891971211E9, 0.0, 2022-09-06 19:18:09.197
98.0, -15176.4321537533, -5902.73808273531, -32770.496043025974, -23967.26148930329, -5055.182284734522, -2769.962283368383, 64371.481760916926, 28734.530953709003, -14145.390885518897, 958.5545609658434, -15718.797232961326, -9821.200051450736, 12846.978050110109, -8355.327946582789, -5689.211867953762, -1780.6517220320372, 0.13574999999999998, 0.9192500000000001, -0.3285, 192.0, 0.0, 0.0, 0.0, 0.0, 0.0, 0.0, 0.0, 0.0, 0.0, 1.6625062891971264E9, 0.0, 2022-09-06 19:18:09.197
100.0, -15215.055968172072, -5933.4046761279915, -32708.626414373688, -24005.572379299687, -5063.363023205165, -2792.5598970126985, 65046.63855393393, 28775.769922229043, -14079.252073675641, 956.8334766427847, -15690.164648314078, -9819.121339216392, 12667.225321200529, -8395.739900557983, -5730.383781240437, -1874.104365599676, 0.13574999999999998, 0.9192500000000001, -0.3285, 192.0, 0.0, 0.0, 0.0, 0.0, 0.0, 0.0, 0.0, 0.0, 0.0, 1.6625062891971314E9, 0.0, 2022-09-06 19:18:09.197
102.0, -15306.184030316357, -6014.8767846675855, -32846.96136080758, -24109.843267183696, -5181.469640907007, -2896.1602325630465, 66759.6091937553, 28669.554432577424, -14238.687066875347, 799.1642712550487, -15836.03213262941, -9947.375648900945, 12517.848613005712, -8546.301251208932, -5776.2048573738175, -1914.136339919131, 0.13574999999999998, 0.9192500000000001, -0.3285, 192.0, 0.0, 0.0, 0.0, 0.0, 0.0, 0.0, 0.0, 0.0, 0.0, 1.6625062891971376E9, 0.0, 2022-09-06 19:18:09.197
104.0, -15311.88372515246, -6020.978810903885, -32833.3491484343, -24118.67220624354, -5189.628027633194, -2869.6734153835077, 67251.41462700542, 28669.174452921685, -14205.04769147011, 793.1740037410265, -15814.485050974496, -9940.759532542173, 12557.634718136158, -8540.959184284113, -5833.939413301875, -2003.7221316960017, 0.13574999999999998, 0.9192500000000001, -0.3285, 192.0, 0.0, 0.0, 0.0, 0.0, 0.0, 0.0, 0.0, 0.0, 0.0, 1.6625062891971428E9, 0.0, 2022-09-06 19:18:09.197
106.0, -15406.565714665141, -6105.937791578507, -32951.031082991496, -24221.08789933776, -5276.71042403107, -2986.8412598182276, 69022.96918904415, 28597.93944334262, -14317.029931191199, 647.3735746590585, -15926.511994184495, -10028.713646973807, 12468.27244380384, -8661.278624687031, -5858.012242080241, -1989.2605530334179, 0.139875, 0.900625, -0.32325000000000004, 192.0, 2.0, 64.0, 13.5, 72.0, 123.0, 8.0, 0.0, 0.0, 0.0, 1.6625062896768973E9, 0.0, 2022-09-06 19:18:09.676
108.0, -15388.103173745058, -6070.130296961105, -32921.97381519959, -24196.255111247912, -5248.368412061741, -2948.642128544108, 69170.46835070472, 28551.961904998054, -14302.635407761982, 601.9771816703299, -15923.427453449662, -10030.568841763597, 12470.015879871355, -8674.980244038135, -5936.489216862824, -2107.210708524073, 0.139875, 0.900625, -0.32325000000000004, 192.0, 0.0, 0.0, 0.0, 0.0, 0.0, 0.0, 0.0, 0.0, 0.0, 1.6625062896769524E9, 0.0, 2022-09-06 19:18:09.676
110.0, -15468.34593633961, -6143.332260052235, -32992.44886546718, -24278.129551187703, -5349.554759210916, -3000.341713469233, 70930.55646783787, 28586.584757159326, -14375.792667364201, 505.0376659676631, -15985.945282691157, -10078.043946986669, 12439.729266134415, -8735.195843600732, -5912.304629362182, -2040.960137958543, 0.139875, 0.900625, -0.32325000000000004, 192.0, 0.0, 0.0, 0.0, 0.0, 0.0, 0.0, 0.0, 0.0, 0.0, 1.6625062896770272E9, 0.0, 2022-09-06 19:18:09.677
112.0, -15402.698862874373, -6084.4354134125015, -32918.911626209214, -24203.474724706975, -5307.667590101671, -2968.892809020616, 71046.78553900546, 28533.61112280025, -14346.869510039034, 509.1727386918949, -15974.076506385389, -10072.634824828485, 12458.191807054498, -8711.078311333456, -5981.058595306707, -2125.226214555051, 0.139875, 0.900625, -0.32325000000000004, 192.0, 0.0, 0.0, 0.0, 0.0, 0.0, 0.0, 0.0, 0.0, 0.0, 1.6625062896770327E9, 0.0, 2022-09-06 19:18:09.677
114.0, -15467.071886905658, -6149.568396755266, -32968.510147155546, -24248.89346944016, -5345.8890731202455, -3026.9402893710485, 72542.29605702116, 28572.391399430206, -14405.520487489759, 452.108735097496, -16007.559419579438, -10096.148859995468, 12408.637989597082, -8735.821692445481, -5942.881815777042, -2043.8435129932777, 0.139875, 0.900625, -0.32325000000000004, 192.0, 0.0, 0.0, 0.0, 0.0, 0.0, 0.0, 0.0, 0.0, 0.0, 1.662506289677038E9, 0.0, 2022-09-06 19:18:09.677
116.0, -15352.161568660924, -6024.33157257218, -32847.2519334855, -24097.28158679981, -5203.061426050834, -2898.6189244531306, 71259.48473924217, 28410.542417829325, -14348.344725173083, 509.64212532545633, -15942.135863558755, -10053.479379830287, 12471.513446749861, -8656.741220562604, -5986.311255253703, -2133.7869326814334, 0.1439375, 0.9023125000000001, -0.30662500000000004, 192.0, 2.0, 80.0, 14.0, 32.0, 123.0, 120.0, 0.0, 0.0, 0.0, 1.662506289677044E9, 0.0, 2022-09-06 19:18:09.677
118.0, -15274.176332256358, -5935.192815684416, -32750.781804416398, -23991.02139365928, -5101.360988779186, -2801.7464639838295, 70473.50799721575, 28524.513962806937, -14301.204896116842, 577.1443935804837, -15852.505368292972, -9961.59135837452, 12578.645357924148, -8538.008754016013, -5866.863532884542, -1978.8222883727897, 0.1439375, 0.9023125000000001, -0.30662500000000004, 192.0, 0.0, 0.0, 0.0, 0.0, 0.0, 0.0, 0.0, 0.0, 0.0, 1.6625062896770494E9, 0.0, 2022-09-06 19:18:09.677
120.0, -15052.290565048525, -5705.550993150591, -32538.10495592415, -23760.440797858337, -4861.593826007107, -2595.7304353392647, 67385.30157629271, 28448.629790381172, -14125.631943420405, 698.7155316728988, -15678.38527898613, -9807.520783844087, 12741.634278492247, -8344.956737155526, -5781.412813831904, -1943.1265524776643, 0.1439375, 0.9023125000000001, -0.30662500000000004, 192.0, 0.0, 0.0, 0.0, 0.0, 0.0, 0.0, 0.0, 0.0, 0.0, 1.6625062896770546E9, 0.0, 2022-09-06 19:18:09.677
122.0, -15005.083680758917, -5674.325606146527, -32459.113891019097, -23734.065739401074, -4850.619119479552, -2558.425373843357, 66725.5004317165, 28792.332564870427, -13988.615749909372, 794.5598118972555, -15522.079530010169, -9640.687363229676, 12889.222847130639, -8203.805470920262, -5567.305453694517, -1690.0601017546776, 0.1439375, 0.9023125000000001, -0.30662500000000004, 192.0, 0.0, 0.0, 0.0, 0.0, 0.0, 0.0, 0.0, 0.0, 0.0, 1.66250628967706E9, 0.0, 2022-09-06 19:18:09.677
124.0, -14997.908770788763, -5685.434423140815, -32444.27233270077, -23742.849974972007, -4844.7182589433505, -2559.542961066122, 66078.50683671318, 28714.369680210315, -13952.696496569693, 742.7931717387643, -15510.54602987123, -9628.058627612429, 12886.920617451742, -8199.469232495932, -5564.936168782255, -1704.2311077393424, 0.1439375, 0.9023125000000001, -0.30662500000000004, 192.0, 0.0, 0.0, 0.0, 0.0, 0.0, 0.0, 0.0, 0.0, 0.0, 1.662506289677065E9, 0.0, 2022-09-06 19:18:09.677
126.0, -15084.566484041989, -5750.075668105563, -32473.419007470493, -23793.856655819018, -4896.440195612931, -2591.908287037407, 66474.9373763725, 28835.918466558276, -14027.932468406258, 618.8303969896314, -15558.043486838758, -9681.501648605066, 12849.25792804455, -8246.4973028299, -5562.00809025861, -1677.7442905598034, 0.15696875, 0.91415625, -0.3023125, 192.0, 2.5, 40.0, 14.0, 120.0, 123.0, 88.0, 0.0, 0.0, 0.0, 1.6625062896770704E9, 0.0, 2022-09-06 19:18:09.677
128.0, -14955.619270279321, -5602.129471555886, -32371.15977658746, -23657.846290808477, -4772.455069119343, -2474.9863117916957, 65078.89212118294, 28694.275461944995, -13994.158982534289, 566.0579283306514, -15516.223372962879, -9673.566779323433, 12867.295785819982, -8220.301058328278, -5597.457956964727, -1729.2427097848308, 0.15696875, 0.91415625, -0.3023125, 192.0, 0.0, 0.0, 0.0, 0.0, 0.0, 0.0, 0.0, 0.0, 0.0, 1.6625062896770756E9, 0.0, 2022-09-06 19:18:09.677
130.0, -14985.928235760717, -5603.135300056374, -32379.631087736023, -23653.44299715078, -4791.3646449285325, -2469.331320444503, 64582.951615208585, 28890.143798606852, -13898.918199410225, 545.9190065764197, -15418.792118882195, -9576.783725831954, 12960.36844973188, -8110.978676197372, -5522.534909550537, -1620.0991416095665, 0.15696875, 0.91415625, -0.3023125, 192.0, 0.0, 0.0, 0.0, 0.0, 0.0, 0.0, 0.0, 0.0, 0.0, 1.6625062896770809E9, 0.0, 2022-09-06 19:18:09.677
132.0, -14964.649375039266, -5571.842857818944, -32350.55146819967, -23616.227342632694, -4732.98188841127, -2449.2147504347267, 63405.12644113618, 28760.88366042181, -13920.241763620588, 435.2108162892838, -15432.67255218894, -9599.001359820528, 12974.85238013892, -8099.109899891603, -5525.172415396263, -1645.46837156634, 0.15696875, 0.91415625, -0.3023125, 192.0, 0.0, 0.0, 0.0, 0.0, 0.0, 0.0, 0.0, 0.0, 0.0, 1.6625062896770868E9, 0.0, 2022-09-06 19:18:09.677
