%OpenBCI Raw EEG Data
%Number of channels = 16
%Sample Rate = 125 Hz
%Board = OpenBCI_GUI$BoardCytonSerialDaisy
Sample Index, EXG Channel 0, EXG Channel 1, EXG Channel 2, EXG Channel 3, EXG Channel 4, EXG Channel 5, EXG Channel 6, EXG Channel 7, EXG Channel 8, EXG Channel 9, EXG Channel 10, EXG Channel 11, EXG Channel 12, EXG Channel 13, EXG Channel 14, EXG Channel 15, Accel Channel 0, Accel Channel 1, Accel Channel 2, Other, Other, Other, Other, Other, Other, Other, Analog Channel 0, Analog Channel 1, Analog Channel 2, Timestamp, Other, Timestamp (Formatted)
44.0, -18301.09426988295, -25068.554290360724, -32054.167336722297, -19722.66521724048, -9043.426399639417, -6860.465629156307, -19513.497592627715, -4021.2352897209275, -23081.70772572848, 6312.222041156536, -19683.393202232506, -24696.822428324514, -5290.881430015735, -3335.930804721213, -10740.706114853157, -17819.503583848906, 0.0, 0.0, 0.0, 192.0, 0.0, 0.0, 0.0, 0.0, 0.0, 0.0, 0.0, 0.0, 0.0, 1.673044676449284E9, 0.0, 2023-01-06 17:37:56.449
46.0, -18299.73081347118, -25068.82251129419, -32050.09931923143, -19723.447528296416, -9029.009524465744, -6873.317882218109, -19467.18477811632, -4045.062249310285, -23083.831141451734, 6304.15306140817, -19687.170647045452, -24715.575541922517, -5286.589895080316, -3312.75204572106, -10714.68868430718, -17810.09349943322, -0.24, 0.882, 0.088, 192.0, 124.0, 64.0, 13.5, 72.0, 1.0, 96.0, 0.0, 0.0, 0.0, 1.6730446764492908E9, 0.0, 2023-01-06 17:37:56.449
48.0, -18277.580234715966, -25043.47563308187, -32038.43170862576, -19714.1044991141, -9008.244753866764, -6825.596907806028, -19517.699720585315, -3953.4200970435263, -23090.76018223288, 6296.397006082178, -19693.205618048385, -24704.623187139416, -5304.560697622383, -3327.347734850375, -10718.242611675574, -17822.968104239477, -0.24, 0.882, 0.088, 192.0, 0.0, 0.0, 0.0, 0.0, 0.0, 0.0, 0.0, 0.0, 0.0, 1.6730446764492967E9, 0.0, 2023-01-06 17:37:56.449
50.0, -18271.075877079475, -25034.37847308856, -32028.216961409686, -19710.259999067785, -9007.082463155088, -6826.580384562062, -19517.923238029867, -3917.523195448303, -23069.458969766973, 6319.620468571243, -19661.309678710662, -24688.328765431495, -5285.941694491112, -3280.163202305222, -10693.454527074638, -17752.224833038432, -0.24, 0.882, 0.088, 192.0, 0.0, 0.0, 0.0, 0.0, 0.0, 0.0, 0.0, 0.0, 0.0, 1.6730446764493024E9, 0.0, 2023-01-06 17:37:56.449
52.0, -18289.985452888664, -25052.416330863995, -32057.92242979079, -19748.61559255309, -9032.250527411763, -6851.971966263291, -19552.568441935593, -3966.6970332499786, -23086.28983334182, 6288.015101911438, -19680.532178942227, -24696.06246901303, -5315.110721005288, -3314.1378538772888, -10723.562326855937, -17796.593045782214, -0.24, 0.882, 0.088, 192.0, 0.0, 0.0, 0.0, 0.0, 0.0, 0.0, 0.0, 0.0, 0.0, 1.673044676449308E9, 0.0, 2023-01-06 17:37:56.449
54.0, -18276.194426559738, -25036.05485392271, -32031.34620563343, -19728.163746376486, -9007.21657362182, -6821.68535252635, -19540.520851674184, -3935.5610532237356, -23093.28592935633, 6273.978206393505, -19683.90729235498, -24719.598855924472, -5323.067942031377, -3330.94636570768, -10721.796539043968, -17797.643577771614, -0.24, 0.882, 0.088, 192.0, 0.0, 0.0, 0.0, 0.0, 0.0, 0.0, 0.0, 0.0, 0.0, 1.6730446764493136E9, 0.0, 2023-01-06 17:37:56.449
56.0, -18267.99133634464, -25027.47178405187, -32025.221827652673, -19723.38047306305, -9016.649009781959, -6829.933146230358, -19558.335192005063, -3961.9584634254534, -23073.392876791106, 6293.91596244764, -19660.192091487897, -24680.55035836105, -5301.029121998444, -3299.8550891703476, -10700.674140533703, -17781.70678397498, -0.264, 0.876, 0.066, 192.0, 123.5, 96.0, 13.5, 48.0, 1.0, 8.0, 0.0, 0.0, 0.0, 1.6730446764493191E9, 0.0, 2023-01-06 17:37:56.449
58.0, -18252.70274313721, -25010.082126865644, -32008.972109433667, -19701.18519081893, -9016.000809192754, -6816.119768156978, -19608.73837575178, -3941.9983556268644, -23070.487150011915, 6285.668168743631, -19649.887937294, -24686.473570641705, -5307.33231393484, -3275.916370858714, -10691.509925307028, -17783.13729562012, -0.264, 0.876, 0.066, 192.0, 0.0, 0.0, 0.0, 0.0, 0.0, 0.0, 0.0, 0.0, 0.0, 1.6730446764493248E9, 0.0, 2023-01-06 17:37:56.449
60.0, -18259.56472868499, -25022.129717127053, -32016.61640603738, -19704.336786787127, -9000.600457263048, -6831.296602642132, -19538.73271211776, -3958.873922690621, -23062.015838863354, 6295.212363626047, -19640.32139066713, -24657.371599360897, -5311.757959336992, -3273.345920246353, -10714.576925584905, -17772.989603637412, -0.264, 0.876, 0.066, 192.0, 0.0, 0.0, 0.0, 0.0, 0.0, 0.0, 0.0, 0.0, 0.0, 1.6730446764493303E9, 0.0, 2023-01-06 17:37:56.449
62.0, -18255.653173405313, -25019.33574907014, -32008.32390884446, -19679.481646952827, -9011.396349834962, -6865.383012936475, -19584.8220091846, -4016.6531821075896, -23067.33555404372, 6262.735278932486, -19647.27278319273, -24682.182035706286, -5311.221517470064, -3306.0465223844676, -10695.555591053439, -17787.47353404445, -0.264, 0.876, 0.066, 192.0, 0.0, 0.0, 0.0, 0.0, 0.0, 0.0, 0.0, 0.0, 0.0, 1.673044676449336E9, 0.0, 2023-01-06 17:37:56.449
64.0, -18245.28196397805, -25007.735193697834, -31999.204397106696, -19657.59928913108, -9015.196146392364, -6834.828178266071, -19577.177712580888, -3953.1295243656073, -23047.46485322295, 6289.132689134203, -19626.55271608266, -24651.046055680046, -5294.278895172942, -3276.7433854035603, -10685.49730604855, -17776.945862406, -0.264, 0.876, 0.066, 192.0, 0.0, 0.0, 0.0, 0.0, 0.0, 0.0, 0.0, 0.0, 0.0, 1.6730446764493415E9, 0.0, 2023-01-06 17:37:56.449
66.0, -18230.999199271107, -24974.900481092987, -31977.880832896335, -19634.241716175286, -8980.193314575352, -6739.006249786169, -19611.599399042057, -3938.287966047283, -23054.12567307063, 6271.921845903617, -19626.21743991583, -24661.953706974236, -5313.7249128490585, -3292.680179200194, -10675.059041387922, -17752.068370827245, -0.28400000000000003, 0.897, 0.064, 192.0, 123.0, 64.0, 14.0, 88.0, 0.5, 120.0, 0.0, 0.0, 0.0, 1.6730446764493473E9, 0.0, 2023-01-06 17:37:56.449
68.0, -18222.729053822644, -24954.672152360938, -31972.717579927157, -19635.582820842603, -8993.492602526261, -6793.745671957216, -19615.890933977476, -3960.550303524769, -23029.024664047323, 6317.050017958882, -19595.43908780087, -24622.97226464418, -5302.794909810414, -3252.067059524901, -10651.835578898857, -17723.41343443554, -0.28400000000000003, 0.897, 0.064, 192.0, 0.0, 0.0, 0.0, 0.0, 0.0, 0.0, 0.0, 0.0, 0.0, 1.6730446764493527E9, 0.0, 2023-01-06 17:37:56.449
70.0, -18232.206193471695, -24947.89957379098, -31973.522242727548, -19642.578916857114, -8969.732698170268, -6752.976090070736, -19592.756878466236, -3972.821411230733, -23034.970228072434, 6307.595230054287, -19600.15530588094, -24634.39400606084, -5279.482040343528, -3247.0602687669125, -10654.003698111022, -17733.65053339607, -0.28400000000000003, 0.897, 0.064, 192.0, 0.0, 0.0, 0.0, 0.0, 0.0, 0.0, 0.0, 0.0, 0.0, 1.6730446764493585E9, 0.0, 2023-01-06 17:37:56.449
72.0, -18208.714510049165, -24910.415698339428, -31965.47561472364, -19653.486568151304, -8963.563616700605, -6706.819737770526, -19648.055094248666, -3979.7281002674226, -23031.304541981764, 6311.193860911591, -19596.623730257004, -24634.63987524985, -5295.6423515847155, -3270.619007422806, -10652.528482976972, -17734.589306663194, -0.28400000000000003, 0.897, 0.064, 192.0, 0.0, 0.0, 0.0, 0.0, 0.0, 0.0, 0.0, 0.0, 0.0, 1.673044676449364E9, 0.0, 2023-01-06 17:37:56.449
74.0, -18231.446234160216, -24922.910323489945, -31976.673838695748, -19682.47678070984, -8993.045567637155, -6709.121967449423, -19684.354327244084, -3994.1226236966404, -23017.826440075212, 6313.451387101578, -19584.799657440148, -24627.286151324053, -5294.837688784324, -3255.0845450263673, -10652.72964867707, -17736.600963664172, -0.28400000000000003, 0.897, 0.064, 192.0, 0.0, 0.0, 0.0, 0.0, 0.0, 0.0, 0.0, 0.0, 0.0, 1.6730446764493694E9, 0.0, 2023-01-06 17:37:56.449
76.0, -18233.167318483273, -24924.340835135084, -31976.427969506738, -19686.209522033874, -8975.007709861722, -6712.631191328906, -19690.83633313612, -4016.474368151947, -23034.724358883424, 6286.606942010754, -19599.618864014014, -24649.88376496837, -5317.7705785954695, -3266.863914354314, -10680.021128657, -17743.26178351185, -0.31100000000000005, 0.9135, 0.077, 192.0, 122.5, 56.0, 14.5, 8.0, 1.0, 104.0, 0.0, 0.0, 0.0, 1.6730446764493785E9, 0.0, 2023-01-06 17:37:56.449
78.0, -18238.88936506383, -24923.044433956675, -31973.209318305177, -19685.963652844865, -9009.205878878342, -6691.128813162901, -19728.968409176876, -4019.670667609056, -23034.590248416695, 6269.463154013533, -19601.608169270537, -24646.642762022348, -5323.67143913167, -3280.185554049677, -10675.260207088018, -17751.219004537943, -0.31100000000000005, 0.9135, 0.077, 192.0, 0.0, 0.0, 0.0, 0.0, 0.0, 0.0, 0.0, 0.0, 0.0, 1.673044676449384E9, 0.0, 2023-01-06 17:37:56.449
80.0, -18232.876745805355, -24914.103736174555, -31981.65827770928, -19709.18711533393, -8993.157326359431, -6645.844178896449, -19751.29780188773, -4030.198339247506, -23033.495012938383, 6277.643892484176, -19604.625654772004, -24653.840023736957, -5312.540270392928, -3275.7375569030714, -10681.026957157488, -17746.54748994678, -0.31100000000000005, 0.9135, 0.077, 192.0, 0.0, 0.0, 0.0, 0.0, 0.0, 0.0, 0.0, 0.0, 0.0, 1.6730446764493897E9, 0.0, 2023-01-06 17:37:56.449
82.0, -18227.869955047365, -24897.049355155155, -31985.435722522227, -19725.36977831957, -8976.929959884877, -6682.143411891868, -19746.313362874196, -4045.9116155995866, -23024.822536089723, 6282.985959408994, -19600.84820995906, -24647.425073078284, -5307.041741256922, -3271.043690567457, -10691.420518329205, -17755.778760406825, -0.31100000000000005, 0.9135, 0.077, 192.0, 0.0, 0.0, 0.0, 0.0, 0.0, 0.0, 0.0, 0.0, 0.0, 1.6730446764493952E9, 0.0, 2023-01-06 17:37:56.449
84.0, -18218.862202031876, -24873.155340332432, -31990.66603072477, -19753.95765947791, -9001.78509971918, -6667.704184973739, -19774.029525998776, -4042.1788742755502, -23030.432823948006, 6277.152154106159, -19607.151401895455, -24670.15679718933, -5314.663686116181, -3276.005777836535, -10690.951131695645, -17759.37739126413, -0.31100000000000005, 0.9135, 0.077, 192.0, 0.0, 0.0, 0.0, 0.0, 0.0, 0.0, 0.0, 0.0, 0.0, 1.6730446764494007E9, 0.0, 2023-01-06 17:37:56.449
86.0, -18214.23539092963, -24848.948401087335, -31984.586356232925, -19758.24919441333, -9000.086367140577, -6603.688788853739, -19777.047011500243, -4031.092409025718, -23020.173373243022, 6289.62442751222, -19599.30593959164, -24651.627201035884, -5328.141788022732, -3286.9581326196353, -10705.278599891497, -17765.70293494498, -0.3255, 0.9007499999999999, 0.07050000000000001, 192.0, 122.5, 48.0, 13.5, 96.0, 1.0, 0.0, 0.0, 0.0, 0.0, 1.673044676449406E9, 0.0, 2023-01-06 17:37:56.449
88.0, -18211.709643806178, -24842.086415539554, -31976.495024740107, -19759.187967680453, -9003.774404975702, -6622.21838500719, -19783.037279014265, -4031.4947404259137, -23004.437745146482, 6313.607849312765, -19579.05525911513, -24643.960552687713, -5314.149595993709, -3261.5665509184064, -10685.87728570429, -17734.70106538547, -0.3255, 0.9007499999999999, 0.07050000000000001, 192.0, 0.0, 0.0, 0.0, 0.0, 0.0, 0.0, 0.0, 0.0, 0.0, 1.6730446764494119E9, 0.0, 2023-01-06 17:37:56.449
90.0, -18202.388966368315, -24832.408110190405, -31951.61753316135, -19727.29202834273, -8998.96877991781, -6630.1532542888235, -19768.888624774056, -4026.7561706013885, -23009.93627428249, 6293.91596244764, -19587.615977241516, -24635.39983456133, -5313.903726804701, -3272.4965539570517, -10706.396187114262, -17758.75154241938, -0.3255, 0.9007499999999999, 0.07050000000000001, 192.0, 0.0, 0.0, 0.0, 0.0, 0.0, 0.0, 0.0, 0.0, 0.0, 1.673044676449417E9, 0.0, 2023-01-06 17:37:56.449
92.0, -18202.165448923763, -24833.302179968618, -31937.960617299155, -19698.123001828553, -8993.06791938161, -6619.759693117106, -19769.737991063357, -4005.320847668749, -22986.243425159864, 6322.056808716871, -19557.8658053715, -24611.550523227517, -5297.586953352327, -3225.8261115343707, -10665.224273827585, -17707.342530172173, -0.3255, 0.9007499999999999, 0.07050000000000001, 192.0, 0.0, 0.0, 0.0, 0.0, 0.0, 0.0, 0.0, 0.0, 0.0, 1.6730446764494228E9, 0.0, 2023-01-06 17:37:56.449
94.0, -18224.740710823622, -24860.839529137556, -31953.182155273218, -19698.301815784194, -8980.550942486638, -6641.686754427762, -19764.462979371903, -4047.99032783393, -23004.571855613216, 6289.24444785648, -19588.040660386167, -24614.523305240073, -5317.323543706363, -3266.6403969097614, -10700.49532657806, -17737.94206833149, -0.3255, 0.9007499999999999, 0.07050000000000001, 192.0, 0.0, 0.0, 0.0, 0.0, 0.0, 0.0, 0.0, 0.0, 0.0, 1.6730446764494283E9, 0.0, 2023-01-06 17:37:56.449
96.0, -18239.381103441847, -24878.40800027943, -31961.742873399602, -19707.51073449978, -9005.987227676776, -6651.677984199284, -19806.9759973259, -4085.161278863106, -23009.265721948832, 6277.19685759507, -19593.248616844252, -24636.271552595088, -5334.802607870413, -3276.7433854035603, -10670.566340752404, -17737.60679216466, -0.34375, 0.919375, 0.07125000000000001, 192.0, 122.0, 88.0, 14.5, 40.0, 1.0, 32.0, 0.0, 0.0, 0.0, 1.673044676449434E9, 0.0, 2023-01-06 17:37:56.449
98.0, -18216.917600264263, -24854.15635754542, -31952.08691979491, -19690.65751918048, -8972.817238905101, -6616.988076804648, -19769.983860252367, -4063.1671623190837, -23017.446460419473, 6270.491334258478, -19609.006596685245, -24636.271552595088, -5316.787101839435, -3293.261324556032, -10694.683873019681, -17760.51733023135, -0.34375, 0.919375, 0.07125000000000001, 192.0, 0.0, 0.0, 0.0, 0.0, 0.0, 0.0, 0.0, 0.0, 0.0, 1.6730446764494395E9, 0.0, 2023-01-06 17:37:56.449
100.0, -18217.45404213119, -24848.501366198227, -31951.975161072634, -19696.42426924995, -9035.7821030357, -6632.321373500989, -19767.90514801802, -4063.3683280191817, -23012.394966172575, 6282.918904175628, -19599.55180878065, -24642.0159509201, -5328.119436278276, -3258.772582861493, -10674.20967509862, -17722.11703325713, -0.34375, 0.919375, 0.07125000000000001, 192.0, 0.0, 0.0, 0.0, 0.0, 0.0, 0.0, 0.0, 0.0, 0.0, 1.6730446764494448E9, 0.0, 2023-01-06 17:37:56.449
102.0, -18223.556068367492, -24852.50232845573, -31974.46101599467, -19727.6049527651, -9036.117379202531, -6669.112344874424, -19802.25977924583, -4087.508212030913, -23004.817724802226, 6289.691482745587, -19601.138782636976, -24625.028625134066, -5347.72191616558, -3275.1564115472333, -10683.776221725491, -17732.84587059568, -0.34375, 0.919375, 0.07125000000000001, 192.0, 0.0, 0.0, 0.0, 0.0, 0.0, 0.0, 0.0, 0.0, 0.0, 1.6730446764494505E9, 0.0, 2023-01-06 17:37:56.449
104.0, -18223.623123600857, -24848.993104576246, -31967.88960312481, -19725.973275419867, -9022.482815084793, -6648.191112064256, -19798.705851877436, -4085.1165753741952, -23034.23262050541, 6253.906339872639, -19623.043492203178, -24664.45710235323, -5362.898750650734, -3297.3069903024425, -10710.061873204932, -17748.0897603142, -0.34375, 0.919375, 0.07125000000000001, 192.0, 0.0, 0.0, 0.0, 0.0, 0.0, 0.0, 0.0, 0.0, 0.0, 1.673044676449456E9, 0.0, 2023-01-06 17:37:56.449
106.0, -18219.152774709793, -24850.87065111049, -31975.265678795062, -19734.735159246346, -9042.688792072391, -6659.121115102901, -19816.520192208314, -4109.502328574936, -23022.721472110927, 6267.116220845726, -19617.74612876727, -24639.691369496748, -5355.4556197471165, -3287.2040018086436, -10716.633286074792, -17752.224833038432, -0.358875, 0.9256875, 0.074625, 192.0, 122.0, 40.0, 14.5, 16.0, 1.0, 56.0, 0.0, 0.0, 0.0, 1.6730446764494612E9, 0.0, 2023-01-06 17:37:56.449
108.0, -18206.635797814823, -24841.035883550154, -31959.530050698526, -19717.9042956715, -8990.430413535883, -6603.8005475760165, -19772.8672352871, -4079.975674149475, -23023.99552154488, 6292.373692080223, -19612.001730442254, -24646.93333470027, -5359.434230260162, -3277.4139377372194, -10711.380626127795, -17742.926507345022, -0.358875, 0.9256875, 0.074625, 192.0, 0.0, 0.0, 0.0, 0.0, 0.0, 0.0, 0.0, 0.0, 0.0, 1.673044676449468E9, 0.0, 2023-01-06 17:37:56.449
110.0, -18225.411263157283, -24871.546014731648, -31987.112103356376, -19762.473674115383, -9005.78606197668, -6663.233836082678, -19809.59115142717, -4118.778302523888, -23010.15979172704, 6277.599188995265, -19609.587742041083, -24638.618485762894, -5371.146544354742, -3292.6354757112836, -10706.35148362535, -17748.112112058654, -0.358875, 0.9256875, 0.074625, 192.0, 0.0, 0.0, 0.0, 0.0, 0.0, 0.0, 0.0, 0.0, 0.0, 1.6730446764494736E9, 0.0, 2023-01-06 17:37:56.449
112.0, -18219.108071220886, -24860.92893611538, -31978.596088718903, -19761.825473526176, -9043.582861850604, -6625.526443186574, -19809.904075849543, -4105.300200617337, -23026.677730879514, 6242.641060667165, -19628.8325940171, -24676.616451336915, -5373.448774033639, -3306.3147433179315, -10722.31062916644, -17769.703897202482, -0.358875, 0.9256875, 0.074625, 192.0, 0.0, 0.0, 0.0, 0.0, 0.0, 0.0, 0.0, 0.0, 0.0, 1.673044676449479E9, 0.0, 2023-01-06 17:37:56.449
114.0, -18235.201327228704, -24877.06689561211, -32004.166484375775, -19793.788468097267, -9058.670289357935, -6672.353347820444, -19830.5794394707, -4131.6752590746, -23028.734091369402, 6259.404869008645, -19627.69265504988, -24661.50667208513, -5377.226218846586, -3314.294316088476, -10720.857765776846, -17764.004202366377, -0.358875, 0.9256875, 0.074625, 192.0, 0.0, 0.0, 0.0, 0.0, 0.0, 0.0, 0.0, 0.0, 0.0, 1.6730446764494848E9, 0.0, 2023-01-06 17:37:56.449
116.0, -18232.675580105257, -24870.62959320898, -32001.19370236322, -19790.368651195604, -9045.728629318313, -6668.061812885024, -19816.58724744168, -4122.242822914461, -23053.097492825687, 6234.594432663254, -19649.887937294, -24689.64751835436, -5391.151355642242, -3332.1757116527215, -10739.767341586035, -17784.43369679853, -0.36543749999999997, 0.91084375, 0.0703125, 192.0, 122.0, 48.0, 14.0, 0.0, 1.0, 8.0, 0.0, 0.0, 0.0, 1.6730446764494903E9, 0.0, 2023-01-06 17:37:56.449
118.0, -18224.4501381457, -24869.713171686315, -32011.743725746124, -19811.602808428146, -9053.819960811134, -6677.002510667147, -19828.34426502517, -4131.652907330144, -23046.771949144837, 6249.771267148408, -19638.488547621793, -24672.391971634865, -5411.089111696376, -3313.5567085214507, -10727.518585624526, -17770.8438361697, -0.36543749999999997, 0.91084375, 0.0703125, 192.0, 0.0, 0.0, 0.0, 0.0, 0.0, 0.0, 0.0, 0.0, 0.0, 1.6730446764494958E9, 0.0, 2023-01-06 17:37:56.449
120.0, -18232.51911789407, -24879.25736656873, -32021.042051439534, -19824.276247534304, -9048.209672952851, -6632.9695740901925, -19819.671788176514, -4115.537299577868, -23042.614524676148, 6235.846130352751, -19640.164928455943, -24682.405553150842, -5399.712073768625, -3329.7840749960037, -10749.110370768354, -17789.015804411865, -0.36543749999999997, 0.91084375, 0.0703125, 192.0, 0.0, 0.0, 0.0, 0.0, 0.0, 0.0, 0.0, 0.0, 0.0, 1.6730446764495013E9, 0.0, 2023-01-06 17:37:56.449
122.0, -18237.749426096612, -24889.36035506253, -32048.48999363065, -19848.17026235703, -9061.754830092768, -6697.253191143655, -19855.25576534936, -4141.711192335033, -23067.98375463292, 6255.314499773324, -19650.98317277231, -24683.254919440144, -5409.345675628862, -3326.6548307722605, -10761.493237196593, -17789.306377089786, -0.36543749999999997, 0.91084375, 0.0703125, 192.0, 0.0, 0.0, 0.0, 0.0, 0.0, 0.0, 0.0, 0.0, 0.0, 1.6730446764495065E9, 0.0, 2023-01-06 17:37:56.449
124.0, -18253.9097373378, -24912.91909371842, -32046.947723263234, -19857.803864217265, -9086.699376904891, -6698.460185344242, -19863.481207308916, -4136.212663199028, -23057.366676016652, 6235.6449646526535, -19658.672172864935, -24693.581425378496, -5432.077399739909, -3343.9550809806683, -10773.89845536929, -17815.457918102493, -0.36543749999999997, 0.91084375, 0.0703125, 192.0, 0.0, 0.0, 0.0, 0.0, 0.0, 0.0, 0.0, 0.0, 0.0, 1.6730446764495122E9, 0.0, 2023-01-06 17:37:56.449
126.0, -18232.98850452763, -24899.530398789695, -32030.921522488778, -19837.77670118531, -9060.346670192084, -6672.375699564898, -19856.283945594307, -4121.929898492086, -23060.294754540297, 6244.652717668142, -19655.52057689674, -24691.726230588705, -5427.472940382117, -3336.4672465881404, -10762.588472674905, -17799.163496394576, -0.36771875, 0.903421875, 0.06115625, 192.0, 122.0, 56.0, 14.0, 0.0, 0.5, 80.0, 0.0, 0.0, 0.0, 1.6730446764495175E9, 0.0, 2023-01-06 17:37:56.449
128.0, -18246.176033756263, -24917.50120133176, -32025.06536544149, -19840.436558775495, -9063.341803949095, -6675.2367228551775, -19865.269346865338, -4117.9736397234965, -23037.384216473605, 6256.610900951731, -19640.388445900495, -24673.040172224068, -5390.503155053038, -3342.390458868797, -10751.814931847446, -17802.67272027406, -0.36771875, 0.903421875, 0.06115625, 192.0, 0.0, 0.0, 0.0, 0.0, 0.0, 0.0, 0.0, 0.0, 0.0, 1.6730446764495232E9, 0.0, 2023-01-06 17:37:56.449
130.0, -18267.589004944446, -24942.26693418824, -32052.7144733327, -19866.11871315464, -9096.355330509583, -6723.784711812104, -19873.60654754717, -4148.170846482617, -23065.167434831554, 6244.317441501313, -19655.833501319114, -24701.806867338048, -5405.903506982745, -3358.684880576716, -10759.03454530651, -17807.09836567621, -0.36771875, 0.903421875, 0.06115625, 192.0, 0.0, 0.0, 0.0, 0.0, 0.0, 0.0, 0.0, 0.0, 0.0, 1.6730446764495287E9, 0.0, 2023-01-06 17:37:56.449
132.0, -18265.107961309906, -24943.071596988633, -32049.808746553514, -19862.050695663776, -9090.879153118034, -6723.941174023292, -19871.79605624629, -4146.941500537575, -23077.147969859598, 6246.150284546648, -19666.696449124393, -24695.369564934917, -5424.142530458275, -3367.1114882363663, -10768.802257633479, -17819.77180478237, -0.36771875, 0.903421875, 0.06115625, 192.0, 0.0, 0.0, 0.0, 0.0, 0.0, 0.0, 0.0, 0.0, 0.0, 1.673044676449534E9, 0.0, 2023-01-06 17:37:56.449
134.0, -18263.856263620408, -24941.30580917666, -32053.83206055547, -19860.374314829627, -9105.117214336064, -6724.947002523781, -19886.41409712006, -4157.424468687113, -23083.38410656263, 6247.424333980601, -19666.070600279643, -24707.238341240685, -5429.194024705175, -3364.4739823906402, -10753.536016170505, -17824.04098797333, -0.36771875, 0.903421875, 0.06115625, 192.0, 0.0, 0.0, 0.0, 0.0, 0.0, 0.0, 0.0, 0.0, 0.0, 1.6730446764495397E9, 0.0, 2023-01-06 17:37:56.449
136.0, -18261.196406030227, -24936.8354602856, -32047.908848274812, -19838.62606747461, -9080.262074501763, -6725.639906601895, -19865.582271287713, -4157.446820431569, -23091.00605142189, 6259.38251726419, -19666.048248535186, -24679.052791482543, -5445.242577224085, -3358.28254917652, -10763.616652919847, -17816.553153580804, -0.36771875, 0.903421875, 0.06115625, 192.0, 0.0, 0.0, 0.0, 0.0, 0.0, 0.0, 0.0, 0.0, 0.0, 1.673044676449545E9, 0.0, 2023-01-06 17:37:56.449
138.0, -18256.256670505605, -24929.302922404164, -32036.7106243027, -19834.088663350187, -9076.395222710995, -6710.686589561295, -19878.12159992714, -4139.00663125594, -23068.60960347767, 6282.740090219986, -19648.79270181569, -24677.085837970477, -5409.770358773513, -3337.4730750886292, -10742.717771854135, -17798.42588882755, -0.356, 0.89, 0.036000000000000004, 192.0, 122.0, 112.0, 13.5, 104.0, 0.5, 16.0, 0.0, 0.0, 0.0, 1.6730446764495504E9, 0.0, 2023-01-06 17:37:56.449
140.0, -18270.025345090075, -24939.338855664595, -32044.757252306612, -19839.766006441834, -9088.17459203894, -6727.875081047426, -19895.913588513566, -4145.309823192337, -23086.558054275283, 6272.100659859259, -19661.60025138858, -24673.330744901985, -5417.437007121684, -3358.416659643252, -10745.9364230557, -17804.57261855276, -0.356, 0.89, 0.036000000000000004, 192.0, 0.0, 0.0, 0.0, 0.0, 0.0, 0.0, 0.0, 0.0, 0.0, 1.6730446764495573E9, 0.0, 2023-01-06 17:37:56.449
142.0, -18283.838723163455, -24949.6877133474, -32041.29273191604, -19840.50361400886, -9109.073473104652, -6724.969354268236, -19901.613283349667, -4148.7296400939995, -23093.129467145143, 6277.129802361704, -19664.058943278666, -24693.067335256022, -5415.045370464965, -3340.445857101185, -10739.387361930296, -17793.776725980846, -0.356, 0.89, 0.036000000000000004, 192.0, 0.0, 0.0, 0.0, 0.0, 0.0, 0.0, 0.0, 0.0, 0.0, 1.6730446764495625E9, 0.0, 2023-01-06 17:37:56.449
144.0, -18300.781345460575, -24972.30767873617, -32048.758214564114, -19841.35298029816, -9075.992891310798, -6683.46216481473, -19859.45789330696, -4154.876369819209, -23104.417098095073, 6256.923825374106, -19676.71003064037, -24684.93130027429, -5422.153225201753, -3371.38067142733, -10746.94225155619, -17808.86415348818, -0.356, 0.89, 0.036000000000000004, 192.0, 0.0, 0.0, 0.0, 0.0, 0.0, 0.0, 0.0, 0.0, 0.0, 1.673044676449568E9, 0.0, 2023-01-06 17:37:56.449
146.0, -18321.14378465936, -24994.9499958694, -32061.34224669245, -19851.634782747602, -9084.195981525896, -6768.935235611825, -19898.752260059387, -4181.229076532016, -23111.86022899869, 6251.693517171564, -19684.26492026626, -24710.50169593116, -5420.320382156418, -3365.2786451910315, -10738.917975296734, -17799.9011039616, -0.356, 0.89, 0.036000000000000004, 192.0, 0.0, 0.0, 0.0, 0.0, 0.0, 0.0, 0.0, 0.0, 0.0, 1.6730446764495735E9, 0.0, 2023-01-06 17:37:56.449
148.0, -18302.94946467274, -24977.6944491499, -32047.23829594115, -19849.868994935634, -9082.251379758285, -6749.399810957887, -19898.193466448007, -4185.833535889809, -23107.278121385352, 6245.14445604616, -19687.863551123566, -24699.057602770044, -5413.8607280088345, -3383.405909944285, -10749.333888212906, -17814.206220412998, -0.358, 0.896, 0.016, 192.0, 122.0, 104.0, 14.0, 0.0, 0.0, 64.0, 0.0, 0.0, 0.0, 1.673044676449579E9, 0.0, 2023-01-06 17:37:56.449
150.0, -18289.449011021738, -24958.851928574077, -32032.39673762283, -19836.100320351165, -9063.677080115924, -6716.2074704417555, -19884.26832965235, -4169.360300226248, -23097.979795691943, 6245.546787446355, -19677.55939692967, -24712.491001187685, -5396.672236522703, -3371.4030231717857, -10747.433989934205, -17803.94676970801, -0.358, 0.896, 0.016, 192.0, 0.0, 0.0, 0.0, 0.0, 0.0, 0.0, 0.0, 0.0, 0.0, 1.6730446764495845E9, 0.0, 2023-01-06 17:37:56.449
152.0, -18329.97272371921, -25004.784763429736, -32066.617258383903, -19878.814504005255, -9063.855894071567, -6764.621348931951, -19909.101117742197, -4223.563280530368, -23082.75825771788, 6252.81110439433, -19670.004507303776, -24690.40747766584, -5395.219373133108, -3365.7256800801374, -10734.738199083591, -17812.37337736766, -0.358, 0.896, 0.016, 192.0, 0.0, 0.0, 0.0, 0.0, 0.0, 0.0, 0.0, 0.0, 0.0, 1.67304467644959E9, 0.0, 2023-01-06 17:37:56.449
154.0, -18316.62873227939, -24989.85379813359, -32042.164449949796, -19842.11293960964, -9092.756699652278, -6755.881816849926, -19880.110905183665, -4218.087103138817, -23117.67168255707, 6204.196060204036, -19699.531161729235, -24740.90006839038, -5419.113387955831, -3399.253296763098, -10768.712850655658, -17841.698866093026, -0.358, 0.896, 0.016, 192.0, 0.0, 0.0, 0.0, 0.0, 0.0, 0.0, 0.0, 0.0, 0.0, 1.6730446764495952E9, 0.0, 2023-01-06 17:37:56.449
156.0, -18298.81439194851, -24971.480664191327, -32037.738804547647, -19831.24999180436, -9100.713920678369, -6759.905130851881, -19887.93401574302, -4230.112341655772, -23094.828199723746, 6246.32909850229, -19675.324222484138, -24691.234492210686, -5398.370969101306, -3362.5293806230284, -10751.881987080811, -17817.71544429248, -0.358, 0.896, 0.016, 192.0, 0.0, 0.0, 0.0, 0.0, 0.0, 0.0, 0.0, 0.0, 0.0, 1.6730446764496007E9, 0.0, 2023-01-06 17:37:56.449
158.0, -18302.413022805813, -24967.345591467096, -32033.67078705678, -19825.416186501527, -9094.053100830686, -6747.4328574458195, -19878.814504005255, -4214.041437392407, -23098.896217214613, 6235.980240819484, -19682.074449309643, -24718.0342338126, -5411.782015774491, -3366.6868050917155, -10753.536016170505, -17822.09638620572, -0.364, 0.912, 0.02, 192.0, 122.0, 80.0, 14.0, 64.0, 0.0, 80.0, 0.0, 0.0, 0.0, 1.673044676449606E9, 0.0, 2023-01-06 17:37:56.449
160.0, -18298.121487870394, -24964.819844343645, -32029.893342243835, -19832.099358093663, -9094.388376997516, -6754.8312848605265, -19895.399498391092, -4232.034591678928, -23080.970118161455, 6263.4058312661455, -19665.914138068456, -24693.737887589683, -5393.297123109952, -3359.1319154658217, -10744.729428855113, -17807.165420909576, -0.364, 0.912, 0.02, 192.0, 0.0, 0.0, 0.0, 0.0, 0.0, 0.0, 0.0, 0.0, 0.0, 1.6730446764496117E9, 0.0, 2023-01-06 17:37:56.449
162.0, -18313.253618866638, -24976.8450828606, -32028.306368387508, -19840.525965753313, -9083.436022214415, -6749.9586045692695, -19885.87765525313, -4218.332972327826, -23092.9506531895, 6231.912223328617, -19675.950071328887, -24724.27037051563, -5400.002646446544, -3390.4914129366175, -10760.062725551454, -17822.72223505047, -0.364, 0.912, 0.02, 192.0, 0.0, 0.0, 0.0, 0.0, 0.0, 0.0, 0.0, 0.0, 0.0, 1.6730446764496171E9, 0.0, 2023-01-06 17:37:56.449
164.0, -18304.447031551248, -24968.306716478673, -32026.71939453118, -19839.095454108174, -9075.925836077433, -6777.831229905037, -19879.663870294557, -4224.569109030856, -23092.391859578118, 6244.630365923687, -19673.13375152752, -24709.249998241663, -5404.808271504435, -3362.9764155121347, -10752.373725458829, -17808.685339532538, -0.364, 0.912, 0.02, 192.0, 0.0, 0.0, 0.0, 0.0, 0.0, 0.0, 0.0, 0.0, 0.0, 1.6730446764496229E9, 0.0, 2023-01-06 17:37:56.449
0.0, -9270.475419816425, -12489.797173714302, -16032.928649536212, -11045.114522589985, -4549.697583877753, -3378.2426569751096, -9373.38285128866, -1447.7895436036044, -11545.435970477578, 3112.7709880794273, -9841.42838018279, -12366.504951298828, -2694.994532465283, -1686.3497121750966, -5379.550800269938, -8906.09728170601, -0.303, 0.8480000000000001, 0.075, 192.0, 124.0, 56.0, 12.0, 64.0, 2.0, 8.0, 0.0, 0.0, 0.0, 1.6730446770051134E9, 0.0, 2023-01-06 17:37:57.005
2.0, -18552.551395005154, -24993.541835968714, -32089.036058072576, -22118.012263537916, -9128.228918102852, -6784.313235797076, -18755.706400359442, -2915.762712450351, -23325.922885647167, 5461.7605163765575, -19246.327191153432, -24062.61403114963, -3771.923932066433, -2719.4026374104783, -10681.898675191245, -17947.84730051128, -0.303, 0.8480000000000001, 0.075, 192.0, 0.0, 0.0, 0.0, 0.0, 0.0, 0.0, 0.0, 0.0, 0.0, 1.6730446770051644E9, 0.0, 2023-01-06 17:37:57.005
4.0, -18555.25595608425, -25004.13656284053, -32081.034133557576, -22128.04819679835, -9114.817871429666, -6776.981863615735, -18747.525661888798, -2909.347761791678, -23347.984057424554, 5441.0404492664875, -19260.900528538292, -24068.604298663653, -3794.1192143105527, -2732.3442974501013, -10697.522544565505, -17968.679126343624, -0.303, 0.8480000000000001, 0.075, 192.0, 0.0, 0.0, 0.0, 0.0, 0.0, 0.0, 0.0, 0.0, 0.0, 1.67304467700517E9, 0.0, 2023-01-06 17:37:57.005
6.0, -18551.836139182586, -25004.248321562805, -32080.564746924014, -22146.89071737417, -9121.679856977446, -6763.950796598291, -18735.835699538675, -2915.7180089614403, -23337.121109619275, 5445.108466757353, -19251.266926678054, -24060.08828402618, -3774.2261617453296, -2719.782617066219, -10685.49730604855, -17956.36331514875, -0.303, 0.8480000000000001, 0.075, 192.0, 0.0, 0.0, 0.0, 0.0, 0.0, 0.0, 0.0, 0.0, 0.0, 1.6730446770051851E9, 0.0, 2023-01-06 17:37:57.005
8.0, -18565.940089933883, -25021.43681304894, -32082.39758996935, -22173.645755487178, -9081.893751847, -6764.308424509576, -18716.523792329288, -2932.794741725295, -23351.24741211503, 5410.195041918164, -19259.112388981866, -24060.3788567041, -3797.650789934491, -2744.190722011414, -10702.506983579038, -17966.98039376502, -0.184, 0.8260000000000001, 0.21, 192.0, 125.0, 32.0, 12.5, 104.0, 3.0, 72.0, 0.0, 0.0, 0.0, 1.6730446770051904E9, 0.0, 2023-01-06 17:37:57.005
10.0, -18552.35022930506, -25000.604987216593, -32075.11092127692, -22214.48239260702, -9109.56521148267, -6719.761397810149, -18696.720146741885, -2929.3972765680883, -23332.04726362792, 5429.261079938541, -19221.025016430023, -24027.790013288264, -3787.659560162969, -2732.8807393170287, -10671.39335529725, -17918.20888736354, -0.184, 0.8260000000000001, 0.21, 192.0, 0.0, 0.0, 0.0, 0.0, 0.0, 0.0, 0.0, 0.0, 0.0, 1.673044677005196E9, 0.0, 2023-01-06 17:37:57.005
12.0, -18571.595081281077, -24986.881016121035, -32095.383953497883, -22224.87595377874, -9132.207528615896, -6736.368743940443, -18783.869598373127, -2997.525393667864, -23344.117205633785, 5402.729559270091, -19230.300990378975, -24022.537353341264, -3802.523470225748, -2736.546425407699, -10687.01722467151, -17924.959114189045, -0.184, 0.8260000000000001, 0.21, 192.0, 0.0, 0.0, 0.0, 0.0, 0.0, 0.0, 0.0, 0.0, 0.0, 1.673044677005201E9, 0.0, 2023-01-06 17:37:57.005
14.0, -18557.133502618493, -25010.439754776926, -32080.9223748353, -22212.44838386159, -9074.070641287643, -6708.89845000487, -18648.708599651887, -2981.789765571328, -23335.176507851662, 5403.757739515036, -19230.90448747927, -24035.344902914156, -3770.582827399114, -2719.4696926438446, -10657.803494668424, -17884.457753236027, -0.184, 0.8260000000000001, 0.21, 192.0, 0.0, 0.0, 0.0, 0.0, 0.0, 0.0, 0.0, 0.0, 0.0, 1.6730446770052068E9, 0.0, 2023-01-06 17:37:57.005
16.0, -18546.248203068757, -25018.106403125097, -32064.225621727186, -22224.87595377874, -9085.715900148858, -6672.0627751425245, -18658.006925345293, -2993.502079665909, -23320.066728599875, 5392.335998098373, -19227.57407755543, -24034.450833135943, -3770.5157721657483, -2716.3628001645566, -10609.81429932288, -17865.19054951555, -0.184, 0.8260000000000001, 0.21, 192.0, 0.0, 0.0, 0.0, 0.0, 0.0, 0.0, 0.0, 0.0, 0.0, 1.673044677005212E9, 0.0, 2023-01-06 17:37:57.005
18.0, -18535.318200030113, -25007.04228961972, -32065.09733976094, -22257.64361115022, -9092.8461066301, -6706.149185436868, -18691.176914116968, -3041.3348128002663, -23320.98315012254, 5387.083338151377, -19240.828662017426, -24091.96187161945, -3765.374870941028, -2707.667971571442, -10597.833764294835, -17855.825168588777, -0.214, 0.862, 0.28600000000000003, 192.0, 124.5, 40.0, 13.0, 120.0, 4.0, 120.0, 0.0, 0.0, 0.0, 1.6730446770052173E9, 0.0, 2023-01-06 17:37:57.005
20.0, -18519.71668240031, -24986.031649831733, -32073.032209042576, -22291.573559233377, -9090.521525206748, -6713.94994425177, -18712.27696088278, -3096.4095111381425, -23322.99480712352, 5380.087242136865, -19252.56332785646, -24108.189238094, -3759.541065638193, -2718.2850501877133, -10604.09225274232, -17879.093334566754, -0.214, 0.862, 0.28600000000000003, 192.0, 0.0, 0.0, 0.0, 0.0, 0.0, 0.0, 0.0, 0.0, 0.0, 1.6730446770052226E9, 0.0, 2023-01-06 17:37:57.005
22.0, -18494.682728610365, -24947.631352857516, -32070.797034597046, -22294.725155201573, -9048.07556248612, -6672.800382709549, -18770.4809034444, -3106.7360170764946, -23322.57012397887, 5404.1153674263205, -19242.52739459603, -24110.983206150915, -3770.627530888025, -2696.8944307439842, -10618.173851749165, -17872.58897693026, -0.214, 0.862, 0.28600000000000003, 192.0, 0.0, 0.0, 0.0, 0.0, 0.0, 0.0, 0.0, 0.0, 0.0, 1.6730446770052278E9, 0.0, 2023-01-06 17:37:57.005
24.0, -18473.403867888912, -24923.044433956675, -32039.48224061516, -22273.870977624774, -9058.491475402294, -6663.636167482873, -18652.866024120573, -3165.565808482863, -23313.495315730015, 5412.430216363695, -19219.728615251617, -24084.5857959492, -3763.072641262131, -2710.5960500950873, -10613.10000575781, -17877.573415943792, -0.214, 0.862, 0.28600000000000003, 192.0, 0.0, 0.0, 0.0, 0.0, 0.0, 0.0, 0.0, 0.0, 0.0, 1.6730446770052333E9, 0.0, 2023-01-06 17:37:57.005
26.0, -18462.473864850268, -24915.82482049761, -32031.480316100162, -22249.73109361304, -9052.434152654905, -6662.339766304465, -18672.267338307778, -3201.1944891446224, -23298.60905392278, 5428.925803771711, -19185.1281148348, -24073.253461510358, -3741.1902834403854, -2685.2715236272247, -10558.874673709235, -17850.080770263765, -0.214, 0.862, 0.28600000000000003, 192.0, 0.0, 0.0, 0.0, 0.0, 0.0, 0.0, 0.0, 0.0, 0.0, 1.6730446770052383E9, 0.0, 2023-01-06 17:37:57.005
28.0, -18468.821760275576, -24939.02593124222, -32051.418072154294, -22254.290849481924, -9079.300949490183, -6674.923798432804, -18842.900555479595, -3257.8785130832807, -23290.785943363422, 5419.2027949336525, -19171.381791994787, -24050.43233042149, -3721.5878035530814, -2692.938171975395, -10582.52281934295, -17852.651220876127, -0.276, 0.884, 0.294, 192.0, 123.5, 48.0, 13.5, 80.0, 4.5, 24.0, 0.0, 0.0, 0.0, 1.6730446770052435E9, 0.0, 2023-01-06 17:37:57.005
30.0, -18459.679896793354, -24940.90347777647, -32017.689289771235, -22229.3463026698, -9025.880280242, -6679.327092090499, -18600.339424650603, -3289.394472765264, -23300.08426905683, 5409.770358773513, -19177.908501375736, -24076.069781311726, -3728.3156786341287, -2684.846840482574, -10597.856116039291, -17845.543366139336, -0.276, 0.884, 0.294, 192.0, 0.0, 0.0, 0.0, 0.0, 0.0, 0.0, 0.0, 0.0, 0.0, 1.673044677005249E9, 0.0, 2023-01-06 17:37:57.005
32.0, -18463.055010206106, -24947.497242390782, -32018.069269426975, -22254.044980292914, -9029.16598667693, -6676.600179266951, -18652.798968887208, -3341.9881274686013, -23287.790809606413, 5412.005533219044, -19167.090257059368, -24055.036789779282, -3728.7627135232347, -2669.960578675339, -10535.673562964626, -17827.19258394153, -0.276, 0.884, 0.294, 192.0, 0.0, 0.0, 0.0, 0.0, 0.0, 0.0, 0.0, 0.0, 0.0, 1.6730446770052545E9, 0.0, 2023-01-06 17:37:57.005
34.0, -18441.105597150996, -24925.21255316884, -31999.003231406597, -22261.197538518612, -9048.053210741666, -6647.431152752776, -18645.802872872697, -3371.4700784051515, -23284.080420026832, 5405.076492437898, -19167.98432683758, -24080.85305462516, -3729.6791350459025, -2686.0091311942497, -10538.13225485471, -17827.840784530734, -0.276, 0.884, 0.294, 192.0, 0.0, 0.0, 0.0, 0.0, 0.0, 0.0, 0.0, 0.0, 0.0, 1.6730446770052595E9, 0.0, 2023-01-06 17:37:57.005
36.0, -18422.486594019723, -24903.397250580463, -32008.346260588918, -22291.08182085536, -9039.716010059836, -6667.74888846265, -18690.551065272222, -3444.895558940835, -23266.422541907137, 5430.132797972298, -19153.455692941632, -24063.552804416755, -3721.8783762310004, -2677.2025438788587, -10541.149740356177, -17818.028368714855, -0.276, 0.884, 0.294, 192.0, 0.0, 0.0, 0.0, 0.0, 0.0, 0.0, 0.0, 0.0, 0.0, 1.6730446770052648E9, 0.0, 2023-01-06 17:37:57.005
38.0, -18420.02790212964, -24896.557616777136, -32006.46871405467, -22301.363623304802, -8994.654893237936, -6636.747018903139, -18717.775490018787, -3479.741928546659, -23272.83749256581, 5427.584699104393, -19155.35559122033, -24086.23982503889, -3745.437114886894, -2676.6661020119313, -10564.462609823062, -17823.839822273236, -0.322, 0.842, 0.302, 192.0, 122.5, 120.0, 13.0, 40.0, 4.5, 56.0, 0.0, 0.0, 0.0, 1.6730446770052717E9, 0.0, 2023-01-06 17:37:57.005
40.0, -18426.778128955142, -24908.873427972012, -32006.178141376753, -22332.387844608766, -9032.40698962295, -6668.397089051854, -18717.708434785418, -3551.535731737105, -23275.095018755797, 5422.1979286906635, -19151.26522198501, -24083.401153493065, -3770.98515879931, -2697.252058655269, -10565.691955768103, -17819.9059152491, -0.322, 0.842, 0.302, 192.0, 0.0, 0.0, 0.0, 0.0, 0.0, 0.0, 0.0, 0.0, 0.0, 1.673044677005277E9, 0.0, 2023-01-06 17:37:57.005
42.0, -18422.665407975364, -24906.392384337472, -31984.76517018857, -22316.674568256687, -9028.763655276734, -6638.333992759466, -18728.146699446046, -3548.1382665798983, -23265.014382006455, 5415.40299837625, -19138.904707301226, -24099.58381647871, -3725.655821043947, -2690.032445196205, -10546.871786936736, -17816.53080183635, -0.322, 0.842, 0.302, 192.0, 0.0, 0.0, 0.0, 0.0, 0.0, 0.0, 0.0, 0.0, 0.0, 1.6730446770052824E9, 0.0, 2023-01-06 17:37:57.005
44.0, -18437.328152338046, -24926.821878769624, -32002.981841919645, -22338.33340863388, -9027.824882009612, -6668.3076820740325, -18821.129956380126, -3623.150720971909, -23268.478902397026, 5419.292201911474, -19138.703541601128, -24088.184426806503, -3734.5965188260698, -2684.7127300158418, -10539.495711266483, -17810.786403511334, -0.322, 0.842, 0.302, 192.0, 0.0, 0.0, 0.0, 0.0, 0.0, 0.0, 0.0, 0.0, 0.0, 1.6730446770052876E9, 0.0, 2023-01-06 17:37:57.005
46.0, -18424.386492298425, -24918.350567621063, -31987.939117901224, -22327.80573699543, -8960.72494515478, -6638.713972415206, -18757.203967237947, -3666.4460499818388, -23289.690707885115, 5401.746082514058, -19158.574242421895, -24113.73247071892, -3789.492403208304, -2712.451244884878, -10567.167170902154, -17834.18867995604, -0.322, 0.842, 0.302, 192.0, 0.0, 0.0, 0.0, 0.0, 0.0, 0.0, 0.0, 0.0, 0.0, 1.673044677005293E9, 0.0, 2023-01-06 17:37:57.005
48.0, -18400.581884453524, -24903.374898836006, -31961.13937629931, -22312.18186762117, -9009.11647190052, -6633.506015957119, -18749.112635745125, -3662.467439468794, -23253.860861523255, 5442.135684744798, -19124.241962938544, -24075.466284211434, -3753.7966673131787, -2705.0081139812605, -10503.755271882448, -17785.081897387732, -0.382, 0.838, 0.32, 192.0, 122.0, 8.0, 13.0, 24.0, 5.0, 0.0, 0.0, 0.0, 0.0, 1.6730446770052981E9, 0.0, 2023-01-06 17:37:57.005
50.0, -18378.096029531484, -24879.704401457835, -31939.257018477565, -22297.139143602748, -9001.49452704126, -6619.6479343948295, -18760.355563206143, -3631.57732863156, -23249.390512632195, 5453.870350583834, -19120.73273905906, -24078.774342390818, -3722.683039031391, -2661.3104535711354, -10495.865106089725, -17781.975004908443, -0.382, 0.838, 0.32, 192.0, 0.0, 0.0, 0.0, 0.0, 0.0, 0.0, 0.0, 0.0, 0.0, 1.6730446770053036E9, 0.0, 2023-01-06 17:37:57.005
52.0, -18350.49162512918, -24853.73167440077, -31932.395032929784, -22308.784402463963, -8976.438221506862, -6620.542004173041, -18785.948310607473, -3693.737529961769, -23221.048500662866, 5508.632124499336, -19093.173038145665, -24042.028074506292, -3713.943506949366, -2642.9820231177837, -10481.78350708288, -17744.960516090458, -0.382, 0.838, 0.32, 192.0, 0.0, 0.0, 0.0, 0.0, 0.0, 0.0, 0.0, 0.0, 0.0, 1.6730446770053089E9, 0.0, 2023-01-06 17:37:57.005
54.0, -18332.990209220676, -24835.716168369792, -31917.26290193354, -22320.340254347357, -8940.876596078468, -6624.252393752622, -18776.448819213965, -3833.2124153628847, -23216.511096538437, 5520.1656246382745, -19093.329500356853, -24046.81134781973, -3730.439094357383, -2628.6322031774766, -10486.969111796512, -17761.85843489867, -0.382, 0.838, 0.32, 192.0, 0.0, 0.0, 0.0, 0.0, 0.0, 0.0, 0.0, 0.0, 0.0, 1.673044677005314E9, 0.0, 2023-01-06 17:37:57.005
56.0, -18319.66856952531, -24819.01941526168, -31902.466047104128, -22327.246943384045, -8971.699651682336, -6586.20972468969, -18800.141668336593, -3711.5742220371035, -23197.355651540238, 5550.698107564224, -19085.618148519774, -24036.95422851494, -3708.1544051354417, -2619.6915053953535, -10458.671803316094, -17757.432789496517, -0.382, 0.838, 0.32, 192.0, 0.0, 0.0, 0.0, 0.0, 0.0, 0.0, 0.0, 0.0, 0.0, 1.6730446770053194E9, 0.0, 2023-01-06 17:37:57.005
58.0, -18302.43537455027, -24787.52580732415, -31894.195901655665, -22325.14587940525, -8970.850285393035, -6560.460515077176, -18805.48373526141, -3834.5982235191136, -23182.603500199737, 5569.898256051333, -19080.991337417527, -24021.866801007607, -3713.898803460456, -2612.8071681031192, -10432.833186725758, -17720.999446034366, -0.386, 0.819, 0.316, 192.0, 121.5, 104.0, 12.5, 0.0, 4.5, 96.0, 0.0, 0.0, 0.0, 1.6730446770053248E9, 0.0, 2023-01-06 17:37:57.005
60.0, -18296.80273494753, -24768.817397215058, -31896.766352268023, -22327.738681762065, -8971.163209815408, -6529.14572109529, -18849.11434043817, -3746.3535364095615, -23180.59184319876, 5588.092576037953, -19091.69782301162, -24025.04074872026, -3721.207823897341, -2632.4096479904233, -10447.808855510815, -17735.863356097147, -0.386, 0.819, 0.316, 192.0, 0.0, 0.0, 0.0, 0.0, 0.0, 0.0, 0.0, 0.0, 0.0, 1.67304467700533E9, 0.0, 2023-01-06 17:37:57.005
62.0, -18279.256615550115, -24738.553135222573, -31887.44567483016, -22313.61237926631, -8901.224601414753, -6536.544148509997, -18780.00274658236, -3713.1835476378856, -23163.425703457084, 5614.1994135617515, -19084.72407874156, -24003.42661183198, -3702.7229312328022, -2591.7294730817644, -10430.173329135578, -17702.112221969634, -0.386, 0.819, 0.316, 192.0, 0.0, 0.0, 0.0, 0.0, 0.0, 0.0, 0.0, 0.0, 0.0, 1.673044677005335E9, 0.0, 2023-01-06 17:37:57.005
64.0, -18277.736696927153, -24725.633826927406, -31900.141465680776, -22336.47821384409, -8995.504259527237, -6497.875630602316, -18827.5449070388, -3789.760624141768, -23179.58601469827, 5615.92049788481, -19101.73375627205, -24009.528638068277, -3745.526521864715, -2633.0578485796273, -10419.623305752672, -17709.533001128795, -0.386, 0.819, 0.316, 192.0, 0.0, 0.0, 0.0, 0.0, 0.0, 0.0, 0.0, 0.0, 0.0, 1.6730446770053403E9, 0.0, 2023-01-06 17:37:57.005
66.0, -18260.570557185478, -24698.230588225197, -31889.613794042325, -22311.31014958741, -8961.44020097735, -6542.892043935304, -18842.095892679205, -3830.7090199838904, -23164.34212497975, 5625.554099745047, -19099.45387833761, -23983.5112075223, -3689.602457237537, -2613.94710707034, -10421.411445309097, -17731.728283372915, -0.386, 0.819, 0.316, 192.0, 0.0, 0.0, 0.0, 0.0, 0.0, 0.0, 0.0, 0.0, 0.0, 1.673044677005346E9, 0.0, 2023-01-06 17:37:57.005
68.0, -18230.105129492895, -24670.536776845074, -31865.96564840861, -22290.210102821602, -8932.449988418817, -6543.383782313322, -18843.63816304662, -3883.1909159649513, -23156.9660493095, 5648.30817560055, -19090.222607877567, -23962.67938168995, -3721.699562275358, -2580.061862476094, -10406.234610823944, -17716.484393654395, -0.388, 0.8155, 0.29800000000000004, 192.0, 121.5, 104.0, 12.5, 48.0, 4.0, 96.0, 0.0, 0.0, 0.0, 1.673044677005352E9, 0.0, 2023-01-06 17:37:57.005
70.0, -18273.534568969557, -24714.12267853292, -31920.481553135105, -22328.677455029185, -8926.772645327168, -6560.281701121534, -18883.3572129437, -3856.1229534295744, -23159.87177608869, 5622.044875865564, -19096.190523647132, -23948.64248617202, -3756.724745836824, -2653.5320465006885, -10425.524166288873, -17748.067408569743, -0.388, 0.8155, 0.29800000000000004, 192.0, 0.0, 0.0, 0.0, 0.0, 0.0, 0.0, 0.0, 0.0, 0.0, 1.6730446770053585E9, 0.0, 2023-01-06 17:37:57.005
72.0, -18251.115769280885, -24687.099419486454, -31876.58272702488, -22306.057489640414, -9004.489660798272, -6560.236997632623, -18897.103535783714, -3804.9598103713765, -23180.21186354302, 5611.718369927213, -19117.692901813138, -23972.469445761377, -3781.2446095042956, -2620.13854028446, -10419.846823197226, -17717.579629132706, -0.388, 0.8155, 0.29800000000000004, 192.0, 0.0, 0.0, 0.0, 0.0, 0.0, 0.0, 0.0, 0.0, 0.0, 1.6730446770053637E9, 0.0, 2023-01-06 17:37:57.005
74.0, -18258.536548440046, -24695.056640512543, -31918.93928276769, -22355.94658326466, -8995.079576382586, -6616.40693144881, -18984.36474613723, -4003.845632534699, -23159.49179643295, 5616.166367073818, -19107.187581919145, -23946.384959982035, -3775.9695978128434, -2643.943148129362, -10413.25305858291, -17761.299641287285, -0.388, 0.8155, 0.29800000000000004, 192.0, 0.0, 0.0, 0.0, 0.0, 0.0, 0.0, 0.0, 0.0, 0.0, 1.6730446770053692E9, 0.0, 2023-01-06 17:37:57.005
76.0, -18262.984545586653, -24685.98183226369, -31932.640902118794, -22349.19635643916, -9007.462442810827, -6557.82300923145, -18949.250155597943, -3744.3865828974945, -23184.011660100423, 5606.0410268355645, -19132.55681187592, -23979.644355731532, -3778.2494757472846, -2644.0102033627277, -10442.712657775004, -17763.132484332622, -0.388, 0.8155, 0.29800000000000004, 192.0, 0.0, 0.0, 0.0, 0.0, 0.0, 0.0, 0.0, 0.0, 0.0, 1.6730446770053744E9, 0.0, 2023-01-06 17:37:57.005
78.0, -18277.021441104585, -24692.150913733356, -31970.9964956041, -22389.25068250307, -9075.03176629922, -6604.381692931855, -19029.82819435933, -3707.6403150129695, -23186.671517690604, 5590.998302817143, -19144.224422481588, -23976.671573718977, -3834.754685730301, -2684.19863989337, -10444.366686864698, -17735.595135163683, -0.38, 0.80775, 0.268, 192.0, 122.0, 48.0, 12.5, 0.0, 3.5, 56.0, 0.0, 0.0, 0.0, 1.6730446770053797E9, 0.0, 2023-01-06 17:37:57.005
80.0, -18307.10688914143, -24703.550303405562, -31991.917728414268, -22395.598577928376, -9064.615853383048, -6673.001548409647, -19008.325816193323, -3737.681059560902, -23231.956151957056, 5552.9779854986655, -19184.54696947896, -24036.28367618128, -3915.511538447325, -2689.741872518286, -10506.146908539165, -17793.106173647186, -0.38, 0.80775, 0.268, 192.0, 0.0, 0.0, 0.0, 0.0, 0.0, 0.0, 0.0, 0.0, 0.0, 1.6730446770053852E9, 0.0, 2023-01-06 17:37:57.005
82.0, -18311.934865943775, -24706.299567973565, -31969.498928725596, -22387.082563290904, -9064.057059771665, -6635.74119040265, -19019.300522720878, -3740.989117740288, -23212.01839590292, 5551.033383731054, -19164.0727715579, -24020.391585873556, -3822.081246624142, -2685.6515032829648, -10448.278242144375, -17790.51337129037, -0.38, 0.80775, 0.268, 192.0, 0.0, 0.0, 0.0, 0.0, 0.0, 0.0, 0.0, 0.0, 0.0, 1.6730446770053904E9, 0.0, 2023-01-06 17:37:57.005
84.0, -18336.812357522533, -24715.79905936707, -31988.18498709023, -22391.307042992958, -9051.942414276888, -6613.747073858628, -19071.313032068378, -3774.6508448899804, -23233.610181046748, 5523.630145028847, -19175.11453331882, -24060.356504959644, -3940.6348992150906, -2718.2626984432577, -10459.945852750046, -17799.14114465012, -0.38, 0.80775, 0.268, 192.0, 0.0, 0.0, 0.0, 0.0, 0.0, 0.0, 0.0, 0.0, 0.0, 1.6730446770053957E9, 0.0, 2023-01-06 17:37:57.005
86.0, -18401.811230398565, -24767.632754758928, -32052.33449367696, -22452.3496571004, -9098.188173554918, -6702.192926668278, -19098.537456814942, -3823.75762745829, -23253.525585356427, 5480.2454090410965, -19207.36810056783, -24097.90743564456, -3909.655381400035, -2747.677594146442, -10498.212039257533, -17851.600688886727, -0.38, 0.80775, 0.268, 192.0, 0.0, 0.0, 0.0, 0.0, 0.0, 0.0, 0.0, 0.0, 0.0, 1.673044677005401E9, 0.0, 2023-01-06 17:37:57.005
88.0, -18389.674233159334, -24745.772748681637, -32018.024565938067, -22410.01545310205, -9120.696380221412, -6634.400085735332, -19099.990320204535, -3791.74992939829, -23296.530341688438, 5431.585661361893, -19236.76064452656, -24156.044322972815, -3995.0166934748527, -2779.1041468506037, -10519.155623812154, -17872.946604841545, -0.36, 0.8238749999999999, 0.23800000000000002, 192.0, 122.5, 48.0, 13.0, 32.0, 3.0, 64.0, 0.0, 0.0, 0.0, 1.6730446770054064E9, 0.0, 2023-01-06 17:37:57.005
90.0, -18475.88491152345, -24827.714243854793, -32117.69099446428, -22506.999672293627, -9193.205439234429, -6797.411358047886, -19200.2825975755, -3902.100491774141, -23310.053147083898, 5402.461338336628, -19250.95400225568, -24173.322221436767, -4046.9174441000755, -2810.8436239771395, -10525.168243070631, -17889.06221259382, -0.36, 0.8238749999999999, 0.23800000000000002, 192.0, 0.0, 0.0, 0.0, 0.0, 0.0, 0.0, 0.0, 0.0, 0.0, 1.6730446770054116E9, 0.0, 2023-01-06 17:37:57.005
92.0, -18437.730483738243, -24781.692002021315, -32063.510365904614, -22457.44585483621, -9107.061816103676, -6692.626380041406, -19190.648995715263, -3787.1901735294073, -23352.521461548982, 5342.402200985218, -19294.226979521154, -24243.32788507079, -4140.928881279097, -2821.1701299154915, -10570.117601170256, -17924.64618976667, -0.36, 0.8238749999999999, 0.23800000000000002, 192.0, 0.0, 0.0, 0.0, 0.0, 0.0, 0.0, 0.0, 0.0, 0.0, 1.673044677005417E9, 0.0, 2023-01-06 17:37:57.005
94.0, -18441.93261169584, -24772.661897261372, -32071.24406948615, -22504.585683892452, -9090.56622869566, -6758.944005840302, -19190.581940481894, -3815.174557587452, -23335.176507851662, 5353.287500534952, -19264.52151114005, -24230.07330060879, -4131.138817207672, -2820.32076362619, -10533.08076060781, -17900.34984354375, -0.36, 0.8238749999999999, 0.23800000000000002, 192.0, 0.0, 0.0, 0.0, 0.0, 0.0, 0.0, 0.0, 0.0, 0.0, 1.6730446770054224E9, 0.0, 2023-01-06 17:37:57.005
96.0, -18443.6536960189, -24754.579335997027, -32059.799976325034, -22518.55552417702, -9120.696380221412, -6727.696267091784, -19186.93860613568, -3816.2921448102175, -23331.510821760992, 5355.880302891767, -19244.717865552648, -24236.152975100635, -4146.874445304209, -2805.4121500745, -10527.649286705171, -17892.236160306475, -0.36, 0.8238749999999999, 0.23800000000000002, 192.0, 0.0, 0.0, 0.0, 0.0, 0.0, 0.0, 0.0, 0.0, 0.0, 1.6730446770054276E9, 0.0, 2023-01-06 17:37:57.005
98.0, -18453.68962927933, -24757.418007542852, -32072.227546242186, -22549.93737339227, -9022.885146484989, -6773.629101947439, -19169.392486738263, -3808.5137377397705, -23331.175545594164, 5327.247718244519, -19255.156130213276, -24248.692303740063, -4224.569109030856, -2845.3323656716784, -10526.710513438049, -17913.179744861096, -0.33499999999999996, 0.8559375, 0.20900000000000002, 192.0, 123.0, 40.0, 13.5, 96.0, 2.5, 80.0, 0.0, 0.0, 0.0, 1.673044677005433E9, 0.0, 2023-01-06 17:37:57.005
100.0, -18458.674068292865, -24755.71927496425, -32054.68142684477, -22548.395103024854, -9226.420131495015, -6668.866475685415, -19228.55755431146, -3800.042426591209, -23340.496223032027, 5289.920305004157, -19257.32424942544, -24273.23451915199, -4166.029890302407, -2899.9823808649044, -10548.883443937713, -17926.188460134086, -0.33499999999999996, 0.8559375, 0.20900000000000002, 192.0, 0.0, 0.0, 0.0, 0.0, 0.0, 0.0, 0.0, 0.0, 0.0, 1.6730446770054383E9, 0.0, 2023-01-06 17:37:57.005
102.0, -18475.6613940789, -24756.07690287553, -32074.127444520887, -22537.532155219575, -9014.167966147419, -6748.796313857593, -19224.91421996525, -3810.972429629854, -23346.128862634763, 5275.771650763947, -19263.113351239368, -24287.874911770217, -4271.016034008984, -2919.1378258631025, -10538.445179277085, -17929.69768401357, -0.33499999999999996, 0.8559375, 0.20900000000000002, 192.0, 0.0, 0.0, 0.0, 0.0, 0.0, 0.0, 0.0, 0.0, 0.0, 1.6730446770054448E9, 0.0, 2023-01-06 17:37:57.005
104.0, -18443.36312334098, -24708.020652296622, -32030.228618410663, -22515.359224719912, -9039.514844359737, -6658.897597658348, -19198.539161507986, -3678.761861176713, -23340.317409076382, 5271.904798973179, -19256.921918025248, -24283.024583223414, -4356.9361396951845, -2906.8443664126835, -10526.218775060031, -17889.978634116487, -0.33499999999999996, 0.8559375, 0.20900000000000002, 192.0, 0.0, 0.0, 0.0, 0.0, 0.0, 0.0, 0.0, 0.0, 0.0, 1.67304467700545E9, 0.0, 2023-01-06 17:37:57.005
106.0, -18441.999666929205, -24720.73879489169, -32041.471545871682, -22539.052073842537, -9072.304853475673, -6561.846323233405, -19259.358258170876, -3677.9348466318665, -23332.874278172767, 5279.839668254813, -19255.67022033575, -24299.229597953512, -4305.370665236791, -2948.977404710937, -10550.895100938691, -17903.054404622842, -0.33499999999999996, 0.8559375, 0.20900000000000002, 192.0, 0.0, 0.0, 0.0, 0.0, 0.0, 0.0, 0.0, 0.0, 0.0, 1.6730446770054553E9, 0.0, 2023-01-06 17:37:57.005
108.0, -18445.59829778651, -24719.151821035364, -32027.836981753946, -22527.093890558946, -9140.880005464554, -6636.121170058391, -19268.455418164187, -3695.1680416069084, -23341.122071876773, 5302.772558065958, -19259.090037237413, -24292.166446705636, -4400.432634405212, -2884.894953357572, -10556.32657484133, -17899.187552832074, -0.2985, 0.8769687500000001, 0.1965, 192.0, 123.5, 104.0, 14.0, 8.0, 2.5, 96.0, 0.0, 0.0, 0.0, 1.6730446770054605E9, 0.0, 2023-01-06 17:37:57.005
110.0, -18435.11532963697, -24699.34817544796, -32039.459888870704, -22553.04426587156, -8916.021456244165, -6608.695579611729, -19241.610973073362, -3665.149648803431, -23334.640065984735, 5322.665610631181, -19243.935554496715, -24303.163504977645, -4444.152646559793, -2919.5178055188426, -10512.60656268675, -17887.16231431512, -0.2985, 0.8769687500000001, 0.1965, 192.0, 0.0, 0.0, 0.0, 0.0, 0.0, 0.0, 0.0, 0.0, 0.0, 1.6730446770054655E9, 0.0, 2023-01-06 17:37:57.005
112.0, -18396.11153556246, -24683.36667816242, -32002.400696563807, -22547.433978013276, -9142.086999665142, -6605.49928015462, -19273.417505433263, -3610.47728186575, -23353.81786272739, 5331.136921779743, -19249.367028399352, -24305.264568956445, -4518.762769551608, -2888.3594737481444, -10541.75323745647, -17902.562666244827, -0.2985, 0.8769687500000001, 0.1965, 192.0, 0.0, 0.0, 0.0, 0.0, 0.0, 0.0, 0.0, 0.0, 0.0, 1.6730446770054712E9, 0.0, 2023-01-06 17:37:57.005
114.0, -18392.468201216245, -24705.1819807508, -32027.881685242857, -22606.084955464, -9229.079989085198, -6484.486935673587, -19333.320180573486, -3582.1352698964206, -23301.6488911687, 5377.695605480148, -19200.439059786684, -24298.1343624752, -4542.299156463046, -2890.058206326748, -10518.641533689683, -17876.09820080974, -0.2985, 0.8769687500000001, 0.1965, 192.0, 0.0, 0.0, 0.0, 0.0, 0.0, 0.0, 0.0, 0.0, 0.0, 1.6730446770054765E9, 0.0, 2023-01-06 17:37:57.005
116.0, -18433.729521480742, -24733.07695783102, -32092.902909863344, -22682.125590100957, -8958.892102109445, -6258.488447485977, -19441.860251648457, -3594.406377602384, -23359.62931628577, 5304.784215066936, -19262.062819249968, -24373.549148267408, -4607.789767717096, -3047.8168186923053, -10622.107758773298, -17976.770457836446, -0.2985, 0.8769687500000001, 0.1965, 192.0, 0.0, 0.0, 0.0, 0.0, 0.0, 0.0, 0.0, 0.0, 0.0, 1.6730446770054824E9, 0.0, 2023-01-06 17:37:57.005
118.0, -18413.61295147097, -24704.623187139416, -32075.088569532465, -22628.593162130495, -9056.815094568145, -6355.047983532904, -19596.78019246819, -3784.2844467502177, -23380.081162462375, 5359.791858171447, -19256.027848247035, -24403.053450948413, -4703.790510152639, -2957.135791437124, -10650.695639931637, -17954.753989547968, -0.28825, 0.8874843750000001, 0.19225, 192.0, 123.5, 40.0, 14.0, 8.0, 2.5, 112.0, 0.0, 0.0, 0.0, 1.673044677005488E9, 0.0, 2023-01-06 17:37:57.005
120.0, -18372.23987248419, -24651.291924869052, -31977.389094518316, -22533.710006917718, -9107.397092270505, -6427.579394290376, -19275.138589756323, -3483.1393937038656, -23346.821766712877, 5401.20964064713, -19213.783051226503, -24389.709459508595, -4643.820779779051, -2857.4023076775443, -10565.937824957113, -17955.066913970342, -0.28825, 0.8874843750000001, 0.19225, 192.0, 0.0, 0.0, 0.0, 0.0, 0.0, 0.0, 0.0, 0.0, 0.0, 1.6730446774857507E9, 0.0, 2023-01-06 17:37:57.485
122.0, -18278.206083560715, -24549.09974921939, -31903.091895948877, -22480.892834769827, -9098.389339255016, -6317.7652737814515, -19241.208641673165, -3339.8647117453474, -23322.57012397887, 5472.824629881934, -19119.145765202735, -24358.126444593247, -4541.963880296216, -2761.5356757087325, -10400.512564243385, -17781.975004908443, -0.28825, 0.8874843750000001, 0.19225, 192.0, 0.0, 0.0, 0.0, 0.0, 0.0, 0.0, 0.0, 0.0, 0.0, 1.6730446774858143E9, 0.0, 2023-01-06 17:37:57.485
124.0, -18245.885461078342, -24496.90842591625, -31889.703201020147, -22461.02213394906, -8994.029044393188, -6134.592727970211, -19287.29793874001, -3316.1048073893558, -23361.73038026457, 5516.097607147409, -19085.215817119577, -24329.315045990355, -4528.843406300951, -2764.329643765646, -10429.569832035284, -17810.205258155496, -0.28825, 0.8874843750000001, 0.19225, 192.0, 0.0, 0.0, 0.0, 0.0, 0.0, 0.0, 0.0, 0.0, 0.0, 1.6730446774858325E9, 0.0, 2023-01-06 17:37:57.485
126.0, -18229.389873670327, -24448.002809048037, -31865.384503052774, -22409.680176935217, -8991.369186803006, -6014.653267223033, -19328.134575859855, -3267.109783543323, -23221.897866952168, 5615.004076362143, -19003.676653346618, -24297.128533974712, -4547.976499554694, -2707.3997506379787, -10414.638866739138, -17773.682507715526, -0.28825, 0.8874843750000001, 0.19225, 192.0, 0.0, 0.0, 0.0, 0.0, 0.0, 0.0, 0.0, 0.0, 0.0, 1.6730446774859025E9, 0.0, 2023-01-06 17:37:57.485
128.0, -18282.117638840395, -24472.74619016006, -31922.135582224797, -22424.43232827572, -9138.510720552293, -6053.210026408437, -19455.003077388177, -3321.066894658434, -23288.349603217794, 5613.148881572352, -19039.595906686296, -24233.090786110257, -4498.757958264107, -2770.3869665130337, -10459.208245183021, -17794.156705636586, -0.28825, 0.8874843750000001, 0.19225, 192.0, 0.0, 0.0, 0.0, 0.0, 0.0, 0.0, 0.0, 0.0, 0.0, 1.673044677485934E9, 0.0, 2023-01-06 17:37:57.485
130.0, -18306.48104029668, -24460.452730709643, -31944.152050513276, -22400.538313453, -9036.229137924807, -5989.932237855463, -19513.63170309445, -3372.4982586500955, -23318.47975474355, 5606.242192535662, -19052.42580800364, -24216.30462602432, -4505.396426367334, -2807.1779378864694, -10471.255835444432, -17828.131357208655, -0.298, 1.004, 0.148, 192.0, 123.0, 88.0, 15.5, 48.0, 2.0, 80.0, 0.0, 0.0, 0.0, 1.6730446774859776E9, 0.0, 2023-01-06 17:37:57.485
132.0, -18363.612099124446, -24525.09397567439, -32024.81949625248, -22449.041598921016, -9023.376884863006, -5923.055818445185, -19617.164983411432, -3458.4407160807514, -23396.57674987039, 5563.528008881571, -19121.224477437077, -24232.487289009965, -4673.459192926788, -2849.7133075849188, -10542.04381013439, -17877.282843265875, -0.298, 1.004, 0.148, 192.0, 0.0, 0.0, 0.0, 0.0, 0.0, 0.0, 0.0, 0.0, 0.0, 1.6730446774859836E9, 0.0, 2023-01-06 17:37:57.485
134.0, -18317.20987763523, -24472.83559713788, -31997.215091850176, -22502.618730380385, -9124.719694223368, -5674.54912359108, -19672.686716638415, -3416.9782301161567, -23398.454296404638, 5546.294813906528, -19109.914494742694, -24263.66797252512, -4568.137773053381, -2867.9746828049047, -10529.526833239417, -17888.950453871545, -0.298, 1.004, 0.148, 192.0, 0.0, 0.0, 0.0, 0.0, 0.0, 0.0, 0.0, 0.0, 0.0, 1.6730446774859972E9, 0.0, 2023-01-06 17:37:57.485
136.0, -18361.846311312474, -24505.402088809264, -32067.265458973106, -22600.09468794998, -9156.101543438619, -5651.571530291025, -19737.305609858708, -3460.251207381631, -23415.933360568688, 5568.981834528665, -19119.659855325208, -24258.41531257812, -4575.9385318682835, -2848.081630239681, -10556.907720197169, -17909.871686681712, -0.298, 1.004, 0.148, 192.0, 0.0, 0.0, 0.0, 0.0, 0.0, 0.0, 0.0, 0.0, 0.0, 1.673044677486004E9, 0.0, 2023-01-06 17:37:57.486
138.0, -18374.586805652, -24516.17562963672, -32075.513252677116, -22615.830316046515, -9021.320524373117, -5502.552450007493, -19735.29395285773, -3442.5933292619384, -23488.442419581705, 5517.081083903442, -19176.634451941783, -24331.66197915816, -4664.87612305595, -2914.890994416594, -10621.48190992855, -17941.342942874784, -0.298, 1.004, 0.148, 192.0, 0.0, 0.0, 0.0, 0.0, 0.0, 0.0, 0.0, 0.0, 0.0, 1.6730446774860103E9, 0.0, 2023-01-06 17:37:57.486
140.0, -18371.032878283608, -24506.43026905421, -32063.353903693427, -22605.257940919157, -8972.191390060352, -5565.1820379712635, -19780.69034584646, -3470.3988993643407, -23472.192701362696, 5537.309412635495, -19153.388637708264, -24265.94785045956, -4550.524598422599, -2876.982435820393, -10612.563563890883, -17905.35663430174, -0.264, 1.016, 0.244, 192.0, 123.5, 96.0, 15.5, 96.0, 3.5, 80.0, 0.0, 0.0, 0.0, 1.6730446774860165E9, 0.0, 2023-01-06 17:37:57.486
142.0, -18389.629529670423, -24509.26894060003, -32085.750351637646, -22689.993404149223, -9213.97020983341, -5473.472830471138, -19851.992410658888, -3484.8828297713794, -23455.16067208775, 5511.537851278526, -19153.478044686086, -24289.640699582185, -4516.549946850532, -2841.532569114276, -10599.532496873439, -17926.233163622997, -0.264, 1.016, 0.244, 192.0, 0.0, 0.0, 0.0, 0.0, 0.0, 0.0, 0.0, 0.0, 0.0, 1.6730446774860227E9, 0.0, 2023-01-06 17:37:57.486
144.0, -18377.313718475547, -24515.706243003162, -32139.55100054157, -22739.30135241763, -9185.136459486062, -5426.31064967044, -19889.900969255086, -3492.3036089305415, -23504.423916867247, 5473.785754893513, -19193.1300393498, -24346.43648224312, -4557.654804903842, -2893.5003749728653, -10663.503189504527, -18011.817993142366, -0.264, 1.016, 0.244, 192.0, 0.0, 0.0, 0.0, 0.0, 0.0, 0.0, 0.0, 0.0, 0.0, 1.673044677486029E9, 0.0, 2023-01-06 17:37:57.486
146.0, -18332.364360375926, -24504.977405664613, -32118.31684330903, -22717.039014940146, -9088.241647272307, -5423.78490254699, -19896.248864680394, -3456.049079424033, -23466.35889605986, 5507.000447154099, -19144.49264341505, -24272.13928367368, -4524.015429498605, -2861.5820838906866, -10625.326409974863, -17983.99007129551, -0.264, 1.016, 0.244, 192.0, 0.0, 0.0, 0.0, 0.0, 0.0, 0.0, 0.0, 0.0, 0.0, 1.673044677486035E9, 0.0, 2023-01-06 17:37:57.486
148.0, -18331.38088361989, -24499.61298699534, -32111.99129962818, -22714.937950961346, -9143.539863054737, -5413.033713463988, -19867.07983816622, -3473.908123243824, -23482.452152067683, 5508.453310543694, -19142.1680619917, -24243.79727170435, -4541.203920984736, -2851.1438192300584, -10652.036744598956, -18001.066804059363, -0.264, 1.016, 0.244, 192.0, 0.0, 0.0, 0.0, 0.0, 0.0, 0.0, 0.0, 0.0, 0.0, 1.6730446774860413E9, 0.0, 2023-01-06 17:37:57.486
150.0, -18388.40018372538, -24538.214449669656, -32144.98247444421, -22739.100186717533, -9231.024590852809, -5418.174614688709, -19955.279821786862, -3479.3619488909185, -23504.066288955964, 5468.533094946515, -19158.797759866447, -24249.18404211808, -4545.629566386887, -2855.256540209835, -10651.25443354302, -18013.337911765328, -0.246, 0.972, 0.106, 192.0, 124.0, 40.0, 15.0, 48.0, 1.5, 40.0, 0.0, 0.0, 0.0, 1.6730446774860473E9, 0.0, 2023-01-06 17:37:57.486
152.0, -18380.711183632753, -24526.859763486358, -32120.999052643667, -22670.905014384392, -9120.338752310128, -5353.265148790497, -19910.643388109613, -3460.6982422707374, -23519.421937396757, 5411.9831814745885, -19196.9298359072, -24285.147998946668, -4574.642130689876, -2932.4818173029207, -10720.030751232, -18037.99188589953, -0.246, 0.972, 0.106, 192.0, 0.0, 0.0, 0.0, 0.0, 0.0, 0.0, 0.0, 0.0, 0.0, 1.6730446774860535E9, 0.0, 2023-01-06 17:37:57.486
154.0, -18364.103837502462, -24509.112478388844, -32111.141933338873, -22636.885659323416, -9049.081390986608, -5331.181625268653, -19926.37901620615, -3448.471838053684, -23506.927312246244, 5377.963826413611, -19182.445905500164, -24263.08682716928, -4558.481819448688, -2865.1136595146254, -10682.010433913521, -17997.870504602255, -0.246, 0.972, 0.106, 192.0, 0.0, 0.0, 0.0, 0.0, 0.0, 0.0, 0.0, 0.0, 0.0, 1.6730446774860597E9, 0.0, 2023-01-06 17:37:57.486
156.0, -18320.070900925508, -24465.75009414555, -32109.085572848988, -22667.373438760453, -9126.440778546426, -5252.861112697257, -19990.752040237432, -3576.189705871309, -23470.516320528546, 5406.6411145497705, -19140.35757069082, -24261.74572250196, -4526.429417899778, -2840.3032231692346, -10668.39822154024, -17988.728641120033, -0.246, 0.972, 0.106, 192.0, 0.0, 0.0, 0.0, 0.0, 0.0, 0.0, 0.0, 0.0, 0.0, 1.6730446774860659E9, 0.0, 2023-01-06 17:37:57.486
158.0, -18332.18554642028, -24473.640259938275, -32129.671529492323, -22666.211148048777, -9075.299987232684, -5213.969077345023, -19964.891071902643, -3400.8849741083354, -23507.84373376891, 5371.884151921768, -19153.187472008165, -24263.489158569475, -4580.185363314791, -2886.928962103005, -10708.229030159597, -18085.176418444684, -0.246, 0.972, 0.106, 192.0, 0.0, 0.0, 0.0, 0.0, 0.0, 0.0, 0.0, 0.0, 0.0, 1.673044677486072E9, 0.0, 2023-01-06 17:37:57.486
160.0, -18295.39457504685, -24447.4216636922, -32106.425715258803, -22597.568940826528, -8980.238018064263, -5230.732885686503, -19913.347949188705, -3360.8529997888804, -23479.144093888295, 5400.762605758025, -19106.762898774494, -24213.756527156416, -4518.539252107054, -2843.544226115254, -10675.64018674376, -17952.250594168974, -0.158, 0.994, 0.082, 192.0, 125.5, 8.0, 15.5, 8.0, 1.0, 72.0, 0.0, 0.0, 0.0, 1.6730446774860783E9, 0.0, 2023-01-06 17:37:57.486
162.0, -18306.34692982995, -24463.64903016675, -32096.233319787185, -22614.824487546026, -9103.597295713103, -5165.130515710177, -19969.674345216077, -3399.655628163294, -23531.402472424805, 5346.939605109645, -19153.83567259737, -24222.160783071613, -4622.29604986859, -2896.026122096315, -10720.097806465365, -18004.71013840558, -0.158, 0.994, 0.082, 192.0, 0.0, 0.0, 0.0, 0.0, 0.0, 0.0, 0.0, 0.0, 0.0, 1.6730446774860845E9, 0.0, 2023-01-06 17:37:57.486
164.0, -18267.454894477713, -24423.72881456957, -32083.44812195875, -22586.013088943135, -9120.159938354485, -5160.369594141197, -19989.165066381105, -3414.1172068258775, -23508.871914013853, 5390.123175397298, -19104.371262117776, -24196.478628692465, -4508.056283957516, -2863.861961825128, -10628.857985598801, -17972.613033367757, -0.158, 0.994, 0.082, 192.0, 0.0, 0.0, 0.0, 0.0, 0.0, 0.0, 0.0, 0.0, 0.0, 1.6730446774860904E9, 0.0, 2023-01-06 17:37:57.486
166.0, -18290.387784288858, -24452.607268405827, -32112.63950021738, -22609.482420621207, -9216.920640101509, -5213.0526558223555, -20045.20088973056, -3450.572902032483, -23513.141097204818, 5354.494494735539, -19145.386713193264, -24193.841122846738, -4604.48170953771, -2861.7832495907846, -10725.59633560137, -18000.865638359268, -0.158, 0.994, 0.082, 192.0, 0.0, 0.0, 0.0, 0.0, 0.0, 0.0, 0.0, 0.0, 0.0, 1.6730446774860983E9, 0.0, 2023-01-06 17:37:57.486
168.0, -18275.881502137363, -24430.30022743943, -32101.73184892319, -22577.31826035002, -8990.788041447167, -5131.088808904745, -19944.305115259303, -3414.743055670626, -23483.010945679063, 5365.11157335181, -19127.08063448437, -24193.572901913274, -4606.068683394037, -2900.3400087761893, -10718.510832609038, -17961.772437306936, -0.158, 0.994, 0.082, 192.0, 0.0, 0.0, 0.0, 0.0, 0.0, 0.0, 0.0, 0.0, 0.0, 1.6730446774861045E9, 0.0, 2023-01-06 17:37:57.486
170.0, -18314.170040389305, -24465.79479763446, -32116.349889796962, -22606.71080430875, -9156.258005649806, -5167.8574285337245, -20002.91138922112, -3492.504774630639, -23499.685347042723, 5352.594596456837, -19153.902727830737, -24176.160892982592, -4652.761477561174, -2898.6859796864965, -10736.526338640017, -17995.210647012074, -0.166, 1.042, 0.054, 192.0, 125.0, 104.0, 16.0, 72.0, 0.5, 88.0, 0.0, 0.0, 0.0, 1.6730446774861104E9, 0.0, 2023-01-06 17:37:57.486
172.0, -18313.85711596693, -24462.710256899627, -32103.855264646445, -22594.730269280706, -9120.495214521316, -5176.97694027149, -19982.683060489067, -3480.7254053026923, -23496.779620263533, 5353.309852279407, -19151.13111151828, -24200.412535716598, -4542.455618674233, -2844.0359644932705, -10713.9287249957, -17982.447800928094, -0.166, 1.042, 0.054, 192.0, 0.0, 0.0, 0.0, 0.0, 0.0, 0.0, 0.0, 0.0, 0.0, 1.6730446774861164E9, 0.0, 2023-01-06 17:37:57.486
174.0, -18334.264258654628, -24473.50614947154, -32139.17102088583, -22648.955601329282, -9060.592539381092, -5166.225751188487, -20018.356444639736, -3491.2977804300526, -23604.470325049202, 5245.1050573712655, -19203.99298715508, -24222.5184109829, -4684.232733754246, -2927.787950967306, -10723.69643732267, -18005.537152950426, -0.166, 1.042, 0.054, 192.0, 0.0, 0.0, 0.0, 0.0, 0.0, 0.0, 0.0, 0.0, 0.0, 1.6730446774861224E9, 0.0, 2023-01-06 17:37:57.486
176.0, -18293.315862812506, -24419.571390100886, -32073.523947420592, -22600.586426327995, -9093.807231641678, -5139.582471797761, -19947.277897271862, -3483.8099460375247, -23461.083884368407, 5387.418614318206, -19130.96983801959, -24170.34943942421, -4540.332202950979, -2813.637592034053, -10688.44773631665, -17978.93857704861, -0.166, 1.042, 0.054, 192.0, 0.0, 0.0, 0.0, 0.0, 0.0, 0.0, 0.0, 0.0, 0.0, 1.673044677486129E9, 0.0, 2023-01-06 17:37:57.486
178.0, -18345.44013088228, -24475.830730894893, -32148.894029723888, -22686.797104692116, -9071.768411608746, -5206.145966785666, -20016.925932994596, -3554.3296997940183, -23602.369261070402, 5181.581399629284, -19195.834600428894, -24201.50777119491, -4586.197982573269, -2881.7657091338288, -10731.787768815491, -18033.052150374908, -0.166, 1.042, 0.054, 192.0, 0.0, 0.0, 0.0, 0.0, 0.0, 0.0, 0.0, 0.0, 0.0, 1.6730446774861352E9, 0.0, 2023-01-06 17:37:57.486
180.0, -18320.383825347883, -24445.901745069237, -32100.368392511416, -22634.2928569666, -8884.66195877337, -5248.793095206392, -20018.15527893964, -3594.2946188801075, -23413.318206467415, 5345.665555675692, -19146.236079482565, -24174.77508482636, -4584.320436039024, -2834.692935310952, -10732.413617660239, -18046.574955770368, -0.20400000000000001, 1.038, 0.034, 192.0, 124.5, 80.0, 16.0, 56.0, 0.5, 8.0, 0.0, 0.0, 0.0, 1.6730446774861412E9, 0.0, 2023-01-06 17:37:57.486
182.0, -18334.599534821456, -24485.196111821668, -32100.43544774478, -22681.008002878192, -9163.209398175406, -5157.575626084284, -20018.401148128647, -3547.0653828460436, -23546.936934821242, 5078.137526290122, -19187.206827069145, -24231.883791909673, -4641.317384400057, -2916.5450235062867, -10747.70221086767, -18043.66922899118, -0.20400000000000001, 1.038, 0.034, 192.0, 0.0, 0.0, 0.0, 0.0, 0.0, 0.0, 0.0, 0.0, 0.0, 1.6730446774861474E9, 0.0, 2023-01-06 17:37:57.486
184.0, -18334.957162732742, -24424.265256436498, -32127.659872491346, -22617.931380025315, -8885.399566340395, -5173.110088480722, -20013.886095748676, -3569.350072067985, -23493.069230683952, 5396.806346989435, -19137.92123054519, -24158.279497418345, -4503.3847693663565, -2824.4334846059664, -10711.961771483633, -18009.94044660812, -0.20400000000000001, 1.038, 0.034, 192.0, 0.0, 0.0, 0.0, 0.0, 0.0, 0.0, 0.0, 0.0, 0.0, 1.6730446774861536E9, 0.0, 2023-01-06 17:37:57.486
186.0, -18468.195911430827, -24573.217281486664, -32238.546876734126, -22738.20611693932, -9210.840965609666, -5303.644276099715, -20056.220299747027, -3649.9728143182774, -23767.950983995317, 5235.382048533207, -19259.693534337704, -24208.615625931696, -4698.35903625, -2893.634485439597, -10757.805199361468, -18043.021028401974, -0.20400000000000001, 1.038, 0.034, 192.0, 0.0, 0.0, 0.0, 0.0, 0.0, 0.0, 0.0, 0.0, 0.0, 1.6730446774861596E9, 0.0, 2023-01-06 17:37:57.486
188.0, -18460.84218750503, -24564.34363893791, -32307.412601400927, -22769.476207432297, -9211.802090621244, -5296.894049274212, -20078.08030582432, -3620.0661802370764, -23971.396562027523, 4779.048833733658, -19432.45016723277, -24386.848436218315, -4557.453639203744, -2956.4205356145544, -10797.636007980826, -18080.214331175608, -0.20400000000000001, 1.038, 0.034, 192.0, 0.0, 0.0, 0.0, 0.0, 0.0, 0.0, 0.0, 0.0, 0.0, 1.673044677486166E9, 0.0, 2023-01-06 17:37:57.486
190.0, -18355.833692054, -24518.09787965988, -32173.190375946808, -22745.246916442742, -8919.642438845925, -5050.443714909997, -20034.561459369834, -3608.2421074202193, -23429.54557294197, 5175.5464286263505, -19252.76449355656, -24260.717542257018, -4481.547115033522, -2923.4517125429766, -10777.094754826398, -18046.53025228146, -0.20400000000000001, 1.032, 0.038, 192.0, 124.5, 80.0, 16.0, 32.0, 0.5, 24.0, 0.0, 0.0, 0.0, 1.673044677486172E9, 0.0, 2023-01-06 17:37:57.486
192.0, -18470.31932715408, -24603.101563823413, -32350.64087517749, -22813.33033005361, -8963.273044022686, -5379.617855503304, -20062.322325983325, -3737.7704665387237, -23617.501392066646, 4754.663080532919, -19330.615619494394, -24395.096229922325, -4596.546840256076, -3006.756664127906, -10836.013953210588, -18095.7711453165, -0.20400000000000001, 1.032, 0.038, 192.0, 0.0, 0.0, 0.0, 0.0, 0.0, 0.0, 0.0, 0.0, 0.0, 1.6730446774861784E9, 0.0, 2023-01-06 17:37:57.486
194.0, -18270.71824916819, -24381.57342452686, -32117.154552597352, -22663.595993947507, -9086.833487371623, -5249.7989237068805, -20059.282488737404, -3624.5141773836826, -23438.64273293528, 5242.601661992271, -19260.72171458265, -24273.90507148565, -4482.93292318975, -2716.4969106312888, -10775.127801314331, -18043.512766779993, -0.20400000000000001, 1.032, 0.038, 192.0, 0.0, 0.0, 0.0, 0.0, 0.0, 0.0, 0.0, 0.0, 0.0, 1.6730446774861844E9, 0.0, 2023-01-06 17:37:57.486
196.0, -18160.255928070063, -24250.45809155203, -31988.38615279033, -22554.407722283333, -8877.777621481137, -5050.175493976533, -19928.435376696038, -3460.027689937078, -23186.78327641288, 5613.886489139377, -19058.21490981757, -24091.671298941532, -4513.84538577144, -2633.0802003240824, -10703.848088246357, -17972.143646734195, -0.20400000000000001, 1.032, 0.038, 192.0, 0.0, 0.0, 0.0, 0.0, 0.0, 0.0, 0.0, 0.0, 0.0, 1.6730446774861903E9, 0.0, 2023-01-06 17:37:57.486
198.0, -18191.078983673928, -24298.93902527559, -31975.109216583875, -22640.104310524977, -9039.917175759932, -5078.428098968041, -20000.318586864305, -3500.4396439122734, -23181.68707867707, 5535.633031801347, -19016.171278497135, -24069.610127164142, -4434.787265633019, -2631.1803020453817, -10620.878412828257, -17910.139907615176, -0.20400000000000001, 1.032, 0.038, 192.0, 0.0, 0.0, 0.0, 0.0, 0.0, 0.0, 0.0, 0.0, 0.0, 1.673044677486198E9, 0.0, 2023-01-06 17:37:57.486
200.0, -18261.03994381904, -24369.794055198916, -32072.138139264363, -22680.136284844433, -9088.8451443726, -5097.270619543865, -19948.28372577235, -3497.712731088726, -23479.725239244133, 5356.0144133585, -19134.389654921255, -24129.669264515553, -4440.196387791203, -2665.356119317546, -10704.83156500239, -17980.36908869375, -0.181, 0.972, 0.013999999999999999, 192.0, 125.5, 8.0, 14.0, 64.0, 127.5, 88.0, 0.0, 0.0, 0.0, 1.673044677486204E9, 0.0, 2023-01-06 17:37:57.486
202.0, -18144.72146567362, -24250.793367718863, -32003.76415297558, -22582.41445808583, -8989.849268180045, -5144.455152089018, -19892.382012889626, -3478.244361668153, -23283.096943270797, 5544.439619116738, -19084.947596186114, -24057.875461325108, -4368.581398556399, -2555.5419988086223, -10666.788895939457, -17924.579134533302, -0.181, 0.972, 0.013999999999999999, 192.0, 0.0, 0.0, 0.0, 0.0, 0.0, 0.0, 0.0, 0.0, 0.0, 1.67304467748621E9, 0.0, 2023-01-06 17:37:57.486
204.0, -18290.544246500045, -24413.78228828696, -32136.22059061773, -22726.940837733848, -9011.396349834962, -5176.97694027149, -19975.32933656327, -3509.3579899499405, -23218.96978842852, 5574.346253197939, -19045.362656755766, -24007.13700141156, -4386.976884243118, -2573.9821879842507, -10674.567303009904, -17931.64228578118, -0.181, 0.972, 0.013999999999999999, 192.0, 0.0, 0.0, 0.0, 0.0, 0.0, 0.0, 0.0, 0.0, 0.0, 1.6730446774862163E9, 0.0, 2023-01-06 17:37:57.486
206.0, -18310.571409532, -24450.59561140485, -32164.696713053792, -22773.99125981227, -8985.289512311163, -5160.25783541892, -19988.42745881408, -3511.5708126510162, -23569.75806591011, 4987.277685079299, -19283.587549160427, -24265.970202204015, -4474.841591696929, -2746.5600069236766, -10790.639911966315, -18048.988944171542, -0.181, 0.972, 0.013999999999999999, 192.0, 0.0, 0.0, 0.0, 0.0, 0.0, 0.0, 0.0, 0.0, 0.0, 1.6730446774862225E9, 0.0, 2023-01-06 17:37:57.486
208.0, -18329.324523130002, -24406.40621261671, -32155.97953271622, -22726.40439586692, -8989.670454224402, -5161.062498219311, -20014.33313063778, -3521.494987189172, -23370.492264091048, 5348.414820243695, -19157.70252438814, -24127.322331347747, -4369.453116590156, -2639.003412604739, -10757.693440639192, -18009.202839041096, -0.181, 0.972, 0.013999999999999999, 192.0, 0.0, 0.0, 0.0, 0.0, 0.0, 0.0, 0.0, 0.0, 0.0, 1.6730446774862285E9, 0.0, 2023-01-06 17:37:57.486
210.0, -18219.264533432073, -24323.972979065536, -32033.87195275688, -22612.1869817003, -9015.397312092462, -5065.531142417329, -19953.603440952713, -3491.0519112410443, -23480.105218899873, 5508.028627399043, -19199.99202489758, -24085.323403516224, -4264.198751950115, -2522.5508239925894, -10759.481580195616, -18005.581856439338, -0.16649999999999998, 0.9590000000000001, 0.018, 192.0, 125.5, 32.0, 14.5, 72.0, 0.0, 88.0, 0.0, 0.0, 0.0, 1.6730446774862347E9, 0.0, 2023-01-06 17:37:57.486
212.0, -18359.789950822586, -24477.909443129236, -32120.082631120997, -22690.239273338233, -8967.318709769095, -5144.008117199912, -19976.044592385842, -3523.12666453441, -23232.246724634973, 5515.784682725034, -19050.235337047023, -23995.759963483808, -4358.679575762699, -2522.2378995702147, -10702.998721957056, -17960.230166939516, -0.16649999999999998, 0.9590000000000001, 0.018, 192.0, 0.0, 0.0, 0.0, 0.0, 0.0, 0.0, 0.0, 0.0, 0.0, 1.6730446774862409E9, 0.0, 2023-01-06 17:37:57.486
214.0, -18282.385859773858, -24403.053450948413, -32090.623031928902, -22681.2538720672, -9043.35934440605, -5168.997367500945, -19982.593653511245, -3484.771071049103, -23611.645235019358, 5129.390076326141, -19257.32424942544, -24177.993736027925, -4257.694394313621, -2609.3426477125463, -10775.32896701443, -18031.442824774127, -0.16649999999999998, 0.9590000000000001, 0.018, 192.0, 0.0, 0.0, 0.0, 0.0, 0.0, 0.0, 0.0, 0.0, 0.0, 1.6730446774862468E9, 0.0, 2023-01-06 17:37:57.486
216.0, -18205.339396636416, -24335.305313504377, -32032.57555157847, -22628.637865619407, -8921.207060957797, -5137.794332241337, -19927.876583084653, -3471.6282453093822, -23150.77461609538, 5662.88151298541, -19047.30725852338, -23976.381001041056, -4224.032667163929, -2512.8948703878964, -10715.381588385295, -17999.65864415868, -0.16649999999999998, 0.9590000000000001, 0.018, 192.0, 0.0, 0.0, 0.0, 0.0, 0.0, 0.0, 0.0, 0.0, 0.0, 1.673044677486253E9, 0.0, 2023-01-06 17:37:57.486
218.0, -18254.13325478235, -24399.991261958035, -32083.738694636668, -22704.499686300718, -8979.321596541595, -5072.616645409661, -19881.519065084347, -3417.604078960905, -23319.485583244037, 5416.274716410007, -19111.121488943278, -24050.119405999114, -4257.582635591345, -2495.5052132016676, -10712.945248239666, -17967.159207720662, -0.16649999999999998, 0.9590000000000001, 0.018, 192.0, 0.0, 0.0, 0.0, 0.0, 0.0, 0.0, 0.0, 0.0, 0.0, 1.6730446774862592E9, 0.0, 2023-01-06 17:37:57.486
220.0, -18320.763805003622, -24420.353701156822, -32156.001884460675, -22769.543262665662, -8995.839535694067, -5084.284256015331, -20081.388364003702, -3430.411628533796, -23346.24062135704, 5342.804532385413, -19166.039725069968, -24104.277682814325, -4242.137580172727, -2600.1113772525046, -10733.88883279429, -18009.627522185747, -0.17225, 0.9105000000000001, 0.026000000000000002, 192.0, 125.0, 56.0, 13.0, 120.0, 0.5, 8.0, 0.0, 0.0, 0.0, 1.6730446774862654E9, 0.0, 2023-01-06 17:37:57.486
222.0, -18309.856153709432, -24486.693678700172, -32151.308018125063, -22844.421606590942, -8952.298337495129, -5198.635780648682, -19854.160529871053, -3461.413498093307, -23521.210076953183, 5421.594431590371, -19240.38162712832, -24131.993845938905, -4190.706216181065, -2502.590716194, -10772.490295468604, -18031.48752826304, -0.17225, 0.9105000000000001, 0.026000000000000002, 192.0, 0.0, 0.0, 0.0, 0.0, 0.0, 0.0, 0.0, 0.0, 0.0, 1.6730446774862716E9, 0.0, 2023-01-06 17:37:57.486
224.0, -18326.552906817546, -24421.851268035327, -32208.640242652924, -22823.1874493584, -8967.9669103583, -5159.87785576318, -19910.84455380971, -3484.7487193046477, -23506.726146546145, 4821.584203432108, -19338.125805631378, -24294.871007784728, -4176.624617174222, -2591.0142172591945, -10774.636062936313, -18089.803229546935, -0.17225, 0.9105000000000001, 0.026000000000000002, 192.0, 0.0, 0.0, 0.0, 0.0, 0.0, 0.0, 0.0, 0.0, 0.0, 1.673044677486278E9, 0.0, 2023-01-06 17:37:57.486
226.0, -18129.49992769956, -24170.371791168665, -31940.262846978054, -22574.23371961519, -8916.736712066737, -5088.620494439661, -19852.01476240334, -3412.3067155249973, -23143.309133447307, 6070.420869639024, -19095.78819224694, -23913.080860743627, -4119.560613579823, -2400.7338167111657, -10678.568265267404, -17951.870614513235, -0.17225, 0.9105000000000001, 0.026000000000000002, 192.0, 0.0, 0.0, 0.0, 0.0, 0.0, 0.0, 0.0, 0.0, 0.0, 1.6730446774862845E9, 0.0, 2023-01-06 17:37:57.486
228.0, -18216.22469618615, -24250.949829930047, -32045.986598251653, -22695.603692007506, -8989.290474568663, -5184.241257219464, -19935.23030701045, -3466.1967714067428, -23103.9030079726, 5910.605896783579, -19026.117804779748, -23912.946750276897, -4093.6549417561228, -2419.531633798079, -10641.330259004862, -17939.085416684797, -0.17225, 0.9105000000000001, 0.026000000000000002, 192.0, 0.0, 0.0, 0.0, 0.0, 0.0, 0.0, 0.0, 0.0, 0.0, 1.6730446774862907E9, 0.0, 2023-01-06 17:37:57.486
230.0, -18280.888292895354, -24294.513379873442, -32139.97568368622, -22749.761968822717, -9053.574091622126, -5212.426806977607, -19969.696696960535, -3486.7827280500806, -23342.28436258845, 5565.807886816012, -19194.202923083656, -24070.05716205325, -4126.6014130832455, -2541.393344568413, -10749.423295190727, -18039.28828707794, -0.192125, 0.87825, 0.054000000000000006, 192.0, 124.5, 48.0, 13.0, 56.0, 1.0, 72.0, 0.0, 0.0, 0.0, 1.6730446774862983E9, 0.0, 2023-01-06 17:37:57.486
232.0, -18269.7124206677, -24284.56685359083, -32087.31497374952, -22701.0575176546, -8985.311864055619, -5195.551239913851, -19937.823109367266, -3464.3415766169524, -23237.968771215532, 5682.394585894894, -19153.880376086283, -24000.11855365259, -4094.7725289788877, -2437.793009018065, -10747.501045167572, -18011.92975186464, -0.192125, 0.87825, 0.054000000000000006, 192.0, 0.0, 0.0, 0.0, 0.0, 0.0, 0.0, 0.0, 0.0, 0.0, 1.6730446774863048E9, 0.0, 2023-01-06 17:37:57.486
234.0, -18304.692900740254, -24326.230505255524, -32124.530628267603, -22722.69400628734, -9080.865571602055, -5179.100355994744, -19968.28853705985, -3451.0422886660444, -23330.9073246607, 5566.411383916305, -19193.062984116434, -24040.083472738683, -4100.7180930039995, -2526.551786250089, -10758.766324373046, -18023.03856885893, -0.192125, 0.87825, 0.054000000000000006, 192.0, 0.0, 0.0, 0.0, 0.0, 0.0, 0.0, 0.0, 0.0, 0.0, 1.6730446774863107E9, 0.0, 2023-01-06 17:37:57.486
236.0, -18411.91421889236, -24455.624753907294, -32245.967655893288, -22863.577051589138, -9014.458538825338, -5255.9009499431795, -19980.134961621163, -3510.766149850625, -23325.453499013605, 5471.237656025607, -19219.795670484982, -24068.671353897018, -4070.4985345004243, -2555.921978464363, -10759.45922845116, -18036.42726378766, -0.192125, 0.87825, 0.054000000000000006, 192.0, 0.0, 0.0, 0.0, 0.0, 0.0, 0.0, 0.0, 0.0, 0.0, 1.6730446774863172E9, 0.0, 2023-01-06 17:37:57.486
238.0, -18435.718826737266, -24448.74041661506, -32299.142455952464, -22907.833505610648, -9134.576813528158, -5313.948430293612, -20017.641188817168, -3542.572682210527, -23715.938474647817, 5034.0822379687115, -19459.38401930142, -24285.729144302506, -4083.3060840733156, -2631.582633445577, -10874.414250184805, -18163.16165484925, -0.192125, 0.87825, 0.054000000000000006, 192.0, 0.0, 0.0, 0.0, 0.0, 0.0, 0.0, 0.0, 0.0, 0.0, 1.673044677486323E9, 0.0, 2023-01-06 17:37:57.486
240.0, -18315.24292412316, -24326.744595377993, -32156.5383263276, -22774.17007376791, -9055.943376534387, -5240.8805776692125, -19992.160200138118, -3506.3405044484743, -23395.123886480797, 5466.655548412269, -19300.239598779634, -24170.617660357675, -3960.0809168912074, -2456.8366952939864, -10813.550450033004, -18111.931456557686, -0.1980625, 0.8691249999999999, 0.07300000000000001, 192.0, 124.5, 80.0, 13.0, 112.0, 1.0, 112.0, 0.0, 0.0, 0.0, 1.673044677965224E9, 0.0, 2023-01-06 17:37:57.965
242.0, -18311.86781071041, -24312.797106837883, -32107.051564103553, -22716.323759117575, -9043.716972317336, -5254.068106897844, -19952.99994385242, -3485.5310303605834, -23153.613287641205, 5686.730824319223, -19174.399277496253, -24006.75702175582, -4035.585109661235, -2496.041655068595, -10745.310574210951, -18040.160005111695, -0.1980625, 0.8691249999999999, 0.07300000000000001, 192.0, 0.0, 0.0, 0.0, 0.0, 0.0, 0.0, 0.0, 0.0, 0.0, 1.6730446779653258E9, 0.0, 2023-01-06 17:37:57.965
244.0, -18318.528630558092, -24300.123667731725, -32131.236151604196, -22705.68432875685, -8968.436296991862, -5194.79128060237, -19952.03881884084, -3463.2016376497318, -23327.263990314485, 5456.016118051543, -19241.253345162077, -24067.57611841871, -4031.6064991481903, -2485.8716113414303, -10747.210472489653, -18053.347534340326, -0.1980625, 0.8691249999999999, 0.07300000000000001, 192.0, 0.0, 0.0, 0.0, 0.0, 0.0, 0.0, 0.0, 0.0, 0.0, 1.673044677965368E9, 0.0, 2023-01-06 17:37:57.965
246.0, -18275.412115503805, -24252.55915553083, -32061.655171114824, -22677.074095854055, -9027.288440142685, -5195.506536424939, -19951.256507784907, -3449.835294465458, -23193.332337538282, 5806.759692044222, -19163.491626202063, -23958.61136419909, -4005.656123835579, -2473.1534687463604, -10715.02396047401, -17989.443896942605, -0.1980625, 0.8691249999999999, 0.07300000000000001, 192.0, 0.0, 0.0, 0.0, 0.0, 0.0, 0.0, 0.0, 0.0, 0.0, 1.6730446779654005E9, 0.0, 2023-01-06 17:37:57.965
248.0, -18298.188543103763, -24267.75834176044, -32090.801845884544, -22708.07596541357, -9044.32046941763, -5242.936938159101, -19969.674345216077, -3462.1734574047873, -23248.943477743087, 5697.303199446583, -19172.74524840656, -24011.450888091433, -3945.3064138062496, -2513.1183878324496, -10717.057969219442, -18016.28834203343, -0.1980625, 0.8691249999999999, 0.07300000000000001, 192.0, 0.0, 0.0, 0.0, 0.0, 0.0, 0.0, 0.0, 0.0, 0.0, 1.6730446779654188E9, 0.0, 2023-01-06 17:37:57.965
250.0, -18303.508258284124, -24278.487179098986, -32069.00889504062, -22668.066342838567, -9013.251544624753, -5271.100136172788, -19973.80941794031, -3480.2113151802205, -23190.180741570086, 5776.920113196387, -19170.085390816377, -23971.351858538612, -3919.8701286161104, -2394.5423834970456, -10748.730391112613, -18030.772272440467, -0.22903125000000002, 0.8925624999999999, 0.0925, 192.0, 123.5, 112.0, 14.0, 80.0, 1.5, 64.0, 0.0, 0.0, 0.0, 1.6730446779654496E9, 0.0, 2023-01-06 17:37:57.965
252.0, -18370.183511994306, -24370.241090088024, -32103.58704371298, -22732.48407035876, -9139.114217652586, -5323.7608461094915, -19994.931816450575, -3552.6086154709596, -23213.94064592608, 5646.900015699865, -19178.132018820288, -23987.668631990986, -3919.9371838494762, -2466.8279250655087, -10733.464149649639, -18030.83932767383, -0.22903125000000002, 0.8925624999999999, 0.0925, 192.0, 0.0, 0.0, 0.0, 0.0, 0.0, 0.0, 0.0, 0.0, 0.0, 1.6730446779654558E9, 0.0, 2023-01-06 17:37:57.965
254.0, -18443.497233807713, -24430.411986161707, -32190.960012788775, -22821.734585968803, -9067.946263306889, -5334.690849148136, -20016.7247672945, -3638.059334523599, -23349.548679536427, 5389.005588174533, -19267.740162341615, -24096.76749667734, -3936.58923346868, -2551.3175191065693, -10801.27934232704, -18119.86632583932, -0.22903125000000002, 0.8925624999999999, 0.0925, 192.0, 0.0, 0.0, 0.0, 0.0, 0.0, 0.0, 0.0, 0.0, 0.0, 1.673044677965462E9, 0.0, 2023-01-06 17:37:57.965
0.0, -18426.68872197732, -24365.323706307856, -32261.300952589627, -22786.776457640703, -9047.650879341469, -5272.910627473668, -20014.176668426593, -3398.5380409405284, -23478.250024110082, 5561.449296647227, -19336.225907352677, -24111.027909639826, -3902.2569539853284, -2534.196082853804, -10829.174319407264, -18079.879055008776, -0.22903125000000002, 0.8925624999999999, 0.0925, 192.0, 0.0, 0.0, 0.0, 0.0, 0.0, 0.0, 0.0, 0.0, 0.0, 1.6730446779654682E9, 0.0, 2023-01-06 17:37:57.965
2.0, -18356.8842240434, -24343.664865930663, -32115.992261885676, -22784.831855873093, -9061.8889405595, -5309.947468036112, -19987.980423924975, -3467.9178557298014, -23280.213568236064, 5573.474535164182, -19300.53017145755, -24090.732525674408, -3900.0441312842527, -2490.0513875545726, -10830.649534541313, -18077.465066607605, -0.22903125000000002, 0.8925624999999999, 0.0925, 192.0, 0.0, 0.0, 0.0, 0.0, 0.0, 0.0, 0.0, 0.0, 0.0, 1.6730446779654744E9, 0.0, 2023-01-06 17:37:57.965
4.0, -18316.651084023844, -24272.832187751796, -32093.01466858562, -22696.654223996906, -9075.858780844066, -5302.929020277145, -19986.14758087964, -3485.64278908286, -23261.281640682417, 5455.479676184616, -19195.745193451072, -24089.659641940554, -3826.32807807065, -2446.264320166626, -10738.046257262977, -18043.691580735634, -0.225515625, 0.89128125, 0.09125, 192.0, 124.5, 8.0, 13.5, 104.0, 1.0, 104.0, 0.0, 0.0, 0.0, 1.6730446779654806E9, 0.0, 2023-01-06 17:37:57.965
6.0, -18290.00780463312, -24220.685567937562, -32068.718322362703, -22644.28408673812, -9096.735310165324, -5354.069811590888, -20005.034804944375, -3514.3647807079296, -23228.804555988856, 5845.785837863188, -19190.76075443754, -23953.850442630108, -3864.8401337671444, -2393.9388863967524, -10754.675955137725, -18055.00156343002, -0.225515625, 0.89128125, 0.09125, 192.0, 0.0, 0.0, 0.0, 0.0, 0.0, 0.0, 0.0, 0.0, 0.0, 1.6730446779654934E9, 0.0, 2023-01-06 17:37:57.965
8.0, -18292.91353141231, -24243.46199553752, -32063.44331067125, -22630.783633087118, -9067.521580162238, -5314.663686116181, -20003.00079619894, -3505.9828765371894, -23162.799854612334, 5827.166834731917, -19133.719102587595, -23923.4967736598, -3864.616616322591, -2429.500511825146, -10722.69060882218, -18020.401063013203, -0.225515625, 0.89128125, 0.09125, 192.0, 0.0, 0.0, 0.0, 0.0, 0.0, 0.0, 0.0, 0.0, 0.0, 1.6730446779654996E9, 0.0, 2023-01-06 17:37:57.965
10.0, -18387.751983136175, -24348.358732266275, -32131.16909637083, -22708.321834602575, -9071.880170331022, -5362.58582622836, -20050.274735721916, -3540.9410048652894, -23234.437195591592, 5654.790181492589, -19175.002774596545, -23961.517090978276, -3825.590470503625, -2509.2515360416814, -10775.485429225617, -18046.194976114628, -0.225515625, 0.89128125, 0.09125, 192.0, 0.0, 0.0, 0.0, 0.0, 0.0, 0.0, 0.0, 0.0, 0.0, 1.6730446779655058E9, 0.0, 2023-01-06 17:37:57.965
12.0, -18421.436062030323, -24392.12344790977, -32123.569503256025, -22682.125590100957, -9132.699266993914, -5375.974521157089, -20046.139662997684, -3534.056667573055, -23400.175380727695, 5440.571062632926, -19255.46905463565, -24066.257365495847, -3765.8889610634997, -2515.0629896000614, -10798.060691125476, -18067.00445020252, -0.225515625, 0.89128125, 0.09125, 192.0, 0.0, 0.0, 0.0, 0.0, 0.0, 0.0, 0.0, 0.0, 0.0, 1.673044677965512E9, 0.0, 2023-01-06 17:37:57.965
14.0, -18420.206716085282, -24391.25172987601, -32063.152737993332, -22665.49589222621, -9101.540935223215, -5383.462355549616, -20018.468203362012, -3522.210243011742, -23302.542960946914, 5620.077922353497, -19234.592525314394, -23975.665745218488, -3820.3825140455383, -2519.2204140687486, -10783.50970548507, -18049.346572082828, -0.225515625, 0.89128125, 0.09125, 192.0, 0.0, 0.0, 0.0, 0.0, 0.0, 0.0, 0.0, 0.0, 0.0, 1.673044677965518E9, 0.0, 2023-01-06 17:37:57.965
16.0, -18396.4915152182, -24334.210078026066, -32029.647473054825, -22608.074260720525, -9089.739214150812, -5339.67528816167, -20052.755779356456, -3523.439588956784, -23194.49462824996, 5763.732583967756, -19175.248643785555, -23935.79023311022, -3786.4078624734716, -2364.0322523155514, -10744.483559666105, -17994.540094678414, -0.276, 0.9460000000000001, 0.122, 192.0, 123.5, 48.0, 14.5, 72.0, 1.5, 104.0, 0.0, 0.0, 0.0, 1.673044677965524E9, 0.0, 2023-01-06 17:37:57.965
18.0, -18478.231844691258, -24403.902817237715, -32156.158346671862, -22743.39172165295, -9127.33484832464, -5439.878158554811, -20134.741978018523, -3589.4889938222163, -23245.99304747499, 5775.847229462533, -19242.862670762857, -23941.959314579883, -3859.9227499869767, -2510.011495353162, -10824.815729238479, -18055.247432619028, -0.276, 0.9460000000000001, 0.122, 192.0, 0.0, 0.0, 0.0, 0.0, 0.0, 0.0, 0.0, 0.0, 0.0, 1.6730446779655302E9, 0.0, 2023-01-06 17:37:57.965
20.0, -18519.62727542249, -24434.435300163663, -32232.646016197923, -22810.536361996696, -9162.538845841747, -5437.642984109281, -20144.71085604559, -3583.1858018858197, -23362.11035992031, 5648.598748278469, -19326.45819502571, -24041.715150083917, -3792.331074754128, -2542.5332835356335, -10881.29858747704, -18111.19384899066, -0.276, 0.9460000000000001, 0.122, 192.0, 0.0, 0.0, 0.0, 0.0, 0.0, 0.0, 0.0, 0.0, 0.0, 1.6730446779655364E9, 0.0, 2023-01-06 17:37:57.965
22.0, -18517.168583532402, -24430.143765228244, -32210.47308569826, -22820.058205134657, -9220.474567469904, -5457.714850630146, -20158.635992841246, -3592.506479323683, -23457.6864192112, 5503.625333741347, -19369.328840890987, -24078.975508090916, -3888.2871137007614, -2553.306824363092, -10895.201372528241, -18131.95861958964, -0.276, 0.9460000000000001, 0.122, 192.0, 0.0, 0.0, 0.0, 0.0, 0.0, 0.0, 0.0, 0.0, 0.0, 1.6730446779655423E9, 0.0, 2023-01-06 17:37:57.965
24.0, -18565.738924233785, -24481.731591431093, -32294.20272042784, -22872.897729027, -9263.009937168354, -5482.569990464448, -20217.443432503158, -3637.2993752121183, -23347.76053998, 5661.585111807002, -19352.185052893765, -24064.916260828526, -3853.910130728499, -2593.875240549474, -10898.755299896635, -18162.111122859853, -0.276, 0.9460000000000001, 0.122, 192.0, 0.0, 0.0, 0.0, 0.0, 0.0, 0.0, 0.0, 0.0, 0.0, 1.6730446779655485E9, 0.0, 2023-01-06 17:37:57.965
26.0, -18588.71651753384, -24507.972539421626, -32361.012084604754, -22933.672122200984, -9319.984533784931, -5574.882695064866, -20242.54444152647, -3676.1020035865313, -23474.472579297137, 5423.002591491055, -19461.440379791307, -24151.68573280403, -3865.041299467242, -2612.360133214013, -10990.285693441117, -18221.812632299978, -0.20600000000000002, 0.916, 0.106, 192.0, 124.5, 72.0, 14.0, 80.0, 1.5, 40.0, 0.0, 0.0, 0.0, 1.6730446779655545E9, 0.0, 2023-01-06 17:37:57.965
28.0, -18622.288837705713, -24522.456469828663, -32334.92759882541, -22878.731534329836, -9309.389806913116, -5599.335503498973, -20251.641601519776, -3703.862870200023, -23469.108160627864, 5543.702011549713, -19435.244135289686, -24123.38842432361, -3882.565067120203, -2579.011330486695, -11000.455737168282, -18248.053580290507, -0.20600000000000002, 0.916, 0.106, 192.0, 0.0, 0.0, 0.0, 0.0, 0.0, 0.0, 0.0, 0.0, 0.0, 1.6730446779655607E9, 0.0, 2023-01-06 17:37:57.965
30.0, -18634.381131456033, -24539.46614735915, -32354.015988590243, -22878.887996541023, -9286.769841524345, -5616.188718818274, -20272.652241307766, -3714.792873238668, -23511.75528904859, 5544.037287716543, -19430.505565465162, -24087.20095005047, -3912.20348026794, -2626.1064560540267, -11007.295370971606, -18223.801937556498, -0.20600000000000002, 0.916, 0.106, 192.0, 0.0, 0.0, 0.0, 0.0, 0.0, 0.0, 0.0, 0.0, 0.0, 1.6730446779655669E9, 0.0, 2023-01-06 17:37:57.965
32.0, -18566.856511456554, -24482.13392283129, -32236.33405403305, -22769.163283009922, -9240.099399101664, -5554.699069821724, -20195.762240381508, -3661.3945557349393, -23454.333657542906, 5629.3985997913605, -19388.864265544926, -24060.445911937466, -4006.2149174469614, -2654.4261162789007, -10983.803687549078, -18212.760175795578, -0.20600000000000002, 0.916, 0.106, 192.0, 0.0, 0.0, 0.0, 0.0, 0.0, 0.0, 0.0, 0.0, 0.0, 1.6730446779655728E9, 0.0, 2023-01-06 17:37:57.965
34.0, -18620.277180704736, -24542.95301949418, -32296.169673939905, -22820.70640572386, -9281.561885066258, -5566.277273449573, -20207.720423665098, -3675.0961750860424, -23317.540981476424, 5638.451056295759, -19332.761386962102, -24002.487838564855, -3894.523250403792, -2609.7673308571975, -10917.374303027906, -18154.869157656332, -0.20600000000000002, 0.916, 0.106, 192.0, 0.0, 0.0, 0.0, 0.0, 0.0, 0.0, 0.0, 0.0, 0.0, 1.6730446779655788E9, 0.0, 2023-01-06 17:37:57.965
36.0, -18615.292741691203, -24533.609990311863, -32248.135775105453, -22782.484922705284, -9271.593007039191, -5574.8156398315, -20181.881807074762, -3660.8134103791012, -23446.15291907226, 5555.906064022311, -19392.149971979856, -24064.357467217145, -3844.6341567795466, -2611.935450069362, -10962.211902405252, -18201.137268678816, -0.21, 0.988, 0.084, 192.0, 124.5, 56.0, 15.0, 112.0, 1.0, 80.0, 0.0, 0.0, 0.0, 1.6730446779655848E9, 0.0, 2023-01-06 17:37:57.965
38.0, -18623.741701095307, -24548.987990497113, -32269.034656171163, -22797.21472230133, -9245.441466026481, -5574.43566017576, -20167.397876667725, -3643.1108287704983, -23473.332640329914, 5533.822540500467, -19383.768067809113, -24046.587830375174, -3744.0736584751203, -2582.2076299438036, -10916.033198360587, -18164.949794405675, -0.21, 0.988, 0.084, 192.0, 0.0, 0.0, 0.0, 0.0, 0.0, 0.0, 0.0, 0.0, 0.0, 1.6730446779655924E9, 0.0, 2023-01-06 17:37:57.965
40.0, -18578.18884589539, -24497.75779220555, -32186.869643553455, -22732.327608147574, -9333.127359524651, -5551.905101764811, -20155.350286406316, -3624.402418661406, -23364.077313432375, 5587.511430682115, -19341.21034636621, -24027.588847588166, -3832.2959938402173, -2533.3467165645025, -10903.15859355433, -18158.668954213736, -0.21, 0.988, 0.084, 192.0, 0.0, 0.0, 0.0, 0.0, 0.0, 0.0, 0.0, 0.0, 0.0, 1.6730446779655986E9, 0.0, 2023-01-06 17:37:57.965
42.0, -18619.025483015237, -24536.672179302237, -32265.503080547227, -22765.22937598579, -9270.967158194442, -5555.771953555579, -20128.975227949053, -3620.3344011705403, -23384.998546242543, 5455.814952351446, -19336.024741652578, -24049.80648157674, -3625.698819839814, -2591.327141681569, -10888.406442213827, -18134.752587646555, -0.21, 0.988, 0.084, 192.0, 0.0, 0.0, 0.0, 0.0, 0.0, 0.0, 0.0, 0.0, 0.0, 1.6730446779656048E9, 0.0, 2023-01-06 17:37:57.965
44.0, -18615.136279480015, -24518.72372850463, -32235.685853443847, -22729.846564513038, -9232.142178075574, -5572.781631086067, -20136.351303619304, -3633.3207646990736, -23478.428838065727, 5587.15380277083, -19384.59508235396, -24049.560612387733, -3734.797684526168, -2448.141866700872, -10935.97095441472, -18156.523186746024, -0.21, 0.988, 0.084, 192.0, 0.0, 0.0, 0.0, 0.0, 0.0, 0.0, 0.0, 0.0, 0.0, 1.6730446779656107E9, 0.0, 2023-01-06 17:37:57.965
46.0, -18600.518238606244, -24478.378829762798, -32157.722968783735, -22670.905014384392, -9255.11977137563, -5552.9779854986655, -20140.41932111017, -3626.928165784856, -23352.454406315614, 5663.283844385605, -19324.044206624534, -23981.633660988053, -3743.3807543970056, -2496.01930332414, -10891.200410270741, -18114.25603798104, -0.23, 1.076, 0.092, 192.0, 124.0, 104.0, 16.5, 80.0, 1.0, 112.0, 0.0, 0.0, 0.0, 1.6730446779656167E9, 0.0, 2023-01-06 17:37:57.965
48.0, -18630.760148854275, -24517.67319651523, -32156.851250749976, -22665.562947459573, -9241.596965980169, -5548.753505796612, -20096.855771166775, -3621.9660785157776, -23456.322962799426, 5620.100274097953, -19325.094738613934, -23991.3119663372, -3703.818166711112, -2551.451629573301, -10883.846686344945, -18115.664197881724, -0.23, 1.076, 0.092, 192.0, 0.0, 0.0, 0.0, 0.0, 0.0, 0.0, 0.0, 0.0, 0.0, 1.673044677965623E9, 0.0, 2023-01-06 17:37:57.965
50.0, -18599.22183742784, -24488.83944616788, -32128.531590525105, -22648.463862951263, -9178.028604749275, -5511.3590373228835, -20085.07640183883, -3596.9321247258335, -23294.429277709638, 5632.460788781737, -19271.249386221098, -24018.51403933931, -3664.859076125512, -2492.197155022282, -10861.271424445084, -18084.885845766767, -0.23, 1.076, 0.092, 192.0, 0.0, 0.0, 0.0, 0.0, 0.0, 0.0, 0.0, 0.0, 0.0, 1.673044677965629E9, 0.0, 2023-01-06 17:37:57.965
52.0, -18603.11104096306, -24490.26995781302, -32144.44603257728, -22667.90988062738, -9211.712683643424, -5519.0480374155095, -20050.11827351073, -3585.935066453823, -23409.607816887834, 5606.353951257939, -19316.288151298544, -24039.703493082943, -3573.440441303306, -2526.7753036946424, -10866.412325669806, -18100.017976763007, -0.23, 1.076, 0.092, 192.0, 0.0, 0.0, 0.0, 0.0, 0.0, 0.0, 0.0, 0.0, 0.0, 1.6730446779656353E9, 0.0, 2023-01-06 17:37:57.965
54.0, -18527.22686853729, -24411.34594814133, -32049.04878724203, -22589.678775033808, -9174.742898314345, -5491.376577779839, -20001.838505487267, -3552.5639119820494, -23227.172878643618, 5731.769589396667, -19224.154260653766, -23992.340146582144, -3557.4589440177615, -2368.502601206613, -10788.583551476426, -18029.744092195524, -0.23, 1.076, 0.092, 192.0, 0.0, 0.0, 0.0, 0.0, 0.0, 0.0, 0.0, 0.0, 0.0, 1.6730446779656413E9, 0.0, 2023-01-06 17:37:57.965
56.0, -18564.978964922306, -24431.395462917742, -32100.88248263389, -22639.21024074677, -9126.105502379598, -5519.629182771348, -19992.20490362703, -3556.341356794996, -23290.294204985406, 5695.336245934516, -19250.462263877664, -23997.101068151125, -3593.4229008463503, -2417.519976797101, -10805.861449940377, -18036.404912043206, -0.262, 1.062, 0.07200000000000001, 192.0, 123.5, 104.0, 16.5, 24.0, 1.0, 32.0, 0.0, 0.0, 0.0, 1.6730446779656472E9, 0.0, 2023-01-06 17:37:57.965
58.0, -18487.686632595854, -24349.58807821132, -32004.457057053693, -22580.08987666248, -9107.151223081497, -5462.095792543387, -19887.621091320645, -3480.412480880318, -23242.416768362138, 5721.621897413957, -19203.545952265973, -23995.55879778371, -3564.8797231769236, -2367.8320488729537, -10750.049144035476, -17986.13583876322, -0.262, 1.062, 0.07200000000000001, 192.0, 0.0, 0.0, 0.0, 0.0, 0.0, 0.0, 0.0, 0.0, 0.0, 1.6730446779656534E9, 0.0, 2023-01-06 17:37:57.965
60.0, -18502.639949636454, -24357.67940970414, -32031.56972307798, -22585.38724009839, -9098.36698751056, -5470.991786836599, -19953.93871711954, -3519.6174406549267, -23273.910376299667, 5764.447839790326, -19201.28842607599, -23981.857178432605, -3462.598140549438, -2329.655269343289, -10759.146304028787, -17987.588702152814, -0.262, 1.062, 0.07200000000000001, 192.0, 0.0, 0.0, 0.0, 0.0, 0.0, 0.0, 0.0, 0.0, 0.0, 1.6730446779656596E9, 0.0, 2023-01-06 17:37:57.965
62.0, -18538.246278553757, -24404.573369571375, -32057.9671332797, -22640.260772736165, -9180.48729663936, -5492.471813258149, -20013.886095748676, -3581.7776419851357, -23184.525750222892, 5783.580933044068, -19198.56151325244, -24014.915408482007, -3410.451520735207, -2344.4521241727025, -10768.51168495556, -17986.873446330243, -0.262, 1.062, 0.07200000000000001, 192.0, 0.0, 0.0, 0.0, 0.0, 0.0, 0.0, 0.0, 0.0, 0.0, 1.6730446779656656E9, 0.0, 2023-01-06 17:37:57.965
64.0, -18566.118903889528, -24424.824050047882, -32141.495602309184, -22669.988592861726, -9039.961879248844, -5526.222947385663, -20015.227200415993, -3593.4899560797166, -23258.97941100352, 5669.229408410717, -19253.457397634673, -24073.454627210456, -3535.442475729284, -2390.496717750635, -10798.463022525671, -18028.20182182811, -0.262, 1.062, 0.07200000000000001, 192.0, 0.0, 0.0, 0.0, 0.0, 0.0, 0.0, 0.0, 0.0, 0.0, 1.6730446779656718E9, 0.0, 2023-01-06 17:37:57.965
66.0, -18517.347397488047, -24380.20996811509, -32090.623031928902, -22658.43274097833, -9115.510775507782, -5475.976225850132, -19993.501304805435, -3568.6571679898702, -23301.47007721306, 5706.802690840089, -19281.933520070736, -24109.999729394884, -3585.9127147093673, -2316.7359610481217, -10819.451310569206, -18014.18727805463, -0.196, 0.988, 0.092, 192.0, 124.5, 112.0, 15.0, 112.0, 1.0, 112.0, 0.0, 0.0, 0.0, 1.673044677965678E9, 0.0, 2023-01-06 17:37:57.965
68.0, -18550.450331026357, -24419.54903835643, -32177.07957948203, -22675.464770253275, -9183.728299585378, -5536.460046346194, -19993.523656549893, -3568.2101331007643, -23217.44986980556, 5731.702534163301, -19212.33018783691, -24072.42644696551, -3411.5020527246065, -2383.4782699916686, -10766.209455276663, -17984.41475444016, -0.196, 0.988, 0.092, 192.0, 0.0, 0.0, 0.0, 0.0, 0.0, 0.0, 0.0, 0.0, 0.0, 1.673044677965685E9, 0.0, 2023-01-06 17:37:57.965
70.0, -18522.845926624053, -24402.40525035921, -32126.40817480185, -22675.062438853078, -9099.238705544318, -5539.0081452140985, -19942.785196636345, -3539.354031008963, -23336.56231600789, 5658.969957705732, -19279.832456091935, -24138.855831486682, -3449.544721787539, -2394.6764939637774, -10794.283246312529, -17988.862751586767, -0.196, 0.988, 0.092, 192.0, 0.0, 0.0, 0.0, 0.0, 0.0, 0.0, 0.0, 0.0, 0.0, 1.6730446779656923E9, 0.0, 2023-01-06 17:37:57.965
72.0, -18521.90715335693, -24392.816351987884, -32119.456782276247, -22689.076982626557, -9127.737179724834, -5519.606831026892, -19941.399388480117, -3540.695135676281, -23216.086413393787, 5661.383946106905, -19209.111536635344, -24106.423450282033, -3565.7514412106802, -2369.083746562451, -10764.600129675882, -17977.59747238129, -0.196, 0.988, 0.092, 192.0, 0.0, 0.0, 0.0, 0.0, 0.0, 0.0, 0.0, 0.0, 0.0, 1.6730446779656987E9, 0.0, 2023-01-06 17:37:57.965
74.0, -18516.408624220923, -24379.96409892608, -32116.372241541416, -22689.68047972685, -9105.541897480714, -5533.442560844727, -19907.201219463495, -3521.9867255671893, -23241.8356230063, 5740.710287178789, -19219.70626350716, -24093.61590070914, -3444.5602827740054, -2361.3276912364595, -10771.260949523563, -17974.6917456021, -0.196, 0.988, 0.092, 192.0, 0.0, 0.0, 0.0, 0.0, 0.0, 0.0, 0.0, 0.0, 0.0, 1.673044677965705E9, 0.0, 2023-01-06 17:37:57.965
76.0, -18514.061691053117, -24387.96602344108, -32088.901947605846, -22681.16446508938, -9030.708257044347, -5556.174284955774, -19898.618149592658, -3526.390019224885, -23231.35265485676, 5746.857016903999, -19176.723858919606, -24085.2339965384, -3499.8584985564353, -2313.338495890915, -10765.293033753996, -17977.686879359113, -0.178, 0.914, 0.1, 192.0, 125.0, 56.0, 14.0, 72.0, 1.5, 16.0, 0.0, 0.0, 0.0, 1.6730446779657109E9, 0.0, 2023-01-06 17:37:57.965
78.0, -18545.979982135294, -24392.212854887588, -32152.64912279238, -22688.853465182005, -9157.28618589475, -5600.0507593215425, -19962.32062129028, -3546.640699701393, -23277.732524601524, 5750.522702994669, -19219.035711173503, -24091.514836730345, -3570.937045924312, -2342.9992607831077, -10796.227848080141, -17991.120277776754, -0.178, 0.914, 0.1, 192.0, 0.0, 0.0, 0.0, 0.0, 0.0, 0.0, 0.0, 0.0, 0.0, 1.673044677965717E9, 0.0, 2023-01-06 17:37:57.965
80.0, -18564.464874799833, -24412.01650047499, -32190.803550577588, -22739.07783497308, -9192.780756089778, -5624.816492178023, -19959.459598, -3535.50953096265, -23308.399117994206, 5723.030057314641, -19248.987048743613, -24110.87144742864, -3448.1365618868545, -2378.7397001671434, -10817.462005312682, -18012.19797279811, -0.178, 0.914, 0.1, 192.0, 0.0, 0.0, 0.0, 0.0, 0.0, 0.0, 0.0, 0.0, 0.0, 1.6730446779657233E9, 0.0, 2023-01-06 17:37:57.965
82.0, -18552.014953138227, -24412.418831875188, -32143.26139012115, -22726.806727267114, -9028.584841321093, -5562.05279374752, -19937.823109367266, -3503.546536391561, -23271.98812627651, 5715.139891521918, -19237.61001081586, -24116.660549242562, -3516.532899920094, -2351.9399585652304, -10826.939144961732, -18012.443841987115, -0.178, 0.914, 0.1, 192.0, 0.0, 0.0, 0.0, 0.0, 0.0, 0.0, 0.0, 0.0, 0.0, 1.6730446779657292E9, 0.0, 2023-01-06 17:37:57.965
84.0, -18552.417284538424, -24409.98249172956, -32143.194334887787, -22737.69202681685, -9208.382273719582, -5619.988515375676, -19960.174853822573, -3500.998437523656, -23285.756800860978, 5637.847559195467, -19246.304839408975, -24142.499165832898, -3523.5960511679714, -2425.2536803786375, -10811.04705465401, -18008.8005076409, -0.178, 0.914, 0.1, 192.0, 0.0, 0.0, 0.0, 0.0, 0.0, 0.0, 0.0, 0.0, 0.0, 1.6730446779657354E9, 0.0, 2023-01-06 17:37:57.965
86.0, -18537.08398784208, -24390.290604864433, -32114.673508962813, -22729.82421276858, -9177.447459393437, -5631.901995170355, -19925.57435340576, -3507.45809167124, -23266.735466329512, 5731.32255450756, -19218.163993139744, -24113.128973618626, -3450.3940880768405, -2307.7058562881775, -10795.154964346286, -18002.743184893512, -0.16299999999999998, 0.887, 0.092, 192.0, 125.5, 48.0, 13.0, 112.0, 1.0, 80.0, 0.0, 0.0, 0.0, 1.6730446779657416E9, 0.0, 2023-01-06 17:37:57.965
88.0, -18524.276438269193, -24385.462628062087, -32111.36545078343, -22727.45492785632, -9087.302874005183, -5640.127437129908, -19901.70269032749, -3440.7828379610587, -23239.332227627307, 5607.9185733698105, -19183.295271789466, -24130.093947660203, -3455.8926172128463, -2312.3550191348813, -10773.026737335533, -17978.22332122604, -0.16299999999999998, 0.887, 0.092, 192.0, 0.0, 0.0, 0.0, 0.0, 0.0, 0.0, 0.0, 0.0, 0.0, 1.6730446779657476E9, 0.0, 2023-01-06 17:37:57.965
90.0, -18537.5757262201, -24388.681279263652, -32115.947558396765, -22670.61444170647, -9118.774130198257, -5616.948678129755, -19883.50837034087, -3422.7002766967153, -23273.396286177194, 5749.226301816261, -19207.770431968027, -24089.614938451643, -3514.543594663572, -2281.1966873641836, -10786.057804352977, -17973.641213612704, -0.16299999999999998, 0.887, 0.092, 192.0, 0.0, 0.0, 0.0, 0.0, 0.0, 0.0, 0.0, 0.0, 0.0, 1.6730446779657547E9, 0.0, 2023-01-06 17:37:57.965
92.0, -18559.52513927521, -24415.950407499124, -32151.39742510288, -22698.73293623125, -9194.188915990462, -5608.924401870299, -19898.908722270575, -3400.7508636416037, -23251.379817888715, 5729.199138784306, -19199.455583030653, -24106.37874679312, -3534.4589989732503, -2366.6027029279117, -10751.233786491608, -17939.532451573905, -0.16299999999999998, 0.887, 0.092, 192.0, 0.0, 0.0, 0.0, 0.0, 0.0, 0.0, 0.0, 0.0, 0.0, 1.673044677965761E9, 0.0, 2023-01-06 17:37:57.965
94.0, -18533.530060473688, -24395.431506089153, -32092.96996509671, -22671.30734578459, -9140.388267086539, -5651.526826802115, -19898.193466448007, -3413.312544025486, -23259.49350112599, 5696.811461068566, -19232.625571802328, -24086.06101108325, -3383.361206455375, -2372.3471012529258, -10793.120955600853, -17969.08145774382, -0.16299999999999998, 0.887, 0.092, 192.0, 0.0, 0.0, 0.0, 0.0, 0.0, 0.0, 0.0, 0.0, 0.0, 1.6730446779657671E9, 0.0, 2023-01-06 17:37:57.965
96.0, -18552.5290432607, -24420.197238945635, -32138.858096463457, -22705.281997356655, -9049.818998553634, -5661.7862775071, -19902.97673976144, -3417.0452853495226, -23229.810384489345, 5738.855092388999, -19159.17773952219, -24058.613068892133, -3420.062770850989, -2347.2907957185266, -10783.979092118632, -17959.403152394672, -0.15849999999999997, 0.8955, 0.087, 192.0, 125.5, 24.0, 14.0, 32.0, 1.0, 72.0, 0.0, 0.0, 0.0, 1.673044677965773E9, 0.0, 2023-01-06 17:37:57.965
98.0, -18613.035215501215, -24477.194187306668, -32207.097972285508, -22755.774588081193, -9183.750651329834, -5717.173900267351, -19941.891126858132, -3507.055760271044, -23375.499054849035, 5636.841730694978, -19263.53803438402, -24087.647984939576, -3528.4687314592284, -2414.636601762367, -10833.264688642585, -18014.924885621655, -0.15849999999999997, 0.8955, 0.087, 192.0, 0.0, 0.0, 0.0, 0.0, 0.0, 0.0, 0.0, 0.0, 0.0, 1.6730446779657793E9, 0.0, 2023-01-06 17:37:57.965
100.0, -18517.213287021314, -24421.426584890676, -32059.867031558402, -22705.617273523483, -9152.8605404926, -5675.711414302757, -19899.6463298376, -3450.125867143377, -23228.51398331094, 5556.174284955774, -19205.289388333487, -24100.902569401573, -3466.3979371068403, -2389.3791305278696, -10816.098548900909, -18032.04632187442, -0.15849999999999997, 0.8955, 0.087, 192.0, 0.0, 0.0, 0.0, 0.0, 0.0, 0.0, 0.0, 0.0, 0.0, 1.6730446779657855E9, 0.0, 2023-01-06 17:37:57.965
102.0, -18571.840950470087, -24449.23215499308, -32158.21470716175, -22727.477279600775, -9212.562049932725, -5717.620935156458, -19947.099083316218, -3393.8888780938246, -23271.51873964295, 5684.138021962407, -19194.918178906224, -24044.643228607565, -3403.7683491430703, -2334.371487423359, -10823.072293170964, -18003.726661649547, -0.15849999999999997, 0.8955, 0.087, 192.0, 0.0, 0.0, 0.0, 0.0, 0.0, 0.0, 0.0, 0.0, 0.0, 1.6730446779657931E9, 0.0, 2023-01-06 17:37:57.965
104.0, -18514.46402245331, -24378.801808214404, -32100.524854722604, -22675.889453397926, -9010.703445756846, -5675.286731158106, -19924.32265571626, -3403.9471630987127, -23238.862840993745, 5724.2594032596835, -19184.74813517906, -24032.886211024073, -3445.543759530039, -2302.3861411078146, -10811.136461631831, -17997.714042391068, -0.15849999999999997, 0.8955, 0.087, 192.0, 0.0, 0.0, 0.0, 0.0, 0.0, 0.0, 0.0, 0.0, 0.0, 1.6730446784461956E9, 0.0, 2023-01-06 17:37:58.446
106.0, -18549.153929847947, -24405.042756204937, -32127.704575980257, -22693.145000117423, -9138.04133391873, -5741.872577890465, -19967.126246348173, -3464.855666739424, -23264.70145758408, 5758.390517042937, -19187.09506834687, -23994.55296928322, -3549.769943925136, -2340.764086337577, -10840.283136401551, -18001.379728481737, -0.16824999999999998, 0.9027499999999999, 0.0775, 192.0, 125.0, 56.0, 14.0, 56.0, 1.0, 16.0, 0.0, 0.0, 0.0, 1.6730446784463885E9, 0.0, 2023-01-06 17:37:58.446
108.0, -18535.00527560774, -24395.811485744893, -32103.36352626843, -22696.654223996906, -9235.204367065951, -5725.51110094918, -19930.067054041276, -3427.0141633765893, -23245.32249514133, 5737.983374355242, -19189.79962942596, -24019.94455098445, -3425.091913353433, -2398.632752732367, -10813.349284332906, -18004.7995453834, -0.16824999999999998, 0.9027499999999999, 0.0775, 192.0, 0.0, 0.0, 0.0, 0.0, 0.0, 0.0, 0.0, 0.0, 0.0, 1.6730446784463956E9, 0.0, 2023-01-06 17:37:58.446
110.0, -18559.838063697585, -24425.44989889263, -32174.41972189185, -22726.292637144645, -9187.125764742585, -5744.823008158566, -19915.046681767308, -3383.651779133294, -23240.963904972545, 5701.7959000821, -19183.65289970075, -24000.632643775065, -3445.990794419145, -2375.0740140764733, -10817.28319135704, -17989.600359153792, -0.16824999999999998, 0.9027499999999999, 0.0775, 192.0, 0.0, 0.0, 0.0, 0.0, 0.0, 0.0, 0.0, 0.0, 0.0, 1.6730446784464023E9, 0.0, 2023-01-06 17:37:58.446
112.0, -18531.496051728256, -24398.359584612797, -32118.607415986946, -22715.63085503946, -9092.51083046327, -5726.94161259432, -19882.83781800721, -3365.6362731023164, -23349.414569069693, 5525.552395052004, -19285.420392205764, -24086.172769805526, -3383.964703555668, -2456.590826104978, -10850.743752806635, -18023.03856885893, -0.16824999999999998, 0.9027499999999999, 0.0775, 192.0, 0.0, 0.0, 0.0, 0.0, 0.0, 0.0, 0.0, 0.0, 0.0, 1.6730446784464092E9, 0.0, 2023-01-06 17:37:58.446
114.0, -18454.538995568633, -24313.825287082826, -32004.03237390904, -22610.80117354407, -9086.162935037963, -5698.599600624991, -19888.492809354404, -3354.1698281967438, -23209.96203541303, 5809.643067078957, -19107.835782508348, -23929.710558618375, -3512.3307719624963, -2235.085038552885, -10758.140475528298, -17956.005687237466, -0.16824999999999998, 0.9027499999999999, 0.0775, 192.0, 0.0, 0.0, 0.0, 0.0, 0.0, 0.0, 0.0, 0.0, 0.0, 1.673044678446416E9, 0.0, 2023-01-06 17:37:58.446
116.0, -18493.18516173186, -24353.81255791337, -32069.143005507354, -22662.031371835634, -9175.502857625826, -5769.253464848217, -19924.456766182993, -3370.039566760012, -23189.085506091775, 5833.492378412769, -19117.491736113043, -23928.503564417788, -3514.387132452385, -2337.0984002469063, -10784.113202585364, -17984.504161417983, -0.18312499999999998, 0.917375, 0.07475000000000001, 192.0, 124.5, 104.0, 14.5, 16.0, 1.0, 32.0, 0.0, 0.0, 0.0, 1.6730446784464233E9, 0.0, 2023-01-06 17:37:58.446
118.0, -18503.645778136943, -24367.15654935319, -32087.516139449614, -22689.16638960438, -9157.152075428019, -5776.227209118272, -19893.723117556943, -3359.1095637213666, -23246.462434108547, 5756.580025742058, -19165.995021581057, -23946.586125682134, -3481.5524198475387, -2384.685264192255, -10797.70306321419, -18008.822859385356, -0.18312499999999998, 0.917375, 0.07475000000000001, 192.0, 0.0, 0.0, 0.0, 0.0, 0.0, 0.0, 0.0, 0.0, 0.0, 1.67304467844643E9, 0.0, 2023-01-06 17:37:58.446
120.0, -18509.121955528495, -24374.599680256808, -32111.74543043917, -22709.50647705871, -9166.495104610338, -5791.806375003622, -19948.887222872643, -3439.1958641047318, -23244.808405018855, 5763.173790356373, -19175.98625135258, -23958.901936877006, -3372.006520272079, -2354.5774644109565, -10799.535906259527, -18000.016272069966, -0.18312499999999998, 0.917375, 0.07475000000000001, 192.0, 0.0, 0.0, 0.0, 0.0, 0.0, 0.0, 0.0, 0.0, 0.0, 1.673044678446437E9, 0.0, 2023-01-06 17:37:58.446
122.0, -18526.86924062601, -24393.06222117689, -32134.298340594574, -22741.31300941861, -9199.083948026175, -5812.571145602602, -19915.27019921186, -3399.745035141115, -23260.07464648183, 5740.129141822951, -19209.960902924646, -23979.778466198262, -3493.801175809047, -2373.308226264504, -10846.09458995993, -18048.89953719372, -0.18312499999999998, 0.917375, 0.07475000000000001, 192.0, 0.0, 0.0, 0.0, 0.0, 0.0, 0.0, 0.0, 0.0, 0.0, 1.6730446784464433E9, 0.0, 2023-01-06 17:37:58.446
124.0, -18523.650589424444, -24384.568558283874, -32161.388654874405, -22745.135157720466, -9166.964491243898, -5787.29132262365, -19977.43040054207, -3297.0164176245235, -23269.79765531989, 5730.696705662812, -19222.254362375064, -23988.696812235932, -3470.667120297804, -2379.477307734169, -10841.780703280057, -18002.631426171236, -0.18312499999999998, 0.917375, 0.07475000000000001, 192.0, 0.0, 0.0, 0.0, 0.0, 0.0, 0.0, 0.0, 0.0, 0.0, 1.6730446784464505E9, 0.0, 2023-01-06 17:37:58.446
126.0, -18521.460118467825, -24389.083610663845, -32184.14273072991, -22766.41401844192, -9095.461260731372, -5819.656648594934, -19845.957439655955, -3318.4964440460735, -23274.13389374422, 5715.475167688748, -19229.451624089674, -23992.22838785987, -3513.761283607636, -2400.6444097333447, -10846.653383571314, -18008.733452407534, -0.1935625, 0.9386875, 0.07037500000000001, 192.0, 124.5, 80.0, 15.0, 0.0, 1.0, 8.0, 0.0, 0.0, 0.0, 1.6730446784464571E9, 0.0, 2023-01-06 17:37:58.446
