%OpenBCI Raw EEG Data
%Number of channels = 16
%Sample Rate = 125 Hz
%Board = OpenBCI_GUI$BoardCytonSerialDaisy
Sample Index, EXG Channel 0, EXG Channel 1, EXG Channel 2, EXG Channel 3, EXG Channel 4, EXG Channel 5, EXG Channel 6, EXG Channel 7, EXG Channel 8, EXG Channel 9, EXG Channel 10, EXG Channel 11, EXG Channel 12, EXG Channel 13, EXG Channel 14, EXG Channel 15, Accel Channel 0, Accel Channel 1, Accel Channel 2, Other, Other, Other, Other, Other, Other, Other, Analog Channel 0, Analog Channel 1, Analog Channel 2, Timestamp, Other, Timestamp (Formatted)
0.0, -31343.404214787988, -27645.62101907981, -33521.67111893548, -25987.680374107407, -29936.49601179314, -27815.114297284403, -33756.83382234977, -28481.57626170829, 0.0, 0.0, 0.0, 0.0, 0.0, 0.0, 0.0, 0.0, 0.0, 0.0, 0.0, 192.0, 0.0, 0.0, 0.0, 0.0, 0.0, 0.0, 0.0, 0.0, 0.0, 1.6731203634594758E9, 0.0, 2023-01-07 14:39:23.459
82.0, -31386.073694953167, -27681.3838102083, -33583.2278231654, -25991.52487415372, -29967.274363908098, -27826.334873000967, -33807.058192140845, -28476.345953505752, -25282.48283654247, -3270.5296004449847, -32833.30444494539, -34604.47902732838, -18179.657242257268, -17992.86371384427, -31556.639856891616, -30681.814930655353, 0.0, 0.0, 0.0, 192.0, 0.0, 0.0, 0.0, 0.0, 0.0, 0.0, 0.0, 0.0, 0.0, 1.6731203634594827E9, 0.0, 2023-01-07 14:39:23.459
84.0, -31354.200107359902, -27662.206013465646, -33535.05981386421, -26007.305205739165, -29934.707872236715, -27837.55544871753, -33772.167119046106, -28503.25745382994, -25266.255470067917, -3284.432385496186, -32831.31513968887, -34614.60436756663, -18182.898245203287, -17989.645062642703, -31561.892516838616, -30698.6457942302, 0.0, 0.0, 0.0, 192.0, 0.0, 0.0, 0.0, 0.0, 0.0, 0.0, 0.0, 0.0, 0.0, 1.673120363459489E9, 0.0, 2023-01-07 14:39:23.459
86.0, -31371.478005823854, -27669.224461224614, -33568.54272705826, -25974.023458245214, -29958.467776592708, -27803.804314590016, -33774.625810936195, -28455.49177592895, -25264.266164811394, -3284.2312197960878, -32827.6494535982, -34615.3196233892, -18163.49693101608, -17984.928844562633, -31558.830327848238, -30687.380515024724, -0.11900000000000001, 0.452, -0.132, 192.0, 124.0, 72.0, 14.0, 32.0, 123.5, 96.0, 0.0, 0.0, 0.0, 1.673120363459494E9, 0.0, 2023-01-07 14:39:23.459
88.0, -31355.11652888257, -27663.211841966135, -33538.77020344379, -26004.645348148984, -29949.281209621575, -27830.31348351401, -33768.881412611176, -28500.217616584017, -25263.8638334112, -3259.3760799617867, -32823.40262215169, -34585.345934074634, -18170.582434008415, -17970.84724555579, -31558.897383081603, -30666.79455838139, -0.11900000000000001, 0.452, -0.132, 192.0, 0.0, 0.0, 0.0, 0.0, 0.0, 0.0, 0.0, 0.0, 0.0, 1.6731203634594994E9, 0.0, 2023-01-07 14:39:23.459
90.0, -31371.500357568308, -27670.587917636385, -33573.43775909398, -25983.2323769608, -29967.02849471909, -27815.986015318158, -33788.41683726512, -28469.48396795797, -25257.09125484124, -3288.992141365068, -32826.95654952008, -34629.468277629414, -18174.91867243274, -17978.916225304154, -31569.2015372755, -30693.951927894585, -0.11900000000000001, 0.452, -0.132, 192.0, 0.0, 0.0, 0.0, 0.0, 0.0, 0.0, 0.0, 0.0, 0.0, 1.6731203634595044E9, 0.0, 2023-01-07 14:39:23.459
92.0, -31349.707406724385, -27657.646257596763, -33539.64192147755, -26006.85817085006, -29941.748671740137, -27839.835326651973, -33779.96787786101, -28506.07377363131, -25269.205900336015, -3256.649167138239, -32829.571703621354, -34581.993172406335, -18171.230634597618, -17968.65677459917, -31574.275383266853, -30675.198814296582, -0.11900000000000001, 0.452, -0.132, 192.0, 0.0, 0.0, 0.0, 0.0, 0.0, 0.0, 0.0, 0.0, 0.0, 1.6731203634595096E9, 0.0, 2023-01-07 14:39:23.459
94.0, -31372.39442734652, -27675.371190949823, -33569.3250381142, -25986.786304329195, -29962.2228696612, -27826.871314867894, -33782.806549406836, -28472.568508692802, -25252.799719905823, -3303.386664794286, -32822.48620062902, -34637.47020214441, -18167.229672340116, -17985.532341662925, -31568.06159830828, -30705.306614077883, -0.11900000000000001, 0.452, -0.132, 192.0, 0.0, 0.0, 0.0, 0.0, 0.0, 0.0, 0.0, 0.0, 0.0, 1.6731203634595146E9, 0.0, 2023-01-07 14:39:23.459
96.0, -31362.649066764006, -27674.275955471512, -33549.20846810442, -26006.25467374977, -29957.39489285885, -27842.249315053145, -33773.35176150224, -28500.843465428767, -25272.33514455976, -3264.5393329309622, -32840.12172700426, -34580.78617820575, -18185.6922132602, -17980.905530560678, -31574.72241815596, -30667.576869437322, -0.17450000000000002, 0.684, -0.198, 192.0, 124.0, 104.0, 14.0, 80.0, 123.5, 96.0, 0.0, 0.0, 0.0, 1.6731203634595199E9, 0.0, 2023-01-07 14:39:23.459
98.0, -31372.036799435235, -27674.544176404976, -33565.01115143432, -25978.314993180633, -29959.11597718191, -27816.433050207266, -33778.805587149334, -28466.600592923238, -25246.965914602988, -3315.65777250025, -32826.42010765315, -34646.61206562663, -18174.762210221554, -17976.61399562526, -31560.886688338127, -30695.874177917744, -0.17450000000000002, 0.684, -0.198, 192.0, 0.0, 0.0, 0.0, 0.0, 0.0, 0.0, 0.0, 0.0, 0.0, 1.673120363459525E9, 0.0, 2023-01-07 14:39:23.459
100.0, -31353.507203281788, -27660.082597742392, -33539.708976710914, -25986.09340025108, -29947.761290998616, -27819.897570597837, -33770.53544170087, -28479.385790751672, -25264.132054344664, -3247.5073036560184, -32829.303482687894, -34553.87467788156, -18177.086791644906, -17960.453684384072, -31560.037322048825, -30639.190153979085, -0.17450000000000002, 0.684, -0.198, 192.0, 0.0, 0.0, 0.0, 0.0, 0.0, 0.0, 0.0, 0.0, 0.0, 1.67312036345953E9, 0.0, 2023-01-07 14:39:23.459
102.0, -31372.193261646422, -27672.912499059737, -33559.423215320494, -25985.109923495045, -29951.11405266691, -27822.624483421387, -33784.86290989672, -28472.322639503796, -25242.920248856575, -3323.2126621261436, -32821.50272387299, -34642.02995801329, -18171.141227619795, -17974.93761479111, -31555.96930455796, -30690.308593548372, -0.17450000000000002, 0.684, -0.198, 192.0, 0.0, 0.0, 0.0, 0.0, 0.0, 0.0, 0.0, 0.0, 0.0, 1.6731203634595351E9, 0.0, 2023-01-07 14:39:23.459
104.0, -31346.578162500642, -27650.784272048986, -33533.40578477452, -25975.744542568274, -29932.852677446925, -27808.587587903454, -33758.13022352818, -28465.997095822942, -25271.977516648476, -3245.6968123551387, -32833.773831578954, -34548.376148745556, -18173.13053287632, -17951.64709706868, -31559.947915071003, -30638.54195338988, -0.17450000000000002, 0.684, -0.198, 192.0, 0.0, 0.0, 0.0, 0.0, 0.0, 0.0, 0.0, 0.0, 0.0, 1.6731203634595404E9, 0.0, 2023-01-07 14:39:23.459
106.0, -31337.05631936268, -27641.62005682231, -33526.58850271565, -25956.387931869976, -29932.651511746826, -27786.235843448147, -33731.062260992796, -28437.38686292015, -25230.09034753923, -3307.2758683295096, -32804.627156809234, -34626.94253050596, -18160.613555981345, -17955.201024437076, -31535.562161870264, -30679.222128298537, -0.19525, 0.795, -0.234, 192.0, 124.5, 32.0, 14.0, 40.0, 123.5, 72.0, 0.0, 0.0, 0.0, 1.6731203634595456E9, 0.0, 2023-01-07 14:39:23.459
108.0, -31328.719118680852, -27634.154574174237, -33523.28044453626, -25956.767911525716, -29932.025662902077, -27788.605128360407, -33741.902857053625, -28445.567601390794, -25236.125318542163, -3211.163367171689, -32799.240386395504, -34512.367488428055, -18153.55040473347, -17932.670466026124, -31524.162772198055, -30604.209673906527, -0.19525, 0.795, -0.234, 192.0, 0.0, 0.0, 0.0, 0.0, 0.0, 0.0, 0.0, 0.0, 0.0, 1.6731203634595509E9, 0.0, 2023-01-07 14:39:23.459
110.0, -31361.53147954124, -27662.56364137693, -33549.07435763769, -25995.235263733302, -29962.69225629476, -27827.94419860175, -33783.767674418414, -28488.974689123, -25231.52085918437, -3313.2437840990765, -32808.4940086, -34632.50811487533, -18159.384210036304, -17968.142684476697, -31542.87118230715, -30693.84016917231, -0.19525, 0.795, -0.234, 192.0, 0.0, 0.0, 0.0, 0.0, 0.0, 0.0, 0.0, 0.0, 0.0, 1.6731203634595559E9, 0.0, 2023-01-07 14:39:23.459
112.0, -31360.68211325194, -27655.76871106252, -33549.81196520472, -25980.19253971488, -29941.435747317762, -27812.40973620531, -33779.40908424963, -28471.137997047663, -25278.19130160705, -3240.2206349635885, -32837.37246243626, -34548.085576067635, -18181.847713213887, -17959.336097161307, -31557.690388881016, -30646.566229649336, -0.19525, 0.795, -0.234, 192.0, 0.0, 0.0, 0.0, 0.0, 0.0, 0.0, 0.0, 0.0, 0.0, 1.6731203634595652E9, 0.0, 2023-01-07 14:39:23.459
114.0, -31360.279781851743, -27653.220612194615, -33536.62443597608, -25986.316917695633, -29939.804069972524, -27815.89660834034, -33762.71233114151, -28479.184625051574, -25250.00575184891, -3314.1155021328336, -32824.05082274089, -34639.325396934204, -18170.962413664154, -17964.141722219196, -31547.497993409397, -30701.015079142464, -0.19525, 0.795, -0.234, 192.0, 0.0, 0.0, 0.0, 0.0, 0.0, 0.0, 0.0, 0.0, 0.0, 1.6731203634595704E9, 0.0, 2023-01-07 14:39:23.459
116.0, -31373.109683169092, -27660.90961228724, -33558.99853217584, -25980.460760648344, -29942.151003140334, -27810.375727459876, -33785.13113083019, -28469.10398830223, -25279.890034185653, -3239.3265651853762, -32841.93221830514, -34555.12637557106, -18170.805951452967, -17947.579079577816, -31554.739958612918, -30648.06379652784, -0.210625, 0.8445, -0.254, 192.0, 124.0, 120.0, 13.5, 120.0, 123.5, 56.0, 0.0, 0.0, 0.0, 1.6731203634595757E9, 0.0, 2023-01-07 14:39:23.459
118.0, -31385.60430831961, -27680.95912706365, -33558.43973856446, -26027.131203071025, -29943.64857001884, -27844.998579621148, -33808.46635204153, -28519.104840648753, -25264.28851655585, -3318.652906257261, -32842.245142727515, -34654.502231419356, -18175.231596855116, -17980.838475327313, -31562.652476150095, -30720.08111716284, -0.210625, 0.8445, -0.254, 192.0, 0.0, 0.0, 0.0, 0.0, 0.0, 0.0, 0.0, 0.0, 0.0, 1.673120363459581E9, 0.0, 2023-01-07 14:39:23.459
120.0, -31400.35645966011, -27693.05142081397, -33586.558233089236, -26011.75320288577, -29961.820538261003, -27831.811050392516, -33810.32154683132, -28490.896939146154, -25297.994947194453, -3273.748251646549, -32871.235355286044, -34602.981460449875, -18191.928349963233, -18005.738318650525, -31586.904118884104, -30690.17448308164, -0.210625, 0.8445, -0.254, 192.0, 0.0, 0.0, 0.0, 0.0, 0.0, 0.0, 0.0, 0.0, 0.0, 1.673120363459586E9, 0.0, 2023-01-07 14:39:23.459
122.0, -31384.12909318556, -27684.222481754125, -33552.941209428456, -26026.080671081625, -29945.816689231004, -27843.009274364624, -33784.5723372188, -28509.627700999703, -25266.344877045736, -3320.530452791507, -32848.77185210846, -34661.78890011179, -18174.762210221554, -17989.08626903132, -31567.86043260818, -30723.344471853314, -0.210625, 0.8445, -0.254, 192.0, 0.0, 0.0, 0.0, 0.0, 0.0, 0.0, 0.0, 0.0, 0.0, 1.6731203634595912E9, 0.0, 2023-01-07 14:39:23.459
124.0, -31388.666497309983, -27682.255528242058, -33572.00724744883, -25985.109923495045, -29957.46194809222, -27810.621596648885, -33776.92804061509, -28462.15259577663, -25296.519732060402, -3276.944551103658, -32865.1556807942, -34610.29048088676, -18180.864236457855, -17988.70628937558, -31574.945935600514, -30685.055933601372, -0.210625, 0.8445, -0.254, 192.0, 0.0, 0.0, 0.0, 0.0, 0.0, 0.0, 0.0, 0.0, 0.0, 1.6731203634595962E9, 0.0, 2023-01-07 14:39:23.459
126.0, -31371.187433145933, -27674.208900238147, -33534.83629641966, -26008.065165050648, -29952.410453845318, -27829.821745135992, -33769.39550273365, -28502.430439285094, -25243.367283745683, -3293.0601588559343, -32822.106220973285, -34627.47897237289, -18158.9371751472, -17971.9424810341, -31545.352225941686, -30689.45922725907, -0.22431250000000003, 0.87025, -0.265, 192.0, 124.0, 72.0, 14.0, 0.0, 123.5, 48.0, 0.0, 0.0, 0.0, 1.6731203634596016E9, 0.0, 2023-01-07 14:39:23.459
128.0, -31379.97166871687, -27671.37022869232, -33568.319209613706, -25973.50936812274, -29972.16939594381, -27803.670204123286, -33786.69575294206, -28461.05736029832, -25285.321508088295, -3279.3361877603757, -32847.49780267451, -34605.86483548461, -18191.88364647432, -17987.56635040836, -31570.922621598558, -30679.624459698734, -0.22431250000000003, 0.87025, -0.265, 192.0, 0.0, 0.0, 0.0, 0.0, 0.0, 0.0, 0.0, 0.0, 0.0, 1.673120363459607E9, 0.0, 2023-01-07 14:39:23.459
130.0, -31360.54800278521, -27661.42370240971, -33528.98013937237, -25997.850417834572, -29944.810860730515, -27826.960721845713, -33783.81237790732, -28504.531503263894, -25252.933830372553, -3277.928027859691, -32822.06151748437, -34609.46346634191, -18177.422067811738, -17968.634422854713, -31558.271534236854, -30679.02096259844, -0.22431250000000003, 0.87025, -0.265, 192.0, 0.0, 0.0, 0.0, 0.0, 0.0, 0.0, 0.0, 0.0, 0.0, 1.673120363459612E9, 0.0, 2023-01-07 14:39:23.459
132.0, -31369.086369167137, -27659.81437680893, -33551.667159994504, -25957.974905726303, -29949.348264854943, -27795.958852286203, -33788.64035470967, -28453.904802072622, -25263.6626677111, -3261.9912340630576, -32826.68832858662, -34592.94552718944, -18179.143152134795, -17958.240861682996, -31556.259877235876, -30661.25132575647, -0.22431250000000003, 0.87025, -0.265, 192.0, 0.0, 0.0, 0.0, 0.0, 0.0, 0.0, 0.0, 0.0, 0.0, 1.6731203634596174E9, 0.0, 2023-01-07 14:39:23.459
134.0, -31374.897822725514, -27677.271089228525, -33532.15408708502, -26006.947577827883, -29951.87401197839, -27838.494221984653, -33794.049476867855, -28513.181628368096, -25259.03585660885, -3269.099088799845, -32822.26268318447, -34593.72783824537, -18186.45217257168, -17968.343850176796, -31554.09175802371, -30667.085131059306, -0.22431250000000003, 0.87025, -0.265, 192.0, 0.0, 0.0, 0.0, 0.0, 0.0, 0.0, 0.0, 0.0, 0.0, 1.6731203634596224E9, 0.0, 2023-01-07 14:39:23.459
136.0, -31395.953166002415, -27686.971746322128, -33564.63117177858, -25975.543376868176, -29961.79818651655, -27812.633253649863, -33795.83761642428, -28470.266279013907, -25281.633470253168, -3290.4003012657527, -32843.988578795026, -34627.031937483785, -18193.671786030744, -17976.16696073615, -31569.67092390906, -30688.341640036302, -0.23515625, 0.8851249999999999, -0.2695, 192.0, 124.0, 40.0, 14.0, 16.0, 123.5, 56.0, 0.0, 0.0, 0.0, 1.6731203634596276E9, 0.0, 2023-01-07 14:39:23.459
138.0, -31380.46340709489, -27682.00965905305, -33528.913084139, -26005.85234234957, -29932.070366390988, -27827.854791623926, -33776.39159874816, -28505.671442231112, -25278.414819051603, -3260.2477979955434, -32837.126593247245, -34593.526672545275, -18183.54644579249, -17963.493521629993, -31552.348321956197, -30661.228974012018, -0.23515625, 0.8851249999999999, -0.2695, 192.0, 0.0, 0.0, 0.0, 0.0, 0.0, 0.0, 0.0, 0.0, 0.0, 1.6731203634596329E9, 0.0, 2023-01-07 14:39:23.459
140.0, -31415.242721467344, -27703.735554663606, -33578.60101206315, -25994.162379999445, -29960.16650917131, -27826.75955614562, -33796.575223991305, -28484.213767554018, -25273.966821904996, -3301.1291386043, -32845.12851776225, -34641.04648125726, -18182.048878913985, -17979.31855670435, -31558.606810403686, -30690.956794137575, -0.23515625, 0.8851249999999999, -0.2695, 192.0, 0.0, 0.0, 0.0, 0.0, 0.0, 0.0, 0.0, 0.0, 0.0, 1.673120363459638E9, 0.0, 2023-01-07 14:39:23.459
142.0, -31409.565378375697, -27703.24381628559, -33564.184136889475, -26031.73566242882, -29956.523174825095, -27865.00339090865, -33795.61409897973, -28530.660692532147, -25330.33792142128, -3277.9950830930575, -32869.31310526289, -34601.08156217117, -18200.93610297872, -17994.27187374495, -31575.05769432279, -30675.757607907966, -0.23515625, 0.8851249999999999, -0.2695, 192.0, 0.0, 0.0, 0.0, 0.0, 0.0, 0.0, 0.0, 0.0, 0.0, 1.6731203634596431E9, 0.0, 2023-01-07 14:39:23.459
144.0, -31407.039631252246, -27700.852179628873, -33582.66902955402, -26000.06324053565, -29964.748616784647, -27838.4718702402, -33792.529558244896, -28489.8240554123, -25282.684002242568, -3333.0921331753893, -32864.61923892728, -34665.78986236928, -18173.421105554236, -18009.001673340998, -31574.67771466705, -30712.190951370118, -0.23515625, 0.8851249999999999, -0.2695, 192.0, 0.0, 0.0, 0.0, 0.0, 0.0, 0.0, 0.0, 0.0, 0.0, 1.6731203634596498E9, 0.0, 2023-01-07 14:39:23.459
146.0, -31382.229194906857, -27683.395467209277, -33547.68854948146, -26006.925226083426, -29946.53194505357, -27836.23669579467, -33763.82991836428, -28495.993136881967, -25264.310868300305, -3267.7579841325264, -32852.45988994359, -34584.20599510741, -18181.244216113595, -17984.727678862535, -31562.16073777208, -30653.852898341764, -0.23515625, 0.8851249999999999, -0.2695, 192.0, 0.0, 0.0, 0.0, 0.0, 0.0, 0.0, 0.0, 0.0, 0.0, 1.6731203634596548E9, 0.0, 2023-01-07 14:39:23.459
148.0, -31401.697564327427, -27695.599519681877, -33568.45332008044, -25996.978699800817, -29968.07902670849, -27831.22990503668, -33793.80360767885, -28485.241947798964, -25259.438188009048, -3327.1465691502776, -32834.37732867924, -34656.603295398156, -18184.731088248624, -17992.997824310998, -31561.66899939406, -30694.17544533914, -0.23600000000000002, 0.91, -0.264, 192.0, 124.0, 80.0, 14.0, 56.0, 123.5, 96.0, 0.0, 0.0, 0.0, 1.6731203634596603E9, 0.0, 2023-01-07 14:39:23.459
150.0, -31397.942471258935, -27692.894958602785, -33547.2191628479, -26005.897045838483, -29941.01106417311, -27833.73330041567, -33782.82890115129, -28500.821113684313, -25272.446903282038, -3265.0534230534345, -32847.83307884134, -34575.19824209192, -18202.143097179305, -17984.392402695707, -31569.514461697872, -30649.471956428526, -0.23600000000000002, 0.91, -0.264, 192.0, 0.0, 0.0, 0.0, 0.0, 0.0, 0.0, 0.0, 0.0, 0.0, 1.6731203634596653E9, 0.0, 2023-01-07 14:39:23.459
152.0, -31405.54206437374, -27692.492627202588, -33554.14820362904, -25987.34509794058, -29956.232602147174, -27815.874256595882, -33769.1719852891, -28474.8707383717, -25278.906557429622, -3338.5012553335737, -32846.290808473925, -34664.96284782444, -18185.26753011555, -17991.813181854868, -31556.52809816934, -30693.571948238845, -0.23600000000000002, 0.91, -0.264, 192.0, 0.0, 0.0, 0.0, 0.0, 0.0, 0.0, 0.0, 0.0, 0.0, 1.6731203634596705E9, 0.0, 2023-01-07 14:39:23.459
154.0, -31381.290421639733, -27671.81726358143, -33537.272636565285, -25984.23820546129, -29944.430881074775, -27810.286320482057, -33755.85034559373, -28470.95918309202, -25291.57999653578, -3240.3770971747754, -32839.428822926144, -34551.19246854693, -18189.31319586196, -17956.966812249044, -31542.75942358487, -30620.168819447616, -0.23600000000000002, 0.91, -0.264, 192.0, 0.0, 0.0, 0.0, 0.0, 0.0, 0.0, 0.0, 0.0, 0.0, 1.6731203634596756E9, 0.0, 2023-01-07 14:39:23.459
156.0, -31392.890977012037, -27679.77448460752, -33550.39311056055, -25987.300394451668, -29948.54360205455, -27813.92965482827, -33771.67538066809, -28475.138959305164, -25230.380920217147, -3315.054275399956, -32823.33556691832, -34645.0250917703, -18178.047916656484, -17967.472132143037, -31542.893534051604, -30678.46216898706, -0.23600000000000002, 0.91, -0.264, 192.0, 0.0, 0.0, 0.0, 0.0, 0.0, 0.0, 0.0, 0.0, 0.0, 1.6731203634596808E9, 0.0, 2023-01-07 14:39:23.459
158.0, -31384.93375598595, -27673.717161860128, -33550.840145449656, -25989.133237497, -29951.516384067105, -27816.388346718355, -33779.25262203844, -28483.45380824254, -25290.57416803529, -3247.26143446701, -32852.34813122131, -34558.97087561737, -18203.037166957518, -17966.846283298288, -31564.887650595625, -30633.02107250942, -0.228, 0.896, -0.266, 192.0, 124.0, 112.0, 14.0, 0.0, 123.5, 88.0, 0.0, 0.0, 0.0, 1.673120363459686E9, 0.0, 2023-01-07 14:39:23.459
160.0, -31387.191282175936, -27674.454769427153, -33544.67106397999, -25997.403382945467, -29959.071273693, -27825.12787880038, -33793.66949721211, -28498.228311327497, -25248.351722759216, -3318.5411475349842, -32825.034299496925, -34645.2262574704, -18188.709698761668, -17973.30593744587, -31553.71177836797, -30686.955831880074, -0.228, 0.896, -0.266, 192.0, 0.0, 0.0, 0.0, 0.0, 0.0, 0.0, 0.0, 0.0, 0.0, 1.6731203634596913E9, 0.0, 2023-01-07 14:39:23.459
162.0, -31396.914291013993, -27680.735609619096, -33551.26482859431, -26000.06324053565, -29946.06255842001, -27823.943236344247, -33814.255453855454, -28498.07184911631, -25295.357441348726, -3243.752210587527, -32845.62025614027, -34553.36058775909, -18176.080963144417, -17974.8929113022, -31561.646647649606, -30639.190153979085, -0.228, 0.896, -0.266, 192.0, 0.0, 0.0, 0.0, 0.0, 0.0, 0.0, 0.0, 0.0, 0.0, 1.6731203634596963E9, 0.0, 2023-01-07 14:39:23.459
164.0, -31410.235930709357, -27697.588824938397, -33552.382415817076, -26027.53353447122, -29944.83321247497, -27846.004408121637, -33804.800665950854, -28518.903674948655, -25254.14082457314, -3332.488636075096, -32833.416203667664, -34660.87247858912, -18181.803009724976, -17993.355452222284, -31559.72439762645, -30707.8994164347, -0.228, 0.896, -0.266, 192.0, 0.0, 0.0, 0.0, 0.0, 0.0, 0.0, 0.0, 0.0, 0.0, 1.6731203634597013E9, 0.0, 2023-01-07 14:39:23.459
166.0, -31397.093104969634, -27679.975650307617, -33562.48540431087, -25994.363545699543, -29946.375482842384, -27813.080288538968, -33786.6734011976, -28479.028162840386, -25301.48181932948, -3257.945568316647, -32857.37727372376, -34578.573355504675, -18204.60178906939, -17982.93953930611, -31563.43478720603, -30650.477784929015, -0.228, 0.896, -0.266, 192.0, 0.0, 0.0, 0.0, 0.0, 0.0, 0.0, 0.0, 0.0, 0.0, 1.6731203634597065E9, 0.0, 2023-01-07 14:39:23.459
168.0, -31381.670401295472, -27671.14671124777, -33535.77506968678, -26004.444182448886, -29935.937218181756, -27822.4680212102, -33771.22834577899, -28496.507227004437, -25246.18360354705, -3313.087321887889, -32830.5998838663, -34647.439080171476, -18180.50660854657, -17979.385611937716, -31548.48147016543, -30692.432009271626, -0.23, 0.89, -0.272, 192.0, 124.0, 104.0, 13.5, 104.0, 123.5, 64.0, 0.0, 0.0, 0.0, 1.6731203634597118E9, 0.0, 2023-01-07 14:39:23.459
170.0, -31386.006639719802, -27667.637487368287, -33559.55732578723, -25976.66096409094, -29949.907058466324, -27804.653680879317, -33783.700619185045, -28466.913517345612, -25273.832711438266, -3243.372230931787, -32834.757308334985, -34561.295457040724, -18185.31223360446, -17967.51683563195, -31546.402757931086, -30638.653712112155, -0.23, 0.89, -0.272, 192.0, 0.0, 0.0, 0.0, 0.0, 0.0, 0.0, 0.0, 0.0, 0.0, 1.6731203634597168E9, 0.0, 2023-01-07 14:39:23.459
172.0, -31368.192299388924, -27657.154519218748, -33530.45535450642, -25994.09532476608, -29938.664131005306, -27819.294073497545, -33769.529613200386, -28497.915386905122, -25250.13986231564, -3293.864821656325, -32815.82538078134, -34615.00669896683, -18171.45415204217, -17977.709231103567, -31541.083042750724, -30677.054009086372, -0.23, 0.89, -0.272, 192.0, 0.0, 0.0, 0.0, 0.0, 0.0, 0.0, 0.0, 0.0, 0.0, 1.673120363459722E9, 0.0, 2023-01-07 14:39:23.459
174.0, -31372.01444769078, -27653.04179823897, -33541.87709592308, -25954.152757424446, -29948.78947124356, -27784.20183470271, -33759.35956947322, -28449.032121781365, -25281.879339442177, -3241.0252977639793, -32818.06055522687, -34557.16038431649, -18190.11785866235, -17965.236957697507, -31547.185068987023, -30633.11047948724, -0.23, 0.89, -0.272, 192.0, 0.0, 0.0, 0.0, 0.0, 0.0, 0.0, 0.0, 0.0, 0.0, 1.6731203634597273E9, 0.0, 2023-01-07 14:39:23.459
176.0, -31359.653933006997, -27652.48300462759, -33505.15317978301, -25987.792132829683, -29938.842944960947, -27806.35241345792, -33762.62292416369, -28493.646203714157, -25236.95233308701, -3270.2390277670656, -32798.50277882848, -34596.611213280106, -18183.92642544823, -17967.025097253932, -31534.690443836505, -30653.696436130576, -0.23, 0.89, -0.272, 192.0, 0.0, 0.0, 0.0, 0.0, 0.0, 0.0, 0.0, 0.0, 0.0, 1.6731203634597335E9, 0.0, 2023-01-07 14:39:23.459
178.0, -31380.664572794984, -27662.228365210103, -33537.87613366558, -25961.66294356143, -29937.568895526994, -27784.246538191623, -33777.86681388221, -28452.608400894216, -25260.95810663201, -3248.557835645418, -32816.89826451519, -34577.23225083736, -18166.26854732854, -17962.80061755188, -31533.505801380375, -30632.350520175758, -0.23, 0.888, -0.276, 192.0, 124.0, 104.0, 13.5, 96.0, 123.5, 48.0, 0.0, 0.0, 0.0, 1.6731203634597385E9, 0.0, 2023-01-07 14:39:23.459
180.0, -31372.886165724536, -27662.72010358812, -33510.58465368565, -25993.558882899153, -29919.039299373544, -27818.467058952698, -33781.37603776169, -28504.866779430722, -25250.922173371575, -3269.4120132222192, -32811.17621793463, -34594.443094067945, -18173.219939854138, -17964.40994315266, -31528.76723155585, -30648.51083141695, -0.23, 0.888, -0.276, 192.0, 0.0, 0.0, 0.0, 0.0, 0.0, 0.0, 0.0, 0.0, 0.0, 1.6731203634597435E9, 0.0, 2023-01-07 14:39:23.459
182.0, -31394.321488657177, -27676.824054339417, -33557.769186230806, -25967.47439711981, -29943.581514785474, -27802.50791341161, -33795.100008857255, -28472.21088078152, -25260.689885698546, -3264.874609097792, -32825.61544485277, -34592.58789927815, -18184.93225394872, -17970.735486833513, -31537.48441189342, -30653.15999426365, -0.23, 0.888, -0.276, 192.0, 0.0, 0.0, 0.0, 0.0, 0.0, 0.0, 0.0, 0.0, 0.0, 1.6731203634597487E9, 0.0, 2023-01-07 14:39:23.459
184.0, -31372.372075602067, -27665.402312922757, -33519.74886891233, -25992.173074742925, -29922.50381976412, -27816.611864162907, -33769.35079924474, -28500.463485773027, -25256.465405996492, -3256.5150566715074, -32816.786505792916, -34580.65206773902, -18190.430783084725, -17960.40898089516, -31534.62338860314, -30645.292180215383, -0.23, 0.888, -0.276, 192.0, 0.0, 0.0, 0.0, 0.0, 0.0, 0.0, 0.0, 0.0, 0.0, 1.6731203634597547E9, 0.0, 2023-01-07 14:39:23.459
186.0, -31412.06877375469, -27694.52663594802, -33565.83816597917, -25982.651231604963, -29959.585363815473, -27809.302843726022, -33793.53538674538, -28471.49562495895, -25264.064999111295, -3274.619969680306, -32822.5979593513, -34606.93771921846, -18189.492009817604, -17969.21556821055, -31536.299769437286, -30651.39420645168, -0.23, 0.888, -0.276, 192.0, 0.0, 0.0, 0.0, 0.0, 0.0, 0.0, 0.0, 0.0, 0.0, 1.673120363459761E9, 0.0, 2023-01-07 14:39:23.459
188.0, -31386.140750186536, -27679.640374140785, -33523.66042419201, -26005.651176649473, -29934.283189092064, -27825.17258228929, -33776.39159874816, -28508.085430632287, -25281.09702838624, -3268.808516121926, -32840.0993752598, -34593.325506845176, -18191.749536007588, -17980.436143927116, -31550.80605158878, -30654.612857653246, -0.24, 0.896, -0.274, 192.0, 124.0, 64.0, 14.0, 0.0, 123.5, 56.0, 0.0, 0.0, 0.0, 1.673120363459766E9, 0.0, 2023-01-07 14:39:23.459
190.0, -31394.746171801828, -27678.34397296238, -33551.35423557213, -25976.348039668566, -29945.324950852988, -27804.094887267936, -33786.31577328632, -28465.997095822942, -25248.307019270305, -3280.4090714942304, -32816.987671493014, -34613.15150417704, -18182.808838225465, -17979.02798402643, -31531.807068801772, -30656.177479765116, -0.24, 0.896, -0.274, 192.0, 0.0, 0.0, 0.0, 0.0, 0.0, 0.0, 0.0, 0.0, 0.0, 1.673120363459771E9, 0.0, 2023-01-07 14:39:23.459
192.0, -31369.756921500793, -27663.211841966135, -33525.62737770407, -25997.42573468992, -29936.20543911522, -27827.18423929027, -33774.91638361411, -28503.97270965251, -25268.04360962434, -3243.9310245431693, -32824.408450652176, -34558.68030293945, -18187.972091194642, -17975.675222358135, -31549.77787134384, -30642.654674369656, -0.24, 0.896, -0.274, 192.0, 0.0, 0.0, 0.0, 0.0, 0.0, 0.0, 0.0, 0.0, 0.0, 1.6731203634597769E9, 0.0, 2023-01-07 14:39:23.459
194.0, -31382.02802920676, -27666.98928677908, -33536.78089818727, -25961.99821972826, -29946.509593309118, -27799.378669187867, -33767.04856956584, -28459.783310864368, -25239.90276335511, -3281.191382550166, -32805.63298530972, -34607.027126196284, -18178.31613758995, -17957.45855062706, -31533.77402231384, -30663.531203690913, -0.24, 0.896, -0.274, 192.0, 0.0, 0.0, 0.0, 0.0, 0.0, 0.0, 0.0, 0.0, 0.0, 1.673120363459782E9, 0.0, 2023-01-07 14:39:23.459
196.0, -31380.753979772806, -27672.80074033746, -33517.93837761145, -25989.513217152744, -29934.730223981172, -27821.931579343272, -33765.662761409614, -28494.070886858808, -25266.344877045736, -3232.8892627822474, -32812.13734294622, -34534.316901483166, -18187.055669671976, -17951.64709706868, -31532.81289730226, -30612.39041237717, -0.24, 0.896, -0.274, 192.0, 0.0, 0.0, 0.0, 0.0, 0.0, 0.0, 0.0, 0.0, 0.0, 1.673120363459787E9, 0.0, 2023-01-07 14:39:23.459
198.0, -31396.89193926954, -27681.204996252658, -33543.79934594624, -25981.265423448735, -29945.12378515289, -27810.48748618215, -33771.54127020136, -28470.53449994737, -25260.712237443, -3317.334153334398, -32822.240331440014, -34631.54698986375, -18185.245178371093, -17984.928844562633, -31540.837173561715, -30672.181328795115, -0.23600000000000002, 0.902, -0.268, 192.0, 124.0, 80.0, 14.0, 24.0, 123.5, 80.0, 0.0, 0.0, 0.0, 1.673120363459792E9, 0.0, 2023-01-07 14:39:23.459
200.0, -31363.83370922014, -27652.259487183033, -33515.07735432117, -25984.461722905842, -29918.458154017706, -27801.88206456686, -33751.335293213764, -28468.07580805729, -25264.109702600206, -3233.7833325604597, -32819.49106687201, -34533.914570082976, -18189.626120284334, -17950.283640656908, -31538.62435086064, -30616.19020893457, -0.23600000000000002, 0.902, -0.268, 192.0, 0.0, 0.0, 0.0, 0.0, 0.0, 0.0, 0.0, 0.0, 0.0, 1.6731203634597971E9, 0.0, 2023-01-07 14:39:23.459
0.0, -15683.123848810656, -13830.007771254514, -16780.259225399404, -12981.244979053137, -14972.24896815407, -13900.214600588633, -16884.753630727962, -14224.538412635138, -12647.846358757777, -1614.2876880511867, -16421.133747235985, -17265.493245779664, -9108.8499556601, -8980.461535508817, -15778.0740592568, -15314.834155420562, -0.22, 0.91, -0.27, 192.0, 124.5, 16.0, 14.0, 56.0, 123.5, 72.0, 0.0, 0.0, 0.0, 1.6731203640295317E9, 0.0, 2023-01-07 14:39:24.029
2.0, -31348.746281712807, -27651.387769149278, -33520.75469741281, -25983.031211260703, -29924.850752931925, -27814.84607635094, -33745.38972918865, -28475.87656687219, -25236.371187731173, -3251.195341491144, -32807.8905114997, -34574.63944848054, -18167.74376246259, -17933.69864627107, -31564.127691284146, -30663.911183346652, -0.22, 0.91, -0.27, 192.0, 0.0, 0.0, 0.0, 0.0, 0.0, 0.0, 0.0, 0.0, 0.0, 1.6731203640296872E9, 0.0, 2023-01-07 14:39:24.029
4.0, -31371.96974420187, -27660.84255705387, -33554.885811196065, -25950.93410622288, -29944.386177585864, -27786.63817484834, -33761.84061310776, -28431.9106855286, -25248.016446592384, -3232.4422278931415, -32806.527055087936, -34558.18856456144, -18174.091657887897, -17927.730730501502, -31554.896420824105, -30640.419499924126, -0.22, 0.91, -0.27, 192.0, 0.0, 0.0, 0.0, 0.0, 0.0, 0.0, 0.0, 0.0, 0.0, 1.6731203640296943E9, 0.0, 2023-01-07 14:39:24.029
6.0, -31359.184546373435, -27659.166176219725, -33518.45246773392, -25982.539472882687, -29922.0120813861, -27812.92382632778, -33767.20503177703, -28483.096180331253, -25245.200126791016, -3236.4431901506414, -32802.34727887479, -34559.57437271767, -18170.314213074947, -17929.40711133565, -31553.264743478867, -30644.57692439281, -0.22, 0.91, -0.27, 192.0, 0.0, 0.0, 0.0, 0.0, 0.0, 0.0, 0.0, 0.0, 0.0, 1.6731203640297096E9, 0.0, 2023-01-07 14:39:24.029
8.0, -31387.39244787603, -27675.594708394376, -33560.697264754446, -25956.969077225815, -29947.02368343159, -27792.673145851273, -33785.22053780801, -28451.62492413818, -25259.594650220235, -3261.4994956850405, -32822.55325586239, -34591.090332399646, -18190.721355762646, -17947.310858644352, -31568.888612853127, -30664.69349440259, -0.218, 0.896, -0.28, 192.0, 124.5, 24.0, 14.0, 0.0, 123.5, 32.0, 0.0, 0.0, 0.0, 1.6731203640297165E9, 0.0, 2023-01-07 14:39:24.029
10.0, -31359.318656840165, -27655.008751751036, -33518.87715087857, -25975.029286745703, -29918.368747039887, -27801.658547122308, -33753.078729281275, -28476.345953505752, -25256.644219952133, -3229.044762735935, -32814.64073832521, -34553.18177380345, -18179.32196609044, -17927.037826423388, -31554.985827801924, -30640.933590046596, -0.218, 0.896, -0.28, 192.0, 0.0, 0.0, 0.0, 0.0, 0.0, 0.0, 0.0, 0.0, 0.0, 1.6731203640297232E9, 0.0, 2023-01-07 14:39:24.029
12.0, -31373.579069802654, -27662.787158821484, -33557.188040874964, -25959.94185923837, -29951.851660233937, -27787.44283764873, -33761.84061310776, -28442.036025766854, -25247.032969836353, -3256.9620915606133, -32809.365726633754, -34593.30315510072, -18166.69323047319, -17934.726826516013, -31553.309446967778, -30664.380569980214, -0.218, 0.896, -0.28, 192.0, 0.0, 0.0, 0.0, 0.0, 0.0, 0.0, 0.0, 0.0, 0.0, 1.67312036402973E9, 0.0, 2023-01-07 14:39:24.029
14.0, -31338.397424029998, -27637.060300953424, -33510.67406066347, -25976.839778046582, -29914.47954350466, -27797.814047075994, -33741.969912286986, -28467.427607468082, -25240.95329534451, -3210.9622014715915, -32803.19664516409, -34542.38588123154, -18175.008079410563, -17925.920239200623, -31549.37553994364, -30638.519601645425, -0.218, 0.896, -0.28, 192.0, 0.0, 0.0, 0.0, 0.0, 0.0, 0.0, 0.0, 0.0, 0.0, 1.6731203640297368E9, 0.0, 2023-01-07 14:39:24.029
16.0, -31373.26614538028, -27663.56946987742, -33541.810040689714, -25970.737751810284, -29940.899305450836, -27795.422410419276, -33766.89210735466, -28448.58508689226, -25226.894048082122, -3259.0855072838676, -32792.043124680895, -34604.09904767264, -18163.02754438252, -17936.336152116794, -31539.697234594496, -30671.846052628287, -0.218, 0.896, -0.28, 192.0, 0.0, 0.0, 0.0, 0.0, 0.0, 0.0, 0.0, 0.0, 0.0, 1.6731203640297437E9, 0.0, 2023-01-07 14:39:24.029
18.0, -31372.863813980082, -27672.66662987073, -33525.247398048334, -26001.605510903064, -29934.797279214537, -27820.59047467595, -33769.46255796702, -28487.432418755583, -25270.547005003336, -3224.105027211312, -32816.6970988151, -34554.32171277067, -18182.78648648101, -17943.51106208695, -31556.684560380527, -30650.54484016238, -0.24, 0.884, -0.28600000000000003, 192.0, 124.0, 64.0, 13.5, 80.0, 123.5, 8.0, 0.0, 0.0, 0.0, 1.6731203640297506E9, 0.0, 2023-01-07 14:39:24.029
20.0, -31409.945358031437, -27701.612138940352, -33570.68849452597, -26007.61813016154, -29960.92646848279, -27825.79843113404, -33795.90467165764, -28482.738552419967, -25254.677266440067, -3295.5635542349287, -32824.6990233301, -34646.0756237597, -18165.50858801706, -17972.74714383449, -31570.58734543173, -30715.32019559386, -0.24, 0.884, -0.28600000000000003, 192.0, 0.0, 0.0, 0.0, 0.0, 0.0, 0.0, 0.0, 0.0, 0.0, 1.6731203640297575E9, 0.0, 2023-01-07 14:39:24.029
22.0, -31398.12128521458, -27695.286595259502, -33561.9713141884, -26022.258522779768, -29956.478471336184, -27836.706082428227, -33792.730723944995, -28505.559683508836, -25286.260281355415, -3235.3479546723315, -32844.3015032174, -34573.92419265797, -18191.749536007588, -17971.137818233707, -31586.83706365074, -30680.5408812214, -0.24, 0.884, -0.28600000000000003, 192.0, 0.0, 0.0, 0.0, 0.0, 0.0, 0.0, 0.0, 0.0, 0.0, 1.6731203640297644E9, 0.0, 2023-01-07 14:39:24.029
24.0, -31400.065886982193, -27694.303118503467, -33569.861479981126, -26000.06324053565, -29961.820538261003, -27822.22215202119, -33791.97076463351, -28484.34787802075, -25262.790949677343, -3307.253516585054, -32835.58432287983, -34666.95215308096, -18189.581416795423, -17984.75003060699, -31588.222871806967, -30734.095660936317, -0.24, 0.884, -0.28600000000000003, 192.0, 0.0, 0.0, 0.0, 0.0, 0.0, 0.0, 0.0, 0.0, 0.0, 1.673120364029771E9, 0.0, 2023-01-07 14:39:24.029
26.0, -31370.047494178714, -27671.90667055925, -33530.902389395524, -25975.2304524458, -29949.84000323296, -27808.386422203355, -33778.51501447141, -28478.58112795128, -25265.62962122317, -3208.4364543481415, -32818.90992151617, -34546.4538987224, -18186.7427452496, -17953.479940114015, -31573.58247918874, -30646.119194760227, -0.24, 0.884, -0.28600000000000003, 192.0, 0.0, 0.0, 0.0, 0.0, 0.0, 0.0, 0.0, 0.0, 0.0, 1.673120364029778E9, 0.0, 2023-01-07 14:39:24.029
28.0, -31388.46533160989, -27684.177778265213, -33531.192962073445, -25972.70470532235, -29951.11405266691, -27819.249370008634, -33797.93868040308, -28488.751171678447, -25235.745338886423, -3288.0533680979456, -32800.58149106282, -34639.5265626343, -18179.92546319073, -17957.011515737955, -31563.703008139495, -30695.6953639621, -0.248, 0.89, -0.28200000000000003, 192.0, 124.0, 32.0, 13.5, 104.0, 123.5, 24.0, 0.0, 0.0, 0.0, 1.673120364029785E9, 0.0, 2023-01-07 14:39:24.029
30.0, -31383.68205829645, -27681.897900330772, -33529.74009868385, -25970.447179132367, -29945.526116553083, -27822.17744853228, -33794.36240129023, -28489.332317034285, -25267.015429379397, -3205.5083758244964, -32810.77388653444, -34537.13322128454, -18173.398753809783, -17948.003762722466, -31556.215173746965, -30632.954017276053, -0.248, 0.89, -0.28200000000000003, 192.0, 0.0, 0.0, 0.0, 0.0, 0.0, 0.0, 0.0, 0.0, 0.0, 1.6731203640297918E9, 0.0, 2023-01-07 14:39:24.029
32.0, -31376.90947972649, -27677.71812411763, -33514.697374665426, -25966.647382574964, -29931.444517546242, -27810.331023970968, -33770.62484867869, -28478.804645395834, -25236.32648424226, -3294.803594923448, -32801.16263641866, -34637.649016100055, -18178.584358523414, -17970.355507177774, -31552.571839400753, -30694.93540465062, -0.248, 0.89, -0.28200000000000003, 192.0, 0.0, 0.0, 0.0, 0.0, 0.0, 0.0, 0.0, 0.0, 0.0, 1.6731203640297985E9, 0.0, 2023-01-07 14:39:24.029
34.0, -31386.073694953167, -27683.887205587293, -33526.27557829327, -25960.523004594208, -29934.484354792163, -27782.21252944619, -33771.116587056706, -28463.694866144047, -25269.451769525025, -3203.4073118456977, -32804.53774983141, -34529.26540723627, -18175.16454162175, -17936.44791083907, -31533.505801380375, -30612.43511586608, -0.248, 0.89, -0.28200000000000003, 192.0, 0.0, 0.0, 0.0, 0.0, 0.0, 0.0, 0.0, 0.0, 0.0, 1.6731203640298054E9, 0.0, 2023-01-07 14:39:24.029
36.0, -31394.79087529074, -27698.840522627896, -33522.83340964716, -25990.831970075604, -29944.07325316349, -27829.821745135992, -33781.174872061594, -28498.8765119167, -25241.24386802243, -3294.5353739899847, -32807.35406963278, -34635.838524799176, -18176.572701522437, -17973.998841523986, -31545.10635675268, -30687.000535368985, -0.248, 0.89, -0.28200000000000003, 192.0, 0.0, 0.0, 0.0, 0.0, 0.0, 0.0, 0.0, 0.0, 0.0, 1.6731203640298123E9, 0.0, 2023-01-07 14:39:24.029
38.0, -31398.434209636955, -27701.52273196253, -33532.57877022967, -25971.788283799684, -29946.040206675556, -27809.54871291503, -33778.06797958231, -28469.394560980152, -25278.124246373685, -3230.2517569365214, -32821.323909917344, -34551.68420692494, -18191.347204607395, -17956.40801863766, -31556.662208636073, -30638.38549117869, -0.248, 0.898, -0.28, 192.0, 124.0, 32.0, 14.0, 8.0, 123.5, 32.0, 0.0, 0.0, 0.0, 1.673120364029821E9, 0.0, 2023-01-07 14:39:24.029
40.0, -31395.93081425796, -27701.500380218076, -33509.511769951794, -25988.462685163344, -29936.719529237693, -27818.400003719333, -33763.360531730716, -28491.589843224272, -25233.97955107445, -3293.171917578211, -32799.01686895095, -34626.182571194484, -18165.866215928345, -17955.64805932618, -31542.58060962923, -30678.350410264782, -0.248, 0.898, -0.28, 192.0, 0.0, 0.0, 0.0, 0.0, 0.0, 0.0, 0.0, 0.0, 0.0, 1.6731203640298278E9, 0.0, 2023-01-07 14:39:24.029
42.0, -31418.975462791383, -27715.78314492502, -33553.61176176211, -25978.47145539182, -29966.335590640974, -27812.40973620531, -33802.721953716515, -28479.698715174047, -25283.10868538722, -3236.3537831728204, -32826.35305241979, -34555.19343080443, -18183.077059158928, -17956.07274247083, -31560.68552263803, -30635.09978474376, -0.248, 0.898, -0.28, 192.0, 0.0, 0.0, 0.0, 0.0, 0.0, 0.0, 0.0, 0.0, 0.0, 1.6731203640298345E9, 0.0, 2023-01-07 14:39:24.029
44.0, -31404.156256217513, -27709.21173205516, -33527.415517260495, -26000.71144112485, -29935.40077631483, -27829.285303269065, -33789.847348910254, -28513.807477212846, -25258.18649031955, -3302.22437408261, -32825.21311345257, -34628.976539251395, -18187.21213188316, -17971.204873467075, -31574.834176878237, -30690.97914588203, -0.248, 0.898, -0.28, 192.0, 0.0, 0.0, 0.0, 0.0, 0.0, 0.0, 0.0, 0.0, 0.0, 1.6731203640298417E9, 0.0, 2023-01-07 14:39:24.029
46.0, -31404.49153238434, -27701.56743545144, -33554.59523851815, -25965.172167440913, -29954.288000379565, -27792.69549759573, -33783.83472965178, -28467.49466270145, -25271.910461415107, -3251.5976728913397, -32833.215037967566, -34566.056378609705, -18194.767021509055, -17953.45758836956, -31571.1014355542, -30642.319398202828, -0.248, 0.898, -0.28, 192.0, 0.0, 0.0, 0.0, 0.0, 0.0, 0.0, 0.0, 0.0, 0.0, 1.6731203640298483E9, 0.0, 2023-01-07 14:39:24.029
48.0, -31368.68403776694, -27675.70646711665, -33511.411668230496, -25978.560862369643, -29932.629160002372, -27814.89077983985, -33760.1195287847, -28493.422686269605, -25221.350815457205, -3268.495591699552, -32795.8429212383, -34584.04953289623, -18180.148980635284, -17950.820082523835, -31554.67290337955, -30654.411691953148, -0.23800000000000002, 0.904, -0.27, 192.0, 124.0, 72.0, 14.0, 32.0, 123.5, 72.0, 0.0, 0.0, 0.0, 1.6731203640298553E9, 0.0, 2023-01-07 14:39:24.029
50.0, -31381.89391874003, -27680.42268519672, -33539.84308717764, -25954.84566150256, -29947.515421809607, -27779.977355000658, -33774.49170046946, -28454.24007823945, -25246.027141335864, -3245.1603704882114, -32802.72725853053, -34549.761956901784, -18185.133419648817, -17946.12621618822, -31561.221964504955, -30634.11630798773, -0.23800000000000002, 0.904, -0.27, 192.0, 0.0, 0.0, 0.0, 0.0, 0.0, 0.0, 0.0, 0.0, 0.0, 1.673120364029862E9, 0.0, 2023-01-07 14:39:24.029
52.0, -31373.78023550275, -27677.561661906442, -33500.48166519185, -25995.19056024439, -29929.946950667734, -27816.634215907365, -33762.89114509716, -28493.802665925345, -25232.861963851687, -3259.64430089525, -32788.10921765676, -34564.581163475654, -18177.6902887452, -17943.13108243121, -31547.877973065137, -30644.5322209039, -0.23800000000000002, 0.904, -0.27, 192.0, 0.0, 0.0, 0.0, 0.0, 0.0, 0.0, 0.0, 0.0, 0.0, 1.6731203640298688E9, 0.0, 2023-01-07 14:39:24.029
54.0, -31389.225290921368, -27677.29344097298, -33529.74009868385, -25957.99725747076, -29940.474622306185, -27789.230977205156, -33768.7696538889, -28447.333389202762, -25252.53149897236, -3258.996100306046, -32806.72822078803, -34570.30321005621, -18193.381213352826, -17952.92114650263, -31551.118976011156, -30639.6818923571, -0.23800000000000002, 0.904, -0.27, 192.0, 0.0, 0.0, 0.0, 0.0, 0.0, 0.0, 0.0, 0.0, 0.0, 1.6731203640298755E9, 0.0, 2023-01-07 14:39:24.029
56.0, -31367.54409879972, -27663.010676266036, -33495.81015060069, -25980.863092048538, -29929.768136712093, -27800.3621459439, -33751.04472053584, -28485.93485187708, -25255.14665307363, -3244.556873387918, -32798.68159278412, -34554.05349183721, -18195.54933256499, -17948.942535989587, -31543.787603829816, -30635.502116143958, -0.23800000000000002, 0.904, -0.27, 192.0, 0.0, 0.0, 0.0, 0.0, 0.0, 0.0, 0.0, 0.0, 0.0, 1.6731203640298824E9, 0.0, 2023-01-07 14:39:24.029
58.0, -31367.722912755362, -27653.220612194615, -33516.75373515532, -25935.95843743783, -29936.428956559776, -27765.135796682334, -33762.511165441414, -28435.15168847462, -25234.22542026346, -3247.4626001671077, -32787.46101706756, -34559.37320701757, -18165.35212580587, -17933.989218948987, -31538.53494388282, -30636.932627789098, -0.239, 0.898, -0.272, 192.0, 124.0, 64.0, 13.5, 112.0, 123.5, 56.0, 0.0, 0.0, 0.0, 1.673120364029889E9, 0.0, 2023-01-07 14:39:24.029
60.0, -31358.513994039775, -27653.824109294907, -33495.743095367325, -25976.99624025777, -29916.245331316633, -27791.466151650686, -33758.93488632856, -28486.337183277272, -25225.61999864817, -3214.717294540083, -32783.795330976885, -34526.270273479255, -18173.8904921878, -17937.8337189953, -31537.596170615696, -30630.24945619696, -0.239, 0.898, -0.272, 192.0, 0.0, 0.0, 0.0, 0.0, 0.0, 0.0, 0.0, 0.0, 0.0, 1.673120364029896E9, 0.0, 2023-01-07 14:39:24.029
62.0, -31389.426456621466, -27672.42076068172, -33535.88682840906, -25965.730961052297, -29946.286075864566, -27780.402038145312, -33772.9717818465, -28452.787214849857, -25233.465460951982, -3257.3420712163534, -32790.52320605794, -34577.12049211508, -18179.858407957367, -17942.773454519924, -31539.630179361127, -30655.126947775716, -0.239, 0.898, -0.272, 192.0, 0.0, 0.0, 0.0, 0.0, 0.0, 0.0, 0.0, 0.0, 0.0, 1.6731203640299027E9, 0.0, 2023-01-07 14:39:24.029
64.0, -31378.83172974965, -27672.353705448357, -33511.56813044169, -26007.2381505058, -29930.68455823476, -27806.195951246733, -33772.390636490665, -28491.88041590219, -25248.75405415941, -3224.6638208226946, -32799.12862767323, -34538.00493931829, -18183.54644579249, -17946.97558247752, -31548.213249231965, -30639.8830580572, -0.239, 0.898, -0.272, 192.0, 0.0, 0.0, 0.0, 0.0, 0.0, 0.0, 0.0, 0.0, 0.0, 1.6731203640299096E9, 0.0, 2023-01-07 14:39:24.029
66.0, -31389.202939176914, -27674.924156060715, -33537.16087784301, -25986.51808339573, -29935.579590270474, -27775.21643343168, -33774.625810936195, -28453.48011892797, -25258.566469975292, -3286.9134291307246, -32810.32685164533, -34621.33224264768, -18193.135344163817, -17975.65287061368, -31559.769101115362, -30693.236672072017, -0.239, 0.898, -0.272, 192.0, 0.0, 0.0, 0.0, 0.0, 0.0, 0.0, 0.0, 0.0, 0.0, 1.6731203640299163E9, 0.0, 2023-01-07 14:39:24.029
68.0, -31380.82103500617, -27671.839615325884, -33524.01805210329, -26010.56856042964, -29934.126726880877, -27806.93355881376, -33762.667627652605, -28472.54615694835, -25251.257449538407, -3219.1205881977785, -32805.16359867616, -34538.27316025176, -18162.804026937967, -17945.79094002139, -31551.00721728888, -30644.934552304097, -0.2385, 0.892, -0.274, 192.0, 124.0, 72.0, 13.5, 88.0, 123.5, 48.0, 0.0, 0.0, 0.0, 1.6731203640299232E9, 0.0, 2023-01-07 14:39:24.029
70.0, -31394.38854389054, -27678.880414829306, -33542.59235174565, -25992.19542648738, -29943.581514785474, -27792.628442362362, -33765.57335443179, -28446.998113035934, -25238.494603454426, -3288.902734387247, -32806.43764811011, -34627.1213444616, -18174.292823587995, -17947.89200400019, -31560.841984849216, -30703.429067543635, -0.2385, 0.892, -0.274, 192.0, 0.0, 0.0, 0.0, 0.0, 0.0, 0.0, 0.0, 0.0, 0.0, 1.6731203640299327E9, 0.0, 2023-01-07 14:39:24.029
72.0, -31374.361380858587, -27661.937792532182, -33517.692508422435, -25977.175054213414, -29922.615578486395, -27779.530320111553, -33741.20995297551, -28437.05158675332, -25258.946449631032, -3235.7055825836164, -32807.51053184397, -34528.527799669246, -18177.913806189754, -17921.06991065382, -31549.37553994364, -30632.05994749784, -0.2385, 0.892, -0.274, 192.0, 0.0, 0.0, 0.0, 0.0, 0.0, 0.0, 0.0, 0.0, 0.0, 1.6731203640299397E9, 0.0, 2023-01-07 14:39:24.029
74.0, -31397.92011951448, -27682.836673597896, -33540.0666046222, -25973.978754756303, -29937.74770948264, -27787.286375437543, -33754.17396475959, -28435.9116477861, -25239.18750753254, -3266.55098993194, -32798.189854406104, -34614.04557395525, -18170.515378775046, -17950.395399379184, -31545.463984663962, -30685.145340579194, -0.2385, 0.892, -0.274, 192.0, 0.0, 0.0, 0.0, 0.0, 0.0, 0.0, 0.0, 0.0, 0.0, 1.6731203640299463E9, 0.0, 2023-01-07 14:39:24.029
76.0, -31394.12032295708, -27684.870682343328, -33530.94709288443, -25981.15366472646, -29928.06940413349, -27781.430218390255, -33746.84259257824, -28433.96704601849, -25271.57518524828, -3209.7999107599153, -32810.416258623154, -34524.77270660075, -18185.35693709337, -17937.11846317273, -31545.62044687515, -30631.277636441904, -0.2385, 0.892, -0.274, 192.0, 0.0, 0.0, 0.0, 0.0, 0.0, 0.0, 0.0, 0.0, 0.0, 1.6731203640299532E9, 0.0, 2023-01-07 14:39:24.029
78.0, -31424.16106750501, -27722.39926128379, -33548.49321228185, -26002.030194047715, -29931.9139041798, -27809.056974537012, -33761.28181949638, -28448.518031658892, -25269.362362547203, -3354.750973552582, -32822.64266284021, -34652.51292616283, -18163.385172293805, -17967.583890865313, -31552.01304578937, -30711.006308913984, -0.23725000000000002, 0.893, -0.273, 192.0, 124.0, 80.0, 13.5, 120.0, 123.5, 64.0, 0.0, 0.0, 0.0, 1.67312036402996E9, 0.0, 2023-01-07 14:39:24.029
80.0, -31393.472122367875, -27689.564548678944, -33524.53214222576, -25978.33734492509, -29918.055822617513, -27782.83837829094, -33734.10209823872, -28418.90197025561, -25286.95318543353, -3283.9629988626243, -32831.51630538896, -34561.586029718645, -18176.013907911052, -17944.874518498724, -31545.218115474956, -30644.733386604, -0.23725000000000002, 0.893, -0.273, 192.0, 0.0, 0.0, 0.0, 0.0, 0.0, 0.0, 0.0, 0.0, 0.0, 1.6731203640299668E9, 0.0, 2023-01-07 14:39:24.029
82.0, -31399.082410226158, -27696.940624349194, -33526.11911608209, -25987.412153173944, -29926.929465166268, -27793.008422018105, -33736.67254885108, -28433.698825085026, -25248.083501825753, -3292.322551288909, -32806.34824113229, -34632.753984064344, -18159.31715480294, -17946.662658055146, -31527.157905955068, -30693.594299983302, -0.23725000000000002, 0.893, -0.273, 192.0, 0.0, 0.0, 0.0, 0.0, 0.0, 0.0, 0.0, 0.0, 0.0, 1.6731203640299735E9, 0.0, 2023-01-07 14:39:24.029
84.0, -31404.379773662065, -27706.10483957587, -33545.54278201375, -25990.697859608874, -29938.194744371744, -27793.746029585127, -33751.827031591776, -28438.05741525381, -25275.866720183698, -3213.487948595041, -32816.96531974856, -34536.485020695334, -18175.142189877297, -17940.247707396473, -31541.664188106563, -30635.34565393277, -0.23725000000000002, 0.893, -0.273, 192.0, 0.0, 0.0, 0.0, 0.0, 0.0, 0.0, 0.0, 0.0, 0.0, 1.6731203640299804E9, 0.0, 2023-01-07 14:39:24.029
86.0, -31402.681041083462, -27708.3400140214, -33535.48449700886, -26008.66866215094, -29936.719529237693, -27820.83634386496, -33751.53645891386, -28468.45578771303, -25266.993077634943, -3329.940537207191, -32818.48523837152, -34643.08049000269, -18178.31613758995, -17967.51683563195, -31549.129670754635, -30705.41837280016, -0.23725000000000002, 0.893, -0.273, 192.0, 0.0, 0.0, 0.0, 0.0, 0.0, 0.0, 0.0, 0.0, 0.0, 1.673120364029987E9, 0.0, 2023-01-07 14:39:24.029
88.0, -31374.137863414035, -27671.660801370243, -33534.29985455273, -25957.125539437002, -29928.963473911703, -27773.49534910862, -33727.374223157676, -28408.128429428154, -25261.852176410222, -3204.1449194127226, -32813.59020633581, -34537.13322128454, -18163.63104148281, -17940.135948674197, -31551.320141711254, -30641.201810980063, -0.238625, 0.9015, -0.2665, 192.0, 124.0, 64.0, 14.0, 56.0, 123.5, 112.0, 0.0, 0.0, 0.0, 1.673120364029994E9, 0.0, 2023-01-07 14:39:24.029
90.0, -31361.844403963616, -27664.865871055827, -33517.066659577686, -25980.304298437157, -29928.002348900125, -27785.609994603397, -33719.79698178732, -28442.885392056156, -25222.93778931353, -3252.223521736088, -32787.371610089736, -34590.039800410246, -18134.43966322418, -17913.336207072283, -31536.85856304867, -30669.812043882856, -0.238625, 0.9015, -0.2665, 192.0, 0.0, 0.0, 0.0, 0.0, 0.0, 0.0, 0.0, 0.0, 0.0, 1.6731203640300007E9, 0.0, 2023-01-07 14:39:24.030
92.0, -31374.987229703336, -27672.19724323717, -33548.180287859475, -25964.255745918246, -29936.87599144888, -27779.351506155912, -33746.32850245578, -28417.33734814374, -25252.442091994537, -3215.432550362653, -32801.16263641866, -34528.237226991325, -18161.39586703728, -17916.130175129198, -31546.872144564648, -30630.316511430326, -0.238625, 0.9015, -0.2665, 192.0, 0.0, 0.0, 0.0, 0.0, 0.0, 0.0, 0.0, 0.0, 0.0, 1.6731203640300076E9, 0.0, 2023-01-07 14:39:24.030
94.0, -31384.77729377476, -27689.542196934486, -33545.252209335835, -26018.5928366891, -29941.88278220687, -27828.570047446497, -33770.848366123246, -28486.001907110443, -25238.628713921156, -3283.8959436292585, -32806.34824113229, -34607.00477445183, -18161.97701239312, -17942.84050975329, -31564.842947106714, -30694.6448319727, -0.238625, 0.9015, -0.2665, 192.0, 0.0, 0.0, 0.0, 0.0, 0.0, 0.0, 0.0, 0.0, 0.0, 1.6731203640300145E9, 0.0, 2023-01-07 14:39:24.030
96.0, -31388.130055443056, -27683.753095120563, -33563.4688810669, -25976.90683327995, -29946.77781424258, -27785.63234634785, -33754.39748220414, -28429.653159338613, -25274.52561551638, -3260.6054259068283, -32827.78356406493, -34569.051512366714, -18183.61350102586, -17945.634477810203, -31580.802092647806, -30673.276564273427, -0.238625, 0.9015, -0.2665, 192.0, 0.0, 0.0, 0.0, 0.0, 0.0, 0.0, 0.0, 0.0, 0.0, 1.6731203640300212E9, 0.0, 2023-01-07 14:39:24.030
98.0, -31361.129148141048, -27664.99998152256, -33508.193017028934, -25987.993298529782, -29923.152020353322, -27797.88110230936, -33731.44224064854, -28457.14580501864, -25235.56652493078, -3270.9095801007247, -32795.820569493844, -34583.0660561402, -18148.811834908945, -17933.989218948987, -31551.38719694462, -30677.948078864585, -0.2343125, 0.9007499999999999, -0.26525, 192.0, 124.0, 104.0, 14.0, 16.0, 123.5, 96.0, 0.0, 0.0, 0.0, 1.673120364030028E9, 0.0, 2023-01-07 14:39:24.030
100.0, -31371.96974420187, -27662.80951056594, -33541.050081378235, -25954.398626613456, -29927.2647413331, -27774.054142720004, -33744.16038324361, -28413.20227541951, -25235.387710975137, -3246.7249926000827, -32799.26273813996, -34555.81927964917, -18145.481424985104, -17922.768643232423, -31548.32500795424, -30657.518584432437, -0.2343125, 0.9007499999999999, -0.26525, 192.0, 0.0, 0.0, 0.0, 0.0, 0.0, 0.0, 0.0, 0.0, 0.0, 1.6731203640300357E9, 0.0, 2023-01-07 14:39:24.030
102.0, -31364.079578409146, -27666.162272234236, -33517.08901132215, -25995.414077688944, -29914.34543303793, -27812.208570505212, -33747.982531545465, -28473.797854637847, -25237.71229239849, -3243.998079776535, -32800.64854629619, -34568.582125733155, -18153.125721588818, -17933.430425337607, -31550.604885888686, -30673.20950904006, -0.2343125, 0.9007499999999999, -0.26525, 192.0, 0.0, 0.0, 0.0, 0.0, 0.0, 0.0, 0.0, 0.0, 0.0, 1.6731203640300443E9, 0.0, 2023-01-07 14:39:24.030
104.0, -31367.812319733184, -27655.724007573608, -33543.68758722396, -25955.51621383622, -29930.818668701493, -27769.986125229138, -33740.00295877492, -28417.605569077205, -25261.71806594349, -3275.1564115472333, -32811.71265980157, -34578.88627992705, -18159.585375736402, -17914.274980339407, -31550.76134809987, -30670.21437528305, -0.2343125, 0.9007499999999999, -0.26525, 192.0, 0.0, 0.0, 0.0, 0.0, 0.0, 0.0, 0.0, 0.0, 0.0, 1.6731203640300508E9, 0.0, 2023-01-07 14:39:24.030
106.0, -31350.512069524775, -27651.99126624957, -33511.143447297036, -25986.227510717814, -29922.704985464217, -27800.809180833006, -33732.22455170447, -28463.136072532663, -25233.465460951982, -3220.4840446095523, -32795.57470030483, -34555.66281743799, -18142.754512161555, -17910.96692216002, -31546.827441075737, -30659.64200015569, -0.2343125, 0.9007499999999999, -0.26525, 192.0, 0.0, 0.0, 0.0, 0.0, 0.0, 0.0, 0.0, 0.0, 0.0, 1.6731203640300577E9, 0.0, 2023-01-07 14:39:24.030
108.0, -31372.103854668603, -27661.803682065452, -33549.18611635997, -25961.171205183415, -29946.10726190892, -27773.07066596397, -33751.02236879139, -28423.68524356905, -25239.858059866197, -3241.874664053281, -32800.46973234054, -34581.792006706244, -18155.785579179, -17920.466413553528, -31552.19185974501, -30670.50494796097, -0.23715625, 0.895375, -0.268625, 192.0, 124.0, 64.0, 13.5, 104.0, 123.5, 64.0, 0.0, 0.0, 0.0, 1.6731203640300646E9, 0.0, 2023-01-07 14:39:24.030
110.0, -31357.530517283743, -27657.04276049647, -33520.30766252371, -25995.682298622407, -29921.475639519173, -27801.166808744292, -33745.1662117441, -28472.434398226073, -25248.61994369268, -3225.8261115343707, -32804.068363197846, -34552.89120112553, -18152.54457623298, -17921.87457345421, -31553.95764755698, -30660.35725597826, -0.23715625, 0.895375, -0.268625, 192.0, 0.0, 0.0, 0.0, 0.0, 0.0, 0.0, 0.0, 0.0, 0.0, 1.6731203640300715E9, 0.0, 2023-01-07 14:39:24.030
112.0, -31390.49934035532, -27681.897900330772, -33565.14526190105, -25981.868920549026, -29962.35698012793, -27786.83934054844, -33771.49656671245, -28451.15553750462, -25246.585934947245, -3260.292501484454, -32809.83511326732, -34606.02129769579, -18158.31132630245, -17921.44989030956, -31559.187955759524, -30688.252233058483, -0.23715625, 0.895375, -0.268625, 192.0, 0.0, 0.0, 0.0, 0.0, 0.0, 0.0, 0.0, 0.0, 0.0, 1.6731203640300782E9, 0.0, 2023-01-07 14:39:24.030
114.0, -31359.11749114007, -27660.127301231303, -33525.58267421516, -25998.655080634962, -29934.43965130325, -27808.65464313682, -33766.24390676545, -28483.766732664913, -25267.261298568406, -3244.780390832471, -32822.64266284021, -34566.32459954317, -18172.951718920674, -17929.228297380007, -31574.320086755764, -30668.426235726623, -0.23715625, 0.895375, -0.268625, 192.0, 0.0, 0.0, 0.0, 0.0, 0.0, 0.0, 0.0, 0.0, 0.0, 1.673120364030085E9, 0.0, 2023-01-07 14:39:24.030
116.0, -31387.861834509593, -27675.773522350017, -33566.46401482392, -25986.85335956256, -29962.200517916743, -27804.832494834962, -33783.432398251585, -28471.20505228103, -25241.087405811242, -3271.2001527786438, -32810.17038943415, -34619.47704785789, -18162.558157748957, -17940.895907985676, -31573.560127444285, -30703.205550099083, -0.23715625, 0.895375, -0.268625, 192.0, 0.0, 0.0, 0.0, 0.0, 0.0, 0.0, 0.0, 0.0, 0.0, 1.673120364030094E9, 0.0, 2023-01-07 14:39:24.030
118.0, -31351.02615964725, -27650.538402859976, -33517.78191540026, -25984.796999072674, -29926.72829946617, -27799.199855232222, -33748.65308387912, -28468.768712135403, -25266.031952623365, -3207.7659020144824, -32817.47940987103, -34532.3499479711, -18147.001343608063, -17931.195250892073, -31570.073255309257, -30646.722691860523, -0.241578125, 0.8926875000000001, -0.2713125, 192.0, 124.0, 40.0, 13.5, 104.0, 123.5, 56.0, 0.0, 0.0, 0.0, 1.6731203640301006E9, 0.0, 2023-01-07 14:39:24.030
120.0, -31365.040703420724, -27655.90282152925, -33521.55936021321, -25969.731923309795, -29925.58836049895, -27784.514759125086, -33753.4140054481, -28449.926191559578, -25221.79785034631, -3278.93385636018, -32789.1373979017, -34615.14080943356, -18148.320096530926, -17933.65394278216, -31549.95668529948, -30697.237634329515, -0.241578125, 0.8926875000000001, -0.2713125, 192.0, 0.0, 0.0, 0.0, 0.0, 0.0, 0.0, 0.0, 0.0, 0.0, 1.673120364509797E9, 0.0, 2023-01-07 14:39:24.509
122.0, -31359.095139395613, -27658.09329248587, -33510.40583973001, -25982.517121138233, -29924.895456420836, -27795.780038330562, -33751.93879031405, -28468.63460166867, -25251.011580349397, -3184.5424395254186, -32786.14226414469, -34504.29850867969, -18144.050913339965, -17889.911578883122, -31534.57868511423, -30625.376775905705, -0.241578125, 0.8926875000000001, -0.2713125, 192.0, 0.0, 0.0, 0.0, 0.0, 0.0, 0.0, 0.0, 0.0, 0.0, 1.6731203645098405E9, 0.0, 2023-01-07 14:39:24.509
124.0, -31383.704410040908, -27675.795874094474, -33535.88682840906, -25982.33830718259, -29948.700064265737, -27810.018099548593, -33765.796871876344, -28479.609308196224, -25231.543210928823, -3297.3069903024425, -32804.47069459804, -34624.70735606043, -18165.665050228246, -17940.69474228558, -31565.37938897364, -30716.191913627616, -0.241578125, 0.8926875000000001, -0.2713125, 192.0, 0.0, 0.0, 0.0, 0.0, 0.0, 0.0, 0.0, 0.0, 0.0, 1.6731203645098808E9, 0.0, 2023-01-07 14:39:24.509
126.0, -31363.29726735321, -27656.70748432964, -33521.15702881301, -25964.09928370706, -29936.585418770963, -27775.998744487613, -33760.34304622925, -28459.358627719717, -25259.8628711537, -3209.4422828486304, -32801.58731956331, -34508.16536047046, -18156.6349454683, -17903.97082614551, -31560.68552263803, -30634.183363221095, -0.241578125, 0.8926875000000001, -0.2713125, 192.0, 0.0, 0.0, 0.0, 0.0, 0.0, 0.0, 0.0, 0.0, 0.0, 1.6731203645099905E9, 0.0, 2023-01-07 14:39:24.509
128.0, -31387.057171709203, -27681.361458463845, -33539.06077612171, -25983.634708360998, -29941.480450806674, -27804.11723901239, -33772.033008579376, -28476.748284905945, -25236.572353431267, -3265.098126542345, -32792.44545608109, -34608.59174830816, -18162.7369717046, -17926.367274089727, -31559.947915071003, -30691.26971855995, -0.241578125, 0.8926875000000001, -0.2713125, 192.0, 0.0, 0.0, 0.0, 0.0, 0.0, 0.0, 0.0, 0.0, 0.0, 1.673120364509996E9, 0.0, 2023-01-07 14:39:24.509
130.0, -31374.584898303143, -27672.19724323717, -33527.75079342732, -25975.61043210154, -29936.69717749324, -27797.2105499757, -33756.5656014163, -28458.19633700804, -25277.610156251212, -3217.1759864301666, -32818.328776160335, -34530.49475318131, -18176.483294544614, -17919.661750753137, -31572.129615799146, -30644.375758692713, -0.246, 0.896, -0.268, 192.0, 124.0, 40.0, 14.0, 0.0, 123.5, 80.0, 0.0, 0.0, 0.0, 1.6731203645100017E9, 0.0, 2023-01-07 14:39:24.510
132.0, -31366.337104599133, -27662.183661721192, -33505.80138037221, -25970.961269254836, -29928.82936344497, -27790.79559931703, -33734.52678138337, -28453.144842761143, -25218.51214391138, -3276.519867959007, -32780.33081058631, -34601.48389357136, -18147.470730241625, -17904.01552963442, -31541.217153217454, -30676.58462245281, -0.246, 0.896, -0.268, 192.0, 0.0, 0.0, 0.0, 0.0, 0.0, 0.0, 0.0, 0.0, 0.0, 1.673120364510007E9, 0.0, 2023-01-07 14:39:24.510
134.0, -31372.97557270236, -27667.57043213492, -33524.286273036756, -25965.105112207548, -29944.788508986057, -27784.470055636175, -33737.74543258493, -28436.40338616412, -25263.483853755457, -3214.9184602401806, -32806.83997951031, -34515.228511718335, -18157.171387335227, -17905.155468601642, -31558.830327848238, -30626.315549172825, -0.246, 0.896, -0.268, 192.0, 0.0, 0.0, 0.0, 0.0, 0.0, 0.0, 0.0, 0.0, 0.0, 1.6731203645100207E9, 0.0, 2023-01-07 14:39:24.510
136.0, -31367.007656932794, -27667.346914690366, -33508.52829319576, -25977.957365269347, -29930.841020445947, -27798.17167498728, -33735.599665117225, -28456.1176247737, -25223.18365850254, -3272.36244349032, -32784.59999377728, -34594.82307372369, -18148.901241886764, -17921.047558909366, -31551.096624266702, -30673.72359916253, -0.246, 0.896, -0.268, 192.0, 0.0, 0.0, 0.0, 0.0, 0.0, 0.0, 0.0, 0.0, 0.0, 1.6731203645100265E9, 0.0, 2023-01-07 14:39:24.510
138.0, -31360.033912662737, -27660.48492914259, -33515.814961888194, -25950.017684700215, -29926.504782021617, -27750.830680230938, -33720.33342365425, -28419.706633056, -25253.71614142849, -3208.905840981703, -32797.51930207245, -34514.22268321785, -18157.193739079685, -17901.646244722157, -31551.923638811546, -30618.470086869012, -0.246, 0.896, -0.268, 192.0, 0.0, 0.0, 0.0, 0.0, 0.0, 0.0, 0.0, 0.0, 0.0, 1.6731203645100317E9, 0.0, 2023-01-07 14:39:24.510
140.0, -31345.549982255696, -27651.544231360465, -33487.11532200758, -25966.155644196948, -29925.811877943503, -27778.21156718869, -33698.94280421052, -28436.693958842035, -25205.79400131631, -3260.3819084622755, -32762.449415022067, -34573.387750791044, -18136.384264991793, -17903.859067423233, -31524.118068709144, -30645.560401148847, -0.234, 0.9, -0.264, 192.0, 124.0, 88.0, 14.0, 16.0, 123.5, 96.0, 0.0, 0.0, 0.0, 1.6731203645100372E9, 0.0, 2023-01-07 14:39:24.510
142.0, -31368.415816833476, -27665.290554200477, -33521.64876719103, -25945.94966720935, -29932.74091872465, -27781.11729396788, -33744.24979022143, -28418.700804555516, -25243.56844944578, -3210.7386840270383, -32784.51058679946, -34512.61335761707, -18166.380306050814, -17895.700680697046, -31539.585475872216, -30608.970595475508, -0.234, 0.9, -0.264, 192.0, 0.0, 0.0, 0.0, 0.0, 0.0, 0.0, 0.0, 0.0, 0.0, 1.673120364510043E9, 0.0, 2023-01-07 14:39:24.510
144.0, -31372.908517468994, -27678.053400284458, -33505.15317978301, -25988.172112485423, -29907.72931667916, -27810.2639687376, -33748.049586778834, -28470.53449994737, -25229.151574272106, -3269.83669636687, -32784.39882807718, -34578.21572759339, -18144.050913339965, -17921.047558909366, -31544.30169395229, -30658.859689099754, -0.234, 0.9, -0.264, 192.0, 0.0, 0.0, 0.0, 0.0, 0.0, 0.0, 0.0, 0.0, 0.0, 1.6731203645100482E9, 0.0, 2023-01-07 14:39:24.510
146.0, -31367.566450544175, -27662.27306869901, -33522.00639510231, -25941.07698691809, -29931.0645378905, -27765.627535060354, -33733.722118582984, -28412.82229576377, -25263.23798456645, -3241.807608819915, -32808.963395233564, -34539.5025061968, -18173.30934683196, -17924.199154877562, -31557.95860981448, -30640.799479579866, -0.234, 0.9, -0.264, 192.0, 0.0, 0.0, 0.0, 0.0, 0.0, 0.0, 0.0, 0.0, 0.0, 1.6731203645100536E9, 0.0, 2023-01-07 14:39:24.510
148.0, -31351.607305003086, -27657.400388407754, -33484.4554644174, -25967.630859330995, -29913.02668011507, -27786.50406438161, -33718.76880154238, -28448.652142125626, -25226.089385281728, -3260.8512950958366, -32780.8896041977, -34560.64725645152, -18151.628154710314, -17914.833773950788, -31540.926580539537, -30650.142508762183, -0.234, 0.9, -0.264, 192.0, 0.0, 0.0, 0.0, 0.0, 0.0, 0.0, 0.0, 0.0, 0.0, 1.673120364510059E9, 0.0, 2023-01-07 14:39:24.510
150.0, -31371.34389535712, -27667.503376901554, -33518.72068866738, -25943.870954975006, -29928.87406693388, -27771.43898861873, -33733.00686276041, -28415.325691142763, -25240.66272266659, -3238.4101436627084, -32787.4386653231, -34540.955369586394, -18155.919689645732, -17906.653035480147, -31540.501897394886, -30639.145450490174, -0.226, 0.89, -0.266, 192.0, 124.0, 120.0, 13.5, 104.0, 123.5, 88.0, 0.0, 0.0, 0.0, 1.6731203645100644E9, 0.0, 2023-01-07 14:39:24.510
152.0, -31360.54800278521, -27666.4304931677, -33482.91319404998, -25979.633746103496, -29910.992671369633, -27784.40300040281, -33718.902912009115, -28451.53551716036, -25232.459632451493, -3244.4451146656415, -32781.04606640888, -34555.12637557106, -18151.40463726576, -17910.430480293093, -31532.72349032444, -30656.02101755393, -0.226, 0.89, -0.266, 192.0, 0.0, 0.0, 0.0, 0.0, 0.0, 0.0, 0.0, 0.0, 0.0, 1.67312036451007E9, 0.0, 2023-01-07 14:39:24.510
154.0, -31383.145616429523, -27675.371190949823, -33515.39027874354, -25947.04490268766, -29925.72247096568, -27752.261191876078, -33724.58025510076, -28401.355850858195, -25244.373112246172, -3243.8863210542586, -32791.752552002974, -34568.31390479969, -18154.422122767224, -17904.283750567884, -31534.466926391953, -30654.38934020869, -0.226, 0.89, -0.266, 192.0, 0.0, 0.0, 0.0, 0.0, 0.0, 0.0, 0.0, 0.0, 0.0, 1.673120364510075E9, 0.0, 2023-01-07 14:39:24.510
156.0, -31376.35068611511, -27680.62385089682, -33493.03853428824, -25992.508350909753, -29905.605900955907, -27775.954040998706, -33717.4053451306, -28451.40140669363, -25245.66951342458, -3236.577300617373, -32791.05964792486, -34559.015579106286, -18144.766169162533, -17901.53448599988, -31529.594246100696, -30642.028825524907, -0.226, 0.89, -0.266, 192.0, 0.0, 0.0, 0.0, 0.0, 0.0, 0.0, 0.0, 0.0, 0.0, 1.6731203645100808E9, 0.0, 2023-01-07 14:39:24.510
158.0, -31396.534311358253, -27691.017412068537, -33540.133659855564, -25974.04580998967, -29935.82545945948, -27763.68293329274, -33733.58800811625, -28422.277083668363, -25254.8113769068, -3277.324530759398, -32809.90216850068, -34609.44111459746, -18159.54067224749, -17940.091245185286, -31544.48050790793, -30677.41163699766, -0.226, 0.89, -0.266, 192.0, 0.0, 0.0, 0.0, 0.0, 0.0, 0.0, 0.0, 0.0, 0.0, 1.673120364510086E9, 0.0, 2023-01-07 14:39:24.510
160.0, -31381.73745652884, -27686.77058062203, -33509.668232162985, -25995.81640908914, -29919.039299373544, -27779.01622998908, -33718.835856775746, -28444.919400801587, -25258.8123391643, -3240.9135390417027, -32808.6951743001, -34565.430529764955, -18166.514416517548, -17916.55485827385, -31543.452327662984, -30647.59440989428, -0.23600000000000002, 0.882, -0.27, 192.0, 124.0, 80.0, 13.5, 72.0, 123.5, 72.0, 0.0, 0.0, 0.0, 1.6731203645100913E9, 0.0, 2023-01-07 14:39:24.510
162.0, -31401.74226781634, -27697.29825226048, -33539.932494155466, -25973.889347778484, -29937.904171693823, -27776.691648565728, -33753.235191492466, -28430.457822139004, -25250.67630418257, -3288.0757198424008, -32809.70100280059, -34621.75692579233, -18174.806913710465, -17933.966867204534, -31548.90615331008, -30681.189081810604, -0.23600000000000002, 0.882, -0.27, 192.0, 0.0, 0.0, 0.0, 0.0, 0.0, 0.0, 0.0, 0.0, 0.0, 1.6731203645100968E9, 0.0, 2023-01-07 14:39:24.510
164.0, -31383.74911352982, -27690.883301601807, -33505.53315943875, -25993.76004859925, -29914.188970826744, -27801.099753510924, -33731.17401971507, -28461.8173196098, -25268.04360962434, -3243.327527442876, -32813.79137203591, -34563.08359659715, -18158.221919324627, -17932.15637590365, -31549.37553994364, -30654.4340436976, -0.23600000000000002, 0.882, -0.27, 192.0, 0.0, 0.0, 0.0, 0.0, 0.0, 0.0, 0.0, 0.0, 0.0, 1.6731203645101023E9, 0.0, 2023-01-07 14:39:24.510
166.0, -31400.043535237735, -27697.566473193943, -33517.40193574452, -25966.647382574964, -29926.25891283261, -27769.561442084487, -33738.57244712978, -28426.032176736855, -25242.517917456382, -3301.5761734934063, -32803.19664516409, -34634.74328932086, -18163.608689738357, -17944.1369109317, -31537.95379852698, -30687.53697723591, -0.23600000000000002, 0.882, -0.27, 192.0, 0.0, 0.0, 0.0, 0.0, 0.0, 0.0, 0.0, 0.0, 0.0, 1.673120364510109E9, 0.0, 2023-01-07 14:39:24.510
168.0, -31387.370096131577, -27689.3857347233, -33491.65272613201, -25973.28585067819, -29908.936310879748, -27791.957890028705, -33718.8582085202, -28437.968008275988, -25256.75597867441, -3224.8873382672477, -32798.52513057293, -34542.49763995381, -18152.768093677532, -17917.538335029883, -31524.319234409242, -30624.907389272143, -0.23600000000000002, 0.882, -0.27, 192.0, 0.0, 0.0, 0.0, 0.0, 0.0, 0.0, 0.0, 0.0, 0.0, 1.6731203645101144E9, 0.0, 2023-01-07 14:39:24.510
170.0, -31395.126151457567, -27691.375039979823, -33506.516636194785, -25948.162489910424, -29927.242389588642, -27764.286430393033, -33719.77463004287, -28417.449106866017, -25240.305094755306, -3296.3235135464092, -32794.23359563752, -34623.880341515585, -18152.49987274407, -17931.910506714645, -31519.33479539571, -30669.297953760382, -0.24, 0.894, -0.264, 192.0, 124.0, 64.0, 13.5, 120.0, 123.5, 96.0, 0.0, 0.0, 0.0, 1.67312036451012E9, 0.0, 2023-01-07 14:39:24.510
172.0, -31387.571261831676, -27687.731705633607, -33500.54872042522, -25958.46664410432, -29924.82840118747, -27786.615823103886, -33730.637577848145, -28441.454880411016, -25266.210766579006, -3212.5044718390077, -32798.323964872834, -34518.15659024198, -18170.82830319742, -17914.72201522851, -31530.644778090096, -30612.39041237717, -0.24, 0.894, -0.264, 192.0, 0.0, 0.0, 0.0, 0.0, 0.0, 0.0, 0.0, 0.0, 0.0, 1.6731203645101252E9, 0.0, 2023-01-07 14:39:24.510
174.0, -31401.764619560796, -27698.72876390562, -33508.461237962394, -25956.924373736903, -29922.839095930947, -27789.655660349807, -33734.571484872286, -28440.62786586617, -25238.71812089898, -3295.228278068099, -32791.57373804733, -34614.00087046634, -18154.422122767224, -17932.02226543692, -31536.992673515404, -30676.49521547499, -0.24, 0.894, -0.264, 192.0, 0.0, 0.0, 0.0, 0.0, 0.0, 0.0, 0.0, 0.0, 0.0, 1.6731203645101306E9, 0.0, 2023-01-07 14:39:24.510
176.0, -31387.928889742958, -27688.692830645185, -33495.8548540896, -25960.970039483316, -29921.766212197093, -27786.481712637153, -33726.07782197926, -28436.53749663085, -25270.479949769968, -3215.3431433848314, -32802.12376143024, -34515.11675299606, -18169.442495041192, -17928.244820623975, -31538.803164816283, -30614.312662400327, -0.24, 0.894, -0.264, 192.0, 0.0, 0.0, 0.0, 0.0, 0.0, 0.0, 0.0, 0.0, 0.0, 1.673120364510136E9, 0.0, 2023-01-07 14:39:24.510
178.0, -31399.97648000437, -27700.38279299531, -33505.466104205385, -25979.589042614585, -29931.623331501884, -27795.288299952546, -33730.81639180379, -28447.266333969397, -25240.260391266394, -3308.6840282301937, -32795.48529332701, -34624.28267291578, -18164.368649049837, -17956.89975701568, -31543.921714296546, -30683.82658765633, -0.24, 0.894, -0.264, 192.0, 0.0, 0.0, 0.0, 0.0, 0.0, 0.0, 0.0, 0.0, 0.0, 1.6731203645101411E9, 0.0, 2023-01-07 14:39:24.510
180.0, -31382.83269200715, -27681.964955564137, -33501.91217683699, -25963.13815869548, -29921.20741858571, -27773.54005259753, -33717.02536547487, -28426.322749414772, -25259.549946731324, -3213.622059061773, -32794.72533401553, -34513.10509599508, -18161.708791459656, -17920.332303086794, -31530.935350768013, -30601.415705849613, -0.242, 0.904, -0.262, 192.0, 124.0, 56.0, 14.0, 32.0, 123.5, 104.0, 0.0, 0.0, 0.0, 1.6731203645101469E9, 0.0, 2023-01-07 14:39:24.510
182.0, -31389.672325810472, -27691.57620567992, -33506.62839491706, -25982.33830718259, -29913.25019755962, -27780.960831756693, -33722.52389461087, -28445.142918246143, -25232.034949306842, -3308.03582764099, -32792.601918292276, -34620.41582112501, -18165.754457206065, -17950.350695890273, -31538.311426438264, -30673.455378229068, -0.242, 0.904, -0.262, 192.0, 0.0, 0.0, 0.0, 0.0, 0.0, 0.0, 0.0, 0.0, 0.0, 1.673120364510152E9, 0.0, 2023-01-07 14:39:24.510
184.0, -31380.731628028352, -27678.455731684655, -33513.579787442664, -25954.46568184682, -29908.35516552391, -27751.3000668645, -33711.81740901678, -28410.38595561814, -25253.872603639677, -3213.622059061773, -32795.12766541573, -34513.73094483983, -18177.198550367182, -17922.74629148797, -31530.443612389998, -30593.547891801347, -0.242, 0.904, -0.262, 192.0, 0.0, 0.0, 0.0, 0.0, 0.0, 0.0, 0.0, 0.0, 0.0, 1.6731203645101576E9, 0.0, 2023-01-07 14:39:24.510
186.0, -31392.510997356298, -27694.057249314457, -33509.28825250724, -25983.098266494068, -29911.68557544775, -27787.912224282292, -33714.11963869567, -28446.126395002175, -25227.8551730937, -3294.0883391008783, -32788.623307779235, -34608.18941690796, -18150.30940178745, -17922.567477532324, -31532.455269390975, -30653.294104730383, -0.242, 0.904, -0.262, 192.0, 0.0, 0.0, 0.0, 0.0, 0.0, 0.0, 0.0, 0.0, 0.0, 1.6731203645101628E9, 0.0, 2023-01-07 14:39:24.510
188.0, -31393.78504679025, -27687.75405737806, -33515.77025839928, -25953.057521946135, -29925.901284921325, -27757.335037867433, -33694.58421404174, -28403.367507859173, -25265.09317935624, -3230.2741086809765, -32806.929386488126, -34528.97483455835, -18172.907015431763, -17916.9795414185, -31535.316292681255, -30603.784990761877, -0.242, 0.904, -0.262, 192.0, 0.0, 0.0, 0.0, 0.0, 0.0, 0.0, 0.0, 0.0, 0.0, 1.6731203645101683E9, 0.0, 2023-01-07 14:39:24.510
190.0, -31379.83755825014, -27680.19916775217, -33485.01425802878, -25972.168263455424, -29911.082078347456, -27769.315572895477, -33698.272251876864, -28430.368415161185, -25224.725928869957, -3281.9513418616466, -32784.33177284381, -34589.52571028778, -18150.398808765272, -17913.69383498357, -31515.780868027316, -30639.972465035018, -0.23600000000000002, 0.9, -0.256, 192.0, 124.0, 80.0, 14.0, 16.0, 124.0, 0.0, 0.0, 0.0, 0.0, 1.6731203645101738E9, 0.0, 2023-01-07 14:39:24.510
192.0, -31393.852102023615, -27688.134037033804, -33515.25616827681, -25954.689199291373, -29906.72348817867, -27758.184404156735, -33725.049641734324, -28409.648348051116, -25258.924097886575, -3232.3751726597757, -32806.795276021396, -34535.03215730574, -18168.92840491872, -17923.21567812153, -31526.017966987845, -30606.377793118692, -0.23600000000000002, 0.9, -0.256, 192.0, 0.0, 0.0, 0.0, 0.0, 0.0, 0.0, 0.0, 0.0, 0.0, 1.6731203645101793E9, 0.0, 2023-01-07 14:39:24.510
194.0, -31394.701468312916, -27698.348784249876, -33503.90148209351, -25998.05158353467, -29919.866313918392, -27796.53999764204, -33735.62201686168, -28468.187566779565, -25238.449899965515, -3281.4372517391744, -32796.87110148324, -34588.22930910937, -18164.54746300548, -17932.893983470676, -31533.841077547204, -30652.757662863456, -0.23600000000000002, 0.9, -0.256, 192.0, 0.0, 0.0, 0.0, 0.0, 0.0, 0.0, 0.0, 0.0, 0.0, 1.6731203645101845E9, 0.0, 2023-01-07 14:39:24.510
196.0, -31395.483779368853, -27690.883301601807, -33520.86645613509, -25948.207193399336, -29931.600979757426, -27755.703360522195, -33730.995205759435, -28412.464667852484, -25267.551871246324, -3252.2458734805437, -32811.95852899057, -34550.43250923545, -18175.723335233135, -17930.278829369407, -31545.978074786435, -30626.024976494908, -0.23600000000000002, 0.9, -0.256, 192.0, 0.0, 0.0, 0.0, 0.0, 0.0, 0.0, 0.0, 0.0, 0.0, 1.67312036451019E9, 0.0, 2023-01-07 14:39:24.510
198.0, -31388.68884905444, -27691.71031614665, -33488.18820574143, -25979.633746103496, -29926.482430277163, -27783.754799813607, -33736.73960408445, -28464.946563833546, -25246.85415588071, -3269.45671671113, -32791.79725549189, -34565.855212909606, -18170.22480609713, -17917.895962941166, -31535.495106636896, -30637.7819940784, -0.23600000000000002, 0.9, -0.256, 192.0, 0.0, 0.0, 0.0, 0.0, 0.0, 0.0, 0.0, 0.0, 0.0, 1.6731203645101967E9, 0.0, 2023-01-07 14:39:24.510
200.0, -31406.525541129777, -27695.15248479277, -33513.44567697593, -25950.822347500605, -29934.573761769985, -27762.095959436414, -33744.04862452133, -28424.959293003, -25274.10093237173, -3259.8678183398033, -32813.567854591354, -34563.64239020853, -18186.139248149306, -17928.87066946872, -31552.393025445108, -30641.648845869167, -0.239, 0.899, -0.257, 192.0, 124.0, 56.0, 14.0, 8.0, 123.5, 120.0, 0.0, 0.0, 0.0, 1.673120364510202E9, 0.0, 2023-01-07 14:39:24.510
202.0, -31384.710238541396, -27683.86485384284, -33472.96666776737, -25983.098266494068, -29914.50189524912, -27783.26306143559, -33713.33732763974, -28458.53161317487, -25245.647161680125, -3248.647242623239, -32790.076171168825, -34555.774576160264, -18158.78071293601, -17914.051462894855, -31529.68365307852, -30634.608046365745, -0.239, 0.899, -0.257, 192.0, 0.0, 0.0, 0.0, 0.0, 0.0, 0.0, 0.0, 0.0, 0.0, 1.6731203645102077E9, 0.0, 2023-01-07 14:39:24.510
204.0, -31407.68783184145, -27698.594653438886, -33515.72555491037, -25963.361676140034, -29940.139346139356, -27759.145529168312, -33732.448069149024, -28413.783420775348, -25255.169004818083, -3260.270149739999, -32799.240386395504, -34572.27016356828, -18171.320041575436, -17936.626724794714, -31536.657397348572, -30636.97733127801, -0.239, 0.899, -0.257, 192.0, 0.0, 0.0, 0.0, 0.0, 0.0, 0.0, 0.0, 0.0, 0.0, 1.673120364510213E9, 0.0, 2023-01-07 14:39:24.510
206.0, -31391.16989268898, -27694.705449903664, -33492.122112765566, -26003.416002203943, -29915.373613282874, -27791.466151650686, -33729.944673770035, -28461.88437484317, -25251.816243149788, -3245.8532745663256, -32796.2899561274, -34556.73570117184, -18173.4881607876, -17931.955210203556, -31535.092775236702, -30627.947226518063, -0.239, 0.899, -0.257, 192.0, 0.0, 0.0, 0.0, 0.0, 0.0, 0.0, 0.0, 0.0, 0.0, 1.673120364510219E9, 0.0, 2023-01-07 14:39:24.510
208.0, -31419.89188431405, -27712.542141978996, -33536.155049342524, -25982.450065904864, -29950.26468637761, -27774.34471539792, -33744.38390068816, -28426.993301748433, -25267.976554390974, -3288.7909756649706, -32818.57464534934, -34611.05044019824, -18182.853541714376, -17958.777303549923, -31558.20447900349, -30657.809157110354, -0.239, 0.899, -0.257, 192.0, 0.0, 0.0, 0.0, 0.0, 0.0, 0.0, 0.0, 0.0, 0.0, 1.6731203645102246E9, 0.0, 2023-01-07 14:39:24.510
210.0, -31377.758846015793, -27681.204996252658, -33478.04051375872, -25982.00303101576, -29911.81968591448, -27756.88800297833, -33709.179903171054, -28437.163345475597, -25254.632562951156, -3232.1293034707674, -32795.41823809365, -34549.67254992396, -18173.622271254335, -17922.36631183223, -31532.745842068893, -30607.875359997197, -0.2435, 0.8965000000000001, -0.2585, 192.0, 124.0, 32.0, 13.5, 120.0, 123.5, 112.0, 0.0, 0.0, 0.0, 1.6731203645102303E9, 0.0, 2023-01-07 14:39:24.510
212.0, -31410.45944815391, -27703.646147685784, -33521.69347067994, -25970.827158788106, -29928.427032044776, -27771.349581640912, -33743.579237887774, -28424.691072069538, -25240.886240111144, -3273.4353272241747, -32789.78559849091, -34600.9698034489, -18176.080963144417, -17933.139852659686, -31531.85177229068, -30637.647883611666, -0.2435, 0.8965000000000001, -0.2585, 192.0, 0.0, 0.0, 0.0, 0.0, 0.0, 0.0, 0.0, 0.0, 0.0, 1.6731203645102355E9, 0.0, 2023-01-07 14:39:24.510
214.0, -31395.796703791228, -27698.929929605714, -33495.78779885624, -25989.222644474823, -29925.387194798852, -27785.609994603397, -33736.42667966207, -28456.475252684984, -25267.171891590584, -3230.363515658798, -32802.63785155271, -34547.12445105606, -18182.898245203287, -17931.754044503457, -31541.351263684188, -30608.411801864127, -0.2435, 0.8965000000000001, -0.2585, 192.0, 0.0, 0.0, 0.0, 0.0, 0.0, 0.0, 0.0, 0.0, 0.0, 1.6731203645102413E9, 0.0, 2023-01-07 14:39:24.510
216.0, -31419.98129129187, -27714.73261293562, -33523.74983116983, -25976.79507455767, -29934.059671647512, -27783.106599224404, -33752.92226707009, -28444.315903701296, -25251.95035361652, -3291.204964066144, -32804.85067425379, -34624.48383861588, -18185.200474882186, -17948.87548075622, -31544.592266630207, -30660.133738533706, -0.2435, 0.8965000000000001, -0.2585, 192.0, 0.0, 0.0, 0.0, 0.0, 0.0, 0.0, 0.0, 0.0, 0.0, 1.6731203645102475E9, 0.0, 2023-01-07 14:39:24.510
218.0, -31404.335070173154, -27705.881322131318, -33503.163874526486, -25988.14976074097, -29930.036357645557, -27792.561387128997, -33744.3168454548, -28467.62877316818, -25270.971688147987, -3223.903861511214, -32811.198569679094, -34539.61426491907, -18173.35405032087, -17939.152471918165, -31544.65932186357, -30612.85979901073, -0.2435, 0.8965000000000001, -0.2585, 192.0, 0.0, 0.0, 0.0, 0.0, 0.0, 0.0, 0.0, 0.0, 0.0, 1.6731203645102527E9, 0.0, 2023-01-07 14:39:24.510
220.0, -31418.46137266891, -27718.331243792923, -33524.889770137044, -25975.498673379265, -29949.03534043257, -27796.472942408676, -33753.95044731503, -28455.759996862413, -25245.71421691349, -3299.296295558965, -32802.28022364142, -34625.422611883, -18182.98765218111, -17955.491597114993, -31545.016949774857, -30666.459282214557, -0.24575, 0.8992500000000001, -0.26125, 192.0, 124.0, 32.0, 14.0, 24.0, 123.5, 96.0, 0.0, 0.0, 0.0, 1.6731203645102584E9, 0.0, 2023-01-07 14:39:24.510
222.0, -31384.374962374564, -27691.978537080115, -33485.684810362436, -25956.812615014627, -29915.753592938614, -27778.569195099975, -33725.51902836788, -28444.82999382377, -25267.820092179787, -3220.037009720446, -32802.68255504162, -34523.900988566995, -18190.430783084725, -17933.49748057097, -31538.311426438264, -30606.377793118692, -0.24575, 0.8992500000000001, -0.26125, 192.0, 0.0, 0.0, 0.0, 0.0, 0.0, 0.0, 0.0, 0.0, 0.0, 1.673120364510265E9, 0.0, 2023-01-07 14:39:24.510
224.0, -31405.430305651465, -27713.391508268298, -33499.788761113734, -25965.70860930784, -29934.506706536617, -27786.571119614975, -33737.96895002949, -28451.982552049467, -25227.56460041578, -3294.7365396900823, -32778.72148498553, -34606.89301572955, -18172.236463098106, -17945.32155338783, -31524.207475686966, -30654.188174508596, -0.24575, 0.8992500000000001, -0.26125, 192.0, 0.0, 0.0, 0.0, 0.0, 0.0, 0.0, 0.0, 0.0, 0.0, 1.6731203645102706E9, 0.0, 2023-01-07 14:39:24.510
226.0, -31395.550834602218, -27703.556740707965, -33491.25039473181, -25963.205213928846, -29925.610712243404, -27777.809235788496, -33733.56565637179, -28445.902877557623, -25267.48481601296, -3224.037971977946, -32798.905110228676, -34513.44037216191, -18192.04010868551, -17937.87842248421, -31533.550504869287, -30595.85012148024, -0.24575, 0.8992500000000001, -0.26125, 192.0, 0.0, 0.0, 0.0, 0.0, 0.0, 0.0, 0.0, 0.0, 0.0, 1.6731203645102763E9, 0.0, 2023-01-07 14:39:24.510
228.0, -31424.183419249468, -27731.563476510466, -33520.39706950153, -25993.42477243242, -29943.69327350775, -27801.055050022012, -33750.418871691094, -28466.689999901057, -25236.84057436473, -3305.0853973728895, -32791.6407932807, -34613.64324255505, -18189.581416795423, -17945.679181299114, -31532.611731602163, -30651.237744240494, -0.24575, 0.8992500000000001, -0.26125, 192.0, 0.0, 0.0, 0.0, 0.0, 0.0, 0.0, 0.0, 0.0, 0.0, 1.6731203645102825E9, 0.0, 2023-01-07 14:39:24.510
230.0, -31410.0124132648, -27715.805496669473, -33522.63224394706, -25980.19253971488, -29937.770061227093, -27777.965697999683, -33738.192467474044, -28446.26050546891, -25292.42936282508, -3241.9193675421916, -32829.45994489908, -34535.81446836168, -18198.83503899992, -17962.063009984853, -31557.556278414286, -30605.48372334048, -0.241875, 0.904625, -0.256625, 192.0, 124.0, 72.0, 14.0, 56.0, 124.0, 16.0, 0.0, 0.0, 0.0, 1.6731203645102892E9, 0.0, 2023-01-07 14:39:24.510
232.0, -31403.08337248366, -27712.318624534444, -33508.79651412922, -25983.321783938623, -29933.947912925236, -27783.97831725816, -33729.96702551449, -28451.982552049467, -25230.783251617344, -3301.5761734934063, -32792.02077293644, -34607.38475410757, -18178.89728294579, -17937.431387595105, -31530.801240301284, -30635.077432999307, -0.241875, 0.904625, -0.256625, 192.0, 0.0, 0.0, 0.0, 0.0, 0.0, 0.0, 0.0, 0.0, 0.0, 1.673120364510295E9, 0.0, 2023-01-07 14:39:24.510
234.0, -31394.2097299349, -27699.131095305813, -33508.617700173585, -25959.740693538275, -29940.675788006283, -27769.002648473102, -33732.604531360215, -28428.043833737833, -25271.038743381352, -3227.770713301982, -32810.61742432325, -34520.16824724296, -18199.706757033677, -17930.234125880495, -31538.445536904997, -30583.646069007646, -0.241875, 0.904625, -0.256625, 192.0, 0.0, 0.0, 0.0, 0.0, 0.0, 0.0, 0.0, 0.0, 0.0, 1.6731203645103006E9, 0.0, 2023-01-07 14:39:24.510
236.0, -31390.83461652215, -27697.85704587186, -33486.22125222936, -25979.94667052587, -29923.48729652015, -27779.5079683671, -33734.05739474981, -28456.67641838508, -25221.619036390668, -3278.620931937806, -32774.832281450304, -34585.412989308, -18167.11791361784, -17922.321608343318, -31513.61274881515, -30624.549761360857, -0.241875, 0.904625, -0.256625, 192.0, 0.0, 0.0, 0.0, 0.0, 0.0, 0.0, 0.0, 0.0, 0.0, 1.6731203645103061E9, 0.0, 2023-01-07 14:39:24.510
238.0, -31401.250529438323, -27698.77346739453, -33509.98115658536, -25958.354885382043, -29937.63595076036, -27765.202851915703, -33736.180810473066, -28424.154630202607, -25268.624754980177, -3223.3897713887422, -32807.73404928852, -34525.73383161233, -18187.25683537207, -17918.141832130175, -31528.119030966645, -30591.692697011556, -0.241875, 0.904625, -0.256625, 192.0, 0.0, 0.0, 0.0, 0.0, 0.0, 0.0, 0.0, 0.0, 0.0, 1.673120364510312E9, 0.0, 2023-01-07 14:39:24.510
240.0, -31398.031878236758, -27701.72389766263, -33495.98896455634, -25987.590967129585, -29938.17239262729, -27788.336907426943, -33731.19637145953, -28453.569525905794, -25237.42171972057, -3279.0903185713673, -32793.719505515044, -34588.788102720755, -18176.706811989166, -17914.431442550595, -31521.301748907776, -30633.289293442882, -0.23493750000000002, 0.9023125000000001, -0.2573125, 192.0, 124.0, 112.0, 14.0, 16.0, 123.5, 120.0, 0.0, 0.0, 0.0, 1.6731203645103176E9, 0.0, 2023-01-07 14:39:24.510
242.0, -31405.54206437374, -27701.075697073426, -33528.48840099435, -25960.61241157203, -29949.1694508993, -27772.668334563776, -33760.074825295786, -28427.14976395962, -25270.278784069873, -3231.615213348295, -32814.86425576976, -34535.41213696148, -18203.573608824445, -17911.615122749226, -31536.1433072261, -30601.035726193873, -0.23493750000000002, 0.9023125000000001, -0.2573125, 192.0, 0.0, 0.0, 0.0, 0.0, 0.0, 0.0, 0.0, 0.0, 0.0, 1.673120364988756E9, 0.0, 2023-01-07 14:39:24.988
244.0, -31389.158235688003, -27695.286595259502, -33500.9063483365, -25995.212911988845, -29920.15688659631, -27803.55844540101, -33758.219630506, -28469.796892380346, -25236.9076295981, -3270.6637109117164, -32796.513473571955, -34585.72591373038, -18166.425009539726, -17924.82500372231, -31534.28811243631, -30647.348540705272, -0.23493750000000002, 0.9023125000000001, -0.2573125, 192.0, 0.0, 0.0, 0.0, 0.0, 0.0, 0.0, 0.0, 0.0, 0.0, 1.673120364988792E9, 0.0, 2023-01-07 14:39:24.988
246.0, -31398.30009917022, -27694.14665629228, -33522.386374758054, -25963.47343486231, -29940.944008939747, -27780.536148612042, -33761.10300554073, -28423.48407786895, -25256.487757740946, -3238.87953029627, -32805.476523098536, -34549.96312260188, -18182.272396358538, -17925.8308322228, -31541.53007763983, -30635.12213648822, -0.23493750000000002, 0.9023125000000001, -0.2573125, 192.0, 0.0, 0.0, 0.0, 0.0, 0.0, 0.0, 0.0, 0.0, 0.0, 1.6731203649888523E9, 0.0, 2023-01-07 14:39:24.988
248.0, -31392.60040433412, -27698.751115650073, -33487.71881910787, -26003.885388837505, -29924.716642465195, -27811.761535616108, -33756.00680780492, -28466.64529641215, -25240.7074261555, -3264.651091653239, -32792.71367701455, -34575.220593836384, -18167.140265362297, -17923.34978858826, -31529.348376911687, -30664.02294206893, -0.23493750000000002, 0.9023125000000001, -0.2573125, 192.0, 0.0, 0.0, 0.0, 0.0, 0.0, 0.0, 0.0, 0.0, 0.0, 1.6731203649889047E9, 0.0, 2023-01-07 14:39:24.988
250.0, -31406.234968451856, -27702.19328429619, -33525.00152885932, -25974.71636232333, -29947.895401465346, -27782.59250910193, -33760.141880529154, -28421.62888307916, -25262.94741188853, -3258.303196227932, -32809.27631965594, -34575.5111665143, -18176.326832333427, -17936.537317816892, -31535.62921710363, -30666.079302558817, -0.23646875, 0.8951562500000001, -0.26065625000000003, 192.0, 124.0, 72.0, 13.5, 96.0, 123.5, 96.0, 0.0, 0.0, 0.0, 1.6731203649889383E9, 0.0, 2023-01-07 14:39:24.988
252.0, -31370.047494178714, -27678.746304362572, -33485.97538304036, -25989.893196808483, -29921.63210173036, -27790.84030280594, -33721.8086387883, -28445.05351126832, -25244.373112246172, -3242.813437320404, -32791.17140664714, -34563.66474195298, -18161.060590870453, -17920.958151931543, -31519.13362969561, -30657.7868053659, -0.23646875, 0.8951562500000001, -0.26065625000000003, 192.0, 0.0, 0.0, 0.0, 0.0, 0.0, 0.0, 0.0, 0.0, 0.0, 1.6731203649889529E9, 0.0, 2023-01-07 14:39:24.988
254.0, -31387.928889742958, -27689.832769612407, -33529.024842861276, -25964.52396685171, -29951.538735811562, -27769.762607784585, -33735.80083081732, -28399.47830432395, -25231.789080117833, -3231.235233692555, -32779.90612744166, -34565.47523325387, -18164.21218683865, -17900.752174943947, -31511.846961003183, -30647.482651172002, -0.23646875, 0.8951562500000001, -0.26065625000000003, 192.0, 0.0, 0.0, 0.0, 0.0, 0.0, 0.0, 0.0, 0.0, 0.0, 1.6731203649889605E9, 0.0, 2023-01-07 14:39:24.988
0.0, -31367.365284844076, -27684.445999198677, -33494.983136055846, -25993.178903243414, -29922.615578486395, -27796.49529415313, -33741.969912286986, -28445.589953135248, -25249.46930998198, -3228.843597035837, -32788.93623220161, -34560.37903551805, -18167.050858384475, -17928.200117135064, -31525.056841976268, -30654.4340436976, -0.23646875, 0.8951562500000001, -0.26065625000000003, 192.0, 0.0, 0.0, 0.0, 0.0, 0.0, 0.0, 0.0, 0.0, 0.0, 1.673120364988968E9, 0.0, 2023-01-07 14:39:24.988
2.0, -31404.603291106618, -27713.190342568203, -33540.290122066755, -25978.113827480534, -29943.290942107553, -27793.03077376256, -33758.24198225045, -28422.969987746477, -25242.294400011826, -3258.012623550013, -32788.332735101314, -34598.287594114256, -18164.21218683865, -17925.719073500524, -31518.932463995516, -30667.085131059306, -0.23646875, 0.8951562500000001, -0.26065625000000003, 192.0, 0.0, 0.0, 0.0, 0.0, 0.0, 0.0, 0.0, 0.0, 0.0, 1.6731203649889753E9, 0.0, 2023-01-07 14:39:24.988
4.0, -31389.135883943545, -27708.027089599025, -33507.76833388428, -25998.23039749031, -29935.847811203937, -27803.55844540101, -33747.133165256164, -28448.786252592356, -25265.71902820099, -3234.7221058275827, -32803.084886441815, -34569.36443678909, -18173.175236365227, -17921.36048333174, -31529.750708311883, -30649.67312212862, -0.241234375, 0.8915781250000001, -0.263328125, 192.0, 124.0, 40.0, 13.5, 96.0, 123.5, 88.0, 0.0, 0.0, 0.0, 1.673120364988983E9, 0.0, 2023-01-07 14:39:24.988
6.0, -31414.84039006715, -27721.549894994485, -33537.02676737628, -25975.655135590452, -29951.672846278292, -27787.800465560016, -33750.12829901317, -28421.71829005698, -25250.452786738013, -3282.9571703621355, -32808.06932545535, -34633.96097826493, -18170.671840986233, -17934.145681160175, -31531.695310079496, -30684.966526623553, -0.241234375, 0.8915781250000001, -0.263328125, 192.0, 0.0, 0.0, 0.0, 0.0, 0.0, 0.0, 0.0, 0.0, 0.0, 1.6731203649889998E9, 0.0, 2023-01-07 14:39:24.988
8.0, -31403.776276561774, -27717.77245018154, -33511.97046184188, -25995.682298622407, -29933.88085769187, -27806.821800091482, -33754.19631650404, -28455.11179627321, -25269.049438124828, -3222.518053354985, -32808.53871208891, -34558.34502677262, -18171.40944855326, -17917.963018174534, -31526.15207745458, -30639.279560956904, -0.241234375, 0.8915781250000001, -0.263328125, 192.0, 0.0, 0.0, 0.0, 0.0, 0.0, 0.0, 0.0, 0.0, 0.0, 1.673120364989008E9, 0.0, 2023-01-07 14:39:24.989
10.0, -31436.432175210975, -27741.174726626246, -33552.31536058371, -25991.457818920353, -29957.350189369943, -27812.02975654957, -33787.16513957562, -28451.043778782343, -25270.09997011423, -3302.1573188492443, -32824.31904367436, -34650.85889707314, -18188.08384991692, -17957.07857097132, -31547.609752131673, -30705.708945478076, -0.241234375, 0.8915781250000001, -0.263328125, 192.0, 0.0, 0.0, 0.0, 0.0, 0.0, 0.0, 0.0, 0.0, 0.0, 1.673120364989016E9, 0.0, 2023-01-07 14:39:24.989
12.0, -31393.695639812428, -27709.5917117109, -33507.32129899517, -25979.76785657023, -29929.902247178823, -27798.462247665197, -33743.40042393213, -28447.087520013753, -25293.792819236856, -3229.625908091773, -32823.73789831852, -34564.00001811982, -18176.17037012224, -17929.29535261337, -31548.861449821172, -30653.294104730383, -0.241234375, 0.8915781250000001, -0.263328125, 192.0, 0.0, 0.0, 0.0, 0.0, 0.0, 0.0, 0.0, 0.0, 0.0, 1.673120364989024E9, 0.0, 2023-01-07 14:39:24.989
14.0, -31415.019204022792, -27726.86961017485, -33521.760525913305, -25968.524929109208, -29945.146136897343, -27796.428238919765, -33755.78329036037, -28434.995226263432, -25239.858059866197, -3289.193307065166, -32795.597052049285, -34639.14658297856, -18159.183044336205, -17928.51304155744, -31527.917865266547, -30688.40869526967, -0.2476171875, 0.8927890625000001, -0.2626640625, 192.0, 124.0, 8.0, 13.5, 120.0, 123.5, 104.0, 0.0, 0.0, 0.0, 1.6731203649890316E9, 0.0, 2023-01-07 14:39:24.989
16.0, -31406.30202368522, -27721.34872929439, -33511.2105025304, -25973.3305541671, -29924.202552342722, -27794.997727274626, -33747.356682700716, -28442.0136740224, -25282.751057475933, -3220.30523065391, -32819.46871512756, -34552.64533193652, -18172.750553220576, -17909.044672136864, -31532.544676368798, -30628.707185829546, -0.2476171875, 0.8927890625000001, -0.2626640625, 192.0, 0.0, 0.0, 0.0, 0.0, 0.0, 0.0, 0.0, 0.0, 0.0, 1.6731203649890375E9, 0.0, 2023-01-07 14:39:24.989
18.0, -31422.685852370963, -27730.647054987796, -33532.82463941868, -25982.070086249125, -29947.671884020794, -27802.105582011412, -33761.684150896566, -28447.28868571385, -25258.43235950856, -3299.6092199813393, -32815.49010461451, -34647.39437668257, -18169.509550274557, -17928.44598632407, -31533.77402231384, -30692.20849182707, -0.2476171875, 0.8927890625000001, -0.2626640625, 192.0, 0.0, 0.0, 0.0, 0.0, 0.0, 0.0, 0.0, 0.0, 0.0, 1.6731203649890432E9, 0.0, 2023-01-07 14:39:24.989
20.0, -31411.957015032414, -27720.67817696073, -33527.05788934921, -25982.293603693677, -29935.378424570376, -27804.3631082014, -33751.402348447125, -28444.226496723473, -25291.803513980332, -3218.964125986591, -32828.78939256542, -34543.81639287667, -18186.809800482966, -17921.271076353918, -31544.547563141296, -30642.453508669558, -0.2476171875, 0.8927890625000001, -0.2626640625, 192.0, 0.0, 0.0, 0.0, 0.0, 0.0, 0.0, 0.0, 0.0, 0.0, 1.6731203649890509E9, 0.0, 2023-01-07 14:39:24.989
22.0, -31421.45650642592, -27734.357444567377, -33538.90431391053, -26002.454877192366, -29955.919677724803, -27826.625445678885, -33762.57822067478, -28460.49856668694, -25259.080560097762, -3302.626705482806, -32811.891473757205, -34642.65580685804, -18180.21603586865, -17939.577155062816, -31544.86048756367, -30708.50291353499, -0.2476171875, 0.8927890625000001, -0.2626640625, 192.0, 0.0, 0.0, 0.0, 0.0, 0.0, 0.0, 0.0, 0.0, 0.0, 1.6731203649890585E9, 0.0, 2023-01-07 14:39:24.989
24.0, -31413.409878422008, -27729.194191598202, -33538.99372088834, -25990.899025308972, -29946.73311075367, -27815.091945539945, -33759.58308691777, -28444.315903701296, -25282.10285688673, -3226.3402016568425, -32822.374441906744, -34548.443203978924, -18185.491047560103, -17929.87649796921, -31554.91877256856, -30649.561363406345, -0.2476171875, 0.8927890625000001, -0.2626640625, 192.0, 0.0, 0.0, 0.0, 0.0, 0.0, 0.0, 0.0, 0.0, 0.0, 1.6731203649890661E9, 0.0, 2023-01-07 14:39:24.989
26.0, -31416.58382613466, -27735.87736319034, -33528.86838065009, -26006.85817085006, -29947.716587509705, -27830.872277125392, -33755.69388338255, -28464.92421208909, -25249.60342044871, -3311.835624198392, -32808.71752604455, -34648.91429530553, -18171.07417238643, -17947.199099922072, -31550.0460922773, -30706.625367000746, -0.244, 0.904, -0.254, 192.0, 124.0, 48.0, 14.0, 32.0, 124.0, 8.0, 0.0, 0.0, 0.0, 1.673120364989074E9, 0.0, 2023-01-07 14:39:24.989
28.0, -31412.89578829954, -27727.20488634168, -33531.8635144071, -25974.358734412046, -29951.82930848948, -27799.378669187867, -33738.37128142968, -28428.088537226744, -25276.067885883796, -3233.2468906935324, -32819.20049419409, -34552.86884938108, -18187.860332472366, -17927.46250956804, -31551.409548689076, -30637.44671791157, -0.244, 0.904, -0.254, 192.0, 0.0, 0.0, 0.0, 0.0, 0.0, 0.0, 0.0, 0.0, 0.0, 1.673120364989082E9, 0.0, 2023-01-07 14:39:24.989
30.0, -31403.798628306227, -27725.327339807434, -33506.650746661515, -25982.941804282884, -29937.188915871255, -27798.685765109753, -33725.1614004566, -28443.220668222984, -25244.171946546074, -3304.7724729505153, -32805.38711612071, -34631.05525148574, -18172.661146242757, -17935.06210268284, -31538.981978771924, -30672.136625306208, -0.244, 0.904, -0.254, 192.0, 0.0, 0.0, 0.0, 0.0, 0.0, 0.0, 0.0, 0.0, 0.0, 1.67312036498909E9, 0.0, 2023-01-07 14:39:24.989
32.0, -31418.975462791383, -27736.369101568354, -33535.70801445341, -25968.100245964557, -29944.3191223525, -27794.97537553017, -33762.57822067478, -28431.62011285068, -25267.507167757412, -3238.521902384985, -32813.3443371468, -34547.258561522794, -18176.21507361115, -17918.968846675023, -31542.20062997349, -30613.843275766765, -0.244, 0.904, -0.254, 192.0, 0.0, 0.0, 0.0, 0.0, 0.0, 0.0, 0.0, 0.0, 0.0, 1.6731203649890978E9, 0.0, 2023-01-07 14:39:24.989
34.0, -31409.900654542525, -27732.703415477685, -33510.27172926327, -25997.604548645562, -29933.277360591575, -27823.853829366428, -33760.991246818456, -28477.620002939704, -25249.84928963772, -3306.3147433179315, -32807.77875277743, -34625.44496362746, -18178.87493120133, -17937.31962887283, -31547.72151085395, -30676.986953853007, -0.244, 0.904, -0.254, 192.0, 0.0, 0.0, 0.0, 0.0, 0.0, 0.0, 0.0, 0.0, 0.0, 1.673120364989106E9, 0.0, 2023-01-07 14:39:24.989
36.0, -31395.282613668754, -27709.658766944263, -33516.84314213313, -25945.03324568668, -29933.657340247315, -27790.77324757257, -33739.10888899671, -28422.500601112915, -25268.5129962579, -3247.1273240002783, -32808.51636034445, -34557.02627384976, -18182.942948692198, -17921.181669376096, -31545.86631606416, -30637.066738255828, -0.23600000000000002, 0.902, -0.258, 192.0, 124.0, 80.0, 14.0, 24.0, 123.5, 120.0, 0.0, 0.0, 0.0, 1.673120364989117E9, 0.0, 2023-01-07 14:39:24.989
38.0, -31378.563508816187, -27702.595615696388, -33485.193071984424, -25966.893251763973, -29940.36286358391, -27809.54871291503, -33740.04766226383, -28461.035008553867, -25230.917362084077, -3267.5344666879737, -32779.593203019285, -34583.17781486247, -18148.744779675577, -17905.982483146487, -31533.125821724636, -30652.735311119, -0.23600000000000002, 0.902, -0.258, 192.0, 0.0, 0.0, 0.0, 0.0, 0.0, 0.0, 0.0, 0.0, 0.0, 1.6731203649891288E9, 0.0, 2023-01-07 14:39:24.989
40.0, -31406.033802751757, -27717.928912392726, -33523.48161023636, -25945.480280575786, -29944.654398519328, -27793.790733074038, -33766.91445909911, -28437.8115460648, -25243.05435932331, -3244.6015768768284, -32795.50764507147, -34554.41111974849, -18175.879797444322, -17911.63747449368, -31549.733167854927, -30639.30191270136, -0.23600000000000002, 0.902, -0.258, 192.0, 0.0, 0.0, 0.0, 0.0, 0.0, 0.0, 0.0, 0.0, 0.0, 1.6731203649891372E9, 0.0, 2023-01-07 14:39:24.989
42.0, -31383.860872252095, -27702.05917382946, -33484.88014756205, -25969.48605412079, -29925.521305265585, -27804.5642739015, -33744.65212162163, -28465.840633611755, -25232.102004540207, -3259.1525625172335, -32783.929441443615, -34573.58891649114, -18157.12668384632, -17920.06408215333, -31536.299769437286, -30649.002569794964, -0.23600000000000002, 0.902, -0.258, 192.0, 0.0, 0.0, 0.0, 0.0, 0.0, 0.0, 0.0, 0.0, 0.0, 1.6731203649891458E9, 0.0, 2023-01-07 14:39:24.989
44.0, -31408.939529530948, -27717.526580992533, -33534.143392341546, -25953.057521946135, -29952.231639889676, -27790.326212683467, -33770.35662774523, -28434.995226263432, -25250.922173371575, -3252.2458734805437, -32801.02852595193, -34571.21963157888, -18179.74664923509, -17924.489727555483, -31549.33083645473, -30646.92385756062, -0.23600000000000002, 0.902, -0.258, 192.0, 0.0, 0.0, 0.0, 0.0, 0.0, 0.0, 0.0, 0.0, 0.0, 1.673120364989154E9, 0.0, 2023-01-07 14:39:24.989
46.0, -31397.78600904775, -27720.09703160489, -33504.03559256024, -25990.653156119963, -29937.613599015905, -27809.995747804136, -33747.75901410091, -28471.7191424035, -25254.47610073997, -3255.129248515278, -32798.70394452858, -34577.54517525973, -18169.107218874364, -17913.649131494658, -31551.18603124452, -30648.7343488615, -0.23600000000000002, 0.888, -0.27, 192.0, 124.0, 80.0, 13.5, 96.0, 123.5, 72.0, 0.0, 0.0, 0.0, 1.6731203649891627E9, 0.0, 2023-01-07 14:39:24.989
48.0, -31417.768468590795, -27727.741328208605, -33538.83725867716, -25961.99821972826, -29965.195651673755, -27775.819930531972, -33752.13995601415, -28418.209066177496, -25256.957144374508, -3273.703548157638, -32811.35503189028, -34607.720030274395, -18185.803971982477, -17928.848317724267, -31556.639856891616, -30657.384473965703, -0.23600000000000002, 0.888, -0.27, 192.0, 0.0, 0.0, 0.0, 0.0, 0.0, 0.0, 0.0, 0.0, 0.0, 1.6731203649891715E9, 0.0, 2023-01-07 14:39:24.989
50.0, -31403.150427717024, -27727.45075553069, -33508.57299668467, -25999.48209517981, -29932.9644361692, -27807.626462891873, -33752.60934264772, -28466.891165601155, -25246.876507625166, -3240.3547454303202, -32796.73699101651, -34575.66762872549, -18172.70584973167, -17914.565553017324, -31539.205496216477, -30634.138659732183, -0.23600000000000002, 0.888, -0.27, 192.0, 0.0, 0.0, 0.0, 0.0, 0.0, 0.0, 0.0, 0.0, 0.0, 1.67312036498918E9, 0.0, 2023-01-07 14:39:24.989
52.0, -31429.301968729735, -27741.331188837434, -33546.66036923652, -25983.81352231664, -29958.914811481813, -27789.36508767189, -33762.13118578568, -28434.10115648522, -25268.691810213546, -3301.2408973265765, -32823.67084308515, -34641.87349580211, -18183.188817881208, -17958.8890622722, -31556.930429569536, -30684.675953945633, -0.23600000000000002, 0.888, -0.27, 192.0, 0.0, 0.0, 0.0, 0.0, 0.0, 0.0, 0.0, 0.0, 0.0, 1.673120364989189E9, 0.0, 2023-01-07 14:39:24.989
54.0, -31410.25828245381, -27730.244723587602, -33511.8587031196, -26003.639519648495, -29935.62429375938, -27818.847038608437, -33758.040816550354, -28469.327505746784, -25267.797740435333, -3242.433457664664, -32812.874950513244, -34576.24877408132, -18173.286995087507, -17942.102902186263, -31539.808993316772, -30646.8344505828, -0.23600000000000002, 0.888, -0.27, 192.0, 0.0, 0.0, 0.0, 0.0, 0.0, 0.0, 0.0, 0.0, 0.0, 1.6731203649891973E9, 0.0, 2023-01-07 14:39:24.989
56.0, -31449.88792537307, -27761.268944891566, -33560.18317463197, -26001.605510903064, -29959.339494626463, -27826.826611378983, -33790.80847392183, -28460.409159709117, -25270.323487558784, -3307.1417578627775, -32828.23059895403, -34657.47501343191, -18191.078983673928, -17965.974565264532, -31559.05384529279, -30701.238596587016, -0.23600000000000002, 0.886, -0.274, 192.0, 124.0, 80.0, 13.5, 88.0, 123.5, 56.0, 0.0, 0.0, 0.0, 1.6731203649892058E9, 0.0, 2023-01-07 14:39:24.989
58.0, -31416.673233112484, -27735.430328301234, -33518.87715087857, -25996.844589334083, -29940.36286358391, -27817.70709964122, -33764.50047069794, -28467.852290612733, -25287.06494415581, -3253.9669578036023, -32834.6008461238, -34588.87750969857, -18193.358861608373, -17950.350695890273, -31561.15490927159, -30660.513718189446, -0.23600000000000002, 0.886, -0.274, 192.0, 0.0, 0.0, 0.0, 0.0, 0.0, 0.0, 0.0, 0.0, 0.0, 1.6731203649892142E9, 0.0, 2023-01-07 14:39:24.989
60.0, -31449.64205618406, -27760.844261746915, -33557.59037227516, -25988.507388652255, -29974.73984655617, -27816.477753696177, -33772.815319635316, -28453.144842761143, -25256.823033907778, -3305.0183421395236, -32816.87591277074, -34654.94926630846, -18180.6407190133, -17952.161187191152, -31549.62140913265, -30690.59916622629, -0.23600000000000002, 0.886, -0.274, 192.0, 0.0, 0.0, 0.0, 0.0, 0.0, 0.0, 0.0, 0.0, 0.0, 1.6731203649892225E9, 0.0, 2023-01-07 14:39:24.989
62.0, -31422.484686670865, -27737.598447513396, -33520.911159624, -25976.683315835395, -29946.59900028694, -27805.50304716862, -33749.05541527932, -28449.926191559578, -25297.078525671786, -3242.9028442982253, -32834.6008461238, -34573.611268235596, -18200.332605878426, -17936.06793118333, -31554.695255124007, -30636.418537666625, -0.23600000000000002, 0.886, -0.274, 192.0, 0.0, 0.0, 0.0, 0.0, 0.0, 0.0, 0.0, 0.0, 0.0, 1.673120364989231E9, 0.0, 2023-01-07 14:39:24.989
64.0, -31441.70718690243, -27755.59160179992, -33536.60208423163, -25974.649307089963, -29945.146136897343, -27804.78779134605, -33762.935848586065, -28444.718235101493, -25257.873565897175, -3310.6733334867163, -32813.59020633581, -34651.350635451156, -18172.750553220576, -17942.70639928656, -31537.596170615696, -30679.06566608735, -0.23600000000000002, 0.886, -0.274, 192.0, 0.0, 0.0, 0.0, 0.0, 0.0, 0.0, 0.0, 0.0, 0.0, 1.6731203649892397E9, 0.0, 2023-01-07 14:39:24.989
66.0, -31433.302930987233, -27753.758758754586, -33535.30568305322, -25985.825179317617, -29938.619427516394, -27797.031736020057, -33757.66083689461, -28453.994209050445, -25289.43422906807, -3237.2478529510327, -32829.236427454525, -34557.22743954986, -18191.436611585214, -17945.8356435103, -31552.750653356394, -30626.516714872923, -0.246, 0.9, -0.272, 192.0, 124.0, 40.0, 14.0, 16.0, 123.5, 64.0, 0.0, 0.0, 0.0, 1.673120364989249E9, 0.0, 2023-01-07 14:39:24.989
68.0, -31438.265018256312, -27757.73736926763, -33534.83629641966, -25987.836836318595, -29948.58830554346, -27808.74405011464, -33766.13214804317, -28458.10693003022, -25259.885222898152, -3318.742313235082, -32816.67474707064, -34655.686873875486, -18183.21116962566, -17961.906547773666, -31551.342493455708, -30689.615689470254, -0.246, 0.9, -0.272, 192.0, 0.0, 0.0, 0.0, 0.0, 0.0, 0.0, 0.0, 0.0, 0.0, 1.673120364989257E9, 0.0, 2023-01-07 14:39:24.989
70.0, -31438.89086710106, -27761.268944891566, -33540.46893602239, -25989.602624130563, -29957.663113792314, -27818.869390352895, -33762.33235148578, -28459.313924230806, -25289.85891221272, -3236.242024450544, -32830.08579374383, -34552.80179414771, -18196.21988489865, -17935.665599783137, -31551.342493455708, -30629.44479339657, -0.246, 0.9, -0.272, 192.0, 0.0, 0.0, 0.0, 0.0, 0.0, 0.0, 0.0, 0.0, 0.0, 1.673120364989268E9, 0.0, 2023-01-07 14:39:24.989
72.0, -31433.682910642972, -27759.950191968703, -33539.46310752191, -25997.448086434375, -29951.851660233937, -27822.758593888117, -33756.67736013858, -28467.114683045707, -25277.923080673587, -3336.780171010515, -32830.95751177758, -34663.82290885722, -18191.056631929474, -17960.967774506542, -31564.731188384438, -30702.624404743245, -0.246, 0.9, -0.272, 192.0, 0.0, 0.0, 0.0, 0.0, 0.0, 0.0, 0.0, 0.0, 0.0, 1.6731203649892757E9, 0.0, 2023-01-07 14:39:24.989
74.0, -31423.2669977268, -27747.656732518284, -33536.289159809254, -25979.186711214392, -29953.706855023727, -27812.11916352739, -33757.03498804987, -28450.52968865987, -25277.923080673587, -3239.550082629929, -32821.14509596171, -34547.41502373398, -18187.145076649795, -17938.21369865104, -31557.690388881016, -30625.801459050355, -0.246, 0.9, -0.272, 192.0, 0.0, 0.0, 0.0, 0.0, 0.0, 0.0, 0.0, 0.0, 0.0, 1.6731203649892821E9, 0.0, 2023-01-07 14:39:24.989
76.0, -31436.655692655528, -27762.87827049235, -33537.339691798654, -26008.57925517312, -29962.35698012793, -27835.65555043883, -33765.77452013189, -28482.760904164425, -25250.385731504648, -3328.062990672945, -32814.5960348363, -34653.74227210788, -18197.203361654683, -17960.18546345061, -31561.601944160695, -30698.623442485747, -0.23600000000000002, 0.904, -0.266, 192.0, 124.0, 80.0, 14.0, 32.0, 123.5, 88.0, 0.0, 0.0, 0.0, 1.673120364989288E9, 0.0, 2023-01-07 14:39:24.989
78.0, -31429.346672218642, -27750.54010755302, -33541.85474417862, -25980.639574603985, -29942.68744500726, -27803.469038423187, -33756.54324967185, -28446.774595591378, -25292.988156436462, -3256.403297949231, -32830.08579374383, -34565.87756465406, -18180.75247773558, -17944.852166754266, -31558.830327848238, -30631.29998818636, -0.23600000000000002, 0.904, -0.266, 192.0, 0.0, 0.0, 0.0, 0.0, 0.0, 0.0, 0.0, 0.0, 0.0, 1.673120364989296E9, 0.0, 2023-01-07 14:39:24.989
80.0, -31404.87151204008, -27728.791860198005, -33506.33782223914, -25987.009821773747, -29917.96641563969, -27803.759611101104, -33725.25080743442, -28458.285743985864, -25246.51887971388, -3325.581947038406, -32811.8467702683, -34645.09214700367, -18193.962358708664, -17948.495501100482, -31546.71568235346, -30677.92572712013, -0.23600000000000002, 0.904, -0.266, 192.0, 0.0, 0.0, 0.0, 0.0, 0.0, 0.0, 0.0, 0.0, 0.0, 1.6731203649893043E9, 0.0, 2023-01-07 14:39:24.989
82.0, -31402.59163410564, -27716.76662168105, -33518.38541250055, -25957.013780714726, -29948.9682851992, -27783.821855046972, -33730.794040059336, -28424.06522322479, -25250.408083249105, -3225.3120214118985, -32794.25594738197, -34540.93301784194, -18179.143152134795, -17920.466413553528, -31523.380461142122, -30602.600348305747, -0.23600000000000002, 0.904, -0.266, 192.0, 0.0, 0.0, 0.0, 0.0, 0.0, 0.0, 0.0, 0.0, 0.0, 1.673120364989313E9, 0.0, 2023-01-07 14:39:24.989
84.0, -31416.494419156843, -27734.983293412126, -33512.596310686626, -25997.82806609012, -29940.809898473013, -27822.959759588215, -33751.84938333624, -28479.475197729495, -25242.339103500737, -3296.681141457694, -32799.48625558451, -34617.35363213463, -18168.12374211833, -17937.87842248421, -31538.49024039391, -30664.11234904675, -0.23600000000000002, 0.904, -0.266, 192.0, 0.0, 0.0, 0.0, 0.0, 0.0, 0.0, 0.0, 0.0, 0.0, 1.673120364989322E9, 0.0, 2023-01-07 14:39:24.989
86.0, -31433.12411703159, -27742.180555126735, -33546.705072725425, -25975.096341979068, -29954.98090445768, -27808.609939647908, -33772.83767137977, -28448.987418292454, -25283.399258065136, -3265.880437598281, -32825.30252043039, -34578.930983415965, -18204.80295476949, -17944.963925476542, -31550.850755077692, -30643.6828546146, -0.228, 0.904, -0.252, 192.0, 124.0, 112.0, 14.0, 32.0, 124.0, 16.0, 0.0, 0.0, 0.0, 1.6731203649893303E9, 0.0, 2023-01-07 14:39:24.989
88.0, -31418.796648835738, -27733.508078278075, -33511.0093368303, -25994.27413872172, -29931.578628012972, -27823.27268401059, -33756.029159549376, -28484.92902337659, -25266.166063090095, -3294.6918362011716, -32812.383212135224, -34618.13594319057, -18190.36372785136, -17933.005742192956, -31541.75359508438, -30670.795520638887, -0.228, 0.904, -0.252, 192.0, 0.0, 0.0, 0.0, 0.0, 0.0, 0.0, 0.0, 0.0, 0.0, 1.6731203649893384E9, 0.0, 2023-01-07 14:39:24.989
90.0, -31428.3184919737, -27729.708281720676, -33539.84308717764, -25959.874804005005, -29960.1218056824, -27791.73437258415, -33764.56752593131, -28441.00784552191, -25291.088258157764, -3269.2779027554875, -32826.30834893088, -34587.84932945363, -18202.7465942796, -17939.107768429254, -31551.454252177988, -30649.606066895256, -0.228, 0.904, -0.252, 192.0, 0.0, 0.0, 0.0, 0.0, 0.0, 0.0, 0.0, 0.0, 0.0, 1.6731203649893467E9, 0.0, 2023-01-07 14:39:24.989
92.0, -31398.32245091468, -27705.65780468676, -33494.91608082248, -25978.560862369643, -29926.34831981043, -27801.70325061122, -33734.16915347209, -28468.321677246295, -25252.576202461267, -3272.2059812791326, -32797.273432883434, -34588.788102720755, -18187.390945838804, -17927.9318962016, -31529.41543214505, -30648.82375583932, -0.228, 0.904, -0.252, 192.0, 0.0, 0.0, 0.0, 0.0, 0.0, 0.0, 0.0, 0.0, 0.0, 1.6731203649893527E9, 0.0, 2023-01-07 14:39:24.989
94.0, -31429.346672218642, -27721.86281941686, -33542.88292442357, -25961.886461005983, -29951.784605000572, -27787.956927771203, -33761.41592996311, -28437.05158675332, -25278.593633007247, -3265.254588753532, -32817.30059591539, -34589.88333819906, -18201.47254484565, -17937.185518406095, -31544.212286974467, -30654.97048556453, -0.228, 0.904, -0.252, 192.0, 0.0, 0.0, 0.0, 0.0, 0.0, 0.0, 0.0, 0.0, 0.0, 1.6731203649893584E9, 0.0, 2023-01-07 14:39:24.989
96.0, -31397.07075322518, -27700.29338601749, -33488.545833652715, -25982.248900204766, -29911.462058003195, -27793.790733074038, -33731.129316226165, -28458.77748236388, -25271.463426526003, -3251.620024635795, -32804.35893587577, -34576.74051245934, -18183.233521370115, -17926.099053156264, -31525.32506290973, -30640.911238302142, -0.235, 0.899, -0.266, 192.0, 124.0, 56.0, 13.5, 120.0, 123.5, 32.0, 0.0, 0.0, 0.0, 1.6731203649893641E9, 0.0, 2023-01-07 14:39:24.989
98.0, -31420.3165674587, -27713.01152861256, -33527.25905504931, -25962.177033683904, -29936.138383881855, -27774.79175028703, -33746.663778622606, -28418.05260396631, -25255.32546702927, -3267.467411454608, -32799.68742128461, -34599.62869878158, -18180.014870168554, -17926.45668106755, -31518.217208172944, -30645.918029060133, -0.235, 0.899, -0.266, 192.0, 0.0, 0.0, 0.0, 0.0, 0.0, 0.0, 0.0, 0.0, 0.0, 1.67312036498937E9, 0.0, 2023-01-07 14:39:24.989
100.0, -31423.42345993799, -27728.68010147573, -33512.171627541975, -26018.90576111147, -29946.017854931102, -27817.46123045221, -33763.0699590528, -28483.722029176002, -25281.834635953266, -3242.813437320404, -32822.530904117935, -34586.262355597304, -18207.105184448385, -17937.721960273026, -31538.400833416086, -30655.64103789819, -0.235, 0.899, -0.266, 192.0, 0.0, 0.0, 0.0, 0.0, 0.0, 0.0, 0.0, 0.0, 0.0, 1.6731203649893773E9, 0.0, 2023-01-07 14:39:24.989
102.0, -31444.3223410037, -27741.219430115158, -33544.7157674689, -25994.14002825499, -29967.810805775025, -27804.720736112686, -33784.7735029189, -28457.794005607848, -25274.927946916574, -3303.967810150124, -32829.68346234363, -34648.31079820523, -18198.16448666626, -17967.203911209574, -31555.611676646673, -30700.210416342074, -0.235, 0.899, -0.266, 192.0, 0.0, 0.0, 0.0, 0.0, 0.0, 0.0, 0.0, 0.0, 0.0, 1.6731203649893863E9, 0.0, 2023-01-07 14:39:24.989
104.0, -31416.896750557036, -27718.308892048466, -33504.77320012727, -25999.504446924264, -29942.68744500726, -27808.27466348108, -33758.44314795055, -28477.463540728517, -25281.499359786438, -3230.6317365922614, -32814.50662785848, -34571.77842519026, -18193.180047652728, -17947.40026562217, -31542.558257884775, -30658.189136766094, -0.235, 0.899, -0.266, 192.0, 0.0, 0.0, 0.0, 0.0, 0.0, 0.0, 0.0, 0.0, 0.0, 1.6731203649893935E9, 0.0, 2023-01-07 14:39:24.989
106.0, -31436.476878699887, -27732.949284666694, -33531.52823824027, -25978.560862369643, -29963.273401650596, -27795.847093563927, -33774.78227314738, -28454.038912539356, -25279.353592318726, -3283.2924465289652, -32817.81468603786, -34638.14075447807, -18195.571684309445, -17948.02611446692, -31546.201592230987, -30691.31442204886, -0.2435, 0.8935, -0.268, 192.0, 124.0, 16.0, 13.5, 96.0, 123.5, 72.0, 0.0, 0.0, 0.0, 1.673120365468766E9, 0.0, 2023-01-07 14:39:25.468
108.0, -31429.659596641017, -27732.72576722214, -33507.94714783992, -26000.845551591585, -29955.852622491435, -27811.1133350269, -33770.44603472305, -28488.326488533796, -25279.018316151898, -3236.174969217178, -32819.26754942746, -34566.59282047663, -18207.753385037588, -17938.236050395495, -31544.90519105258, -30646.789747093888, -0.2435, 0.8935, -0.268, 192.0, 0.0, 0.0, 0.0, 0.0, 0.0, 0.0, 0.0, 0.0, 0.0, 1.6731203654688237E9, 0.0, 2023-01-07 14:39:25.468
110.0, -31449.195021294956, -27748.483747063132, -33528.0637178497, -25983.657060105452, -29960.188860915765, -27805.97243380218, -33777.79975864885, -28463.49370044395, -25278.14659811814, -3312.349714320864, -32822.57560760684, -34653.27288547431, -18195.437573842715, -17954.64223082569, -31544.458156163473, -30693.951927894585, -0.2435, 0.8935, -0.268, 192.0, 0.0, 0.0, 0.0, 0.0, 0.0, 0.0, 0.0, 0.0, 0.0, 1.67312036546883E9, 0.0, 2023-01-07 14:39:25.468
112.0, -31427.02209079529, -27735.385624812323, -33506.53898793924, -25984.729943839306, -29949.325913110486, -27801.055050022012, -33756.1185665272, -28463.180776021574, -25292.608176780723, -3233.559815115907, -32826.28599718642, -34564.871736153575, -18200.93610297872, -17935.97852420551, -31541.57478112874, -30631.478802142003, -0.2435, 0.8935, -0.268, 192.0, 0.0, 0.0, 0.0, 0.0, 0.0, 0.0, 0.0, 0.0, 0.0, 1.6731203654688356E9, 0.0, 2023-01-07 14:39:25.468
114.0, -31443.808250881226, -27744.90746795028, -33530.23183706187, -25977.957365269347, -29957.84192774796, -27791.68966909524, -33765.99803757644, -28447.378092691673, -25258.566469975292, -3311.075664886912, -32812.62908132423, -34651.060062773235, -18190.766059251557, -17946.953230733066, -31534.533981625318, -30672.650715428677, -0.2435, 0.8935, -0.268, 192.0, 0.0, 0.0, 0.0, 0.0, 0.0, 0.0, 0.0, 0.0, 0.0, 1.6731203654688408E9, 0.0, 2023-01-07 14:39:25.468
116.0, -31442.400090980544, -27751.456529075687, -33532.73523244086, -26002.186656258902, -29953.21511664571, -27813.057936794514, -33777.486834226474, -28476.033029083377, -25325.86757253022, -3235.3479546723315, -32839.89820955971, -34564.7599774313, -18216.179992697238, -17952.69762905808, -31557.131595269635, -30631.34469167527, -0.25475000000000003, 0.8947499999999999, -0.269, 192.0, 123.5, 88.0, 14.0, 0.0, 123.5, 72.0, 0.0, 0.0, 0.0, 1.673120365468846E9, 0.0, 2023-01-07 14:39:25.468
118.0, -31446.84808812715, -27756.86565123387, -33537.65261622103, -26003.483057437308, -29958.73599752617, -27812.633253649863, -33769.998999833944, -28469.573374935793, -25252.196222805527, -3323.3020691039646, -32816.384174392726, -34669.09792054867, -18195.012890698064, -17965.214605953053, -31549.82257483275, -30693.281375560928, -0.25475000000000003, 0.8947499999999999, -0.269, 192.0, 0.0, 0.0, 0.0, 0.0, 0.0, 0.0, 0.0, 0.0, 0.0, 1.6731203654688516E9, 0.0, 2023-01-07 14:39:25.468
120.0, -31432.40886120902, -27744.192212127713, -33527.281406793765, -25989.55792064165, -29949.63883753286, -27803.022003534083, -33760.87948809618, -28458.82218585279, -25298.464333828015, -3250.8600653243143, -32829.28113094343, -34563.86590765308, -18202.768946024054, -17946.863823755244, -31551.342493455708, -30630.54002887488, -0.25475000000000003, 0.8947499999999999, -0.269, 192.0, 0.0, 0.0, 0.0, 0.0, 0.0, 0.0, 0.0, 0.0, 0.0, 1.6731203654688568E9, 0.0, 2023-01-07 14:39:25.468
122.0, -31436.99096882236, -27754.742235510617, -33525.806191659714, -26005.38295571601, -29955.942029469257, -27823.69736715524, -33768.43437772207, -28483.45380824254, -25255.973667618477, -3321.3127638474425, -32814.86425576976, -34658.279676232305, -18178.83022771242, -17964.231129197018, -31546.782737586826, -30689.34746853679, -0.25475000000000003, 0.8947499999999999, -0.269, 192.0, 0.0, 0.0, 0.0, 0.0, 0.0, 0.0, 0.0, 0.0, 0.0, 1.6731203654688623E9, 0.0, 2023-01-07 14:39:25.468
124.0, -31431.17951526398, -27739.878325447837, -33535.97623538688, -25988.37327818552, -29954.667980035305, -27804.228997734666, -33759.96306657351, -28459.44803469754, -25297.257339627427, -3241.8970157977365, -32830.130497232734, -34564.40234952001, -18195.88460873182, -17957.793826793888, -31561.512537182873, -30633.53516263189, -0.25475000000000003, 0.8947499999999999, -0.269, 192.0, 0.0, 0.0, 0.0, 0.0, 0.0, 0.0, 0.0, 0.0, 0.0, 1.6731203654688675E9, 0.0, 2023-01-07 14:39:25.468
126.0, -31429.3690239631, -27748.327284851945, -33520.62058694608, -26008.825124362127, -29950.8681834779, -27824.993768333647, -33761.86296485221, -28485.957203621532, -25266.68015321257, -3315.300144588965, -32815.89243601471, -34648.31079820523, -18175.321003832938, -17952.451759869073, -31550.4484236775, -30683.871291145242, -0.255375, 0.9003749999999999, -0.2665, 192.0, 124.0, 0.0, 14.0, 40.0, 123.5, 96.0, 0.0, 0.0, 0.0, 1.673120365468874E9, 0.0, 2023-01-07 14:39:25.468
128.0, -31434.867553099106, -27753.44583433221, -33535.4174417755, -25989.66967936393, -29952.3210468675, -27817.75180313013, -33773.64233418016, -28466.39942722314, -25269.697638714035, -3258.057327038923, -32819.46871512756, -34560.826070407165, -18195.92931222073, -17945.276849898917, -31555.701083624495, -30629.891828285676, -0.255375, 0.9003749999999999, -0.2665, 192.0, 0.0, 0.0, 0.0, 0.0, 0.0, 0.0, 0.0, 0.0, 0.0, 1.67312036546888E9, 0.0, 2023-01-07 14:39:25.468
