%OpenBCI Raw EEG Data
%Number of channels = 16
%Sample Rate = 125 Hz
%Board = OpenBCI_GUI$BoardCytonSerialDaisy
Sample Index, EXG Channel 0, EXG Channel 1, EXG Channel 2, EXG Channel 3, EXG Channel 4, EXG Channel 5, EXG Channel 6, EXG Channel 7, EXG Channel 8, EXG Channel 9, EXG Channel 10, EXG Channel 11, EXG Channel 12, EXG Channel 13, EXG Channel 14, EXG Channel 15, Accel Channel 0, Accel Channel 1, Accel Channel 2, Other, Other, Other, Other, Other, Other, Other, Analog Channel 0, Analog Channel 1, Analog Channel 2, Timestamp, Other, Timestamp (Formatted)
0.0, -16344.780188176655, -7054.143494861543, -29511.522294464387, -25549.519127550022, -18775.890025602585, -7837.750951975698, 50728.15575935313, -7486.8062122829215, 0.0, 0.0, 0.0, 0.0, 0.0, 0.0, 0.0, 0.0, 0.0, 0.0, 0.0, 192.0, 0.0, 0.0, 0.0, 0.0, 0.0, 0.0, 0.0, 0.0, 0.0, 1.6625061813996038E9, 0.0, 2022-09-06 19:16:21.399
198.0, -16513.044120436207, -7226.900127756611, -29671.404322553197, -25721.538152878067, -18947.1714433636, -7982.746718257275, 52306.7477115092, -7552.96737587063, -15177.57209272052, -4319.385209010268, -20532.15599443388, -13469.451781445954, 10661.357422036817, -12940.810673333488, -8216.3895030486, -15338.549356287642, 0.0, 0.0, 0.0, 192.0, 0.0, 0.0, 0.0, 0.0, 0.0, 0.0, 0.0, 0.0, 0.0, 1.6625061813996155E9, 0.0, 2022-09-06 19:16:21.399
200.0, -16367.020173909686, -7074.751803249336, -29521.04413760235, -25556.604630542355, -18763.61891789662, -7813.186384819315, 50734.414247800625, -7386.670397123146, -15141.630487636387, -4272.044214253929, -20500.394165562888, -13429.643324571052, 10653.087276588354, -12886.853562218377, -8237.53425330332, -15374.222740438312, 0.0, 0.0, 0.0, 192.0, 0.0, 0.0, 0.0, 0.0, 0.0, 0.0, 0.0, 0.0, 0.0, 1.6625061813996253E9, 0.0, 2022-09-06 19:16:21.399
202.0, -16543.218975450873, -7256.180912993063, -29691.07385767387, -25758.507938207145, -18956.17919637909, -8025.550308889188, 52428.296497857154, -7582.672844251734, -15171.023031595116, -4321.732142178076, -20522.522392573643, -13459.706420863442, 10674.20967509862, -12927.332571426938, -8172.870656594117, -15319.595076989543, 0.0, 0.0, 0.0, 192.0, 0.0, 0.0, 0.0, 0.0, 0.0, 0.0, 0.0, 0.0, 0.0, 1.6625061813996346E9, 0.0, 2022-09-06 19:16:21.399
204.0, -16354.749066203722, -7055.797523951236, -29528.84489641725, -25557.90103172076, -18780.807409382753, -7827.69266697081, 50642.86150251168, -7423.394313263216, -15170.061906583538, -4306.465900715101, -20529.11615718796, -13464.71321162143, 10636.815206624891, -12908.758271784578, -8266.435058884032, -15430.057398087669, 0.34600000000000003, 0.762, 0.502, 192.0, 5.0, 104.0, 11.5, 104.0, 7.5, 88.0, 0.0, 0.0, 0.0, 1.662506181399644E9, 0.0, 2022-09-06 19:16:21.399
206.0, -16639.599697542155, -7380.635426120213, -29801.46912353863, -25939.199440383847, -19093.77653524596, -8170.613130404131, 53397.33402697254, -7731.066075690517, -15149.43124645129, -4306.197679781638, -20506.227970865726, -13444.998973011849, 10689.40886132823, -12941.078894266951, -8172.1106972826365, -15319.617428733996, 0.34600000000000003, 0.762, 0.502, 192.0, 0.0, 0.0, 0.0, 0.0, 0.0, 0.0, 0.0, 0.0, 0.0, 1.6625061813996534E9, 0.0, 2022-09-06 19:16:21.399
208.0, -16433.673075875413, -7120.751693338358, -29603.90205429817, -25615.63558764882, -18853.361171884677, -7884.9578362653065, 50720.01972437141, -7478.379604623271, -15365.796132778662, -4512.169004937292, -20727.979627606826, -13669.790466998873, 10431.87206171418, -13125.078454623039, -8463.309224046377, -15627.132728950111, 0.34600000000000003, 0.762, 0.502, 192.0, 0.0, 0.0, 0.0, 0.0, 0.0, 0.0, 0.0, 0.0, 0.0, 1.6625061813996625E9, 0.0, 2022-09-06 19:16:21.399
210.0, -17066.070981749413, -7849.105638158994, -30227.89570425698, -26468.89108048571, -19534.44117718234, -8669.61582536886, 56251.24946251506, -8209.10283435617, -15274.06457353408, -4469.03013813855, -20666.668792565917, -13602.332902232756, 10549.531644526916, -13151.274699124659, -8301.013207556392, -15435.645334201496, 0.34600000000000003, 0.762, 0.502, 192.0, 0.0, 0.0, 0.0, 0.0, 0.0, 0.0, 0.0, 0.0, 0.0, 1.662506181399672E9, 0.0, 2022-09-06 19:16:21.399
212.0, -16444.290154491682, -7067.263968856808, -29593.508493126454, -25496.94782459114, -18817.28545633381, -7811.152376073883, 49208.214784647804, -7453.345650833327, -15732.387093590152, -4859.828038195138, -21074.677535853094, -14025.049093371523, 10076.635787085985, -13439.813368298217, -8820.959487075745, -16013.326169648906, 0.34600000000000003, 0.762, 0.502, 192.0, 0.0, 0.0, 0.0, 0.0, 0.0, 0.0, 0.0, 0.0, 0.0, 1.662506181399681E9, 0.0, 2022-09-06 19:16:21.399
214.0, -16988.666890700686, -7785.134945527905, -30152.190345786854, -26430.557838744862, -19496.689080797325, -8621.939554445691, 55292.67254980476, -8161.605377388642, -15086.533437554055, -4268.602045607811, -20473.303851283057, -13401.904809702017, 10739.163844485742, -12918.190707944717, -8135.699705564941, -15279.876027092461, 0.332, 0.76, 0.498, 192.0, 5.0, 48.0, 11.5, 96.0, 7.5, 72.0, 0.0, 0.0, 0.0, 1.6625061813996906E9, 0.0, 2022-09-06 19:16:21.399
216.0, -16404.615808083512, -7005.662561137982, -29542.591219257265, -25393.12397159624, -18773.252519756858, -7729.501453578646, 48420.94164144297, -7388.547943657392, -15793.049728041857, -4912.086416731646, -21125.237181810997, -14080.995509743156, 10014.095606100036, -13497.614979459642, -8871.988519667211, -16046.987896798599, 0.332, 0.76, 0.498, 192.0, 0.0, 0.0, 0.0, 0.0, 0.0, 0.0, 0.0, 0.0, 0.0, 1.6625061813996997E9, 0.0, 2022-09-06 19:16:21.399
218.0, -16823.934534065073, -7636.7193623446665, -29983.389971660374, -26285.874996885657, -19336.62823875287, -8451.395744251698, 54281.323168435476, -8010.753454059774, -14875.689432107143, -4035.450999194503, -20251.5298427975, -13177.60505409301, 10935.97095441472, -12687.923036566144, -7955.611700488532, -15087.248693376625, 0.332, 0.76, 0.498, 192.0, 0.0, 0.0, 0.0, 0.0, 0.0, 0.0, 0.0, 0.0, 0.0, 1.6625061813997104E9, 0.0, 2022-09-06 19:16:21.399
220.0, -16427.34753219456, -7020.370008989574, -29556.762225241928, -25381.45636099057, -18767.441066198477, -7722.974744197696, 48756.3072152504, -7425.473025497559, -15803.443289213574, -4928.649059373029, -21145.95724892107, -14103.88369606539, 10002.897382127927, -13534.96474444446, -8871.027394655634, -16023.160937209243, 0.332, 0.76, 0.498, 192.0, 0.0, 0.0, 0.0, 0.0, 0.0, 0.0, 0.0, 0.0, 0.0, 1.6625061813997197E9, 0.0, 2022-09-06 19:16:21.399
222.0, -16630.211964870927, -7448.070639141874, -29781.3302017844, -26105.54112262024, -19144.0679602704, -8263.529332104843, 53200.57162053247, -7848.882120714441, -14723.943439000064, -3863.677843055468, -20084.24938729398, -13013.856174213432, 11084.922979464887, -12465.500827491383, -7827.983239648729, -14974.528846088511, 0.332, 0.76, 0.498, 192.0, 0.0, 0.0, 0.0, 0.0, 0.0, 0.0, 0.0, 0.0, 0.0, 1.6625061813997283E9, 0.0, 2022-09-06 19:16:21.399
224.0, -16536.021713736263, -7132.17343475502, -29653.545278733407, -25489.70585938762, -18899.584579418253, -7817.612030221467, 49691.75007244946, -7570.1558673567615, -15801.476335701507, -4940.562539167708, -21155.501443803485, -14119.865193350935, 10018.677713713374, -13587.714861358985, -8850.37438277893, -16002.329111376896, 0.328, 0.788, 0.48, 192.0, 5.0, 32.0, 12.0, 80.0, 7.5, 0.0, 0.0, 0.0, 0.0, 1.6625061813997376E9, 0.0, 2022-09-06 19:16:21.399
226.0, -16486.22202708984, -7302.583134482281, -29634.412185479665, -25941.45696657383, -19000.882685289704, -8104.362559838601, 52045.81344673794, -7699.371302052892, -14673.38379304216, -3793.6721794214463, -20021.82096503031, -12954.132313028851, 11143.506901682247, -12379.871294483102, -7806.391454504902, -14955.954546446152, 0.328, 0.788, 0.48, 192.0, 0.0, 0.0, 0.0, 0.0, 0.0, 0.0, 0.0, 0.0, 0.0, 1.662506181399747E9, 0.0, 2022-09-06 19:16:21.399
228.0, -16643.511252821834, -7252.090543757742, -29760.632486418785, -25613.668634136753, -19001.307368434354, -7929.929546109384, 50848.63166196724, -7659.093458544428, -15793.295597230865, -4953.6606614185175, -21167.23610964252, -14130.884603367402, 10027.685466728863, -13636.039332871358, -8820.512452186638, -15949.333125273362, 0.328, 0.788, 0.48, 192.0, 0.0, 0.0, 0.0, 0.0, 0.0, 0.0, 0.0, 0.0, 0.0, 1.66250618139976E9, 0.0, 2022-09-06 19:16:21.399
230.0, -16298.690891109813, -7103.898478019057, -29449.563258834274, -25725.51676339111, -18794.151400822568, -7888.042377000139, 50835.73470541653, -7475.138601677251, -14646.22642352896, -3742.59844334107, -19972.28949931735, -12907.84185026191, 11171.7371549293, -12315.118290796077, -7784.754965872165, -14942.09646488386, 0.328, 0.788, 0.48, 192.0, 0.0, 0.0, 0.0, 0.0, 0.0, 0.0, 0.0, 0.0, 0.0, 1.6625061813997693E9, 0.0, 2022-09-06 19:16:21.399
232.0, -16738.372056290158, -7370.241864948495, -29874.2016999962, -25749.455481702746, -19138.50237590103, -8067.951568120906, 52056.11760093184, -7808.671332439343, -15727.73793074345, -4906.252611428811, -21107.89222811368, -14070.244320660153, 10097.579371640608, -13628.238574056457, -8730.792549943037, -15851.834815959313, 0.328, 0.788, 0.48, 192.0, 0.0, 0.0, 0.0, 0.0, 0.0, 0.0, 0.0, 0.0, 0.0, 1.6625061813997788E9, 0.0, 2022-09-06 19:16:21.399
234.0, -16143.905060756812, -6931.901804435469, -29306.690908275952, -25523.658159215232, -18646.74164613982, -7708.960200424219, 49528.71644839245, -7319.615163757225, -14676.04365063234, -3753.237873701796, -19983.77829596738, -12916.201402688195, 11126.6760381074, -12277.813229300169, -7844.545882290111, -14996.657073099266, 0.338, 0.8, 0.47400000000000003, 192.0, 5.0, 72.0, 12.5, 0.0, 7.0, 104.0, 0.0, 0.0, 0.0, 1.6625061813997889E9, 0.0, 2022-09-06 19:16:21.399
236.0, -16832.450548702545, -7492.684721074667, -29979.746637314158, -25901.246178298734, -19259.917051782257, -8204.632485465108, 53254.416972925304, -7910.997618555739, -15636.229888943422, -4824.534633700208, -21025.92838119607, -13979.898569571802, 10195.435308865943, -13562.233872679935, -8629.114464415845, -15734.30934361331, 0.338, 0.8, 0.47400000000000003, 192.0, 0.0, 0.0, 0.0, 0.0, 0.0, 0.0, 0.0, 0.0, 0.0, 1.6625061813997984E9, 0.0, 2022-09-06 19:16:21.399
238.0, -15994.014262439521, -6754.294842993599, -29168.40066533097, -25328.326264420306, -18484.356222672013, -7534.68364890619, 48290.74272999081, -7167.176266572031, -14730.425444892104, -3787.234877018318, -20017.574133583803, -12954.109961284395, 11082.173714896884, -12310.379720971552, -7910.058845288617, -15080.476114806666, 0.338, 0.8, 0.47400000000000003, 192.0, 0.0, 0.0, 0.0, 0.0, 0.0, 0.0, 0.0, 0.0, 0.0, 1.662506181399808E9, 0.0, 2022-09-06 19:16:21.399
240.0, -16914.97318923154, -7601.269495638549, -30081.022391441154, -26056.881374941036, -19363.137407676866, -8355.707926238529, 54322.159805555326, -8035.295669471702, -15511.730672327361, -4710.920716633883, -20911.532153073807, -13862.618966414806, 10313.47487133442, -13476.939615838482, -8511.007846714003, -15620.226039913421, 0.338, 0.8, 0.47400000000000003, 192.0, 0.0, 0.0, 0.0, 0.0, 0.0, 0.0, 0.0, 0.0, 0.0, 1.6625061813998175E9, 0.0, 2022-09-06 19:16:21.399
242.0, -15913.43622367814, -6639.8986148713375, -29084.5145683902, -25173.853358489676, -18380.577073166023, -7390.514897169459, 47167.52286762272, -7061.5866257651605, -14835.299829876403, -3889.1811834789737, -20119.16281213317, -13060.638375358389, 10961.921329727333, -12405.888725029079, -8040.660088140976, -15218.073453673536, 0.338, 0.8, 0.47400000000000003, 192.0, 0.0, 0.0, 0.0, 0.0, 0.0, 0.0, 0.0, 0.0, 0.0, 1.6625061813998268E9, 0.0, 2022-09-06 19:16:21.399
244.0, -16984.867094143283, -7707.350874823436, -30150.15633704142, -26194.635176019096, -19459.026391390133, -8456.15666582068, 55146.7156585116, -8126.714304293908, -15378.938958518382, -4590.198944830769, -20783.791933511726, -13734.096435796791, 10440.723352518482, -13378.010794879294, -8386.642740564674, -15482.807515002194, 0.33, 0.8, 0.468, 192.0, 5.0, 40.0, 12.5, 0.0, 7.0, 80.0, 0.0, 0.0, 0.0, 1.662506181399836E9, 0.0, 2022-09-06 19:16:21.399
246.0, -15852.572423526339, -6546.378916070333, -29013.99481463371, -25033.976141688367, -18290.27602556658, -7288.903866875633, 46373.85712550368, -6975.308892167675, -14979.91561650224, -4032.2770514818494, -20259.241194634582, -13208.383406207968, 10810.175336620252, -12546.637659864147, -8170.657833893041, -15350.46283608232, 0.33, 0.8, 0.468, 192.0, 0.0, 0.0, 0.0, 0.0, 0.0, 0.0, 0.0, 0.0, 0.0, 1.6625061813998451E9, 0.0, 2022-09-06 19:16:21.399
248.0, -17001.3626815513, -7753.216654445727, -30156.571287700095, -26273.737999646426, -19458.80287394558, -8518.406274128709, 55624.283030543695, -8152.865845306617, -15202.606046510464, -4417.375256702335, -20612.599922728532, -13556.467122610466, 10607.489717899529, -13192.178391477872, -8213.19320359149, -15298.65149243492, 0.33, 0.8, 0.468, 192.0, 0.0, 0.0, 0.0, 0.0, 0.0, 0.0, 0.0, 0.0, 0.0, 1.6625061813998544E9, 0.0, 2022-09-06 19:16:21.399
250.0, -15867.9951272005, -6528.653982717274, -29006.618738963454, -24962.830539087125, -18298.14383961485, -7260.360689206206, 45892.489956914185, -6962.590749572605, -15143.955069059739, -4200.295114552393, -20428.689769350265, -13379.441306524433, 10660.083372602865, -12710.073615321353, -8313.373722240178, -15492.39641337352, 0.33, 0.8, 0.468, 192.0, 0.0, 0.0, 0.0, 0.0, 0.0, 0.0, 0.0, 0.0, 0.0, 1.662506181399864E9, 0.0, 2022-09-06 19:16:21.399
252.0, -16983.257768542502, -7764.101953995461, -30123.33424369505, -26328.700939262028, -19487.14488591491, -8583.047519093458, 55715.12052001006, -8209.706331456462, -15044.26628878907, -4252.374679133258, -20458.864624364927, -13398.596751522631, 10791.46692651116, -13010.48106080068, -8069.292672788224, -15177.594444464976, 0.33, 0.8, 0.468, 192.0, 0.0, 0.0, 0.0, 0.0, 0.0, 0.0, 0.0, 0.0, 0.0, 1.6625061813998735E9, 0.0, 2022-09-06 19:16:21.399
254.0, -15921.52755517096, -6552.9056254512825, -29035.899524199907, -24952.906364548966, -18311.4207758213, -7271.20128526703, 46002.23702218974, -6944.642298774994, -15290.984844086748, -4357.494933306567, -20587.901245105415, -13546.811169005772, 10513.835908631792, -12905.31610313846, -8438.252918511978, -15642.62248785764, 0.328, 0.81, 0.482, 192.0, 5.0, 32.0, 12.5, 40.0, 7.5, 8.0, 0.0, 0.0, 0.0, 1.6625061813998828E9, 0.0, 2022-09-06 19:16:21.399
0.0, -16906.30071238288, -7700.9359241647635, -30046.108966601965, -26297.25203481341, -19417.809774614547, -8504.794061755427, 55612.50366121575, -8069.3820797660455, -14890.03925204745, -4082.3673108061926, -20295.763945074552, -13233.707932675832, 10934.987477658688, -12820.58063990839, -7923.894575106451, -15039.997105598106, 0.328, 0.81, 0.482, 192.0, 0.0, 0.0, 0.0, 0.0, 0.0, 0.0, 0.0, 0.0, 0.0, 1.662506181399892E9, 0.0, 2022-09-06 19:16:21.399
2.0, -15991.846143227356, -6600.246620207623, -29108.743859379752, -24971.74888512479, -18364.39441018038, -7301.152622837141, 46405.01545727438, -6988.965808029868, -15419.395615982488, -4481.815335966985, -20716.893162356995, -13674.953719968049, 10389.694319927015, -13071.724840608222, -8549.586957643862, -15732.811776734803, 0.328, 0.81, 0.482, 192.0, 0.0, 0.0, 0.0, 0.0, 0.0, 0.0, 0.0, 0.0, 0.0, 1.662506181399901E9, 0.0, 2022-09-06 19:16:21.399
4.0, -16796.12896396267, -7602.320027627949, -29943.335645596464, -26216.47283035193, -19318.724491444173, -8411.877860054716, 55007.397235321674, -7980.57859904511, -14753.805369592354, -3918.461968715426, -20142.922716489164, -13072.6859656198, 11064.672298988378, -12636.73754176349, -7818.707265699776, -14934.295706068959, 0.328, 0.81, 0.482, 192.0, 0.0, 0.0, 0.0, 0.0, 0.0, 0.0, 0.0, 0.0, 0.0, 1.662506181399912E9, 0.0, 2022-09-06 19:16:21.399
6.0, -16076.291033779507, -6670.051118141547, -29196.697973811388, -25042.939191214944, -18445.397132086415, -7382.6694348656465, 47113.81162569662, -7065.92286418949, -15503.68404432345, -4580.4535842482555, -20813.273884448277, -13771.714421715073, 10299.192106627477, -13186.612807108499, -8594.424557021208, -15785.60659713824, 0.328, 0.81, 0.482, 192.0, 0.0, 0.0, 0.0, 0.0, 0.0, 0.0, 0.0, 0.0, 0.0, 1.6625061813999212E9, 0.0, 2022-09-06 19:16:21.399
8.0, -16675.67541309302, -7491.5000786185365, -29828.358272118363, -26137.191192768958, -19189.978443381602, -8321.018018843892, 54337.113122595925, -7882.342682164036, -14657.201130056517, -3810.726560440846, -20030.068758734316, -12967.14102830184, 11152.760523886744, -12503.990531443422, -7716.090406905461, -14872.716650094588, 0.319, 0.8, 0.485, 192.0, 4.5, 88.0, 12.0, 88.0, 7.5, 32.0, 0.0, 0.0, 0.0, 1.66250618139993E9, 0.0, 2022-09-06 19:16:21.399
10.0, -16171.353002947928, -6761.268587263655, -29290.88822494605, -25132.748500436366, -18535.787586663675, -7490.918933262698, 47991.43051998979, -7170.7078421959695, -15571.141609089567, -4672.520419659665, -20891.259120852843, -13858.975632068592, 10233.522681417786, -13310.620285346544, -8633.540109817995, -15833.908716906157, 0.319, 0.8, 0.485, 192.0, 0.0, 0.0, 0.0, 0.0, 0.0, 0.0, 0.0, 0.0, 0.0, 1.6625061813999393E9, 0.0, 2022-09-06 19:16:21.399
12.0, -16565.593071650634, -7372.40998416066, -29713.157381195713, -26033.367339774053, -19084.791133974926, -8215.383674548111, 53370.22136094825, -7763.565512128534, -14575.88548372811, -3709.987248180777, -19934.269181998872, -12868.145152109284, 11224.576678821646, -12375.445649080952, -7662.42386846827, -14831.164757152172, 0.319, 0.8, 0.485, 192.0, 0.0, 0.0, 0.0, 0.0, 0.0, 0.0, 0.0, 0.0, 0.0, 1.662506181399948E9, 0.0, 2022-09-06 19:16:21.399
14.0, -16334.207813049296, -6921.888222919491, -29449.74207278992, -25290.998851179942, -18707.203114891425, -7627.957478518186, 48897.97257160814, -7330.411056329139, -15656.279403719833, -4766.598912072052, -20991.663156946084, -13960.072572239946, 10165.953357929393, -13451.302164948245, -8703.746939152115, -15883.842514019314, 0.319, 0.8, 0.485, 192.0, 0.0, 0.0, 0.0, 0.0, 0.0, 0.0, 0.0, 0.0, 0.0, 1.6625061813999567E9, 0.0, 2022-09-06 19:16:21.399
16.0, -16443.239622502282, -7246.614366366192, -29591.3850774032, -25904.107201589013, -18949.85365269824, -8084.670672973475, 52312.2462406452, -7635.110036743884, -14565.26840511184, -3677.9795501207773, -19914.174963733552, -12849.727314678112, 11253.991574524829, -12338.67702945197, -7677.33248201996, -14845.693391048122, 0.319, 0.8, 0.485, 192.0, 0.0, 0.0, 0.0, 0.0, 0.0, 0.0, 0.0, 0.0, 0.0, 1.6625061813999655E9, 0.0, 2022-09-06 19:16:21.399
18.0, -16456.762427897746, -7055.596358251138, -29578.108141196746, -25435.905210483696, -18831.367055340655, -7782.944474571285, 49965.670700749244, -7481.95588373612, -15665.756543368881, -4809.916592826437, -21026.286009107353, -13998.115241302878, 10152.609366489574, -13508.232058075913, -8703.948104852212, -15869.068010934356, 0.3115, 0.798, 0.4825, 192.0, 4.5, 64.0, 12.0, 112.0, 7.5, 0.0, 0.0, 0.0, 0.0, 1.6625061813999753E9, 0.0, 2022-09-06 19:16:21.399
20.0, -16285.70452758128, -7087.671111544503, -29440.331988374233, -25736.066786774016, -18800.85692415916, -7928.834310631074, 51212.07102681053, -7477.776107522978, -14535.473529752915, -3645.1671892603863, -19872.198387646484, -12816.423215439703, 11266.575606653167, -12248.934775463913, -7686.921380391286, -14855.37169639727, 0.3115, 0.798, 0.4825, 192.0, 0.0, 0.0, 0.0, 0.0, 0.0, 0.0, 0.0, 0.0, 0.0, 1.6625061813999848E9, 0.0, 2022-09-06 19:16:21.399
22.0, -16592.83984814165, -7207.543517058315, -29711.726869550574, -25594.87081704984, -18975.826379755305, -7930.197767042848, 51159.14209594037, -7629.656211096789, -15653.172511240544, -4817.784406874705, -21023.469689305985, -14000.1045465594, 10156.945604913904, -13539.39038984661, -8677.863619072868, -15804.98555958099, 0.3115, 0.798, 0.4825, 192.0, 0.0, 0.0, 0.0, 0.0, 0.0, 0.0, 0.0, 0.0, 0.0, 1.6625061813999932E9, 0.0, 2022-09-06 19:16:21.399
24.0, -16150.38706664885, -6938.339106838597, -29288.98832666735, -25559.063322432437, -18636.16927101246, -7751.093238722473, 49982.41215734627, -7364.810391045856, -14575.237283138906, -3656.633634165959, -19888.98454773242, -12833.946983092665, 11218.02761769624, -12218.737568704793, -7731.736628024177, -14890.598045658833, 0.3115, 0.798, 0.4825, 192.0, 0.0, 0.0, 0.0, 0.0, 0.0, 0.0, 0.0, 0.0, 0.0, 1.6625061814000015E9, 0.0, 2022-09-06 19:16:21.400
26.0, -16724.804547405787, -7352.114600195241, -29841.501097858087, -25759.469063218723, -19118.363454146798, -8084.715376462385, 52397.49579399775, -7788.375948473925, -15609.1842781525, -4781.574580857108, -20990.433811001043, -13960.273737940042, 10214.523698630775, -13523.453596049976, -8602.828812936403, -15723.871078952681, 0.3115, 0.798, 0.4825, 192.0, 0.0, 0.0, 0.0, 0.0, 0.0, 0.0, 0.0, 0.0, 0.0, 1.6625061814000099E9, 0.0, 2022-09-06 19:16:21.400
28.0, -16034.001533270066, -6785.184953830833, -29173.72038051133, -25362.345619481282, -18509.3678247175, -7567.87598942232, 48745.064287789384, -7157.341499011696, -14640.61613567068, -3697.5820300080813, -19939.723007645967, -12881.377384826827, 11162.438829235893, -12227.432397297907, -7807.196117305293, -14950.6795347547, 0.31074999999999997, 0.804, 0.48324999999999996, 192.0, 4.5, 88.0, 12.5, 40.0, 7.5, 16.0, 0.0, 0.0, 0.0, 1.6625061814000187E9, 0.0, 2022-09-06 19:16:21.400
30.0, -16848.58850819928, -7502.877116546288, -29965.150948184844, -25918.23350408477, -19264.32034543995, -8231.901613700582, 53607.105148685594, -7900.5146504062, -15533.233050493367, -4712.150062578924, -20925.74786254738, -13885.909484137235, 10289.580856511695, -13485.947368853971, -8522.87662301977, -15597.360205335643, 0.31074999999999997, 0.804, 0.48324999999999996, 192.0, 0.0, 0.0, 0.0, 0.0, 0.0, 0.0, 0.0, 0.0, 0.0, 1.6625061814000275E9, 0.0, 2022-09-06 19:16:21.400
32.0, -15937.687866412149, -6662.429173282287, -29065.537937347646, -25195.579254100234, -18390.903579104375, -7426.344743531316, 47628.59465224679, -7039.0113638653, -14747.815102078332, -3797.986066101321, -20036.997799515462, -12982.228455809172, 11047.059124357596, -12320.169785042977, -7938.356153769035, -15067.31093732249, 0.31074999999999997, 0.804, 0.48324999999999996, 192.0, 0.0, 0.0, 0.0, 0.0, 0.0, 0.0, 0.0, 0.0, 0.0, 1.6625061814000363E9, 0.0, 2022-09-06 19:16:21.400
34.0, -16939.02366626545, -7626.102283728395, -30055.340237062006, -26083.88228224305, -19340.942125432746, -8355.685574494073, 54633.184329650925, -8010.485233126311, -15409.829069355616, -4611.678971252319, -20814.056195504214, -13775.827142694849, 10417.58929700724, -13371.327623287158, -8404.971171018025, -15476.817247488172, 0.31074999999999997, 0.804, 0.48324999999999996, 192.0, 0.0, 0.0, 0.0, 0.0, 0.0, 0.0, 0.0, 0.0, 0.0, 1.6625061814000456E9, 0.0, 2022-09-06 19:16:21.400
36.0, -15851.030153158923, -6532.856110674872, -28977.136788026906, -25023.89550493902, -18260.4587984632, -7277.929160348077, 46626.43183784865, -6918.826033929114, -14883.289025221948, -3934.264652045328, -20164.246280699528, -13121.971562143752, 10916.077901849498, -12434.45425444296, -8060.553140706199, -15215.525354805632, 0.31074999999999997, 0.804, 0.48324999999999996, 192.0, 0.0, 0.0, 0.0, 0.0, 0.0, 0.0, 0.0, 0.0, 0.0, 1.6625061814000573E9, 0.0, 2022-09-06 19:16:21.400
38.0, -16908.35707287277, -7636.965231533674, -30055.966085906755, -26158.201832556944, -19372.659250814828, -8414.180089733612, 55175.035318736474, -8037.508492172778, -15182.310662545045, -4382.573590585422, -20586.001346826717, -13542.407875348077, 10639.229195026064, -13133.5497657716, -8192.070805081226, -15266.68849786383, 0.31237499999999996, 0.795, 0.47262499999999996, 192.0, 4.5, 104.0, 12.0, 72.0, 7.0, 56.0, 0.0, 0.0, 0.0, 1.6625061814000669E9, 0.0, 2022-09-06 19:16:21.400
40.0, -15893.409060646185, -6555.029041174536, -29037.955884689796, -25017.18998160243, -18325.591781805968, -7285.461698229516, 46620.28510812344, -6955.728764024826, -15060.046620374516, -4116.05138970034, -20347.30706778849, -13310.150898712982, 10723.383512900295, -12641.520815076927, -8252.286404643823, -15394.786345337196, 0.31237499999999996, 0.795, 0.47262499999999996, 192.0, 0.0, 0.0, 0.0, 0.0, 0.0, 0.0, 0.0, 0.0, 0.0, 1.6625061814000747E9, 0.0, 2022-09-06 19:16:21.400
42.0, -16920.67288406764, -7678.874752387375, -30088.465522344773, -26236.567048617253, -19398.475515660706, -8457.609529210273, 55483.08706081952, -8079.418013026478, -15082.443068318735, -4278.883848057252, -20477.975365874216, -13438.360504908624, 10723.271754178018, -13025.792005752564, -8131.877557263084, -15180.656633455354, 0.31237499999999996, 0.795, 0.47262499999999996, 192.0, 0.0, 0.0, 0.0, 0.0, 0.0, 0.0, 0.0, 0.0, 0.0, 1.6625061814000833E9, 0.0, 2022-09-06 19:16:21.400
44.0, -15935.363284988796, -6573.201009416701, -29089.163731236906, -25008.09282160912, -18311.219610121207, -7304.818308927812, 46524.0831999878, -6996.855973822591, -15216.642942028397, -4286.37168244978, -20508.977235433726, -13485.209761286946, 10572.218665149054, -12837.389151738782, -8403.965342517537, -15541.391437219554, 0.31237499999999996, 0.795, 0.47262499999999996, 192.0, 0.0, 0.0, 0.0, 0.0, 0.0, 0.0, 0.0, 0.0, 0.0, 1.6625061814000933E9, 0.0, 2022-09-06 19:16:21.400
46.0, -16841.74887439595, -7626.45991163968, -30043.00207412268, -26223.491278110898, -19356.25307038463, -8448.266500027956, 55113.90329765121, -8058.005041838293, -14928.104272854838, -4120.1417589356615, -20324.195364021703, -13285.452221089867, 10890.775727126089, -12822.234668998084, -8003.891468511995, -15072.69770773622, 0.31237499999999996, 0.795, 0.47262499999999996, 192.0, 0.0, 0.0, 0.0, 0.0, 0.0, 0.0, 0.0, 0.0, 0.0, 1.6625061814001033E9, 0.0, 2022-09-06 19:16:21.400
48.0, -16045.356219453362, -6685.518525304619, -29245.290666257224, -25102.148962277053, -18449.353390855, -7423.081388840841, 47263.72477575836, -7135.123865023121, -15350.932222715883, -4443.772666904052, -20669.03807747818, -13647.50577777693, 10434.956602449012, -13004.267275842105, -8551.196283244644, -15668.662270148072, 0.32118749999999996, 0.7775000000000001, 0.4413125, 192.0, 5.0, 40.0, 11.5, 96.0, 6.0, 104.0, 0.0, 0.0, 0.0, 1.6625061814001105E9, 0.0, 2022-09-06 19:16:21.400
50.0, -16703.21276226196, -7500.485479889569, -29932.606808257915, -26105.94345402044, -19224.623647287328, -8308.702207649018, 54166.85988507985, -7941.328935781591, -14828.728417006543, -3997.810661531766, -20207.653368431733, -13164.953966731307, 10986.441193394803, -12666.018326999943, -7940.278403792192, -15001.73091909062, 0.32118749999999996, 0.7775000000000001, 0.4413125, 192.0, 0.0, 0.0, 0.0, 0.0, 0.0, 0.0, 0.0, 0.0, 0.0, 1.6625061814001172E9, 0.0, 2022-09-06 19:16:21.400
52.0, -16173.387011693361, -6810.44242506533, -29381.52454871232, -25217.059280521786, -18600.406479883968, -7536.762361140533, 48047.086363683506, -7292.837773899767, -15438.796930169694, -4537.828807571985, -20765.843482714117, -13745.115845813258, 10352.925700298036, -13139.562385030078, -8619.883193955802, -15707.15197410011, 0.32118749999999996, 0.7775000000000001, 0.4413125, 192.0, 0.0, 0.0, 0.0, 0.0, 0.0, 0.0, 0.0, 0.0, 0.0, 1.662506181400124E9, 0.0, 2022-09-06 19:16:21.400
54.0, -16710.521782698845, -7518.098654520351, -29922.25795057511, -26129.524544420787, -19218.65573151776, -8334.719638194996, 54053.15656103571, -8013.458015138867, -14838.138501422227, -3990.032254461319, -20203.071260818393, -13164.261062653193, 10974.840638022499, -12653.836626271801, -7959.366793557024, -15013.711454118664, 0.32118749999999996, 0.7775000000000001, 0.4413125, 192.0, 0.0, 0.0, 0.0, 0.0, 0.0, 0.0, 0.0, 0.0, 0.0, 1.6625061814001305E9, 0.0, 2022-09-06 19:16:21.400
56.0, -16227.321771064017, -6862.119658246, -29420.371880575643, -25248.038798336842, -18634.381131456033, -7587.12084139834, 48217.56311864414, -7367.179675958118, -15567.40886776553, -4679.292998229623, -20893.47194355392, -13888.79285917197, 10228.560594148707, -13279.081973920105, -8712.553526467505, -15816.586114953294, 0.32118749999999996, 0.7775000000000001, 0.4413125, 192.0, 0.0, 0.0, 0.0, 0.0, 0.0, 0.0, 0.0, 0.0, 0.0, 1.6625061814001377E9, 0.0, 2022-09-06 19:16:21.400
58.0, -16549.186891220437, -7369.973644015032, -29751.2224020031, -25986.942766540382, -19082.332442084844, -8169.361432714633, 53096.36778788183, -7781.1786867593155, -14722.91525875512, -3862.3143866436944, -20074.749895900477, -13045.975630995707, 11090.600322556535, -12481.057641632276, -7865.020080211173, -14916.593124460356, 0.33959374999999997, 0.7997500000000001, 0.41265625, 192.0, 5.5, 24.0, 12.5, 88.0, 6.0, 0.0, 0.0, 0.0, 0.0, 1.6625061814001443E9, 0.0, 2022-09-06 19:16:21.400
60.0, -16311.967827316264, -6953.314775623653, -29486.622451141175, -25331.701377833055, -18730.98537099187, -7646.889406071831, 49038.050954109545, -7411.570240446358, -15574.98610913588, -4695.520364704176, -20912.537981574296, -13907.724786725616, 10241.904585588525, -13319.940962784405, -8694.538020436528, -15760.729105559481, 0.33959374999999997, 0.7997500000000001, 0.41265625, 192.0, 0.0, 0.0, 0.0, 0.0, 0.0, 0.0, 0.0, 0.0, 0.0, 1.6625061814001513E9, 0.0, 2022-09-06 19:16:21.400
0.0, -8051.701849901897, -3526.434722713795, -14240.542261665138, -12596.057366854831, -9287.663911302556, -3741.0338212291986, 22029.92403863955, -3903.9556865639315, -7658.1993887662165, -2233.0733815519075, -10342.129807726122, -6835.677544555372, 5254.984528420512, -6573.603340816897, -4198.574030229334, -7702.075863131984, 0.356796875, 0.923875, 0.41432812500000005, 192.0, 5.5, 88.0, 16.0, 96.0, 6.5, 0.0, 0.0, 0.0, 0.0, 1.6625061820016637E9, 0.0, 2022-09-06 19:16:22.001
2.0, -15980.759677977525, -7124.484434662394, -28346.504669964874, -25395.873236164243, -18512.27355149669, -7585.019777419541, 46273.408385921524, -7831.559518761578, -14698.104822409729, -3662.825067380079, -20138.60882980929, -13726.318028726344, 11133.828596333098, -12430.833271841202, -7957.533950511689, -14967.778619263008, 0.356796875, 0.923875, 0.41432812500000005, 192.0, 0.0, 0.0, 0.0, 0.0, 0.0, 0.0, 0.0, 0.0, 0.0, 1.6625061820017843E9, 0.0, 2022-09-06 19:16:22.001
4.0, -16428.129843250495, -7543.199663543662, -28878.09620834544, -25835.64380832241, -19020.127537265726, -8046.046858554704, 48321.968116994874, -8348.778885457383, -15150.191205762769, -4256.532103601945, -20681.19742646187, -14319.600381803559, 10704.40688185774, -13179.683766327355, -8298.59921915522, -15353.882652983983, 0.356796875, 0.923875, 0.41432812500000005, 192.0, 0.0, 0.0, 0.0, 0.0, 0.0, 0.0, 0.0, 0.0, 0.0, 1.6625061820018508E9, 0.0, 2022-09-06 19:16:22.001
6.0, -16101.347339313907, -7201.28502861083, -28484.191415809564, -25454.61362059279, -18632.68239887743, -7639.222757723661, 46249.73788854336, -7933.528176966689, -14923.43275826368, -3916.6738291590013, -20459.021086576115, -14003.077328571955, 10880.762145610111, -12792.43979363916, -8200.542116229786, -15227.952924722782, 0.356796875, 0.923875, 0.41432812500000005, 192.0, 0.0, 0.0, 0.0, 0.0, 0.0, 0.0, 0.0, 0.0, 0.0, 1.6625061820018663E9, 0.0, 2022-09-06 19:16:22.001
8.0, -16221.756186694645, -7371.8735422937325, -28733.860401375343, -25666.865785940387, -18831.322351851744, -7857.085210929538, 47676.60619933679, -8134.202138686435, -14993.863105042352, -4059.6579384396005, -20565.84007332803, -14093.244265704665, 10857.29281393204, -12955.965156074186, -8152.1505894840475, -15191.966616149739, 0.33, 1.18, 0.296, 192.0, 5.0, 40.0, 18.0, 112.0, 4.5, 32.0, 0.0, 0.0, 0.0, 1.6625061820018759E9, 0.0, 2022-09-06 19:16:22.001
10.0, -16175.711593116714, -7357.568425842336, -28723.511543692537, -25602.939796798208, -18736.618010594608, -7768.661709864344, 46998.67779000733, -7985.585389803099, -14928.86423216632, -3947.1169051071297, -20528.758529276674, -13981.999633550602, 10850.743752806635, -12893.894361721797, -8221.239831595401, -15222.879078731428, 0.33, 1.18, 0.296, 192.0, 0.0, 0.0, 0.0, 0.0, 0.0, 0.0, 0.0, 0.0, 0.0, 1.6625061820018847E9, 0.0, 2022-09-06 19:16:22.001
12.0, -16288.27497819364, -7489.644883828746, -29002.282500539128, -25793.91310142435, -18868.850930792207, -7933.394066499957, 47930.72318204918, -7982.9255322129175, -15069.300242579013, -4123.650982815145, -20640.874879464493, -14079.83321903148, 10763.348431986384, -13002.210915352216, -8280.561361379787, -15265.325041452055, 0.33, 1.18, 0.296, 192.0, 0.0, 0.0, 0.0, 0.0, 0.0, 0.0, 0.0, 0.0, 0.0, 1.662506182001894E9, 0.0, 2022-09-06 19:16:22.001
14.0, -16209.529782477592, -7395.164060016163, -29150.787490700186, -25739.218382742212, -18749.269097956312, -7779.725823369721, 46978.29299906409, -7660.389859722836, -14994.980692265117, -4017.189623974517, -20565.08011401655, -13974.109467757879, 10726.937440268688, -12945.03515303554, -8398.869144781727, -15409.113813533046, 0.33, 1.18, 0.296, 192.0, 0.0, 0.0, 0.0, 0.0, 0.0, 0.0, 0.0, 0.0, 0.0, 1.662506182001903E9, 0.0, 2022-09-06 19:16:22.001
16.0, -16348.870557411976, -7539.668087919723, -29741.007654787023, -25967.38499014199, -18887.246416478923, -7837.438027553324, 48902.8899553883, -7729.501453578646, -15066.528626266556, -4160.307843721848, -20634.057597405626, -14086.337576667975, 10687.084279904877, -13067.947395795274, -8415.52119440093, -15514.412881661998, 0.33, 1.18, 0.296, 192.0, 0.0, 0.0, 0.0, 0.0, 0.0, 0.0, 0.0, 0.0, 0.0, 1.6625061820019124E9, 0.0, 2022-09-06 19:16:22.001
18.0, -16235.703675234758, -7398.963856573565, -30003.975928303713, -25884.817646124084, -18744.46347289842, -7671.141048805839, 47515.94186019205, -7568.524190011524, -15030.11763454886, -4065.2458745534273, -20542.3483899055, -14152.878719911423, 10657.959956879611, -12995.505392015624, -8585.193286561167, -15700.178229830055, 0.264, 1.424, -0.022, 192.0, 4.0, 32.0, 22.0, 64.0, 127.5, 40.0, 0.0, 0.0, 0.0, 1.6625061820019217E9, 0.0, 2022-09-06 19:16:22.001
20.0, -16358.750028461222, -7534.460131461637, -30394.7738283603, -26106.614006354095, -18829.40010182859, -7807.486689983212, 49207.76774975869, -7653.594929408423, -15079.64910026182, -4156.731564608999, -20466.799493646562, -14328.429320863406, 10681.78691646897, -13044.209843183738, -8539.282803449965, -15660.950918310991, 0.264, 1.424, -0.022, 192.0, 0.0, 0.0, 0.0, 0.0, 0.0, 0.0, 0.0, 0.0, 0.0, 1.6625061820019307E9, 0.0, 2022-09-06 19:16:22.001
22.0, -16210.043872600065, -7397.4662896950595, -30369.516357125805, -26009.16040052896, -18697.32364384218, -7643.626051381356, 48629.55047244435, -7369.45955389256, -15064.852245432407, -4103.8249854832875, -20398.73843178015, -14392.668234427958, 10622.264220984485, -13058.090276490484, -8699.030721072046, -15752.011925221912, 0.264, 1.424, -0.022, 192.0, 0.0, 0.0, 0.0, 0.0, 0.0, 0.0, 0.0, 0.0, 0.0, 1.6625061820019405E9, 0.0, 2022-09-06 19:16:22.001
24.0, -16386.10856367452, -7562.980957386609, -30574.86183343671, -26236.969380017446, -18850.41074161658, -7804.580963204023, 51337.12903703798, -7471.785840008955, -15076.65396650481, -4172.690710150088, -20320.663788397764, -14491.328834453683, 10661.133904592265, -13102.749061912187, -8642.23493841111, -15666.0471160468, 0.264, 1.424, -0.022, 192.0, 0.0, 0.0, 0.0, 0.0, 0.0, 0.0, 0.0, 0.0, 0.0, 1.6625061820019505E9, 0.0, 2022-09-06 19:16:22.001
26.0, -16209.574485966503, -7398.494469940004, -30481.69976254699, -26099.528503361762, -18713.41689985, -7642.08378101394, 50586.37864427312, -7321.02332365791, -15111.232115177168, -4167.8627333477425, -20355.241937070125, -14594.37037639265, 10556.751257985981, -13145.776169988654, -8832.068304070033, -15765.624137595194, 0.264, 1.424, -0.022, 192.0, 0.0, 0.0, 0.0, 0.0, 0.0, 0.0, 0.0, 0.0, 0.0, 1.66250618200196E9, 0.0, 2022-09-06 19:16:22.001
28.0, -16330.720940914267, -7546.150093811762, -30585.881243453176, -26233.61661834915, -18769.6315371551, -7751.540273611578, 52569.71598502588, -7399.209725762574, -15047.574346968455, -4140.794770812366, -20261.923403969216, -14583.663890798556, 10667.68296571767, -13083.101878535972, -8709.24546828812, -15589.581798265195, 0.26, 1.6500000000000001, -0.09, 192.0, 4.0, 16.0, 25.5, 72.0, 126.5, 24.0, 0.0, 0.0, 0.0, 1.6625061820019689E9, 0.0, 2022-09-06 19:16:22.001
30.0, -16194.956445092732, -7424.735417930534, -30604.612005306724, -26136.431233457475, -18670.30038479571, -7649.951595062208, 51672.56166607877, -7257.946700805033, -15077.79390547203, -4150.093096505773, -20297.462677653155, -14651.27791777586, 10585.09326995531, -13140.41175131938, -8844.22765305372, -15671.791514371815, 0.26, 1.6500000000000001, -0.09, 192.0, 0.0, 0.0, 0.0, 0.0, 0.0, 0.0, 0.0, 0.0, 0.0, 1.6625061820019772E9, 0.0, 2022-09-06 19:16:22.001
32.0, -16364.852054697521, -7604.644609051301, -30787.918661584696, -26276.084932814236, -18727.923182001494, -7740.900843250853, 53102.51451760704, -7185.214124347463, -15053.072876104461, -4145.041602258873, -20219.365682526313, -14634.42470245656, 10650.181549809164, -13090.790878628599, -8767.762335272115, -15540.02798080778, 0.26, 1.6500000000000001, -0.09, 192.0, 0.0, 0.0, 0.0, 0.0, 0.0, 0.0, 0.0, 0.0, 0.0, 1.6625061820019858E9, 0.0, 2022-09-06 19:16:22.001
34.0, -16248.578280041014, -7496.261000187516, -30862.215860154138, -26214.930559984514, -18672.960242385896, -7691.682301960266, 52465.914483775436, -7099.003445983344, -15142.189281247769, -4209.0122948899625, -20297.485029397612, -14723.898735511153, 10523.17893781411, -13163.501103341712, -8939.58019490006, -15663.633127645628, 0.26, 1.6500000000000001, -0.09, 192.0, 0.0, 0.0, 0.0, 0.0, 0.0, 0.0, 0.0, 0.0, 0.0, 1.6625061820019944E9, 0.0, 2022-09-06 19:16:22.001
36.0, -16368.80831346611, -7596.173297902739, -31041.633312896887, -26321.2131048695, -18678.279957566258, -7756.256491691648, 53453.615719511, -7056.043393140244, -15048.267251046569, -4145.578044125801, -20172.292908703435, -14629.574373909758, 10626.1087210308, -13065.600462627466, -8836.024562838622, -15558.289356027766, 0.26, 1.6500000000000001, -0.09, 192.0, 0.0, 0.0, 0.0, 0.0, 0.0, 0.0, 0.0, 0.0, 0.0, 1.6625061820020032E9, 0.0, 2022-09-06 19:16:22.002
38.0, -16270.773562285134, -7496.462165887615, -31176.727256384762, -26309.143162863635, -18648.999172329804, -7710.815395214009, 53027.010324837014, -6973.498400866795, -15134.61203987742, -4231.051114922895, -20243.10323513785, -14726.53624135688, 10511.488975463984, -13162.31646088558, -8954.220587518286, -15695.730232683449, 0.23600000000000002, 1.546, -0.056, 192.0, 3.5, 48.0, 24.0, 40.0, 127.0, 32.0, 0.0, 0.0, 0.0, 1.6625061820020332E9, 0.0, 2022-09-06 19:16:22.002
40.0, -16412.170697709407, -7619.1061877138845, -31374.67430528096, -26414.46458273704, -18687.73474547085, -7776.484820423701, 53584.90986644148, -6959.796781515692, -15055.062181360983, -4153.624672129711, -20143.79443452292, -14656.843502145231, 10589.42950837964, -13063.030012015106, -8869.261606843664, -15629.300848162276, 0.23600000000000002, 1.546, -0.056, 192.0, 0.0, 0.0, 0.0, 0.0, 0.0, 0.0, 0.0, 0.0, 0.0, 1.6625061820020423E9, 0.0, 2022-09-06 19:16:22.002
42.0, -16336.800615406111, -7537.1646925407285, -31482.74498972237, -26410.642434435184, -18691.7133559839, -7756.301195180559, 53203.946733945224, -6925.397446798975, -15156.606156421443, -4272.982987521051, -20251.283973608493, -14788.271759542438, 10470.764097066414, -13179.013213993694, -8977.622863962992, -15750.82728276578, 0.23600000000000002, 1.546, -0.056, 192.0, 0.0, 0.0, 0.0, 0.0, 0.0, 0.0, 0.0, 0.0, 0.0, 1.6625061820020523E9, 0.0, 2022-09-06 19:16:22.002
44.0, -16457.00829708675, -7618.525042358046, -31562.048979049803, -26491.71221157458, -18718.714263285907, -7806.234992293716, 53499.54855436666, -6940.0825429061115, -15076.475152549167, -4199.333989540814, -20185.055754787416, -14745.088189254784, 10533.818368174836, -13100.40212874438, -8924.492767392727, -15683.34736625521, 0.23600000000000002, 1.546, -0.056, 192.0, 0.0, 0.0, 0.0, 0.0, 0.0, 0.0, 0.0, 0.0, 0.0, 1.6625061820020611E9, 0.0, 2022-09-06 19:16:22.002
46.0, -16413.91413377692, -7559.9411201406865, -31626.109078658712, -26498.194217466622, -18802.66741546004, -7849.4409143258235, 53361.593587588504, -7017.285468254741, -15195.006453395661, -4335.14318885126, -20290.243064194092, -14856.757504553498, 10407.732177702448, -13204.360092206014, -9001.382768318983, -15795.441364698574, 0.23600000000000002, 1.546, -0.056, 192.0, 0.0, 0.0, 0.0, 0.0, 0.0, 0.0, 0.0, 0.0, 0.0, 1.66250618200207E9, 0.0, 2022-09-06 19:16:22.002
48.0, -16483.49511426629, -7597.894382225798, -31643.029349211378, -26530.738357393548, -18831.322351851744, -7870.943292491829, 53100.07817746141, -7082.016120197311, -15135.215536977714, -4240.036516193929, -20232.329694310392, -14784.896646129686, 10439.53871006235, -13119.222297575749, -8961.283738766162, -15785.092507015766, 0.22100000000000003, 1.3940000000000001, -0.05, 192.0, 3.0, 56.0, 19.0, 104.0, 127.0, 80.0, 0.0, 0.0, 0.0, 1.6625061820020785E9, 0.0, 2022-09-06 19:16:22.002
50.0, -16451.330953995104, -7556.633061961301, -31666.74455007846, -26557.046360617445, -18893.817829348784, -7910.684694133365, 53273.48301094568, -7214.271392139362, -15266.129704252447, -4368.067308433928, -20355.77837893705, -14895.940112583652, 10327.75763604136, -13241.173415323903, -8987.815259434612, -15900.226342705053, 0.22100000000000003, 1.3940000000000001, -0.05, 192.0, 0.0, 0.0, 0.0, 0.0, 0.0, 0.0, 0.0, 0.0, 0.0, 1.662506182002087E9, 0.0, 2022-09-06 19:16:22.002
52.0, -16516.732158271334, -7595.83802173591, -31642.51525908891, -26575.866529448813, -18909.687567912053, -7971.05675590715, 52928.68500097812, -7266.619177653692, -15192.123078360926, -4246.093838941317, -20312.88538132732, -14788.87525664273, 10373.623415663651, -13133.169786115861, -8961.306090510618, -15895.085441480333, 0.22100000000000003, 1.3940000000000001, -0.05, 192.0, 0.0, 0.0, 0.0, 0.0, 0.0, 0.0, 0.0, 0.0, 0.0, 1.662506182002096E9, 0.0, 2022-09-06 19:16:22.002
54.0, -16530.277315411247, -7599.704873526678, -31618.978872177468, -26606.957805986145, -18976.273414644413, -8005.567849346144, 53214.38499860585, -7381.417737176149, -15338.594059776553, -4418.604602647377, -20431.23786821817, -14903.673816165188, 10282.897684919559, -13240.391104267968, -8988.754032701736, -15969.96378540561, 0.22100000000000003, 1.3940000000000001, -0.05, 192.0, 0.0, 0.0, 0.0, 0.0, 0.0, 0.0, 0.0, 0.0, 0.0, 1.6625061820021045E9, 0.0, 2022-09-06 19:16:22.002
56.0, -16537.36281840358, -7587.299655353982, -31502.14630390958, -26571.35147706884, -18934.565059490807, -7999.175250431926, 52321.54456633861, -7348.381858871206, -15263.134570495436, -4306.622362926289, -20380.052373415518, -14814.98209416653, 10322.572031327729, -13168.865522010985, -8981.892047153957, -15961.313660301408, 0.22100000000000003, 1.3940000000000001, -0.05, 192.0, 0.0, 0.0, 0.0, 0.0, 0.0, 0.0, 0.0, 0.0, 0.0, 1.662506182002113E9, 0.0, 2022-09-06 19:16:22.002
58.0, -16546.638792352533, -7602.588248561412, -31488.198815369466, -26591.870378478812, -18984.677670559606, -8036.815588094662, 52635.452465468945, -7429.272822054962, -15370.534702603187, -4445.583158204932, -20460.56335694353, -14904.791403387953, 10271.74416443636, -13263.167531867926, -8979.299244797141, -15988.918064703712, 0.17950000000000002, 1.21, -0.031, 192.0, 2.0, 40.0, 16.0, 8.0, 127.5, 80.0, 0.0, 0.0, 0.0, 1.662506182002122E9, 0.0, 2022-09-06 19:16:22.002
60.0, -16500.92947494143, -7531.621459915813, -31377.200052404412, -26529.10668004831, -18912.25801852441, -7994.01199746275, 51536.43954234595, -7389.553772157881, -15264.945061796316, -4315.585412452867, -20386.020289185082, -14786.483619986013, 10323.130824939111, -13156.817931749574, -8967.855151636024, -15976.535198275471, 0.17950000000000002, 1.21, -0.031, 192.0, 0.0, 0.0, 0.0, 0.0, 0.0, 0.0, 0.0, 0.0, 0.0, 1.6625061820021305E9, 0.0, 2022-09-06 19:16:22.002
62.0, -16517.492117582813, -7527.575794169402, -31371.2544883793, -26545.848136645334, -18950.83712945427, -8041.1518265189925, 51953.74661132653, -7472.523447575981, -15333.833138207572, -4418.738713114109, -20418.09504247845, -14785.634253696711, 10309.22803988791, -13205.23181023977, -8905.67259856136, -15937.441997223139, 0.17950000000000002, 1.21, -0.031, 192.0, 0.0, 0.0, 0.0, 0.0, 0.0, 0.0, 0.0, 0.0, 0.0, 1.662506182002139E9, 0.0, 2022-09-06 19:16:22.002
64.0, -16462.909157622955, -7467.091973673341, -31288.642440872485, -26458.00578093598, -18896.2094660055, -7994.146107929481, 50689.35313097872, -7471.271749886483, -15266.956718797293, -4309.6174966833, -20363.64619298532, -14650.383847997648, 10315.933563224502, -13125.12315811195, -8950.107866538508, -15947.612040950304, 0.17950000000000002, 1.21, -0.031, 192.0, 0.0, 0.0, 0.0, 0.0, 0.0, 0.0, 0.0, 0.0, 0.0, 1.662506182002148E9, 0.0, 2022-09-06 19:16:22.002
66.0, -16527.572754332155, -7518.7915585984665, -31318.169095297948, -26495.86963604327, -18949.674838742594, -8073.427745512456, 51350.13775231096, -7610.79133877651, -15348.138254658968, -4417.956402058173, -20408.126164451383, -14682.816229202299, 10303.438938073987, -13167.36795513248, -8896.597790312504, -15894.236075191031, 0.17950000000000002, 1.21, -0.031, 192.0, 0.0, 0.0, 0.0, 0.0, 0.0, 0.0, 0.0, 0.0, 0.0, 1.6625061820021572E9, 0.0, 2022-09-06 19:16:22.002
68.0, -16432.264915974727, -7419.840385894822, -31193.491064726244, -26399.04187906288, -18891.06856478078, -7985.0936514250825, 50183.04141557711, -7562.332756797405, -15296.237504033747, -4327.387133525269, -20383.718059506187, -14600.092422973208, 10309.652723032561, -13113.857878906474, -8930.818311073579, -15898.304092681898, 0.15375, 1.025, -0.0315, 192.0, 2.0, 0.0, 13.0, 32.0, 127.5, 0.0, 0.0, 0.0, 0.0, 1.662506182002167E9, 0.0, 2022-09-06 19:16:22.002
70.0, -16511.993588446807, -7486.515639605002, -31205.94098638785, -26437.688045226103, -18915.387262748154, -8025.930288544928, 51059.766240092074, -7579.945931428187, -15357.458932096832, -4413.821329333941, -20390.960024709704, -14614.375187680149, 10310.680903277505, -13142.289297853626, -8856.498760759683, -15805.678463659104, 0.15375, 1.025, -0.0315, 192.0, 0.0, 0.0, 0.0, 0.0, 0.0, 0.0, 0.0, 0.0, 0.0, 1.66250618200218E9, 0.0, 2022-09-06 19:16:22.002
72.0, -16404.01231098322, -7368.230207947518, -31075.853833657962, -26327.561000294805, -18853.87526200715, -7923.2240227727925, 49976.75716599908, -7510.141433494263, -15302.764213414695, -4335.433761529179, -20348.73757943363, -14541.64261122258, 10311.485566077896, -13072.820076086531, -8860.119743361443, -15799.285864744887, 0.15375, 1.025, -0.0315, 192.0, 0.0, 0.0, 0.0, 0.0, 0.0, 0.0, 0.0, 0.0, 0.0, 1.6625061820021892E9, 0.0, 2022-09-06 19:16:22.002
74.0, -16453.052038318165, -7409.089196811819, -31023.483696399177, -26328.231552628466, -18855.998677730404, -7951.498979508756, 50855.895978915214, -7522.501948178047, -15308.530963484165, -4356.399697828258, -20303.11766900035, -14522.241297035373, 10350.355249685676, -13035.090331445972, -8750.439733319252, -15685.739002911927, 0.15375, 1.025, -0.0315, 192.0, 0.0, 0.0, 0.0, 0.0, 0.0, 0.0, 0.0, 0.0, 0.0, 1.662506182002198E9, 0.0, 2022-09-06 19:16:22.002
76.0, -16355.263156326195, -7331.215719129529, -30934.859029633884, -26241.663246353062, -18801.371014281634, -7870.943292491829, 49806.52628022746, -7472.054060942419, -15252.87511979045, -4292.808984852909, -20264.11387492584, -14465.736087052357, 10347.67304035104, -13002.836764196965, -8769.014032961612, -15699.082994351746, 0.15375, 1.025, -0.0315, 192.0, 0.0, 0.0, 0.0, 0.0, 0.0, 0.0, 0.0, 0.0, 0.0, 1.6625061820022073E9, 0.0, 2022-09-06 19:16:22.002
78.0, -16475.224968817827, -7408.105720055786, -30950.728768197154, -26291.418229510575, -18829.221287872948, -7936.076275834594, 50679.29484597383, -7520.49029117707, -15269.907149065395, -4328.772941681497, -20251.14986314176, -14462.159807939508, 10363.229854491932, -13000.467479284702, -8697.53315419354, -15616.180374167012, 0.14987499999999998, 0.9165, -0.025750000000000002, 192.0, 2.0, 72.0, 12.5, 32.0, 127.5, 48.0, 0.0, 0.0, 0.0, 1.6625061820022163E9, 0.0, 2022-09-06 19:16:22.002
80.0, -16350.636345223946, -7290.647302943147, -30872.765883537042, -26195.462190563943, -18774.839493613184, -7860.683841786843, 49739.91808175064, -7464.990909694542, -15257.434875659334, -4299.335694233858, -20252.96035444264, -14440.411560584495, 10342.040400748301, -13006.211877609716, -8741.20846285921, -15661.375601455642, 0.14987499999999998, 0.9165, -0.025750000000000002, 192.0, 0.0, 0.0, 0.0, 0.0, 0.0, 0.0, 0.0, 0.0, 0.0, 1.6625061820022252E9, 0.0, 2022-09-06 19:16:22.002
82.0, -16416.10460473354, -7342.101018679264, -30814.249016553047, -26190.85773120615, -18765.250595241858, -7863.857789499497, 50439.32651750166, -7444.13673211774, -15225.96361946626, -4275.061699755394, -20192.208313013114, -14381.648824411492, 10406.569886990774, -12974.919435372287, -8654.90837751727, -15572.639175968074, 0.14987499999999998, 0.9165, -0.025750000000000002, 192.0, 0.0, 0.0, 0.0, 0.0, 0.0, 0.0, 0.0, 0.0, 0.0, 1.662506182002236E9, 0.0, 2022-09-06 19:16:22.002
84.0, -16301.283693466628, -7232.912747015089, -30702.199721598594, -26099.2602824283, -18721.821155765196, -7788.264189751648, 49728.898671734176, -7405.423510721149, -15202.181363365813, -4251.324147143859, -20167.487283645547, -14337.593536090082, 10408.022750380367, -12937.882594809842, -8648.359316391863, -15587.972472664414, 0.14987499999999998, 0.9165, -0.025750000000000002, 192.0, 0.0, 0.0, 0.0, 0.0, 0.0, 0.0, 0.0, 0.0, 0.0, 1.6625061820022457E9, 0.0, 2022-09-06 19:16:22.002
86.0, -16371.37876407847, -7268.452020699027, -30624.661520083133, -26085.3574973771, -18709.55004805923, -7791.6840066533105, 50295.69420763185, -7383.69761511059, -15166.038592581583, -4192.650817948677, -20092.340718786803, -14260.859997375012, 10468.21599819851, -12865.820570685932, -8552.917367567703, -15502.92408501197, 0.14987499999999998, 0.9165, -0.025750000000000002, 192.0, 0.0, 0.0, 0.0, 0.0, 0.0, 0.0, 0.0, 0.0, 0.0, 1.6625061820022547E9, 0.0, 2022-09-06 19:16:22.002
88.0, -16253.920346965831, -7167.690356694503, -30548.464423234993, -25999.4373916909, -18666.12060858257, -7717.476215061691, 49686.676226458105, -7322.140910880675, -15163.781066391597, -4182.100794565773, -20077.16388430165, -14245.258479745207, 10466.897245275646, -12847.536843721491, -8558.773524614993, -15501.605332089108, 0.1659375, 0.91125, -0.012875000000000001, 192.0, 2.5, 88.0, 14.0, 40.0, 0.0, 0.0, 0.0, 0.0, 0.0, 1.662506182002264E9, 0.0, 2022-09-06 19:16:22.002
90.0, -16328.888097868932, -7233.985630748944, -30508.45480065999, -26002.320766725632, -18641.801910615195, -7727.57920355549, 50198.821747162554, -7252.224654224474, -15098.84924874893, -4121.0805322027845, -20001.05619443133, -14179.499647557694, 10529.124501839222, -12786.494229614047, -8480.832991699337, -15414.634694413508, 0.1659375, 0.91125, -0.012875000000000001, 192.0, 0.0, 0.0, 0.0, 0.0, 0.0, 0.0, 0.0, 0.0, 0.0, 1.6625061820022736E9, 0.0, 2022-09-06 19:16:22.002
92.0, -16220.795061683068, -7151.619452431137, -30469.629820541126, -25945.010893942224, -18616.857363803072, -7674.672624429778, 50048.170989533784, -7231.705752814502, -15128.912345041317, -4161.716003622532, -19996.719956007, -14201.76198503518, 10512.807728386848, -12824.15691902124, -8444.265537770456, -15429.520956220742, 0.1659375, 0.91125, -0.012875000000000001, 192.0, 0.0, 0.0, 0.0, 0.0, 0.0, 0.0, 0.0, 0.0, 0.0, 1.662506182002283E9, 0.0, 2022-09-06 19:16:22.002
94.0, -16278.574321100035, -7191.807888961779, -30451.79312846579, -25949.88357423348, -18603.088689218606, -7684.6638542013, 50244.262843640194, -7212.23738339393, -15059.152550596304, -4083.6190084956897, -19918.37709169115, -14134.326772013519, 10566.720136013048, -12769.864531739298, -8418.270458968933, -15387.52202838922, 0.1659375, 0.91125, -0.012875000000000001, 192.0, 0.0, 0.0, 0.0, 0.0, 0.0, 0.0, 0.0, 0.0, 0.0, 1.6625061820022917E9, 0.0, 2022-09-06 19:16:22.002
96.0, -16185.524008932593, -7102.244448929364, -30435.945741646978, -25907.862294657505, -18586.615453555045, -7629.052713996496, 50203.26974430916, -7132.285193477296, -15091.406117845312, -4130.490616618468, -19939.723007645967, -14169.977804419734, 10541.239147333998, -12799.301779186939, -8416.884650812704, -15390.293644701678, 0.1659375, 0.91125, -0.012875000000000001, 192.0, 0.0, 0.0, 0.0, 0.0, 0.0, 0.0, 0.0, 0.0, 0.0, 1.6625061820023E9, 0.0, 2022-09-06 19:16:22.002
98.0, -16217.73287269269, -7114.202632212953, -30403.803933120245, -25900.486218987255, -18546.404665279944, -7616.491033612613, 50055.43530648176, -7102.065634973721, -14993.796049808985, -4035.4062957055926, -19867.348059099684, -14084.057698733533, 10602.549982374905, -12715.348627012805, -8383.759365529939, -15347.065370925115, 0.19096875, 0.929625, -0.0024375000000000004, 192.0, 3.0, 96.0, 14.5, 80.0, 0.0, 32.0, 0.0, 0.0, 0.0, 1.6625061820023084E9, 0.0, 2022-09-06 19:16:22.002
100.0, -16145.179110190764, -7051.0142506378, -30384.648488122046, -25873.08298028505, -18542.582516978087, -7593.088757167907, 50264.535875861155, -7096.902382004546, -15041.40526549879, -4079.7745084493768, -19890.973852988944, -14117.69707413877, 10594.793927048913, -12747.781008217456, -8354.992670415959, -15339.868109210505, 0.19096875, 0.929625, -0.0024375000000000004, 192.0, 0.0, 0.0, 0.0, 0.0, 0.0, 0.0, 0.0, 0.0, 0.0, 1.6625061820023172E9, 0.0, 2022-09-06 19:16:22.002
102.0, -16164.356906933417, -7059.73143097537, -30339.94499921143, -25844.4503956378, -18520.94602834535, -7549.212282802139, 49890.43472891268, -7045.873349413079, -14937.894336926263, -3973.111983908652, -19819.15769805404, -14030.324105062975, 10641.442017727139, -12673.237940459006, -8340.620498731196, -15314.45417576482, 0.19096875, 0.929625, -0.0024375000000000004, 192.0, 0.0, 0.0, 0.0, 0.0, 0.0, 0.0, 0.0, 0.0, 0.0, 1.662506182002328E9, 0.0, 2022-09-06 19:16:22.002
104.0, -16132.036284451044, -7032.663468439993, -30347.276371392774, -25836.470822867253, -18513.815821864107, -7538.885776863787, 50298.041140799665, -7045.113390101599, -15016.125442519839, -4046.671574911067, -19856.015724660843, -14074.602910828939, 10611.736549346037, -12720.46717649307, -8315.631248430163, -15293.756460399207, 0.19096875, 0.929625, -0.0024375000000000004, 192.0, 0.0, 0.0, 0.0, 0.0, 0.0, 0.0, 0.0, 0.0, 0.0, 1.6625061820023367E9, 0.0, 2022-09-06 19:16:22.002
106.0, -16089.724432197147, -6983.422575404951, -30273.448559456894, -25763.894708620872, -18455.969507213773, -7457.5701305353805, 49599.81734750478, -6962.255473405776, -14891.112135781304, -3917.098512303652, -19764.15005494953, -13962.978299019134, 10676.757773966525, -12642.370181366228, -8293.525373163864, -15260.474712905254, 0.19096875, 0.929625, -0.0024375000000000004, 192.0, 0.0, 0.0, 0.0, 0.0, 0.0, 0.0, 0.0, 0.0, 0.0, 1.6625061820023472E9, 0.0, 2022-09-06 19:16:22.002
108.0, -16066.433914474717, -6969.1398106980105, -30281.36107699407, -25757.14448179537, -18445.732408253243, -7451.043421154431, 50132.52647310811, -6963.66363330646, -14936.463825281124, -3958.6057017571575, -19764.082999716164, -13971.516665401063, 10691.241704373564, -12636.64813478567, -8223.631468252119, -15188.747964948174, 0.22648437500000002, 0.9618125, 7.812499999999998E-4, 192.0, 4.0, 24.0, 15.5, 8.0, 0.0, 16.0, 0.0, 0.0, 0.0, 1.662506182002356E9, 0.0, 2022-09-06 19:16:22.002
110.0, -16025.798443054968, -6927.61026950005, -30247.051149255178, -25712.53039986258, -18423.335960309025, -7395.968722816554, 49419.63993545055, -6881.900952088947, -14823.855736715286, -3846.9363864584434, -19701.207542563385, -13882.087335835378, 10734.157053727753, -12561.345107715739, -8235.05320966878, -15193.553590006066, 0.22648437500000002, 0.9618125, 7.812499999999998E-4, 192.0, 0.0, 0.0, 0.0, 0.0, 0.0, 0.0, 0.0, 0.0, 0.0, 1.6625061820023644E9, 0.0, 2022-09-06 19:16:22.002
112.0, -16071.574815699438, -6978.907523024979, -30316.96740591138, -25765.235813288193, -18461.959774727795, -7428.445807510115, 50406.044770007706, -6930.158368367955, -14902.466821964601, -3922.552337950747, -19744.43581633995, -13932.646981793283, 10705.189192913675, -12612.865878685223, -8209.639276223097, -15163.3787349914, 0.22648437500000002, 0.9618125, 7.812499999999998E-4, 192.0, 0.0, 0.0, 0.0, 0.0, 0.0, 0.0, 0.0, 0.0, 0.0, 1.6625061820023732E9, 0.0, 2022-09-06 19:16:22.002
114.0, -16024.971428510122, -6921.374132797019, -30271.32514373364, -25705.400193381334, -18414.7975939271, -7391.856001836777, 49597.31395212578, -6863.080783257578, -14827.02968442794, -3836.073438653164, -19710.774089190258, -13876.119420065812, 10712.252344161552, -12562.239177493952, -8251.772314521351, -15206.495250045687, 0.22648437500000002, 0.9618125, 7.812499999999998E-4, 192.0, 0.0, 0.0, 0.0, 0.0, 0.0, 0.0, 0.0, 0.0, 0.0, 1.6625061820023828E9, 0.0, 2022-09-06 19:16:22.002
116.0, -16083.488295494117, -6969.944473498402, -30326.601007771613, -25756.540984695075, -18452.88496647894, -7451.915139188188, 50536.33308843769, -6894.686149917383, -14899.583446929866, -3899.0830062726745, -19739.227859881863, -13911.211658860644, 10713.280524406497, -12594.895076143155, -8191.7131771699405, -15172.878226384906, 0.22648437500000002, 0.9618125, 7.812499999999998E-4, 192.0, 0.0, 0.0, 0.0, 0.0, 0.0, 0.0, 0.0, 0.0, 0.0, 1.662506182002392E9, 0.0, 2022-09-06 19:16:22.002
118.0, -16009.436966113684, -6894.775556895203, -30288.491283475316, -25691.028021696573, -18408.427346757337, -7374.60045511728, 49578.0020449164, -6826.021590950679, -14834.517518820468, -3827.4233135489603, -19720.8547259396, -13872.252568275044, 10718.868460520323, -12582.243988781453, -8242.026953938837, -15231.752721280185, 0.22648437500000002, 0.9618125, 7.812499999999998E-4, 192.0, 0.0, 0.0, 0.0, 0.0, 0.0, 0.0, 0.0, 0.0, 0.0, 1.6625061820024016E9, 0.0, 2022-09-06 19:16:22.002
120.0, -16091.959606642677, -6968.648072319994, -30343.163650412997, -25733.786908839575, -18445.17361464186, -7439.755790204501, 50618.90043245559, -6859.817428567104, -14885.770068856487, -3865.354223889616, -19732.410577822993, -13885.864780648326, 10733.732370583102, -12590.804706907835, -8180.939636342483, -15164.786894892086, 0.28400000000000003, 1.006, 0.01, 192.0, 4.0, 112.0, 15.5, 56.0, 0.0, 40.0, 0.0, 0.0, 0.0, 1.662506182481583E9, 0.0, 2022-09-06 19:16:22.481
122.0, -16018.869402273824, -6906.5102227342395, -30335.139374153543, -25688.65873678431, -18403.822887399543, -7383.161173243663, 49733.234910158506, -6827.139178173445, -14842.586498568833, -3835.1793688749517, -19734.24342086833, -13870.978518841091, 10717.952038997655, -12573.839732866256, -8247.3466691192, -15227.908221233873, 0.28400000000000003, 1.006, 0.01, 192.0, 0.0, 0.0, 0.0, 0.0, 0.0, 0.0, 0.0, 0.0, 0.0, 1.6625061824817011E9, 0.0, 2022-09-06 19:16:22.481
124.0, -16123.09558666892, -7004.634380893038, -30416.790296648778, -25751.467138703723, -18461.490388094233, -7450.66344149869, 50860.63454873974, -6871.842667084059, -14882.663176377198, -3879.7710990632895, -19744.994609951333, -13891.139792339778, 10724.411693145239, -12592.34697727525, -8200.944447629983, -15168.318470516024, 0.28400000000000003, 1.006, 0.01, 192.0, 0.0, 0.0, 0.0, 0.0, 0.0, 0.0, 0.0, 0.0, 0.0, 1.6625061824818552E9, 0.0, 2022-09-06 19:16:22.481
126.0, -16060.287184749508, -6957.13692392551, -30446.898096430075, -25728.04251051456, -18437.439911060323, -7436.827711680855, 50099.04355991406, -6874.1225450185, -14872.984871028051, -3877.111241473108, -19776.48821788886, -13910.719920482627, 10681.809268213425, -12596.124422088198, -8284.11528874818, -15255.69143959182, 0.28400000000000003, 1.006, 0.01, 192.0, 0.0, 0.0, 0.0, 0.0, 0.0, 0.0, 0.0, 0.0, 0.0, 1.6625061824818645E9, 0.0, 2022-09-06 19:16:22.481
128.0, -16182.77474436459, -7066.682823500971, -30541.647141176123, -25816.622473790943, -18506.551504916133, -7508.889735804765, 51167.211075688734, -6923.5869554980945, -14935.457996780635, -3925.2121955409284, -19805.746651380858, -13951.869482024847, 10671.21454134161, -12631.50723356095, -8268.558474607287, -15230.746892779696, 0.28400000000000003, 1.006, 0.01, 192.0, 0.0, 0.0, 0.0, 0.0, 0.0, 0.0, 0.0, 0.0, 0.0, 1.6625061824818735E9, 0.0, 2022-09-06 19:16:22.481
130.0, -16099.358034057384, -6999.3146657126745, -30571.039685134852, -25796.260034592156, -18496.873199566984, -7490.67306407369, 50446.76964840527, -6932.192377113388, -14936.150900858749, -3936.700992190956, -19841.55414599826, -13984.39127020732, 10631.607250166804, -12659.469265874537, -8340.911071409115, -15312.531925741665, 0.29, 0.97, 0.012, 192.0, 4.5, 8.0, 15.0, 40.0, 0.0, 48.0, 0.0, 0.0, 0.0, 1.6625061824818826E9, 0.0, 2022-09-06 19:16:22.481
132.0, -16213.217820312719, -7104.479623374895, -30668.470939215535, -25876.413390208887, -18543.610697223034, -7546.9100531232425, 51304.13786222194, -6982.752023071293, -14952.177101633204, -3945.261710317339, -19846.851509434167, -13995.745956390616, 10636.167006035686, -12690.94052206761, -8323.74493166744, -15289.084945808048, 0.29, 0.97, 0.012, 192.0, 0.0, 0.0, 0.0, 0.0, 0.0, 0.0, 0.0, 0.0, 0.0, 1.6625061824818919E9, 0.0, 2022-09-06 19:16:22.481
134.0, -16130.181089661253, -7044.845169168136, -30710.51457053597, -25863.561137147088, -18539.20740356534, -7556.521303239025, 50717.80690167033, -7008.255363494798, -14991.78439280801, -3992.7591672848666, -19908.095289241708, -14051.267689617598, 10576.309034384374, -12714.588667701324, -8399.51734537093, -15369.931205502893, 0.29, 0.97, 0.012, 192.0, 0.0, 0.0, 0.0, 0.0, 0.0, 0.0, 0.0, 0.0, 0.0, 1.662506182481908E9, 0.0, 2022-09-06 19:16:22.481
136.0, -16234.11670137843, -7136.17439701252, -30769.634934620255, -25928.80587921213, -18583.665023286943, -7606.79037651901, 51350.49538022225, -7044.934576145956, -14971.667822798232, -3969.133373395607, -19883.575425574236, -14025.093796860434, 10604.29341844242, -12695.813202358868, -8380.786583517383, -15352.98858320577, 0.29, 0.97, 0.012, 192.0, 0.0, 0.0, 0.0, 0.0, 0.0, 0.0, 0.0, 0.0, 0.0, 1.6625061824819171E9, 0.0, 2022-09-06 19:16:22.481
138.0, -16162.00997376561, -7075.511762560816, -30789.10330404083, -25903.615463210997, -18580.5357790632, -7577.531943027013, 50937.18927349917, -6973.945435755902, -15034.319762506459, -4036.009792805886, -19949.62483043967, -14091.41142265933, 10538.065199621344, -12754.374772831772, -8438.297622000888, -15403.749394863773, 0.29, 0.97, 0.012, 192.0, 0.0, 0.0, 0.0, 0.0, 0.0, 0.0, 0.0, 0.0, 0.0, 1.662506182481926E9, 0.0, 2022-09-06 19:16:22.481
140.0, -16257.541329567592, -7162.840028147702, -30831.839839439373, -25960.075969705103, -18604.899180519486, -7632.114902986873, 51289.16219343689, -6999.649941879505, -14978.663918812743, -3989.093481194196, -19908.095289241708, -14046.082084903966, 10575.817296006358, -12715.549792712904, -8415.342380445289, -15368.813618280128, 0.292, 0.906, 0.008, 192.0, 4.5, 16.0, 14.0, 40.0, 0.0, 32.0, 0.0, 0.0, 0.0, 1.662506182481935E9, 0.0, 2022-09-06 19:16:22.481
142.0, -16202.868962629911, -7116.281344447297, -30867.02148521203, -25943.110995663526, -18599.78063103922, -7606.298638140994, 51167.635758833385, -7032.574061462172, -15065.36633555488, -4087.99995040893, -19992.853104216232, -14129.454091722262, 10501.073062547812, -12805.806136823432, -8475.15564860769, -15433.588973711609, 0.292, 0.906, 0.008, 192.0, 0.0, 0.0, 0.0, 0.0, 0.0, 0.0, 0.0, 0.0, 0.0, 1.6625061824819443E9, 0.0, 2022-09-06 19:16:22.481
144.0, -16285.525713625637, -7185.191772603009, -30889.954375023175, -25980.483112392798, -18618.77961382623, -7646.956461305197, 51233.64046020991, -7032.954041117912, -15004.279017958524, -4019.8718333091538, -19949.133092061653, -14065.572806068994, 10537.864033921247, -12730.793682431422, -8467.332538048333, -15408.085633288103, 0.292, 0.906, 0.008, 192.0, 0.0, 0.0, 0.0, 0.0, 0.0, 0.0, 0.0, 0.0, 0.0, 1.662506182481956E9, 0.0, 2022-09-06 19:16:22.481
146.0, -16257.697791778779, -7170.506676495872, -30919.92806433774, -25989.312051452645, -18646.361666484077, -7648.6551938838, 51390.84027896408, -7070.639082269559, -15115.546001857043, -4132.301107919348, -20056.86850033623, -14165.507455528672, 10450.267547400897, -12851.627212956813, -8523.100140464323, -15456.700677478395, 0.292, 0.906, 0.008, 192.0, 0.0, 0.0, 0.0, 0.0, 0.0, 0.0, 0.0, 0.0, 0.0, 1.662506182481966E9, 0.0, 2022-09-06 19:16:22.481
148.0, -16286.553893870581, -7178.843877177701, -30888.501511633578, -25978.650269347465, -18627.854422075085, -7641.256766469093, 51142.668860276804, -7034.138683574043, -15024.216774012659, -4032.2770514818494, -19996.071755417797, -14082.64953883285, 10509.209097529543, -12751.983136175053, -8504.30232337741, -15427.643409686496, 0.292, 0.906, 0.008, 192.0, 0.0, 0.0, 0.0, 0.0, 0.0, 0.0, 0.0, 0.0, 0.0, 1.6625061824819753E9, 0.0, 2022-09-06 19:16:22.481
150.0, -16279.580149600524, -7169.880827651123, -30920.77743062704, -25997.023403289724, -18671.663841207486, -7681.780479166566, 51641.64920349708, -7106.290114675774, -15132.80154857654, -4132.2340526859825, -20073.54290169989, -14166.401525306885, 10439.918689718092, -12829.186061523684, -8522.295477663933, -15451.58212799813, 0.308, 0.8280000000000001, -0.008, 192.0, 4.5, 80.0, 12.5, 112.0, 127.5, 96.0, 0.0, 0.0, 0.0, 1.662506182481984E9, 0.0, 2022-09-06 19:16:22.481
152.0, -16288.543199127103, -7171.84778116319, -30870.933040491705, -25973.978754756303, -18627.943829052907, -7647.805827594499, 51191.57447714502, -7072.49427705935, -15045.585041711933, -4033.0817142822407, -20009.952188724543, -14091.16555347032, 10482.49876290545, -12758.95688044511, -8518.383922384253, -15449.972802397348, 0.308, 0.8280000000000001, -0.008, 192.0, 0.0, 0.0, 0.0, 0.0, 0.0, 0.0, 0.0, 0.0, 0.0, 1.6625061824819932E9, 0.0, 2022-09-06 19:16:22.481
154.0, -16326.407054234392, -7208.415235092072, -30922.677328905742, -26020.984473345816, -18703.112745656104, -7715.330447593981, 52008.03899860847, -7154.793400143791, -15154.706258142742, -4136.9279190215975, -20081.5895297038, -14176.504513800683, 10428.809872723803, -12854.063553102442, -8509.756149024504, -15448.2964215632, 0.308, 0.8280000000000001, -0.008, 192.0, 0.0, 0.0, 0.0, 0.0, 0.0, 0.0, 0.0, 0.0, 0.0, 1.662506182482025E9, 0.0, 2022-09-06 19:16:22.482
156.0, -16312.928952327842, -7179.313263811263, -30862.975819465617, -25982.964156027338, -18650.16146304148, -7680.908761132809, 51258.227379110744, -7103.898478019057, -15080.587873528943, -4067.99513912143, -20048.419540932126, -14124.693170153281, 10446.11012293221, -12813.62924738279, -8545.898919808737, -15479.164180655978, 0.308, 0.8280000000000001, -0.008, 192.0, 0.0, 0.0, 0.0, 0.0, 0.0, 0.0, 0.0, 0.0, 0.0, 1.662506182482034E9, 0.0, 2022-09-06 19:16:22.482
158.0, -16377.614900781502, -7250.704735601514, -30931.953302854694, -26052.142805116513, -18735.925106516494, -7755.474180635712, 52200.15224220184, -7187.51635402636, -15164.898653614362, -4161.648948389166, -20108.9480649171, -14190.921388974357, 10419.82447145277, -12884.707794750668, -8519.434454373653, -15445.569508739653, 0.308, 0.8280000000000001, -0.008, 192.0, 0.0, 0.0, 0.0, 0.0, 0.0, 0.0, 0.0, 0.0, 0.0, 1.6625061824820428E9, 0.0, 2022-09-06 19:16:22.482
160.0, -16327.99402809072, -7214.517261328371, -30870.374246880325, -25993.581234643607, -18646.160500783983, -7705.249810844638, 51305.38955991144, -7126.7419608523805, -15099.27393189358, -4118.331267634781, -20094.665300210156, -14158.533711258617, 10424.317172088287, -12882.02558541603, -8548.82699833238, -15492.485820351341, 0.296, 0.846, 0.006, 192.0, 4.5, 32.0, 13.0, 56.0, 0.0, 24.0, 0.0, 0.0, 0.0, 1.6625061824820516E9, 0.0, 2022-09-06 19:16:22.482
162.0, -16397.127973690986, -7275.023433568887, -30945.140832083325, -26055.62967725154, -18726.738539545364, -7786.766622873142, 52428.162387390425, -7196.389996575117, -15177.236816553692, -4194.97539937203, -20127.321198859358, -14196.419918110361, 10409.140337603134, -12905.807841516476, -8514.874698504771, -15445.748322695295, 0.296, 0.846, 0.006, 192.0, 0.0, 0.0, 0.0, 0.0, 0.0, 0.0, 0.0, 0.0, 0.0, 1.6625061824820611E9, 0.0, 2022-09-06 19:16:22.482
164.0, -16316.304065740595, -7187.650464493092, -30881.97480225263, -25978.89613853647, -18660.666782935474, -7704.355741066425, 51302.88616453244, -7139.214234258442, -15104.995978474139, -4124.276831659893, -20088.719736185045, -14143.490987240195, 10414.214183594488, -12840.674858173712, -8562.1709897722, -15496.755003542306, 0.296, 0.846, 0.006, 192.0, 0.0, 0.0, 0.0, 0.0, 0.0, 0.0, 0.0, 0.0, 0.0, 1.662506182482072E9, 0.0, 2022-09-06 19:16:22.482
166.0, -16403.609979583023, -7272.944721334544, -30950.572305985967, -26058.334238330634, -18735.411016394024, -7783.257398993659, 52484.24291422879, -7209.845746737212, -15190.267883571136, -4194.282495293915, -20123.476698813047, -14190.116726173965, 10388.084994326235, -12889.133440152818, -8535.237137703554, -15458.77938971274, 0.296, 0.846, 0.006, 192.0, 0.0, 0.0, 0.0, 0.0, 0.0, 0.0, 0.0, 0.0, 0.0, 1.6625061824820845E9, 0.0, 2022-09-06 19:16:22.482
168.0, -16304.904676068387, -7190.735005227924, -30874.59872658238, -25976.638612346487, -18666.947623127417, -7716.33627609447, 51320.34287695204, -7153.720516409936, -15120.798661804041, -4137.062029488329, -20090.709041441565, -14149.794179176592, 10392.845915895214, -12847.626250699312, -8577.660748679727, -15508.780242059262, 0.296, 0.846, 0.006, 192.0, 0.0, 0.0, 0.0, 0.0, 0.0, 0.0, 0.0, 0.0, 0.0, 1.6625061824820943E9, 0.0, 2022-09-06 19:16:22.482
170.0, -16402.693558060357, -7272.028299811876, -30924.73368939563, -26050.86875568256, -18745.849281054652, -7784.151468771872, 52529.5499002397, -7228.62121207967, -15170.710107172741, -4177.116355552239, -20100.92378865764, -14167.541464274105, 10395.952808374503, -12873.956605667665, -8526.49760562153, -15440.316848792656, 0.29, 0.868, -0.004, 192.0, 4.5, 8.0, 13.5, 16.0, 127.5, 112.0, 0.0, 0.0, 0.0, 1.662506182482104E9, 0.0, 2022-09-06 19:16:22.482
172.0, -16301.015472533165, -7177.70393821048, -30848.223668125116, -25965.686257563386, -18679.911634911496, -7713.452901059735, 51390.728520241806, -7187.605761004182, -15142.725723114698, -4158.519704165424, -20102.086079369317, -14161.506493271172, 10375.836238364725, -12872.92842542272, -8581.75111791505, -15496.330320397654, 0.29, 0.868, -0.004, 192.0, 0.0, 0.0, 0.0, 0.0, 0.0, 0.0, 0.0, 0.0, 0.0, 1.6625061824821131E9, 0.0, 2022-09-06 19:16:22.482
174.0, -16397.48560160227, -7271.737727133957, -30876.856252772362, -26034.306113041177, -18739.94842051845, -7787.057195551061, 52523.313763536666, -7241.831093052757, -15160.495359956665, -4159.078497776806, -20079.019079091442, -14140.18292906081, 10408.670950969572, -12874.113067878852, -8502.692997776629, -15405.917514075938, 0.29, 0.868, -0.004, 192.0, 0.0, 0.0, 0.0, 0.0, 0.0, 0.0, 0.0, 0.0, 0.0, 1.662506182482123E9, 0.0, 2022-09-06 19:16:22.482
176.0, -16306.983388302731, -7191.1373366281205, -30808.683432183676, -25963.875766262507, -18685.79014370324, -7719.845499973953, 51494.91000114799, -7162.191827558498, -15167.871435626917, -4181.407890487658, -20108.053995138886, -14164.345164816996, 10357.597214889194, -12896.107184422874, -8570.59759743185, -15471.721049752361, 0.29, 0.868, -0.004, 192.0, 0.0, 0.0, 0.0, 0.0, 0.0, 0.0, 0.0, 0.0, 0.0, 1.6625061824821322E9, 0.0, 2022-09-06 19:16:22.482
178.0, -16422.92188679241, -7301.934933893077, -30829.559961504932, -26045.951371902393, -18761.204929495445, -7783.547971671578, 52484.645245628984, -7221.6027643207035, -15167.580862948998, -4178.815088130843, -20080.851922136775, -14139.870004638435, 10398.0538723533, -12868.793352698489, -8494.735776750538, -15393.981682536803, 0.29, 0.868, -0.004, 192.0, 0.0, 0.0, 0.0, 0.0, 0.0, 0.0, 0.0, 0.0, 0.0, 1.662506182482142E9, 0.0, 2022-09-06 19:16:22.482
180.0, -16313.487745939226, -7197.351121586696, -30773.792359088944, -25966.93795525288, -18711.002911448828, -7725.187566898771, 51599.56086868774, -7182.710728968469, -15197.576904008021, -4211.850966435786, -20127.768233748466, -14181.578359792038, 10332.362095399154, -12907.46187060617, -8564.137943284268, -15478.806552744694, 0.3, 0.928, -0.002, 192.0, 4.5, 48.0, 14.5, 0.0, 127.5, 120.0, 0.0, 0.0, 0.0, 1.6625061824821517E9, 0.0, 2022-09-06 19:16:22.482
182.0, -16454.25903251875, -7335.663716276135, -30849.67653151471, -26098.54502660573, -18798.688804946996, -7838.041524653617, 52746.71944936746, -7251.040011768343, -15162.395258235367, -4162.453611189558, -20077.767381401944, -14131.711617912248, 10389.739023415927, -12861.730201450611, -8493.215858127578, -15401.223647740324, 0.3, 0.928, -0.002, 192.0, 0.0, 0.0, 0.0, 0.0, 0.0, 0.0, 0.0, 0.0, 0.0, 1.6625061824821615E9, 0.0, 2022-09-06 19:16:22.482
184.0, -16391.607092810526, -7268.742593376946, -30840.557019776945, -26029.321674027644, -18785.85890362965, -7785.134945527905, 52068.65692957127, -7232.935098759544, -15292.303597009612, -4292.18313600816, -20211.7213859226, -14265.755029410724, 10253.527492705285, -12997.13706936086, -8638.27867964252, -15552.74612340285, 0.3, 0.928, -0.002, 192.0, 0.0, 0.0, 0.0, 0.0, 0.0, 0.0, 0.0, 0.0, 0.0, 1.6625061824821715E9, 0.0, 2022-09-06 19:16:22.482
186.0, -16465.546663468678, -7345.699649536568, -30853.856307727852, -26090.654860813007, -18796.252464801368, -7820.048370367095, 52514.842452388104, -7256.024450781876, -15181.461296255744, -4169.561465926346, -20097.07928861133, -14145.793216919092, 10370.091840039711, -12893.424975088237, -8535.438303403653, -15445.122473850546, 0.3, 0.928, -0.002, 192.0, 0.0, 0.0, 0.0, 0.0, 0.0, 0.0, 0.0, 0.0, 0.0, 1.6625061824821815E9, 0.0, 2022-09-06 19:16:22.482
188.0, -16445.765369625733, -7313.2896200763735, -30888.993250011594, -26069.3536483471, -18805.237866072403, -7845.484655557234, 52244.453399712256, -7274.643453913147, -15326.658228237418, -4322.715618934109, -20246.4783485506, -14296.265160592218, 10228.761759848805, -13020.204069638738, -8655.131894961822, -15574.449667268953, 0.3, 0.928, -0.002, 192.0, 0.0, 0.0, 0.0, 0.0, 0.0, 0.0, 0.0, 0.0, 0.0, 1.662506182482191E9, 0.0, 2022-09-06 19:16:22.482
190.0, -16438.009314299743, -7309.333361307784, -30830.252865583047, -26066.649087268008, -18767.865749343127, -7815.287448798114, 52201.76156780262, -7230.990496991933, -15189.776145193118, -4178.658625919656, -20109.55156201739, -14152.007001877666, 10356.747848599893, -12880.148038881784, -8547.999983787535, -15474.716183509372, 0.303, 0.933, -0.004, 192.0, 4.5, 72.0, 14.5, 40.0, 127.5, 104.0, 0.0, 0.0, 0.0, 1.6625061824822001E9, 0.0, 2022-09-06 19:16:22.482
192.0, -16421.379616424994, -7302.672541460102, -30856.06913042893, -26045.593743991107, -18783.5343222063, -7824.250498324693, 52365.666909893385, -7273.570570179292, -15297.712719167796, -4306.622362926289, -20218.695130192653, -14268.481942234272, 10258.087248574167, -12998.031139139073, -8612.909449685747, -15547.247594266844, 0.303, 0.933, -0.004, 192.0, 0.0, 0.0, 0.0, 0.0, 0.0, 0.0, 0.0, 0.0, 0.0, 1.6625061824822092E9, 0.0, 2022-09-06 19:16:22.482
194.0, -16421.401968169448, -7298.001026868943, -30805.934167615673, -26042.933886400926, -18743.770568820306, -7798.54599220109, 51918.944945209616, -7229.314116157784, -15153.991002320172, -4159.8831605771975, -20073.40879123316, -14119.75343462866, 10383.324072757254, -12838.752608150555, -8526.11762596579, -15467.809494472684, 0.303, 0.933, -0.004, 192.0, 0.0, 0.0, 0.0, 0.0, 0.0, 0.0, 0.0, 0.0, 0.0, 1.6625061824822185E9, 0.0, 2022-09-06 19:16:22.482
196.0, -16435.930602065397, -7313.848413687756, -30861.858232242852, -26059.161252875478, -18802.890932904593, -7832.297126328604, 52537.03773463223, -7260.718317117491, -15311.123765840981, -4326.202491069137, -20209.530914965977, -14269.599529457037, 10253.728658405384, -13013.029159668586, -8612.149490374266, -15540.07268429669, 0.303, 0.933, -0.004, 192.0, 0.0, 0.0, 0.0, 0.0, 0.0, 0.0, 0.0, 0.0, 0.0, 1.662506182482227E9, 0.0, 2022-09-06 19:16:22.482
198.0, -16383.828685740076, -7254.638642625648, -30767.28800145245, -25989.893196808483, -18713.618065550098, -7751.272052678115, 51596.74454888637, -7167.064507849755, -15159.802455878551, -4155.412811686136, -20064.669259151135, -14116.445376449274, 10373.802229619292, -12835.511605204536, -8545.317774452898, -15470.178779384945, 0.303, 0.933, -0.004, 192.0, 0.0, 0.0, 0.0, 0.0, 0.0, 0.0, 0.0, 0.0, 0.0, 1.6625061824822383E9, 0.0, 2022-09-06 19:16:22.482
200.0, -16462.55152971167, -7326.343038838272, -30873.54819459298, -26075.858005983595, -18814.02210164334, -7850.491446315223, 52645.734267918386, -7279.404375482128, -15288.88378010795, -4298.039293055451, -20186.4639146881, -14245.280831489663, 10277.019176127813, -12989.85040066843, -8576.163181801223, -15507.103861225112, 0.3005, 0.9365000000000001, 0.003, 192.0, 4.5, 40.0, 14.5, 48.0, 0.0, 40.0, 0.0, 0.0, 0.0, 1.662506182482247E9, 0.0, 2022-09-06 19:16:22.482
202.0, -16375.67029901389, -7235.259680182896, -30762.14710022773, -25978.247937947268, -18706.823135235685, -7735.491721092668, 51363.92877863989, -7150.479513463916, -15170.061906583538, -4161.53718966689, -20083.489427982502, -14133.298591768575, 10360.257072479377, -12835.288087759984, -8551.106876266824, -15488.663672049484, 0.3005, 0.9365000000000001, 0.003, 192.0, 0.0, 0.0, 0.0, 0.0, 0.0, 0.0, 0.0, 0.0, 0.0, 1.6625061824822564E9, 0.0, 2022-09-06 19:16:22.482
204.0, -16482.846913677087, -7357.45666712006, -30907.50049442059, -26110.12323023358, -18826.74024423841, -7877.537057106145, 52732.77196082735, -7300.34796003675, -15290.761326642196, -4293.680702886665, -20185.391030954248, -14245.079665789566, 10283.41177504203, -12975.768801661588, -8575.336167256375, -15507.997931003325, 0.3005, 0.9365000000000001, 0.003, 192.0, 0.0, 0.0, 0.0, 0.0, 0.0, 0.0, 0.0, 0.0, 0.0, 1.6625061824822657E9, 0.0, 2022-09-06 19:16:22.482
206.0, -16338.856975895998, -7201.843822222212, -30754.6592658352, -25949.838870744574, -18674.21194007539, -7727.154520410839, 51191.57447714502, -7137.3143359797405, -15172.453543240255, -4178.0774805638175, -20098.129820600727, -14149.861234409957, 10344.879072294125, -12856.835169414899, -8583.963940616124, -15531.511966170308, 0.3005, 0.9365000000000001, 0.003, 192.0, 0.0, 0.0, 0.0, 0.0, 0.0, 0.0, 0.0, 0.0, 0.0, 1.6625061824822743E9, 0.0, 2022-09-06 19:16:22.482
208.0, -16467.468913491837, -7341.609280301247, -30897.039878015505, -26094.477009114864, -18815.87729643313, -7862.114353431983, 52765.15963854309, -7282.846544128245, -15235.038427715115, -4253.246397167015, -20135.099605929805, -14194.497668087206, 10338.397066402087, -12937.212042476183, -8527.63754458875, -15474.358555598088, 0.3005, 0.9365000000000001, 0.003, 192.0, 0.0, 0.0, 0.0, 0.0, 0.0, 0.0, 0.0, 0.0, 0.0, 1.6625061824822843E9, 0.0, 2022-09-06 19:16:22.482
210.0, -16361.387534306949, -7219.56875557527, -30791.606699419823, -25960.411245871932, -18707.5160393138, -7740.610270572934, 51146.33454636748, -7163.532932225816, -15194.738232462196, -4203.536117498412, -20123.11907090176, -14168.077906141032, 10318.459310347953, -12887.322948851937, -8603.32055131442, -15554.713076914917, 0.30425, 0.9292500000000001, 0.006500000000000001, 192.0, 4.5, 80.0, 14.0, 104.0, 0.0, 40.0, 0.0, 0.0, 0.0, 1.6625061824822948E9, 0.0, 2022-09-06 19:16:22.482
212.0, -16482.288120065703, -7353.925091496121, -30907.746363609596, -26103.283596430254, -18831.523517551843, -7884.622560098477, 52796.11680461369, -7295.318817534307, -15234.233764914725, -4243.79160926242, -20134.6525710407, -14188.328586617541, 10330.931583754014, -12931.221774962161, -8541.1156464953, -15473.218616630867, 0.30425, 0.9292500000000001, 0.006500000000000001, 192.0, 0.0, 0.0, 0.0, 0.0, 0.0, 0.0, 0.0, 0.0, 0.0, 1.662506182482304E9, 0.0, 2022-09-06 19:16:22.482
214.0, -16331.346789759016, -7191.7855372173235, -30768.89732705323, -25939.624123528498, -18693.657957751508, -7730.976668712697, 51149.106162679935, -7156.670946678037, -15200.527334276121, -4220.8140159623645, -20132.305637872894, -14184.19351389331, 10302.142536895579, -12893.35791985487, -8624.688819013694, -15563.206739807933, 0.30425, 0.9292500000000001, 0.006500000000000001, 192.0, 0.0, 0.0, 0.0, 0.0, 0.0, 0.0, 0.0, 0.0, 0.0, 1.6625061824823132E9, 0.0, 2022-09-06 19:16:22.482
216.0, -16461.992736100285, -7335.462550576038, -30889.6414506008, -26090.520750346273, -18813.284494076313, -7873.9831297377505, 52760.77869662985, -7277.325663247784, -15196.973406907728, -4222.780969474432, -20099.985015390517, -14163.696964227793, 10358.357174200675, -12901.113975180862, -8525.089445720845, -15447.134130851524, 0.30425, 0.9292500000000001, 0.006500000000000001, 192.0, 0.0, 0.0, 0.0, 0.0, 0.0, 0.0, 0.0, 0.0, 0.0, 1.6625061824823222E9, 0.0, 2022-09-06 19:16:22.482
218.0, -16314.381815717437, -7174.485287008916, -30775.356981200814, -25925.94485592185, -18680.78335294525, -7727.310982622026, 51158.78446802908, -7168.763240428358, -15194.090031872993, -4223.764446230465, -20130.763367505475, -14188.552104062093, 10306.165850897534, -12893.872009977344, -8624.912336458247, -15555.65185018204, 0.30425, 0.9292500000000001, 0.006500000000000001, 192.0, 0.0, 0.0, 0.0, 0.0, 0.0, 0.0, 0.0, 0.0, 0.0, 1.6625061824823313E9, 0.0, 2022-09-06 19:16:22.482
220.0, -16464.853759390564, -7333.473245319516, -30890.87079654584, -26088.01735496728, -18804.656720716564, -7876.08419371655, 52703.133547679616, -7288.8144598978115, -15162.19409253527, -4193.857812149264, -20074.705192411566, -14138.014809848644, 10386.34155825872, -12850.06259084494, -8500.100195419813, -15426.838746886106, 0.309125, 0.9216250000000001, 0.01025, 192.0, 4.5, 104.0, 14.0, 72.0, 0.0, 56.0, 0.0, 0.0, 0.0, 1.66250618248234E9, 0.0, 2022-09-06 19:16:22.482
222.0, -16347.261231811195, -7211.186851404531, -30808.43756299467, -25948.22954514379, -18720.994141220348, -7753.239006190182, 51289.58687658154, -7193.797194218301, -15232.557384080576, -4268.311472929892, -20172.024687769972, -14229.500499904216, 10271.498295247353, -12936.496786653614, -8643.71015354516, -15579.367051049121, 0.309125, 0.9216250000000001, 0.01025, 192.0, 0.0, 0.0, 0.0, 0.0, 0.0, 0.0, 0.0, 0.0, 0.0, 1.6625061824823492E9, 0.0, 2022-09-06 19:16:22.482
224.0, -16482.556340999166, -7352.785152528901, -30897.106933248873, -26090.07371545717, -18807.227171328923, -7869.982167480251, 52624.00837230783, -7290.580247709781, -15182.981214878704, -4203.223193076038, -20093.74887868749, -14150.129455343422, 10367.230816749432, -12880.036280159507, -8518.383922384253, -15433.276049289234, 0.309125, 0.9216250000000001, 0.01025, 192.0, 0.0, 0.0, 0.0, 0.0, 0.0, 0.0, 0.0, 0.0, 0.0, 1.6625061824823587E9, 0.0, 2022-09-06 19:16:22.482
226.0, -16358.682973227857, -7227.011886478888, -30820.038118366974, -25955.739731280773, -18725.889173256062, -7766.314776696537, 51466.970320578854, -7204.682493768036, -15256.54080588112, -4280.426118424669, -20193.012975813508, -14246.085494290053, 10253.527492705285, -12941.570632644967, -8652.0920577159, -15568.593510221663, 0.309125, 0.9216250000000001, 0.01025, 192.0, 0.0, 0.0, 0.0, 0.0, 0.0, 0.0, 0.0, 0.0, 0.0, 1.662506182482368E9, 0.0, 2022-09-06 19:16:22.482
228.0, -16451.48741620629, -7313.423730543105, -30861.38884560929, -26058.513052286275, -18780.695650660473, -7852.816027738575, 52501.45375745938, -7266.6862328870575, -15150.995868563161, -4179.172716042128, -20076.605090690267, -14133.008019090656, 10383.122907057155, -12842.999439597064, -8500.994265198024, -15415.99815082528, 0.309125, 0.9216250000000001, 0.01025, 192.0, 0.0, 0.0, 0.0, 0.0, 0.0, 0.0, 0.0, 0.0, 0.0, 1.6625061824823773E9, 0.0, 2022-09-06 19:16:22.482
230.0, -16374.016269924197, -7227.838901023734, -30827.749470204053, -25966.62503083051, -18740.931897274484, -7791.2146200197485, 51666.88432298712, -7229.828206280256, -15253.2998029351, -4285.187039993649, -20191.76127812401, -14247.20308151282, 10263.183446309979, -12946.912699569786, -8640.75972327706, -15554.489559470363, 0.31056249999999996, 0.9228125, 0.011125, 192.0, 4.5, 96.0, 14.0, 112.0, 0.0, 48.0, 0.0, 0.0, 0.0, 1.6625061824823885E9, 0.0, 2022-09-06 19:16:22.482
232.0, -16462.10449482256, -7328.444102817071, -30857.454938585157, -26064.83859596713, -18780.181560538003, -7864.282472644148, 52355.2062934883, -7257.8796455716665, -15152.515787186121, -4162.475962934013, -20074.660488922655, -14124.380245730907, 10384.508715213386, -12831.912974347231, -8514.315904893387, -15427.889278875504, 0.31056249999999996, 0.9228125, 0.011125, 192.0, 0.0, 0.0, 0.0, 0.0, 0.0, 0.0, 0.0, 0.0, 0.0, 1.662506182482398E9, 0.0, 2022-09-06 19:16:22.482
234.0, -16395.831572512576, -7257.790238593846, -30841.138165132783, -25993.938862554893, -18749.537318889776, -7801.16114630236, 51895.22974434254, -7229.5823370912485, -15289.21905627478, -4304.9906855810505, -20215.118851079806, -14268.191369556353, 10248.878329858582, -12987.704633200721, -8641.676144799727, -15565.374859020098, 0.31056249999999996, 0.9228125, 0.011125, 192.0, 0.0, 0.0, 0.0, 0.0, 0.0, 0.0, 0.0, 0.0, 0.0, 1.662506182482408E9, 0.0, 2022-09-06 19:16:22.482
236.0, -16443.910174835943, -7312.082625875786, -30835.930208674697, -26048.275953325745, -18753.247708469356, -7860.84030399803, 52126.32443026596, -7250.883549557156, -15146.167891760815, -4157.647986131667, -20071.419485976636, -14118.591143916983, 10388.19675304851, -12853.661221702245, -8519.725027051572, -15448.542290752208, 0.31056249999999996, 0.9228125, 0.011125, 192.0, 0.0, 0.0, 0.0, 0.0, 0.0, 0.0, 0.0, 0.0, 0.0, 1.6625061824824183E9, 0.0, 2022-09-06 19:16:22.482
238.0, -16401.553619093134, -7260.67361362858, -30834.812621451933, -25996.308147467156, -18754.76762709232, -7840.567271777067, 52090.80750832648, -7260.606558395214, -15286.089812051037, -4305.370665236791, -20212.86132488982, -14264.033945087665, 10258.109600318623, -12983.48015349867, -8625.80640623646, -15569.487579999875, 0.31056249999999996, 0.9228125, 0.011125, 192.0, 0.0, 0.0, 0.0, 0.0, 0.0, 0.0, 0.0, 0.0, 0.0, 1.662506182482428E9, 0.0, 2022-09-06 19:16:22.482
240.0, -16396.077441701585, -7253.163427491597, -30770.819577076385, -25983.590004872087, -18711.56170506021, -7806.100881826983, 51878.823563912345, -7157.944996111989, -15115.970685001694, -4123.919203748608, -20044.664447863634, -14084.16945745581, 10410.77201494837, -12794.406747151226, -8494.06522441688, -15432.784310911216, 0.31028124999999995, 0.9244062500000001, 0.0195625, 192.0, 4.5, 88.0, 14.0, 120.0, 0.0, 112.0, 0.0, 0.0, 0.0, 1.6625061829620457E9, 0.0, 2022-09-06 19:16:22.962
242.0, -16434.365979953527, -7296.995198368454, -30849.609476281345, -26019.15163030048, -18786.4847524744, -7859.096867930516, 52351.13827599744, -7241.160540719097, -15273.371669455966, -4298.41927271119, -20196.544551437444, -14238.620011641982, 10264.41279225502, -12976.506409228614, -8591.138850586278, -15522.54891664373, 0.31028124999999995, 0.9244062500000001, 0.0195625, 192.0, 0.0, 0.0, 0.0, 0.0, 0.0, 0.0, 0.0, 0.0, 0.0, 1.662506182962148E9, 0.0, 2022-09-06 19:16:22.962
244.0, -16381.302938616627, -7236.399619150116, -30743.7069110521, -25949.10126317755, -18675.21776857588, -7762.671442350322, 51675.8473725137, -7142.566995926738, -15128.107682240927, -4146.114485992728, -20054.6333258907, -14088.952730769246, 10386.967407103468, -12823.218145754117, -8503.743529766027, -15440.76388368176, 0.31028124999999995, 0.9244062500000001, 0.0195625, 192.0, 0.0, 0.0, 0.0, 0.0, 0.0, 0.0, 0.0, 0.0, 0.0, 1.6625061829622657E9, 0.0, 2022-09-06 19:16:22.962
246.0, -16450.235718516793, -7302.337265293273, -30853.073996671916, -26019.39749948949, -18788.47405773092, -7867.903455245907, 52549.5547115272, -7258.48314267196, -15265.280337963146, -4298.37456922228, -20175.89153956074, -14217.877592787456, 10287.815068699727, -12954.84756885142, -8552.984422801068, -15479.901788223004, 0.31028124999999995, 0.9244062500000001, 0.0195625, 192.0, 0.0, 0.0, 0.0, 0.0, 0.0, 0.0, 0.0, 0.0, 0.0, 1.6625061829622736E9, 0.0, 2022-09-06 19:16:22.962
248.0, -16384.566293307103, -7233.963279004488, -30753.09464372333, -25942.95453345234, -18689.053498393714, -7771.9027128103635, 51484.35997776508, -7148.847836118679, -15142.301039970047, -4165.851076346765, -20074.146398800185, -14106.141222255377, 10364.682717881527, -12813.137509004773, -8526.139977710245, -15457.572395512152, 0.31028124999999995, 0.9244062500000001, 0.0195625, 192.0, 0.0, 0.0, 0.0, 0.0, 0.0, 0.0, 0.0, 0.0, 0.0, 1.6625061829622805E9, 0.0, 2022-09-06 19:16:22.962
250.0, -16471.02284086023, -7324.554899281848, -30870.530709091512, -26049.39354054851, -18805.99782538388, -7886.790679310642, 52709.92847799403, -7280.968997593999, -15262.709887350786, -4293.680702886665, -20174.595138382334, -14217.05057824261, 10287.904475677547, -12943.89521406832, -8542.054419762424, -15472.570416041663, 0.31514062499999995, 0.9212031250000001, 0.021781250000000002, 192.0, 5.0, 0.0, 14.0, 88.0, 0.0, 96.0, 0.0, 0.0, 0.0, 1.6625061829622872E9, 0.0, 2022-09-06 19:16:22.962
252.0, -16357.341868560537, -7203.967237945466, -30734.40858535869, -25921.98859715326, -18674.79308543123, -7749.014526488129, 51318.19710948433, -7132.419303944029, -15148.358362717434, -4174.232980517505, -20084.092925082794, -14117.942943327778, 10349.818807818749, -12816.669084628713, -8546.54712039794, -15475.230273631845, 0.31514062499999995, 0.9212031250000001, 0.021781250000000002, 192.0, 0.0, 0.0, 0.0, 0.0, 0.0, 0.0, 0.0, 0.0, 0.0, 1.6625061829622936E9, 0.0, 2022-09-06 19:16:22.962
254.0, -16481.662271220957, -7335.529605809404, -30878.73379930661, -26069.934793702938, -18810.267008574847, -7883.169696708882, 52809.393740820145, -7300.526773992393, -15235.932497493328, -4272.066565998383, -20149.695295059122, -14196.844601255012, 10307.752824753861, -12914.972056743152, -8527.34697191083, -15454.979593155336, 0.31514062499999995, 0.9212031250000001, 0.021781250000000002, 192.0, 0.0, 0.0, 0.0, 0.0, 0.0, 0.0, 0.0, 0.0, 0.0, 1.6625061829623003E9, 0.0, 2022-09-06 19:16:22.962
0.0, -16337.202946806306, -7178.866228922157, -30729.245332389517, -25911.25975981471, -18667.41700976098, -7746.622889831411, 51244.07872487053, -7155.687469922003, -15158.595461677965, -4195.668303450144, -20104.701233470587, -14142.015772106144, 10326.260069162854, -12851.806026912454, -8575.179705045188, -15519.486727653353, 0.31514062499999995, 0.9212031250000001, 0.021781250000000002, 192.0, 0.0, 0.0, 0.0, 0.0, 0.0, 0.0, 0.0, 0.0, 0.0, 1.6625061829623072E9, 0.0, 2022-09-06 19:16:22.962
2.0, -16453.320259251628, -7311.099149119753, -30849.34125534788, -26045.124357357545, -18801.281607303812, -7885.628388598966, 52879.37705270971, -7294.245933800452, -15207.121098890437, -4242.0034697059955, -20118.000521421494, -14160.970051404245, 10334.843139033692, -12900.108146680373, -8507.722140279073, -15448.832863430127, 0.31514062499999995, 0.9212031250000001, 0.021781250000000002, 192.0, 0.0, 0.0, 0.0, 0.0, 0.0, 0.0, 0.0, 0.0, 0.0, 1.6625061829623137E9, 0.0, 2022-09-06 19:16:22.962
4.0, -16336.822967150567, -7187.426947048539, -30735.190896414628, -25907.45996325731, -18688.60646350461, -7753.1719509568165, 51203.0856255395, -7169.702013695481, -15161.300022757057, -4186.325274267826, -20096.989881633508, -14127.442434721284, 10325.768330784838, -12827.643791156268, -8578.532466713485, -15515.508117140309, 0.31514062499999995, 0.9212031250000001, 0.021781250000000002, 192.0, 0.0, 0.0, 0.0, 0.0, 0.0, 0.0, 0.0, 0.0, 0.0, 1.6625061829623203E9, 0.0, 2022-09-06 19:16:22.962
6.0, -16481.50580900977, -7340.804617500856, -30863.19933691017, -26063.721008744364, -18827.433148316522, -7895.41845267039, 52921.13011135222, -7307.612276984725, -15211.81496522605, -4241.109399927784, -20124.594286035812, -14160.478313026228, 10335.446636133986, -12883.254931361073, -8515.58995432734, -15443.2449273163, 0.318, 0.93, 0.02, 192.0, 4.5, 120.0, 14.5, 8.0, 0.0, 80.0, 0.0, 0.0, 0.0, 1.662506182962332E9, 0.0, 2022-09-06 19:16:22.962
8.0, -16331.257382781194, -7172.250112563385, -30735.79439351492, -25886.58343393605, -18694.84260020764, -7727.9368314667745, 51190.009855033146, -7160.493094979894, -15200.035595898104, -4216.142501371205, -20134.294943129415, -14159.494836270194, 10301.60609502865, -12858.064515359942, -8599.364292545832, -15529.299143469232, 0.318, 0.93, 0.02, 192.0, 0.0, 0.0, 0.0, 0.0, 0.0, 0.0, 0.0, 0.0, 0.0, 1.6625061829623387E9, 0.0, 2022-09-06 19:16:22.962
10.0, -16482.35517529907, -7336.378972098705, -30861.6347147983, -26063.139863388526, -18811.11637486415, -7888.489411889245, 52895.80558488436, -7297.084605346276, -15190.781973693607, -4211.78391120242, -20100.812029935365, -14131.912783612346, 10361.039383535312, -12852.834207157399, -8502.335369865343, -15409.806717611162, 0.318, 0.93, 0.02, 192.0, 0.0, 0.0, 0.0, 0.0, 0.0, 0.0, 0.0, 0.0, 0.0, 1.6625061829623451E9, 0.0, 2022-09-06 19:16:22.962
12.0, -16330.944458358821, -7176.854571921179, -30739.75065228351, -25894.071268328582, -18681.27509132327, -7724.6511250318445, 51228.76777991865, -7166.1927898159975, -15215.01126468316, -4235.633222536233, -20150.99169623753, -14180.416069080362, 10297.001635670858, -12889.848695975388, -8596.704434955649, -15538.373951718087, 0.318, 0.93, 0.02, 192.0, 0.0, 0.0, 0.0, 0.0, 0.0, 0.0, 0.0, 0.0, 0.0, 1.662506182962352E9, 0.0, 2022-09-06 19:16:22.962
14.0, -16468.67590769242, -7333.964983697532, -30851.285857115494, -26058.15542437499, -18800.655758459063, -7859.789772008631, 52793.658112723606, -7285.171125551597, -15167.044421082071, -4180.983207343007, -20077.901491868673, -14111.684454880293, 10392.264770539376, -12856.298727547972, -8468.807753182382, -15395.211028481846, 0.318, 0.93, 0.02, 192.0, 0.0, 0.0, 0.0, 0.0, 0.0, 0.0, 0.0, 0.0, 0.0, 1.6625061829623587E9, 0.0, 2022-09-06 19:16:22.962
16.0, -16322.942533843821, -7169.679661951025, -30758.36965541478, -25901.17912306537, -18691.042803650238, -7728.160348911328, 51340.05711556162, -7179.08974636671, -15226.544764822098, -4243.143408673216, -20162.480492887556, -14192.843638997512, 10299.080347905201, -12890.742765753599, -8601.510060013541, -15538.150434273533, 0.314, 0.932, 0.018000000000000002, 192.0, 4.5, 104.0, 14.5, 16.0, 0.0, 72.0, 0.0, 0.0, 0.0, 1.6625061829623656E9, 0.0, 2022-09-06 19:16:22.962
18.0, -16442.81493935763, -7311.166204353119, -30846.144955890773, -26051.136976616024, -18781.880293116606, -7847.563367791578, 52650.405782509544, -7280.63372142717, -15122.631504849376, -4126.847282272253, -20048.128968254205, -14076.905140507835, 10426.999381422924, -12795.949017518642, -8448.892348872703, -15384.973929521315, 0.314, 0.932, 0.018000000000000002, 192.0, 0.0, 0.0, 0.0, 0.0, 0.0, 0.0, 0.0, 0.0, 0.0, 1.6625061829623723E9, 0.0, 2022-09-06 19:16:22.962
20.0, -16355.464322026291, -7208.504642069894, -30811.499751985044, -25943.401568341444, -18738.272039684303, -7758.91634928183, 51569.49777239535, -7214.830185750746, -15253.836244802029, -4242.271690639459, -20190.95661532362, -14219.173993965864, 10275.342795293665, -12919.934144012232, -8613.825871208415, -15573.55559749074, 0.314, 0.932, 0.018000000000000002, 192.0, 0.0, 0.0, 0.0, 0.0, 0.0, 0.0, 0.0, 0.0, 0.0, 1.662506182962379E9, 0.0, 2022-09-06 19:16:22.962
22.0, -16442.077331790606, -7307.366407795716, -30856.62792404031, -26053.148633617002, -18792.20679905496, -7834.621707751955, 52513.881327376526, -7212.662066538581, -15145.989077805172, -4119.270040901904, -20062.59054691679, -14084.392974900364, 10402.34540728872, -12801.715767588112, -8480.363605065777, -15416.042854314192, 0.314, 0.932, 0.018000000000000002, 192.0, 0.0, 0.0, 0.0, 0.0, 0.0, 0.0, 0.0, 0.0, 0.0, 1.6625061829623866E9, 0.0, 2022-09-06 19:16:22.962
24.0, -16360.784037206655, -7215.14311017312, -30822.09447885686, -25954.376274869, -18745.536356632278, -7757.955224270252, 51795.987998960976, -7196.389996575117, -15267.917843808871, -4247.636109308733, -20193.392955469248, -14215.888287530934, 10268.324347534699, -12942.218833234172, -8617.111577643345, -15569.50993174433, 0.314, 0.932, 0.018000000000000002, 192.0, 0.0, 0.0, 0.0, 0.0, 0.0, 0.0, 0.0, 0.0, 0.0, 1.6625061829623933E9, 0.0, 2022-09-06 19:16:22.962
26.0, -16408.81793604111, -7271.804782367323, -30820.23928406707, -26017.989339588803, -18757.986278293884, -7814.371027275447, 52323.91385125087, -7193.104290140187, -15114.80839429002, -4095.3983778236366, -20032.169822713116, -14054.642803030349, 10424.227765110465, -12769.328089872371, -8461.811657167871, -15413.807679868662, 0.312, 0.92, 0.018000000000000002, 192.0, 4.5, 96.0, 14.0, 96.0, 0.0, 72.0, 0.0, 0.0, 0.0, 1.6625061829624002E9, 0.0, 2022-09-06 19:16:22.962
28.0, -16389.729546276278, -7261.254758984418, -30852.448147827166, -25982.98650777179, -18794.553732222765, -7796.333169500014, 52123.17283429776, -7225.469616111472, -15267.470808919767, -4265.428097895157, -20192.52123743549, -14216.871764286967, 10265.038641099769, -12951.785379861043, -8588.456641251641, -15553.170806547501, 0.312, 0.92, 0.018000000000000002, 192.0, 0.0, 0.0, 0.0, 0.0, 0.0, 0.0, 0.0, 0.0, 0.0, 1.6625061829624069E9, 0.0, 2022-09-06 19:16:22.962
30.0, -16381.86173222801, -7247.106104744209, -30776.31810621239, -25969.79897854316, -18724.726882544386, -7776.641282634889, 52137.36619202688, -7166.975100871933, -15113.80256578953, -4093.386720822659, -20031.43221514609, -14041.388218568352, 10416.829337695759, -12765.930624715165, -8459.44237225561, -15420.71436890535, 0.312, 0.92, 0.018000000000000002, 192.0, 0.0, 0.0, 0.0, 0.0, 0.0, 0.0, 0.0, 0.0, 0.0, 1.6625061829624135E9, 0.0, 2022-09-06 19:16:22.962
32.0, -16427.83927057258, -7289.485012231471, -30859.35483686386, -26002.678394636918, -18812.032796386815, -7830.710152472277, 52383.72711941328, -7247.039049510843, -15277.126762524458, -4264.534028116945, -20189.90608333422, -14201.158487934887, 10280.103716862646, -12965.039964323041, -8558.147675770244, -15527.958038801915, 0.312, 0.92, 0.018000000000000002, 192.0, 0.0, 0.0, 0.0, 0.0, 0.0, 0.0, 0.0, 0.0, 0.0, 1.6625061829624202E9, 0.0, 2022-09-06 19:16:22.962
34.0, -16390.82478175459, -7255.6444711261365, -30782.88951908225, -25971.72122856632, -18730.89596401405, -7776.328358212514, 51934.188834928136, -7164.047022348288, -15142.368095203412, -4115.604354811234, -20062.411732961147, -14063.628204301383, 10389.828430393747, -12802.073395499398, -8486.711500491083, -15444.809549428172, 0.312, 0.92, 0.018000000000000002, 192.0, 0.0, 0.0, 0.0, 0.0, 0.0, 0.0, 0.0, 0.0, 0.0, 1.6625061829624276E9, 0.0, 2022-09-06 19:16:22.962
36.0, -16434.187165997882, -7295.229410556485, -30879.96314525165, -26024.2925315252, -18831.165889640557, -7847.183388135838, 52616.721703615396, -7264.138134019153, -15281.530056182153, -4268.155010718705, -20195.873999103787, -14204.265380414176, 10265.575082966696, -12958.200330519716, -8564.584978173372, -15519.017341019791, 0.306, 0.924, 0.028, 192.0, 4.5, 72.0, 14.0, 112.0, 0.0, 112.0, 0.0, 0.0, 0.0, 1.6625061829624345E9, 0.0, 2022-09-06 19:16:22.962
38.0, -16364.561482019602, -7232.845691781723, -30778.843853335842, -25962.959344739837, -18714.13215567257, -7778.518829169135, 51715.27584973286, -7158.36967925664, -15142.345743458956, -4119.113578690717, -20066.144474285185, -14065.662213046815, 10366.850837093692, -12801.49225014356, -8510.91843973618, -15477.934834710937, 0.306, 0.924, 0.028, 192.0, 0.0, 0.0, 0.0, 0.0, 0.0, 0.0, 0.0, 0.0, 0.0, 1.662506182962443E9, 0.0, 2022-09-06 19:16:22.962
40.0, -16445.810073114644, -7319.235184101485, -30903.186607740714, -26059.2506598533, -18839.92777346704, -7878.4981821177225, 52800.49774652693, -7276.8339248697675, -15279.83132360355, -4271.463068898091, -20189.32493797838, -14198.297464644607, 10276.1251063496, -12957.641536908333, -8555.30900422442, -15530.729655114372, 0.306, 0.924, 0.028, 192.0, 0.0, 0.0, 0.0, 0.0, 0.0, 0.0, 0.0, 0.0, 0.0, 1.6625061829624505E9, 0.0, 2022-09-06 19:16:22.962
42.0, -16339.32636252956, -7214.42785435055, -30764.717550840087, -25935.354940337533, -18697.36834733109, -7728.987363456174, 51505.81765244218, -7136.308507479252, -15146.681981883286, -4131.451741630047, -20080.248425036483, -14075.273463162597, 10361.754639357881, -12822.368779464816, -8531.392637657242, -15502.231180933855, 0.306, 0.924, 0.028, 192.0, 0.0, 0.0, 0.0, 0.0, 0.0, 0.0, 0.0, 0.0, 0.0, 1.6625061829624567E9, 0.0, 2022-09-06 19:16:22.962
44.0, -16436.735264865787, -7315.457739288538, -30881.885395274807, -26043.2468108233, -18833.49047106391, -7863.857789499497, 52920.72777995202, -7274.509343446415, -15251.958698267783, -4248.194902920116, -20161.6087748538, -14165.239234595208, 10311.105586422156, -12927.667847593768, -8522.697809064128, -15482.852218491105, 0.306, 0.924, 0.028, 192.0, 0.0, 0.0, 0.0, 0.0, 0.0, 0.0, 0.0, 0.0, 0.0, 1.6625061829624636E9, 0.0, 2022-09-06 19:16:22.962
46.0, -16323.501327455204, -7192.321979084251, -30742.254047662504, -25902.85550389952, -18696.004890919317, -7727.355686110936, 51340.25828126172, -7137.180225513009, -15159.176607033804, -4142.180578968594, -20084.07057333834, -14074.468800362207, 10353.126865998134, -12804.174459478196, -8538.835768560859, -15497.425555875965, 0.316, 0.932, 0.03, 192.0, 4.5, 112.0, 14.5, 16.0, 0.0, 120.0, 0.0, 0.0, 0.0, 1.66250618296247E9, 0.0, 2022-09-06 19:16:22.962
48.0, -16461.277480277717, -7333.897928464166, -30884.20997669816, -26052.321619072154, -18832.216421629957, -7882.074461230572, 53013.28635374145, -7286.556933707826, -15239.68759056182, -4232.615737034766, -20143.369751378268, -14137.903051126368, 10323.108473194656, -12913.049806719997, -8501.642465787229, -15462.601538014596, 0.316, 0.932, 0.03, 192.0, 0.0, 0.0, 0.0, 0.0, 0.0, 0.0, 0.0, 0.0, 0.0, 1.6625061829624774E9, 0.0, 2022-09-06 19:16:22.962
50.0, -16321.221449520763, -7185.370586558651, -30740.80118427291, -25878.715619887786, -18697.144829886536, -7724.517014565113, 51254.53934127562, -7107.094777476165, -15183.405898023357, -4168.354471725759, -20115.65358825369, -14093.333672682485, 10327.087083707702, -12837.500910461058, -8561.50043743854, -15521.11840499859, 0.316, 0.932, 0.03, 192.0, 0.0, 0.0, 0.0, 0.0, 0.0, 0.0, 0.0, 0.0, 0.0, 1.662506182962484E9, 0.0, 2022-09-06 19:16:22.962
52.0, -16472.87803565002, -7352.8522077622665, -30900.25852921707, -26070.53829080323, -18846.87916599264, -7909.589458655055, 53059.800333952946, -7271.693023645047, -15213.804270482573, -4224.367943330758, -20126.941219203618, -14120.245173006675, 10341.10162748118, -12914.189745687218, -8489.01373016998, -15440.607421470575, 0.316, 0.932, 0.03, 192.0, 0.0, 0.0, 0.0, 0.0, 0.0, 0.0, 0.0, 0.0, 0.0, 1.6625061829624908E9, 0.0, 2022-09-06 19:16:22.962
54.0, -16320.70735939829, -7187.650464493092, -30757.453233892113, -25894.071268328582, -18680.17985584496, -7737.2128054157265, 51238.177864334335, -7130.944088809978, -15201.779031965618, -4197.054111606373, -20138.787643764932, -14126.32484749852, 10296.442842059474, -12879.276320848026, -8577.75015565755, -15559.36223976162, 0.316, 0.932, 0.03, 192.0, 0.0, 0.0, 0.0, 0.0, 0.0, 0.0, 0.0, 0.0, 0.0, 1.6625061829624975E9, 0.0, 2022-09-06 19:16:22.962
56.0, -16466.776009413723, -7336.937765710088, -30891.988383768607, -26072.84052048213, -18839.570145555754, -7903.956819052318, 53042.83535991137, -7275.58222718027, -15194.201790595269, -4187.73343416851, -20105.751765459987, -14099.815678574525, 10352.43396192002, -12872.704907978166, -8467.757221192984, -15444.362514539065, 0.314, 0.914, 0.038, 192.0, 4.5, 104.0, 14.0, 72.0, 0.5, 24.0, 0.0, 0.0, 0.0, 1.662506182962504E9, 0.0, 2022-09-06 19:16:22.962
58.0, -16327.256420523694, -7190.645598250103, -30770.394893931734, -25903.615463210997, -18698.910617698504, -7730.596689056956, 51267.68216701534, -7139.683620892003, -15212.351407092978, -4202.105605853272, -20147.54952759141, -14136.830167392513, 10291.167830368022, -12888.8428674749, -8586.243818550565, -15571.588643978674, 0.314, 0.914, 0.038, 192.0, 0.0, 0.0, 0.0, 0.0, 0.0, 0.0, 0.0, 0.0, 0.0, 1.6625061829625106E9, 0.0, 2022-09-06 19:16:22.962
60.0, -16468.87707339252, -7354.17096068513, -30893.374191924835, -26077.06500018418, -18833.043436174805, -7898.882973060963, 52963.01728046147, -7268.541427676849, -15179.539046232589, -4178.882143364209, -20089.323233285337, -14092.149030226354, 10367.074354538245, -12869.30744282096, -8466.930206648136, -15440.227441814834, 0.314, 0.914, 0.038, 192.0, 0.0, 0.0, 0.0, 0.0, 0.0, 0.0, 0.0, 0.0, 0.0, 1.6625061829625173E9, 0.0, 2022-09-06 19:16:22.962
62.0, -16334.632496193946, -7197.842859964712, -30790.153836030226, -25907.437611512854, -18725.017455222303, -7750.400334644358, 51348.59548194355, -7158.816714145746, -15229.67400904584, -4236.281423125437, -20164.156873721706, -14166.80385670708, 10265.753896922339, -12927.399626660303, -8605.220449593122, -15587.212513352933, 0.314, 0.914, 0.038, 192.0, 0.0, 0.0, 0.0, 0.0, 0.0, 0.0, 0.0, 0.0, 0.0, 1.6625061829625237E9, 0.0, 2022-09-06 19:16:22.962
64.0, -16445.340686481082, -7334.970812198021, -30846.748452991065, -26041.078691611136, -18797.97354912443, -7890.746938079231, 52815.76398798991, -7254.929215303567, -15147.196072005758, -4160.553712910857, -20063.596375417277, -14070.758410782626, 10383.212314034978, -12845.547538464969, -8460.224683311544, -15424.894145118493, 0.314, 0.914, 0.038, 192.0, 0.0, 0.0, 0.0, 0.0, 0.0, 0.0, 0.0, 0.0, 0.0, 1.6625061829625304E9, 0.0, 2022-09-06 19:16:22.962
66.0, -16343.23791780924, -7219.278182897352, -30774.10528351132, -25913.383175537965, -18734.4722431269, -7788.085375796006, 51499.827384928154, -7192.590200017715, -15235.507814348677, -4252.285272155437, -20165.6097371113, -14171.341260831507, 10269.374879524097, -12935.669772108768, -8593.55283898745, -15581.825742939203, 0.306, 0.922, 0.038, 192.0, 4.5, 72.0, 14.0, 104.0, 0.5, 24.0, 0.0, 0.0, 0.0, 1.6625061829625373E9, 0.0, 2022-09-06 19:16:22.962
68.0, -16432.264915974727, -7314.966000910521, -30815.14308633126, -26024.001958847282, -18795.872485145628, -7889.137612478449, 52651.32220403221, -7261.835904340256, -15129.247621208147, -4135.452703887547, -20039.232973960992, -14040.896480190335, 10404.245305567421, -12812.690474115667, -8444.53375870392, -15421.474328216831, 0.306, 0.922, 0.038, 192.0, 0.0, 0.0, 0.0, 0.0, 0.0, 0.0, 0.0, 0.0, 0.0, 1.662506182962544E9, 0.0, 2022-09-06 19:16:22.962
70.0, -16356.738371460246, -7229.269412668874, -30783.537719671458, -25928.850582701038, -18746.94451653296, -7816.382684276425, 51707.02805602885, -7227.056589967799, -15253.433913401834, -4274.525257888467, -20187.156818766216, -14185.221694138252, 10254.354507250131, -12958.535606686546, -8608.170879861222, -15590.878199443603, 0.306, 0.922, 0.038, 192.0, 0.0, 0.0, 0.0, 0.0, 0.0, 0.0, 0.0, 0.0, 0.0, 1.662506182962553E9, 0.0, 2022-09-06 19:16:22.962
72.0, -16428.085139761584, -7315.010704399432, -30804.257786781527, -26018.48107796682, -18773.498388945867, -7876.218304183281, 52464.41691689693, -7257.4102589381055, -15125.336065928468, -4140.168921967616, -20042.764549584932, -14038.504843533618, 10407.15103234661, -12816.646732884257, -8450.009936095468, -15431.86788938855, 0.306, 0.922, 0.038, 192.0, 0.0, 0.0, 0.0, 0.0, 0.0, 0.0, 0.0, 0.0, 0.0, 1.6625061829625597E9, 0.0, 2022-09-06 19:16:22.962
74.0, -16362.57217676308, -7235.930232516555, -30795.42884772168, -25935.019664170704, -18762.926013818505, -7815.510966242668, 51932.73597153855, -7229.627040580159, -15266.375573441455, -4289.590333651345, -20190.397821712235, -14187.389813350417, 10258.690745674461, -12963.698859655722, -8578.599521946851, -15569.286414299777, 0.306, 0.922, 0.038, 192.0, 0.0, 0.0, 0.0, 0.0, 0.0, 0.0, 0.0, 0.0, 0.0, 1.6625061829625661E9, 0.0, 2022-09-06 19:16:22.962
76.0, -16400.167810936906, -7284.612331940214, -30787.09164703985, -25987.56861538513, -18761.875481829105, -7831.134835616927, 52228.516605915625, -7206.202412390997, -15109.645141320843, -4125.305011904838, -20036.506061137447, -14023.328009048464, 10408.335674802742, -12781.263921411506, -8446.187787793611, -15416.512240947754, 0.311, 0.919, 0.037000000000000005, 192.0, 4.5, 112.0, 14.0, 80.0, 0.5, 16.0, 0.0, 0.0, 0.0, 1.6625061829625728E9, 0.0, 2022-09-06 19:16:22.962
78.0, -16396.368014379503, -7267.4461921985385, -30839.14885987626, -25974.1799204564, -18786.66356643004, -7834.375838562947, 52177.37581460188, -7241.317002930285, -15261.815817572573, -4289.411519695702, -20195.09168804785, -14187.434516839328, 10260.277719530788, -12970.382031247858, -8576.923141112702, -15542.084341297668, 0.311, 0.919, 0.037000000000000005, 192.0, 0.0, 0.0, 0.0, 0.0, 0.0, 0.0, 0.0, 0.0, 0.0, 1.6625061829625795E9, 0.0, 2022-09-06 19:16:22.962
80.0, -16386.689709030357, -7253.610462380703, -30792.701934898134, -25972.10120822206, -18728.012588979316, -7789.87351535243, 52006.16145207423, -7182.218990590452, -15119.32344666999, -4134.648041087155, -20054.856843335252, -14036.672000488283, 10388.308511770787, -12792.305683172428, -8494.758128494994, -15448.788159941216, 0.311, 0.919, 0.037000000000000005, 192.0, 0.0, 0.0, 0.0, 0.0, 0.0, 0.0, 0.0, 0.0, 0.0, 1.662506182962586E9, 0.0, 2022-09-06 19:16:22.962
82.0, -16406.359244151026, -7285.864029629712, -30861.29943863147, -25987.47920840731, -18774.258348257346, -7838.332097331536, 52413.56669826111, -7249.7212588454795, -15262.843997817517, -4295.3570837208135, -20195.114039792305, -14183.053574926089, 10266.446801000453, -12952.679449639256, -8578.264245780021, -15545.548861688241, 0.311, 0.919, 0.037000000000000005, 192.0, 0.0, 0.0, 0.0, 0.0, 0.0, 0.0, 0.0, 0.0, 0.0, 1.6625061829625928E9, 0.0, 2022-09-06 19:16:22.962
84.0, -16361.18636860685, -7238.43362789555, -30771.892460810242, -25936.249010115745, -18705.526734057275, -7787.079547295517, 51776.22905686248, -7159.5543217127715, -15101.889085994851, -4125.081494460284, -20046.07260776432, -14026.926639905769, 10399.909067143091, -12781.710956300612, -8493.05939591639, -15459.829921702138, 0.311, 0.919, 0.037000000000000005, 192.0, 0.0, 0.0, 0.0, 0.0, 0.0, 0.0, 0.0, 0.0, 0.0, 1.6625061829625993E9, 0.0, 2022-09-06 19:16:22.962
86.0, -16414.115299477016, -7286.802802896835, -30859.846575241874, -25997.224568989823, -18800.879275903615, -7882.387385652946, 52657.73715469088, -7260.5171514173935, -15233.831433514528, -4276.201638722616, -20172.695240103632, -14160.008926392667, 10287.926827422003, -12942.509405912091, -8550.749248355538, -15516.916277040993, 0.3135, 0.9175, 0.0345, 192.0, 4.5, 112.0, 14.0, 80.0, 0.5, 0.0, 0.0, 0.0, 0.0, 1.662506182962606E9, 0.0, 2022-09-06 19:16:22.962
88.0, -16344.66842945438, -7222.474482354461, -30736.442594104126, -25907.4152597684, -18694.93200718546, -7766.404183674358, 51603.27125826732, -7147.998469829377, -15114.98720824566, -4134.089247475773, -20058.947212570576, -14038.661305744805, 10377.982005832435, -12809.002436280542, -8511.477233347563, -15485.243855147823, 0.3135, 0.9175, 0.0345, 192.0, 0.0, 0.0, 0.0, 0.0, 0.0, 0.0, 0.0, 0.0, 0.0, 1.6625061829626124E9, 0.0, 2022-09-06 19:16:22.962
90.0, -16446.59238417058, -7323.213794614529, -30859.377188608312, -26019.53160995622, -18835.1445001536, -7896.156060237416, 52872.582122395295, -7301.733768192979, -15244.06853247506, -4264.198751950115, -20166.727324334064, -14156.276185068631, 10296.621656015117, -12962.871845110876, -8531.236175446054, -15490.787087772738, 0.3135, 0.9175, 0.0345, 192.0, 0.0, 0.0, 0.0, 0.0, 0.0, 0.0, 0.0, 0.0, 0.0, 1.6625061829626203E9, 0.0, 2022-09-06 19:16:22.962
92.0, -16339.773397418667, -7207.409406591583, -30714.82845721584, -25890.852617127017, -18700.94462644394, -7764.951320284763, 51427.60889859306, -7166.639824705104, -15146.86079583893, -4143.946366780564, -20087.758611173467, -14065.125771179888, 10350.735229341415, -12812.042273526464, -8524.68711432065, -15501.873553022571, 0.3135, 0.9175, 0.0345, 192.0, 0.0, 0.0, 0.0, 0.0, 0.0, 0.0, 0.0, 0.0, 0.0, 1.6625061829626272E9, 0.0, 2022-09-06 19:16:22.962
94.0, -16456.471855219825, -7333.875576719711, -30840.95935117714, -26025.365415259053, -18834.049264675294, -7896.781909082164, 52960.245664149006, -7309.44512003006, -15241.878061518439, -4245.579748818845, -20162.033457998452, -14143.51333898465, 10308.579839298707, -12921.252896935093, -8494.06522441688, -15467.787142728228, 0.3135, 0.9175, 0.0345, 192.0, 0.0, 0.0, 0.0, 0.0, 0.0, 0.0, 0.0, 0.0, 0.0, 1.6625061829626336E9, 0.0, 2022-09-06 19:16:22.962
96.0, -16320.08151055354, -7192.925476184545, -30677.366933508747, -25862.421198179865, -18673.899015653016, -7727.1098169219285, 51276.198181652806, -7137.359039468652, -15149.051266795548, -4152.44002967358, -20100.342643301803, -14073.842951517458, 10343.13563622661, -12817.138471262273, -8514.405311871209, -15492.552875584708, 0.30774999999999997, 0.9317500000000001, 0.036250000000000004, 192.0, 4.5, 56.0, 14.5, 72.0, 0.5, 24.0, 0.0, 0.0, 0.0, 1.6625061829626403E9, 0.0, 2022-09-06 19:16:22.962
98.0, -16458.863491876542, -7340.245823889473, -30815.99245262056, -26024.96308385886, -18818.626561001132, -7886.99184501074, 53036.33100227488, -7281.796012138845, -15212.86549721545, -4230.581728289334, -20138.98880946503, -14123.955562586256, 10343.157987971066, -12890.496896564591, -8456.33547977632, -15420.781424138717, 0.30774999999999997, 0.9317500000000001, 0.036250000000000004, 192.0, 0.0, 0.0, 0.0, 0.0, 0.0, 0.0, 0.0, 0.0, 0.0, 1.6625061829626467E9, 0.0, 2022-09-06 19:16:22.962
100.0, -16313.934780828331, -7176.966330643455, -30672.203680539573, -25861.013038279183, -18667.528768483255, -7724.762883754121, 51206.72895988572, -7137.068466790733, -15166.731496659697, -4171.595474671778, -20114.89362894221, -14091.769050570614, 10337.882976279614, -12851.82837865691, -8525.603535843318, -15497.805535531705, 0.30774999999999997, 0.9317500000000001, 0.036250000000000004, 192.0, 0.0, 0.0, 0.0, 0.0, 0.0, 0.0, 0.0, 0.0, 0.0, 1.6625061829626534E9, 0.0, 2022-09-06 19:16:22.962
102.0, -16476.32020429614, -7354.953271741066, -30833.203295851148, -26055.942601673916, -18837.58084029923, -7908.382464454468, 53076.07240391641, -7283.517096461904, -15200.773203465129, -4221.395161318203, -20122.604980779288, -14107.102347266955, 10356.725496855439, -12878.78458247001, -8441.851549369281, -15413.137127535001, 0.30774999999999997, 0.9317500000000001, 0.036250000000000004, 192.0, 0.0, 0.0, 0.0, 0.0, 0.0, 0.0, 0.0, 0.0, 0.0, 1.6625061829626615E9, 0.0, 2022-09-06 19:16:22.962
104.0, -16306.55870515808, -7172.227760818931, -30686.039410357407, -25861.75064584621, -18666.21001556039, -7719.599630784945, 51237.8425881675, -7120.192899726975, -15205.19884886728, -4208.45350127858, -20152.578670093855, -14123.03914106359, 10291.950141423958, -12867.765172453544, -8550.570434399895, -15530.50613766982, 0.30774999999999997, 0.9317500000000001, 0.036250000000000004, 192.0, 0.0, 0.0, 0.0, 0.0, 0.0, 0.0, 0.0, 0.0, 0.0, 1.662506183441458E9, 0.0, 2022-09-06 19:16:23.441
106.0, -16453.856701118555, -7332.825044730312, -30817.400612521247, -26045.52668875774, -18810.646988230586, -7885.18135370986, 53034.45345574063, -7267.379136965173, -15169.257243783146, -4182.6372364327, -20091.06666935285, -14070.601948571439, 10375.188037775522, -12833.54465169247, -8427.680543384617, -15393.221723225322, 0.296875, 0.9328750000000001, 0.040125, 192.0, 4.0, 120.0, 14.5, 24.0, 0.5, 48.0, 0.0, 0.0, 0.0, 1.6625061834415884E9, 0.0, 2022-09-06 19:16:23.441
108.0, -16314.627684906447, -7185.750566214391, -30706.915939678664, -25885.041163568636, -18689.27701583827, -7738.240985660671, 51290.033911470644, -7143.438713960495, -15207.05404365707, -4228.50301605499, -20159.88769053074, -14139.355914515963, 10282.875333175103, -12890.720414009145, -8578.443059735664, -15549.885100112571, 0.296875, 0.9328750000000001, 0.040125, 192.0, 0.0, 0.0, 0.0, 0.0, 0.0, 0.0, 0.0, 0.0, 0.0, 1.6625061834416015E9, 0.0, 2022-09-06 19:16:23.441
110.0, -16444.87129984752, -7334.970812198021, -30791.226719764083, -26042.710368956374, -18786.752973407863, -7879.79458329613, 52915.76569268295, -7271.3800992226725, -15155.220348265213, -4183.665416677644, -20080.5389977144, -14067.316242136509, 10388.062642581779, -12824.425139954703, -8434.654287654674, -15409.136165277501, 0.296875, 0.9328750000000001, 0.040125, 192.0, 0.0, 0.0, 0.0, 0.0, 0.0, 0.0, 0.0, 0.0, 0.0, 1.662506183441608E9, 0.0, 2022-09-06 19:16:23.441
112.0, -16312.571324416558, -7182.107231868176, -30674.036523584906, -25871.875986084462, -18658.990402101328, -7727.802721000043, 51416.45537810986, -7138.096647035676, -15205.176497122824, -4233.241585879515, -20149.091797958827, -14133.879737124413, 10300.08617640569, -12880.729184237622, -8549.050515776935, -15540.74323663035, 0.296875, 0.9328750000000001, 0.040125, 192.0, 0.0, 0.0, 0.0, 0.0, 0.0, 0.0, 0.0, 0.0, 0.0, 1.6625061834416144E9, 0.0, 2022-09-06 19:16:23.441
114.0, -16447.441750459882, -7328.421751072616, -30762.728245583567, -26030.77453741724, -18779.46630471543, -7873.536094848645, 52791.132365600155, -7244.490950642938, -15129.158214230325, -4152.820009329321, -20048.330133954303, -14034.056846387011, 10417.432834796053, -12783.677909812679, -8397.03630173639, -15389.153705734458, 0.296875, 0.9328750000000001, 0.040125, 192.0, 0.0, 0.0, 0.0, 0.0, 0.0, 0.0, 0.0, 0.0, 0.0, 1.6625061834416208E9, 0.0, 2022-09-06 19:16:23.441
116.0, -16329.960981602788, -7202.089691411221, -30694.108390105772, -25893.043088083636, -18681.140980856537, -7752.255529434148, 51599.046778565265, -7175.155839342576, -15240.916936506861, -4279.375586435269, -20178.439638428645, -14165.820379951047, 10280.304882562743, -12914.32385615395, -8554.683155379673, -15558.781094405782, 0.2934375, 0.9284375, 0.0400625, 192.0, 4.5, 8.0, 14.0, 112.0, 0.5, 32.0, 0.0, 0.0, 0.0, 1.6625061834416273E9, 0.0, 2022-09-06 19:16:23.441
118.0, -16417.423357656404, -7291.943704121555, -30743.930428496653, -26005.450010949375, -18753.292411958268, -7843.540053789623, 52602.997732519834, -7234.790293549335, -15104.392481373845, -4139.118389978217, -20029.711130823034, -14019.215288068688, 10435.202471638022, -12768.255206138518, -8392.968284245526, -15398.51908666123, 0.2934375, 0.9284375, 0.0400625, 192.0, 0.0, 0.0, 0.0, 0.0, 0.0, 0.0, 0.0, 0.0, 0.0, 1.6625061834416344E9, 0.0, 2022-09-06 19:16:23.441
120.0, -16346.769493433178, -7208.102310669698, -30727.814820744377, -25911.349166792534, -18711.56170506021, -7765.085430751495, 51831.95195578956, -7153.139371054098, -15237.318305649556, -4269.362004919291, -20172.114094747794, -14159.539539759106, 10275.163981338022, -12929.388931916827, -8561.589844416361, -15547.918146600503, 0.2934375, 0.9284375, 0.0400625, 192.0, 0.0, 0.0, 0.0, 0.0, 0.0, 0.0, 0.0, 0.0, 0.0, 1.6625061834416604E9, 0.0, 2022-09-06 19:16:23.441
122.0, -16403.051185971643, -7279.9184656046, -30724.842038731822, -25977.979717013804, -18731.61121983662, -7806.92789637183, 52386.94577061484, -7176.295778309796, -15097.552847570521, -4118.465378101513, -20023.653808075644, -14003.837287883436, 10422.461977298497, -12750.373810574272, -8416.772892090428, -15393.28877845869, 0.2934375, 0.9284375, 0.0400625, 192.0, 0.0, 0.0, 0.0, 0.0, 0.0, 0.0, 0.0, 0.0, 0.0, 1.6625061834416668E9, 0.0, 2022-09-06 19:16:23.441
124.0, -16373.971566435286, -7237.494854628427, -30732.41928010217, -25931.17516412439, -18739.076702484694, -7790.342901985991, 52070.378013894326, -7186.219952847952, -15243.822663286051, -4281.946037047629, -20179.356059951315, -14163.741667716702, 10271.118315591611, -12914.83794627642, -8545.138960497256, -15529.857937080615, 0.2934375, 0.9284375, 0.0400625, 192.0, 0.0, 0.0, 0.0, 0.0, 0.0, 0.0, 0.0, 0.0, 0.0, 1.6625061834416733E9, 0.0, 2022-09-06 19:16:23.441
126.0, -16395.29513064565, -7274.330529490773, -30699.27164307495, -25960.14302493847, -18703.693891011942, -7786.453698450769, 52167.45164006372, -7163.823504903735, -15098.268103393091, -4124.679163060089, -20027.96769475552, -14006.877125129358, 10418.908049930102, -12768.612834049802, -8417.354037446266, -15401.514220418243, 0.28871875, 0.9222187500000001, 0.04303125, 192.0, 4.0, 112.0, 14.0, 80.0, 0.5, 56.0, 0.0, 0.0, 0.0, 1.66250618344168E9, 0.0, 2022-09-06 19:16:23.441
128.0, -16395.228075412284, -7243.060438997798, -30753.34051291234, -25947.626048043498, -18760.847301584163, -7826.105693114483, 52295.92946719283, -7238.411276151094, -15258.887739048927, -4284.695301615632, -20186.307452476914, -14165.552159017583, 10271.922978392004, -12919.17418470075, -8537.338201682354, -15523.286524210755, 0.28871875, 0.9222187500000001, 0.04303125, 192.0, 0.0, 0.0, 0.0, 0.0, 0.0, 0.0, 0.0, 0.0, 0.0, 1.6625061834416862E9, 0.0, 2022-09-06 19:16:23.441
130.0, -16372.541054790147, -7231.661049325592, -30674.572965451836, -25920.535733763663, -18693.56855077369, -7790.521715941634, 51867.73709866251, -7166.75158342738, -15097.172867914782, -4108.496500074447, -20030.180517456596, -13994.807183123492, 10408.894468414124, -12727.195051574117, -8439.839892368305, -15423.62009568454, 0.28871875, 0.9222187500000001, 0.04303125, 192.0, 0.0, 0.0, 0.0, 0.0, 0.0, 0.0, 0.0, 0.0, 0.0, 1.6625061834416928E9, 0.0, 2022-09-06 19:16:23.441
