%OpenBCI Raw EEG Data
%Number of channels = 16
%Sample Rate = 125 Hz
%Board = OpenBCI_GUI$BoardCytonSerialDaisy
Sample Index, EXG Channel 0, EXG Channel 1, EXG Channel 2, EXG Channel 3, EXG Channel 4, EXG Channel 5, EXG Channel 6, EXG Channel 7, EXG Channel 8, EXG Channel 9, EXG Channel 10, EXG Channel 11, EXG Channel 12, EXG Channel 13, EXG Channel 14, EXG Channel 15, Accel Channel 0, Accel Channel 1, Accel Channel 2, Other, Other, Other, Other, Other, Other, Other, Analog Channel 0, Analog Channel 1, Analog Channel 2, Timestamp, Other, Timestamp (Formatted)
44.0, -18661.627907947055, -25394.6438902192, -32840.836982826826, -25923.396757053943, -10482.565818138817, -7672.459801728703, -20517.895581471395, -4006.2819726803273, -24070.61595566463, 3253.229350236577, -19963.32644979077, -23922.289779459214, -5291.730796305036, -1989.3723117556945, -12442.27736500232, -19749.9119937315, 0.0, 0.0, 0.0, 192.0, 0.0, 0.0, 0.0, 0.0, 0.0, 0.0, 0.0, 0.0, 0.0, 1.673044857712239E9, 0.0, 2023-01-06 17:40:57.712
46.0, -18632.25771573278, -25362.323267736825, -32813.25493016898, -25912.869085415496, -10473.26749244541, -7631.489054142125, -20511.167706390348, -3977.69409152199, -24045.13496698558, 3266.483934698574, -19942.695789658523, -23925.419023682956, -5269.267293127453, -1980.9680558404991, -12415.209402466942, -19705.99081587682, -0.376, 0.8320000000000001, 0.198, 192.0, 122.0, 32.0, 13.0, 0.0, 3.0, 24.0, 0.0, 0.0, 0.0, 1.6730448577122464E9, 0.0, 2023-01-06 17:40:57.712
48.0, -18596.7407937933, -25331.924895277607, -32780.42021756413, -25894.473599728775, -10401.63015146615, -7627.488091884625, -20404.37107138289, -3967.099364650174, -24028.572324344197, 3281.817231394915, -19924.881449327644, -23930.962256307874, -5240.768818946936, -1962.6843288760579, -12349.607032490616, -19687.058888323176, -0.376, 0.8320000000000001, 0.198, 192.0, 0.0, 0.0, 0.0, 0.0, 0.0, 0.0, 0.0, 0.0, 0.0, 1.673044857712252E9, 0.0, 2023-01-06 17:40:57.712
50.0, -18566.610642267544, -25302.755868763434, -32759.744853942975, -25884.236500768246, -10419.936230175046, -7593.178164145728, -20421.716025080208, -3959.097440135174, -23977.07390511917, 3303.587830494384, -19883.977756974433, -23921.105137003084, -5207.732940641992, -1946.7698868238792, -12318.851032120114, -19669.736286370313, -0.376, 0.8320000000000001, 0.198, 192.0, 0.0, 0.0, 0.0, 0.0, 0.0, 0.0, 0.0, 0.0, 0.0, 1.6730448577122579E9, 0.0, 2023-01-06 17:40:57.712
52.0, -18516.18510677637, -25247.81528089229, -32711.95682429753, -25837.20843043428, -10346.555453128274, -7585.489164053102, -20395.631539300866, -3918.551375693247, -23943.076901802648, 3333.4274093422187, -19847.969096656932, -23909.526933375233, -5152.21120741501, -1923.1217411901644, -12306.937552325435, -19654.0900652516, -0.376, 0.8320000000000001, 0.198, 192.0, 0.0, 0.0, 0.0, 0.0, 0.0, 0.0, 0.0, 0.0, 0.0, 1.6730448577122633E9, 0.0, 2023-01-06 17:40:57.712
54.0, -18511.871220096495, -25243.322580256772, -32693.13665546616, -25826.457241351276, -10333.077351221724, -7530.481520948591, -20336.488823472122, -3882.3862531645605, -23911.382128165023, 3360.3389096664087, -19815.11203230763, -23891.757296533266, -5127.467826302985, -1866.2141998069526, -12305.395281958019, -19629.257277161752, -0.376, 0.8320000000000001, 0.198, 192.0, 0.0, 0.0, 0.0, 0.0, 0.0, 0.0, 0.0, 0.0, 0.0, 1.6730448577122693E9, 0.0, 2023-01-06 17:40:57.712
56.0, -18525.215211536313, -25255.683094940556, -32688.93452750856, -25819.036462192114, -10350.33289794122, -7572.636910991301, -20350.41396026778, -3925.614526941124, -23894.908892501462, 3359.1766189547325, -19801.924503078997, -23891.086744199605, -5095.4824799874405, -1849.65155716557, -12272.739383308815, -19622.998788714267, -0.374, 0.8300000000000001, 0.186, 192.0, 122.0, 40.0, 12.5, 120.0, 2.5, 104.0, 0.0, 0.0, 0.0, 1.6730448577122753E9, 0.0, 2023-01-06 17:40:57.712
58.0, -18524.030569080183, -25256.86773739669, -32680.731437293463, -25807.994700431194, -10343.627374604628, -7558.577663728913, -20356.873614415363, -3908.716608132912, -23904.430735639424, 3352.582854340417, -19807.668901404013, -23903.335500161113, -5106.412483026085, -1845.2259117634192, -12281.791839813213, -19636.096910965076, -0.374, 0.8300000000000001, 0.186, 192.0, 0.0, 0.0, 0.0, 0.0, 0.0, 0.0, 0.0, 0.0, 0.0, 1.6730448577122808E9, 0.0, 2023-01-06 17:40:57.712
60.0, -18505.433917693368, -25244.66368492409, -32655.138689892137, -25764.565260954532, -10323.980191228413, -7544.630175188801, -20328.755119890586, -3824.8081594476894, -23899.222779181335, 3357.2767206760313, -19799.264645488816, -23891.131447688516, -5103.886735902636, -1844.0636210517432, -12268.00081348429, -19609.83361123009, -0.374, 0.8300000000000001, 0.186, 192.0, 0.0, 0.0, 0.0, 0.0, 0.0, 0.0, 0.0, 0.0, 0.0, 1.6730448577122867E9, 0.0, 2023-01-06 17:40:57.712
62.0, -18488.647757607432, -25237.71229239849, -32634.150401848605, -25735.820917585006, -10293.961798424936, -7536.6953059071675, -20325.245896011103, -3860.816819765189, -23887.30929938666, 3371.8947615498023, -19773.515435876303, -23871.01487767874, -5113.25211682941, -1822.0471527632658, -12239.055304414667, -19582.475076016795, -0.374, 0.8300000000000001, 0.186, 192.0, 0.0, 0.0, 0.0, 0.0, 0.0, 0.0, 0.0, 0.0, 0.0, 1.6730448577122924E9, 0.0, 2023-01-06 17:40:57.712
64.0, -18450.56038505559, -25215.539361898824, -32596.554767674777, -25702.717984046696, -10233.768550606794, -7510.387302683271, -20287.180875203714, -3827.04333389322, -23856.01685714923, 3388.680921635738, -19741.932420960955, -23838.269572051715, -5066.067584284257, -1810.200728201953, -12218.268182071231, -19560.48095947277, -0.374, 0.8300000000000001, 0.186, 192.0, 0.0, 0.0, 0.0, 0.0, 0.0, 0.0, 0.0, 0.0, 0.0, 1.673044857712298E9, 0.0, 2023-01-06 17:40:57.712
66.0, -18461.535091583144, -25230.962065572985, -32603.17088403355, -25708.17180969379, -10301.673150262017, -7488.43788962816, -20296.926235786228, -3796.8014236451895, -23827.80895564663, 3401.5108229530842, -19711.13171710154, -23811.17925777188, -5050.71193584346, -1794.465100105417, -12168.490847169263, -19519.845488053023, -0.364, 0.862, 0.192, 192.0, 122.0, 80.0, 13.0, 120.0, 3.0, 0.0, 0.0, 0.0, 0.0, 1.6730448577123036E9, 0.0, 2023-01-06 17:40:57.712
68.0, -18477.203664446315, -25248.17290880357, -32645.639198498633, -25734.435109428778, -10298.454499060452, -7530.637983159779, -20341.36150376338, -3876.2618751838063, -23867.885633454996, 3372.0959272499, -19751.744836776834, -23827.116051568515, -5088.173459550555, -1818.0238387613106, -12213.015522124235, -19555.429465225872, -0.364, 0.862, 0.192, 192.0, 0.0, 0.0, 0.0, 0.0, 0.0, 0.0, 0.0, 0.0, 0.0, 1.6730448577123094E9, 0.0, 2023-01-06 17:40:57.712
70.0, -18480.668184836886, -25255.37017051818, -32669.890841232642, -25762.307734764545, -10263.630481199085, -7564.6349864763015, -20324.73180588863, -3884.286151443261, -23886.05760169716, 3353.3651653963525, -19782.29967144724, -23848.90900241244, -5103.551459735806, -1832.4630656794388, -12256.556720323173, -19580.709288204824, -0.364, 0.862, 0.192, 192.0, 0.0, 0.0, 0.0, 0.0, 0.0, 0.0, 0.0, 0.0, 0.0, 1.673044857712315E9, 0.0, 2023-01-06 17:40:57.712
72.0, -18536.94987737535, -25310.646034556157, -32733.95094084155, -25839.3989013909, -10410.973180648469, -7618.770911547054, -20390.98237645416, -3910.638858156068, -23889.656232554466, 3353.409868885263, -19800.516343178315, -23840.348284286058, -5118.370666309675, -1863.5766939612263, -12268.514903606761, -19595.103811634042, -0.364, 0.862, 0.192, 192.0, 0.0, 0.0, 0.0, 0.0, 0.0, 0.0, 0.0, 0.0, 0.0, 1.6730448577123208E9, 0.0, 2023-01-06 17:40:57.712
74.0, -18552.685505471887, -25323.118307962217, -32733.99564433046, -25850.26184919618, -10373.042270307813, -7596.620332791846, -20393.23990264415, -3912.292887245761, -23946.340256493124, 3300.771510693015, -19862.140102641595, -23916.903009045483, -5162.11303020871, -1914.1586916635863, -12330.809215403702, -19653.21834721784, -0.364, 0.862, 0.192, 192.0, 0.0, 0.0, 0.0, 0.0, 0.0, 0.0, 0.0, 0.0, 0.0, 1.6730448577123263E9, 0.0, 2023-01-06 17:40:57.712
76.0, -18597.992491482793, -25362.30091599237, -32760.147185343172, -25868.836148838538, -10381.200657034, -7647.761124105588, -20392.211722399203, -3928.6320124425906, -23955.92915486445, 3293.9765803786017, -19862.810654975256, -23909.169305463947, -5164.348204654241, -1940.8913780321334, -12328.43993049144, -19660.527367654726, -0.356, 0.857, 0.187, 192.0, 122.5, 16.0, 13.0, 80.0, 2.5, 88.0, 0.0, 0.0, 0.0, 1.673044857712336E9, 0.0, 2023-01-06 17:40:57.712
78.0, -18649.93794559693, -25414.26872185096, -32806.41529636566, -25907.16939057939, -10442.01975369689, -7704.154575366328, -20435.819975831506, -3965.0877076491965, -23991.55783552621, 3266.0592515539233, -19903.334367672727, -23924.569657393655, -5198.41226320413, -1933.7835232953457, -12365.476771053884, -19699.575865218147, -0.356, 0.857, 0.187, 192.0, 0.0, 0.0, 0.0, 0.0, 0.0, 0.0, 0.0, 0.0, 0.0, 1.6730448577123415E9, 0.0, 2023-01-06 17:40:57.712
80.0, -18709.527696314777, -25470.058676011406, -32851.56582016538, -25931.80101296914, -10482.387004183174, -7744.700639808255, -20475.85195015096, -3994.346141141193, -24052.108711255638, 3230.1176464697896, -19959.258432299906, -23932.951561564394, -5271.748336761992, -1977.8611633612113, -12411.320198931719, -19748.034447197253, -0.356, 0.857, 0.187, 192.0, 0.0, 0.0, 0.0, 0.0, 0.0, 0.0, 0.0, 0.0, 0.0, 1.6730448577123475E9, 0.0, 2023-01-06 17:40:57.712
82.0, -18792.542075221787, -25557.58810729839, -32916.5199895525, -25995.034098033204, -10532.186690829598, -7794.902657854875, -20543.957715506283, -4064.3965082641257, -24107.161057849058, 3189.325712838854, -20007.739366023467, -23952.151710051505, -5300.895011531712, -2028.0855331522864, -12460.918719878046, -19785.00423252633, -0.356, 0.857, 0.187, 192.0, 0.0, 0.0, 0.0, 0.0, 0.0, 0.0, 0.0, 0.0, 0.0, 1.6730448577123532E9, 0.0, 2023-01-06 17:40:57.712
84.0, -18818.447747045488, -25583.06909597744, -32941.75510904254, -26012.33434824161, -10548.525816026427, -7791.30402699757, -20566.108294261492, -4090.7939184658435, -24178.820750572773, 3134.4074767121647, -20075.666317423143, -23986.908672679507, -5375.818058945902, -2104.662609656168, -12524.062397964288, -19838.313143052237, -0.356, 0.857, 0.187, 192.0, 0.0, 0.0, 0.0, 0.0, 0.0, 0.0, 0.0, 0.0, 0.0, 1.673044857712359E9, 0.0, 2023-01-06 17:40:57.712
86.0, -18866.615756346673, -25630.566552944965, -32973.36047570234, -26040.028159621736, -10589.317749657363, -7847.943347447318, -20605.60382671402, -4129.931823007086, -24200.658404905607, 3120.7952643388826, -20084.45055299408, -23983.757076711307, -5416.654696065748, -2114.005638838487, -12525.62702007616, -19835.943858139977, -0.353, 0.8585, 0.1915, 192.0, 122.5, 8.0, 13.0, 112.0, 3.0, 16.0, 0.0, 0.0, 0.0, 1.673044857712365E9, 0.0, 2023-01-06 17:40:57.712
88.0, -18887.760506601397, -25644.22346880716, -32970.030065778505, -26033.300284540688, -10613.904668558202, -7878.3193681620805, -20600.194704555834, -4112.989200709963, -24263.913841714126, 3084.6524935546513, -20129.08698667133, -24010.80268750223, -5465.873237356333, -2132.4905315030255, -12557.880587325168, -19860.21785261844, -0.353, 0.8585, 0.1915, 192.0, 0.0, 0.0, 0.0, 0.0, 0.0, 0.0, 0.0, 0.0, 0.0, 1.6730448577123704E9, 0.0, 2023-01-06 17:40:57.712
90.0, -18914.716710414497, -25676.07470465597, -32981.87649033982, -26053.662723739475, -10648.77338990848, -7896.513688148701, -20604.21801855779, -4119.046523457351, -24277.36959187622, 3076.5164585729194, -20126.42712908115, -24009.685100279465, -5457.737202374602, -2142.414706041182, -12547.285860453352, -19842.895250665577, -0.353, 0.8585, 0.1915, 192.0, 0.0, 0.0, 0.0, 0.0, 0.0, 0.0, 0.0, 0.0, 0.0, 1.6730448577123764E9, 0.0, 2023-01-06 17:40:57.712
92.0, -18861.407799888588, -25616.574360915944, -32933.46261184962, -26003.706574881864, -10588.446031623607, -7853.508931816689, -20565.97418379476, -4132.34581140826, -24282.488141356487, 3064.2229991225004, -20130.182222149637, -24024.70547255343, -5477.205571795174, -2157.9044649487096, -12549.945718043533, -19845.935087911497, -0.353, 0.8585, 0.1915, 192.0, 0.0, 0.0, 0.0, 0.0, 0.0, 0.0, 0.0, 0.0, 0.0, 1.673044857712382E9, 0.0, 2023-01-06 17:40:57.712
94.0, -18813.284494076313, -25572.943755739183, -32903.958309168615, -25970.84951053256, -10539.026324632923, -7826.440969281312, -20530.412558366366, -4124.05331421534, -24210.113192810204, 3130.406514454665, -20050.230032233005, -23977.632698730555, -5432.971469518122, -2083.897839057188, -12497.083842406731, -19788.759325594823, -0.353, 0.8585, 0.1915, 192.0, 0.0, 0.0, 0.0, 0.0, 0.0, 0.0, 0.0, 0.0, 0.0, 1.6730448577123876E9, 0.0, 2023-01-06 17:40:57.712
96.0, -18797.81708691324, -25559.599764299368, -32908.652175504234, -25970.782455299195, -10538.266365321442, -7812.918163885852, -20530.63607581092, -4105.47901457298, -24187.672041377074, 3111.586345623296, -20037.02015125992, -23997.123419895583, -5383.3953003162505, -2097.420644452649, -12505.353987855195, -19797.96824431041, -0.3595, 0.90025, 0.18075000000000002, 192.0, 122.0, 72.0, 14.5, 56.0, 2.5, 40.0, 0.0, 0.0, 0.0, 1.6730448577123957E9, 0.0, 2023-01-06 17:40:57.712
98.0, -18791.80446765476, -25547.038083915482, -32899.4656085331, -25967.36263839753, -10502.615332915228, -7797.182535789316, -20512.218238379748, -4160.0619745328395, -24158.34655265171, 3142.744677393994, -20011.896790492152, -23960.488910733333, -5358.607215715315, -2075.605341864269, -12498.268484862863, -19778.142246978554, -0.3595, 0.90025, 0.18075000000000002, 192.0, 0.0, 0.0, 0.0, 0.0, 0.0, 0.0, 0.0, 0.0, 0.0, 1.6730448577124035E9, 0.0, 2023-01-06 17:40:57.712
100.0, -18837.87141297715, -25588.701735580176, -32933.23909440507, -26020.44803147889, -10584.355662388285, -7857.5545975631, -20557.055837757092, -4294.552420920422, -24184.74396285343, 3126.8972905751816, -20045.223241475018, -23953.73868390783, -5382.4565270491275, -2104.573202678347, -12490.28891209232, -19798.325872221696, -0.3595, 0.90025, 0.18075000000000002, 192.0, 0.0, 0.0, 0.0, 0.0, 0.0, 0.0, 0.0, 0.0, 0.0, 1.6730448577124104E9, 0.0, 2023-01-06 17:40:57.712
102.0, -18914.716710414497, -25676.07470465597, -33021.5955402369, -26114.97355878038, -10651.813227154402, -7959.009165645739, -20630.213097359312, -4428.752294630086, -24225.044158106346, 3089.99456047947, -20104.634178237222, -23967.21678581438, -5440.347545188373, -2194.6730845776897, -12546.123569741676, -19854.048771148777, -0.3595, 0.90025, 0.18075000000000002, 192.0, 0.0, 0.0, 0.0, 0.0, 0.0, 0.0, 0.0, 0.0, 0.0, 1.673044857712416E9, 0.0, 2023-01-06 17:40:57.712
104.0, -18941.762321205417, -25702.583873579966, -33052.21743014067, -26149.417596986008, -10656.216520812097, -7963.211293603336, -20627.55323976913, -4435.010783077572, -24298.179065964112, 3010.601164174219, -20187.313280977403, -24025.66659756501, -5519.696238004713, -2264.7234517006223, -12620.085492144286, -19925.864926083676, -0.3595, 0.90025, 0.18075000000000002, 192.0, 0.0, 0.0, 0.0, 0.0, 0.0, 0.0, 0.0, 0.0, 0.0, 1.673044857712422E9, 0.0, 2023-01-06 17:40:57.712
106.0, -18873.500093638908, -25630.343035500413, -32974.18749024719, -26048.812395192672, -10491.618274643217, -7857.3087283740915, -20539.621477081953, -4374.392852114779, -24285.170350691125, 3006.287277494345, -20166.28028944496, -24077.56734819023, -5522.132578150342, -2231.3299454843936, -12595.006834865431, -19892.44906812299, -0.35575, 0.943125, 0.175375, 192.0, 122.5, 0.0, 15.0, 104.0, 2.5, 40.0, 0.0, 0.0, 0.0, 1.6730448577124276E9, 0.0, 2023-01-06 17:40:57.712
108.0, -18744.28465894278, -25496.970176335595, -32837.81949732536, -25915.79716393914, -10467.143114464656, -7729.233232645182, -20449.208670760236, -4272.133621231749, -24171.48937839143, 3096.5436216048747, -20033.577982613802, -24042.922144284505, -5401.679027280692, -2099.2981909868945, -12465.590234469204, -19767.14518870654, -0.35575, 0.943125, 0.175375, 192.0, 0.0, 0.0, 0.0, 0.0, 0.0, 0.0, 0.0, 0.0, 0.0, 1.673044857712435E9, 0.0, 2023-01-06 17:40:57.712
110.0, -18703.00098693383, -25457.385236905247, -32786.76811298944, -25859.202546978304, -10429.882756457659, -7705.294514333548, -20408.349681895936, -4256.397993135213, -24108.85979042766, 3179.58035225634, -19953.71519967499, -23956.59970719811, -5323.693790876126, -2012.2157945890183, -12398.579704592194, -19674.676021894935, -0.35575, 0.943125, 0.175375, 192.0, 0.0, 0.0, 0.0, 0.0, 0.0, 0.0, 0.0, 0.0, 0.0, 1.673044857712441E9, 0.0, 2023-01-06 17:40:57.712
112.0, -18658.096332323115, -25414.51459103997, -32720.696356379554, -25804.887807951905, -10394.656407196095, -7672.526856962068, -20364.629669741353, -4239.433019093635, -24062.971659060917, 3217.7571317860047, -19904.697824084502, -23923.899105059994, -5250.156551618165, -1953.0283752713651, -12341.87332890908, -19624.183431170397, -0.35575, 0.943125, 0.175375, 192.0, 0.0, 0.0, 0.0, 0.0, 0.0, 0.0, 0.0, 0.0, 0.0, 1.6730448577124467E9, 0.0, 2023-01-06 17:40:57.712
114.0, -18620.232477215824, -25383.110390080263, -32686.073504218282, -25772.90246163636, -10302.678978762506, -7593.334626356916, -20300.390756176803, -4187.509916723957, -24006.42174558899, 3273.256513268532, -19850.83011994721, -23902.955520505373, -5194.143080013166, -1885.3919965496061, -12281.52361887975, -19578.78703818167, -0.35575, 0.943125, 0.175375, 192.0, 0.0, 0.0, 0.0, 0.0, 0.0, 0.0, 0.0, 0.0, 0.0, 1.6730448577124524E9, 0.0, 2023-01-06 17:40:57.712
116.0, -18586.123715177026, -25358.79169211289, -32672.863623245197, -25758.798510885063, -10298.409795571542, -7584.550390785979, -20292.21001770616, -4184.112451566751, -23979.018506886783, 3283.9629988626243, -19834.222773816917, -23924.815526582664, -5270.787211750414, -1856.9382258580001, -12269.900711762992, -19570.427485755383, -0.34487500000000004, 0.9665625, 0.19568750000000001, 192.0, 122.5, 72.0, 15.0, 120.0, 3.0, 96.0, 0.0, 0.0, 0.0, 1.673044857712459E9, 0.0, 2023-01-06 17:40:57.712
118.0, -18570.29868010267, -25351.996761798473, -32669.04147494334, -25755.512804450133, -10281.757745952338, -7579.2530273500715, -20283.805761790965, -4168.175657770116, -23937.734834877832, 3314.4954817885737, -19807.02070081481, -23899.669814070443, -5123.086884389745, -1811.3183154247185, -12231.209842110855, -19562.604375196028, -0.34487500000000004, 0.9665625, 0.19568750000000001, 192.0, 0.0, 0.0, 0.0, 0.0, 0.0, 0.0, 0.0, 0.0, 0.0, 1.673044857712465E9, 0.0, 2023-01-06 17:40:57.712
120.0, -18538.670961698408, -25335.054139501353, -32663.18531789605, -25736.446766429755, -10265.84330390016, -7538.818721630421, -20255.642563777277, -4150.741297094977, -23934.53853542072, 3328.778246495515, -19790.48040991788, -23923.943808548906, -5117.7895209538365, -1804.8139577882241, -12224.034932140701, -19554.244822769742, -0.34487500000000004, 0.9665625, 0.19568750000000001, 192.0, 0.0, 0.0, 0.0, 0.0, 0.0, 0.0, 0.0, 0.0, 0.0, 1.6730448577124708E9, 0.0, 2023-01-06 17:40:57.712
122.0, -18493.118106498492, -25303.180551908084, -32641.325311818757, -25702.025079968582, -10252.387553738065, -7498.764395566511, -20215.208258057628, -4091.1068428882177, -23899.78157279272, 3353.029889229523, -19758.226842668875, -23907.87290428554, -5104.222012069466, -1754.9919193973446, -12203.471327241818, -19521.320703187073, -0.34487500000000004, 0.9665625, 0.19568750000000001, 192.0, 0.0, 0.0, 0.0, 0.0, 0.0, 0.0, 0.0, 0.0, 0.0, 1.6730448577124765E9, 0.0, 2023-01-06 17:40:57.712
124.0, -18481.40579240391, -25304.879284486688, -32654.266971858382, -25717.112507475915, -10237.233070997367, -7456.005508423509, -20197.930359593673, -4080.914447416598, -23872.400685834968, 3367.737337081115, -19734.42223482397, -23916.768898578754, -5083.300779259298, -1729.7791516517582, -12187.065146811623, -19490.631758049938, -0.34487500000000004, 0.9665625, 0.19568750000000001, 192.0, 0.0, 0.0, 0.0, 0.0, 0.0, 0.0, 0.0, 0.0, 0.0, 1.6730448577124822E9, 0.0, 2023-01-06 17:40:57.712
126.0, -18445.46418731978, -25279.19713010754, -32617.185427807028, -25700.79573402354, -10202.319646158177, -7394.9405425716095, -20172.002336025518, -4022.3081734547823, -23854.541642015178, 3369.771345826548, -19710.259999067785, -23942.92043959146, -5064.771183105849, -1720.4137707249847, -12160.824198821092, -19471.409257818374, -0.30643750000000003, 0.94228125, 0.21484375, 192.0, 123.5, 80.0, 14.0, 88.0, 3.5, 40.0, 0.0, 0.0, 0.0, 1.673044857712488E9, 0.0, 2023-01-06 17:40:57.712
128.0, -18409.611989213467, -25242.540269200836, -32596.040677552308, -25684.456608826713, -10134.14682556949, -7379.875466808733, -20157.674867829664, -4014.3733041731484, -23833.888630138474, 3350.571197339439, -19686.723612156347, -23973.22940507286, -5049.147313731589, -1708.500290930306, -12130.850509506525, -19449.348086040984, -0.30643750000000003, 0.94228125, 0.21484375, 192.0, 0.0, 0.0, 0.0, 0.0, 0.0, 0.0, 0.0, 0.0, 0.0, 1.6730448577124937E9, 0.0, 2023-01-06 17:40:57.712
130.0, -18383.6392621564, -25206.106925738684, -32578.5392616438, -25668.36335281889, -10165.036936406725, -7336.647193032169, -20152.69042881613, -4002.4374726340143, -23791.08503950656, 3438.2570908376088, -19654.201823973875, -23909.43752639741, -5007.483662066897, -1629.2410050917872, -12100.832116703048, -19411.26071348914, -0.30643750000000003, 0.94228125, 0.21484375, 192.0, 0.0, 0.0, 0.0, 0.0, 0.0, 0.0, 0.0, 0.0, 0.0, 1.6730448577124991E9, 0.0, 2023-01-06 17:40:57.712
132.0, -18375.860855085954, -25189.32076565275, -32583.30018321278, -25667.670448740777, -10157.504398525287, -7321.7385794804795, -20155.32793466186, -3975.749489754378, -23798.617577388, 3454.082125911966, -19663.36603920055, -23916.098346245093, -4984.729586211394, -1618.2886503086866, -12097.993445157224, -19396.50856214864, -0.30643750000000003, 0.94228125, 0.21484375, 192.0, 0.0, 0.0, 0.0, 0.0, 0.0, 0.0, 0.0, 0.0, 0.0, 1.673044857712505E9, 0.0, 2023-01-06 17:40:57.712
134.0, -18365.467293914237, -25152.753311723867, -32580.081532011216, -25667.245765596126, -10138.326601782634, -7286.266361029907, -20143.950896734106, -3970.966216440942, -23814.621426417998, 3461.6817190267707, -19670.630356148526, -23916.83595381212, -5012.915135969536, -1615.0699991071224, -12092.740785210228, -19392.105268490945, -0.30643750000000003, 0.94228125, 0.21484375, 192.0, 0.0, 0.0, 0.0, 0.0, 0.0, 0.0, 0.0, 0.0, 0.0, 1.6730448577125106E9, 0.0, 2023-01-06 17:40:57.712
136.0, -18348.927003017307, -25120.991482852874, -32560.85903177965, -25654.237050323136, -10119.461729462353, -7274.464639957505, -20127.65647502619, -3903.3745412080934, -23810.687519393865, 3469.5271813305835, -19650.044399505186, -23916.63478811202, -4962.511952222819, -1584.537516181173, -12059.973127838746, -19380.281195674088, -0.28621875, 0.875140625, 0.209421875, 192.0, 123.5, 88.0, 12.5, 32.0, 3.0, 48.0, 0.0, 0.0, 0.0, 1.6730448577125163E9, 0.0, 2023-01-06 17:40:57.712
138.0, -18345.686000071288, -25117.526962462303, -32546.464508350437, -25655.555803246, -10094.003092527759, -7252.068192013287, -20122.51557380147, -3943.3841637830933, -23742.157070893893, 3423.840215663936, -19623.110547436543, -23906.95648276287, -4891.835736255138, -1610.7784641717035, -12038.314287461555, -19382.225797441697, -0.28621875, 0.875140625, 0.209421875, 192.0, 0.0, 0.0, 0.0, 0.0, 0.0, 0.0, 0.0, 0.0, 0.0, 1.673044857712522E9, 0.0, 2023-01-06 17:40:57.712
140.0, -18354.269069942125, -25109.83796236968, -32552.790052031287, -25632.68996866822, -10093.399595427465, -7289.037977342365, -20136.28424838594, -3946.424001029015, -23823.51742071121, 3470.063623197511, -19633.74997779727, -23885.43175285241, -4923.776379081772, -1567.796059584148, -12042.136435763412, -19400.665986617325, -0.28621875, 0.875140625, 0.209421875, 192.0, 0.0, 0.0, 0.0, 0.0, 0.0, 0.0, 0.0, 0.0, 0.0, 1.673044857712529E9, 0.0, 2023-01-06 17:40:57.712
142.0, -18337.594668578466, -25087.39681093655, -32525.16329588453, -25624.442174964213, -10127.798930144183, -7294.067119844809, -20181.434772185657, -3947.3180708072273, -23780.222091701282, 3486.000416994145, -19610.25829437474, -23849.981886146295, -4852.764886947261, -1572.4228706863967, -12048.417275955353, -19396.64267261537, -0.28621875, 0.875140625, 0.209421875, 192.0, 0.0, 0.0, 0.0, 0.0, 0.0, 0.0, 0.0, 0.0, 0.0, 1.673044857712535E9, 0.0, 2023-01-06 17:40:57.712
144.0, -18314.10298515594, -25081.11597074461, -32538.149659413062, -25623.50340169709, -10129.676476678429, -7329.651097017658, -20152.13163520475, -3993.9214579965424, -23709.41176526687, 3487.4979838726504, -19579.345831793053, -23822.019853832706, -4803.94867705687, -1557.4024984124303, -12049.28899398911, -19397.35792843794, -0.28621875, 0.875140625, 0.209421875, 192.0, 0.0, 0.0, 0.0, 0.0, 0.0, 0.0, 0.0, 0.0, 0.0, 1.6730448577125404E9, 0.0, 2023-01-06 17:40:57.712
146.0, -18320.00384569214, -25092.940043561466, -32536.227409389903, -25643.93289612924, -10122.769787641739, -7338.904719222155, -20226.071205862907, -3995.620190575146, -23614.66272052082, 3494.73994907617, -19576.14953233594, -23812.766231628208, -4757.837028245572, -1610.8008159161589, -12070.076116332546, -19411.84185884498, -0.28621875, 0.875140625, 0.209421875, 192.0, 0.0, 0.0, 0.0, 0.0, 0.0, 0.0, 0.0, 0.0, 0.0, 1.673044857712546E9, 0.0, 2023-01-06 17:40:57.712
148.0, -18324.898877727854, -25093.83411333968, -32530.371252342615, -25615.814401604464, -10133.05159009118, -7328.600565028259, -20159.46300738609, -3996.491908608903, -23712.74217519071, 3400.996732830612, -19606.257332117242, -23839.029531363194, -4713.580574224064, -1651.4809908248176, -12082.011947871679, -19424.291780506584, -0.3, 0.8140000000000001, 0.17400000000000002, 192.0, 123.0, 80.0, 12.5, 56.0, 2.5, 56.0, 0.0, 0.0, 0.0, 1.6730448577125516E9, 0.0, 2023-01-06 17:40:57.712
150.0, -18265.957327599208, -25050.784653518756, -32481.91267036351, -25548.602706027355, -10071.763106794728, -7312.73082646499, -20136.03837919693, -3961.8243529587216, -23633.840517263478, 3504.4629579142284, -19543.381874964463, -23801.925635567386, -4567.33311025299, -1579.4189667009077, -12018.778862807616, -19373.374506637396, -0.3, 0.8140000000000001, 0.17400000000000002, 192.0, 0.0, 0.0, 0.0, 0.0, 0.0, 0.0, 0.0, 0.0, 0.0, 1.6730448577125573E9, 0.0, 2023-01-06 17:40:57.712
152.0, -18307.598627519445, -25099.690270386967, -32532.11468841013, -25588.321755924437, -10132.403389501977, -7348.158341426652, -20210.71555742211, -4056.819266893777, -23626.889124737874, 3568.2995400785853, -19548.053389555622, -23740.100710404007, -4515.253545672124, -1602.4636152343292, -12022.399845409376, -19383.566902109018, -0.3, 0.8140000000000001, 0.17400000000000002, 192.0, 0.0, 0.0, 0.0, 0.0, 0.0, 0.0, 0.0, 0.0, 0.0, 1.6730448577125628E9, 0.0, 2023-01-06 17:40:57.712
154.0, -18361.220462467725, -25161.917526950543, -32618.526532474345, -25634.679273924743, -10196.39643387752, -7466.019089939487, -20251.552194541957, -4150.987166283985, -23695.68779417131, 3469.5495330750387, -19618.953122967854, -23762.94419323733, -4424.326649227935, -1675.8220405366471, -12071.707793677782, -19456.299478566587, -0.3, 0.8140000000000001, 0.17400000000000002, 192.0, 0.0, 0.0, 0.0, 0.0, 0.0, 0.0, 0.0, 0.0, 0.0, 1.6730448577125683E9, 0.0, 2023-01-06 17:40:57.712
156.0, -18425.660541732377, -25214.13120199814, -32671.65662904461, -25669.07860864146, -10252.186388037968, -7458.777124735967, -20302.44711666669, -4091.375063821681, -23800.249254733237, 3396.5040321950955, -19709.790612434223, -23774.097713720526, -4344.307404077936, -1728.303936517708, -12122.468605335785, -19481.221673634253, -0.3, 0.8140000000000001, 0.17400000000000002, 192.0, 0.0, 0.0, 0.0, 0.0, 0.0, 0.0, 0.0, 0.0, 0.0, 1.673044857712574E9, 0.0, 2023-01-06 17:40:57.712
158.0, -18430.17559411235, -25232.504335940404, -32682.430169872066, -25684.903643715817, -10300.019121172325, -7518.0315992869855, -20363.087399373937, -4203.625524476233, -23857.156796116447, 3421.873262151869, -19748.77205476428, -23762.251289159216, -4220.389332817714, -1780.5846667986712, -12162.74644884425, -19510.77067980417, -0.3, 0.928, 0.16, 192.0, 123.0, 80.0, 14.5, 0.0, 2.5, 0.0, 0.0, 0.0, 0.0, 1.6730448577125795E9, 0.0, 2023-01-06 17:40:57.712
160.0, -18464.776094529163, -25271.753999203924, -32694.366001411203, -25730.277684960092, -10340.453426891974, -7544.026678088508, -20413.535286609567, -4263.148219960716, -23805.814839102608, 3370.8442295604027, -19749.643772798037, -23755.32224837807, -4183.4195474886355, -1823.3882574305842, -12206.578219721107, -19541.906659830413, -0.3, 0.928, 0.16, 192.0, 0.0, 0.0, 0.0, 0.0, 0.0, 0.0, 0.0, 0.0, 0.0, 1.6730448577125852E9, 0.0, 2023-01-06 17:40:57.712
162.0, -18523.13649930197, -25321.754851550442, -32795.462941582555, -25808.2405696202, -10413.051892882811, -7569.775887701022, -20455.310696996534, -4284.94117080464, -23842.605810476045, 3282.6889494286715, -19801.67863388999, -23822.221019532804, -4110.016418697407, -1846.1870367749975, -12261.42940061443, -19583.011517883722, -0.3, 0.928, 0.16, 192.0, 0.0, 0.0, 0.0, 0.0, 0.0, 0.0, 0.0, 0.0, 0.0, 1.6730448577125912E9, 0.0, 2023-01-06 17:40:57.712
164.0, -18522.868278368507, -25312.76945027941, -32795.70881077156, -25828.513601841165, -10412.582506249251, -7588.9983879325855, -20476.142522828883, -4312.679685673676, -23901.703822815874, 3399.76738688557, -19856.97684967242, -23824.411490489423, -4034.065191038274, -1901.9322874465333, -12325.221279289875, -19640.36609415604, -0.3, 0.928, 0.16, 192.0, 0.0, 0.0, 0.0, 0.0, 0.0, 0.0, 0.0, 0.0, 0.0, 1.673044857712597E9, 0.0, 2023-01-06 17:40:57.712
0.0, -9099.886906133523, -12596.526753488393, -16249.584108541503, -12834.170500537217, -5076.997587322901, -3709.2272888692964, -9993.911980856894, -2237.3872682317815, -11976.019975664614, 1659.013528706256, -9960.093791496014, -11939.184300802268, -2006.0690648638088, -986.5612967683431, -6175.898751723618, -9846.56928140751, -0.378, 0.876, 0.168, 192.0, 122.0, 24.0, 13.5, 48.0, 2.5, 32.0, 0.0, 0.0, 0.0, 1.6730448582995744E9, 0.0, 2023-01-06 17:40:58.299
2.0, -18183.077059158928, -25178.658983547568, -32488.70760067792, -25638.032035593038, -10137.656049448973, -7390.336083213817, -19968.53440624886, -4449.986451862628, -23689.809285379564, 3568.031319145122, -19607.17375363991, -23624.81041250353, -4321.307459033425, -1539.5211028481845, -12101.457965547797, -19386.293814932564, -0.378, 0.876, 0.168, 192.0, 0.0, 0.0, 0.0, 0.0, 0.0, 0.0, 0.0, 0.0, 0.0, 1.6730448582995832E9, 0.0, 2023-01-06 17:40:58.299
4.0, -18228.40639691429, -25232.012597562385, -32538.30612162425, -25675.471207555678, -10171.027203920747, -7449.56820602038, -20021.86566851922, -4527.859929544918, -23704.963768120262, 3536.1353798073987, -19627.290323649686, -23627.134993926884, -4399.560916371455, -1553.9379780218576, -12125.173166414877, -19398.140239493878, -0.378, 0.876, 0.168, 192.0, 0.0, 0.0, 0.0, 0.0, 0.0, 0.0, 0.0, 0.0, 0.0, 1.673044858299589E9, 0.0, 2023-01-06 17:40:58.299
6.0, -18242.912679065787, -25230.202106261506, -32550.264304907836, -25686.535321061056, -10184.952340716403, -7471.137639419751, -20044.5303373969, -4583.515773238632, -23722.375777050947, 3505.5581933925387, -19644.076483735622, -23653.711218084245, -4487.693844758731, -1585.8339173595807, -12158.946652286846, -19424.26942876213, -0.378, 0.876, 0.168, 192.0, 0.0, 0.0, 0.0, 0.0, 0.0, 0.0, 0.0, 0.0, 0.0, 1.6730448582996004E9, 0.0, 2023-01-06 17:40:58.299
8.0, -18309.34206358696, -25260.555775231813, -32597.20296826398, -25745.94625782326, -10240.854053599127, -7508.845032315855, -20053.515738667935, -4592.2553053206575, -23757.93740247934, 3476.992663978656, -19680.666289408957, -23692.64795692539, -4562.482781706189, -1622.8484061775694, -12188.629768923494, -19443.670742949336, -0.438, 0.914, 0.202, 192.0, 121.0, 40.0, 14.0, 72.0, 3.0, 40.0, 0.0, 0.0, 0.0, 1.6730448582996058E9, 0.0, 2023-01-06 17:40:58.299
10.0, -18312.091328154962, -25252.151519316616, -32600.198102020993, -25757.05507481755, -10212.467338140887, -7517.986895798075, -20029.39820640066, -4617.5574800440645, -23811.089850794062, 3413.8266341479584, -19738.065569170187, -23749.667257030876, -4666.440745167822, -1676.3361306591191, -12213.976647135813, -19477.04189742111, -0.438, 0.914, 0.202, 192.0, 0.0, 0.0, 0.0, 0.0, 0.0, 0.0, 0.0, 0.0, 0.0, 1.673044858299611E9, 0.0, 2023-01-06 17:40:58.299
12.0, -18330.464462097225, -25273.81035969381, -32631.155268091592, -25790.58269150051, -10252.052277571234, -7540.204529786651, -20083.22120704904, -4608.057988650559, -23825.417318989912, 3405.601192188405, -19749.0626274422, -23731.31647483307, -4723.303583062123, -1673.9891974913119, -12222.962048406845, -19487.658976037383, -0.438, 0.914, 0.202, 192.0, 0.0, 0.0, 0.0, 0.0, 0.0, 0.0, 0.0, 0.0, 0.0, 1.6730448582996163E9, 0.0, 2023-01-06 17:40:58.299
14.0, -18340.031008724094, -25282.371077820193, -32651.13772763464, -25804.57488352953, -10263.474018987898, -7550.463980491636, -20059.84128234879, -4621.379628345922, -23875.172302147424, 3380.5895901429167, -19772.330793420173, -23754.875213488962, -4767.135353938979, -1686.9755610198451, -12245.55966205116, -19505.987406490734, -0.438, 0.914, 0.202, 192.0, 0.0, 0.0, 0.0, 0.0, 0.0, 0.0, 0.0, 0.0, 0.0, 1.6730448582996218E9, 0.0, 2023-01-06 17:40:58.299
16.0, -18353.933793775297, -25307.069755443306, -32688.08516121926, -25823.12683142744, -10264.479847488386, -7569.015928389541, -20091.916035642153, -4648.358183903478, -23935.92434357695, 3343.4633426026517, -19798.795258855254, -23750.963658209286, -4839.5550059741745, -1720.8161021251801, -12265.609176827571, -19518.95141827481, -0.438, 0.914, 0.202, 192.0, 0.0, 0.0, 0.0, 0.0, 0.0, 0.0, 0.0, 0.0, 0.0, 1.6730448582996273E9, 0.0, 2023-01-06 17:40:58.299
18.0, -18326.99994170665, -25299.470162328504, -32634.50802975989, -25807.68177600882, -10262.64700444305, -7568.032451633508, -20069.944270842585, -4635.304765141579, -23802.886760578964, 3376.610979629872, -19768.95568000742, -23749.063759930585, -4807.279086980711, -1723.1853870374428, -12254.925042977935, -19521.566572376083, -0.43, 0.92, 0.222, 192.0, 121.0, 72.0, 14.0, 96.0, 3.0, 120.0, 0.0, 0.0, 0.0, 1.6730448582996323E9, 0.0, 2023-01-06 17:40:58.299
20.0, -18405.856896144975, -25359.372837468727, -32740.879981622697, -25881.84486411153, -10286.65277798805, -7589.35601584387, -20103.36012880327, -4653.566140361565, -23948.329561749648, 3270.484896956074, -19840.861241920145, -23781.764362068698, -4877.910599459481, -1768.0900416481545, -12291.067813762167, -19542.9124883309, -0.43, 0.92, 0.222, 192.0, 0.0, 0.0, 0.0, 0.0, 0.0, 0.0, 0.0, 0.0, 0.0, 1.6730448582996378E9, 0.0, 2023-01-06 17:40:58.299
22.0, -18327.804604507044, -25293.85987447022, -32675.23290815746, -25850.06068349608, -10285.646949487562, -7563.003309131063, -20096.922826400143, -4628.934517971816, -23964.847500902117, 3247.5296554004735, -19846.225660589418, -23803.80318210163, -4835.308174527666, -1759.171695610487, -12304.545915668717, -19553.998953580733, -0.43, 0.92, 0.222, 192.0, 0.0, 0.0, 0.0, 0.0, 0.0, 0.0, 0.0, 0.0, 0.0, 1.6730448582996433E9, 0.0, 2023-01-06 17:40:58.299
24.0, -18316.181697390282, -25267.73068520197, -32671.254297644413, -25837.342540901012, -10294.498240291863, -7582.248161107083, -20108.232809094527, -4624.195948147291, -23751.433044842845, 3400.4379392192295, -19763.971240993887, -23722.64399798441, -4758.6640427904185, -1746.1853320819537, -12285.390470670518, -19532.38481669245, -0.43, 0.92, 0.222, 192.0, 0.0, 0.0, 0.0, 0.0, 0.0, 0.0, 0.0, 0.0, 0.0, 1.6730448582996483E9, 0.0, 2023-01-06 17:40:58.299
26.0, -18305.67637749629, -25269.876452669676, -32679.725608792975, -25848.58546836203, -10275.40985052703, -7561.125762596818, -20089.993785618997, -4612.975372430727, -23821.86339162152, 3373.414680172763, -19787.19470348295, -23737.79848072511, -4780.702862823351, -1732.1707883084762, -12286.128078237543, -19533.927087059867, -0.43, 0.92, 0.222, 192.0, 0.0, 0.0, 0.0, 0.0, 0.0, 0.0, 0.0, 0.0, 0.0, 1.6730448582996535E9, 0.0, 2023-01-06 17:40:58.299
28.0, -18323.468366082714, -25255.101949584718, -32714.706088865532, -25863.35997144699, -10280.349586051654, -7567.294844066482, -20110.80325970689, -4621.983125446216, -23923.563828893166, 3324.151435393266, -19820.878782377098, -23746.336847107035, -4767.068298705613, -1742.5196459912834, -12300.47789817785, -19544.030075553666, -0.404, 0.854, 0.192, 192.0, 121.5, 48.0, 13.0, 88.0, 3.0, 0.0, 0.0, 0.0, 0.0, 1.6730448582996588E9, 0.0, 2023-01-06 17:40:58.299
30.0, -18283.90577839682, -25214.064146764773, -32656.971532937474, -25831.084052453527, -10296.576952526208, -7540.517454209024, -20105.93057941563, -4622.273698124135, -23825.529077712188, 3404.0589218209893, -19778.81279931221, -23710.97638737874, -4700.54950720662, -1721.665468414482, -12272.784086797725, -19525.679293355857, -0.404, 0.854, 0.192, 192.0, 0.0, 0.0, 0.0, 0.0, 0.0, 0.0, 0.0, 0.0, 0.0, 1.6730448582996643E9, 0.0, 2023-01-06 17:40:58.299
32.0, -18316.069938668006, -25220.881428823643, -32726.440754704567, -25847.132604972438, -10317.073502191723, -7573.419222047237, -20136.172489663662, -4640.043334966103, -23905.391860651, 3449.477666554173, -19801.142192023064, -23697.766506405653, -4557.52069443711, -1714.3787997220518, -12283.356461925086, -19532.787148092648, -0.404, 0.854, 0.192, 192.0, 0.0, 0.0, 0.0, 0.0, 0.0, 0.0, 0.0, 0.0, 0.0, 1.6730448582996695E9, 0.0, 2023-01-06 17:40:58.299
34.0, -18282.85524640742, -25204.050565248795, -32686.922870507584, -25826.434889606822, -10312.938429467491, -7560.8798934078095, -20135.568992563367, -4645.9665472467605, -23907.11294497406, 3414.452482992707, -19819.78354689879, -23708.607102466478, -4466.794963693019, -1708.4779391858506, -12307.943380825924, -19539.671485384883, -0.404, 0.854, 0.192, 192.0, 0.0, 0.0, 0.0, 0.0, 0.0, 0.0, 0.0, 0.0, 0.0, 1.6730448582996747E9, 0.0, 2023-01-06 17:40:58.299
36.0, -18287.37029878739, -25212.27600720835, -32707.106495750726, -25834.101537954994, -10302.99190318488, -7559.7623061850445, -20147.773045035967, -4643.463151867766, -23786.927615037876, 3430.7245529561706, -19770.073267230186, -23693.810247637066, -4325.487235246567, -1733.400134253518, -12299.270903977264, -19535.402302193917, -0.404, 0.854, 0.192, 192.0, 0.0, 0.0, 0.0, 0.0, 0.0, 0.0, 0.0, 0.0, 0.0, 1.67304485829968E9, 0.0, 2023-01-06 17:40:58.299
38.0, -18287.75027844313, -25192.27119592085, -32693.561338610813, -25823.082127938527, -10287.546847766263, -7536.270622762517, -20126.047149425405, -4608.5720787730315, -23833.083967338083, 3460.586483548461, -19776.599976611134, -23697.431230238824, -4187.465213235047, -1709.3720089640628, -12284.295235192209, -19513.452889138807, -0.418, 0.842, 0.162, 192.0, 121.0, 120.0, 13.0, 40.0, 2.5, 8.0, 0.0, 0.0, 0.0, 1.6730448582996867E9, 0.0, 2023-01-06 17:40:58.299
40.0, -18285.872731908887, -25193.7464110549, -32708.08997250676, -25835.979084489238, -10312.51374632284, -7557.348317783871, -20200.724327650587, -4653.052050239093, -23846.360903544537, 3442.928605428768, -19790.05572677323, -23708.897675144395, -4091.9115056886085, -1699.9619245483786, -12289.547895139205, -19522.035959009645, -0.418, 0.842, 0.162, 192.0, 0.0, 0.0, 0.0, 0.0, 0.0, 0.0, 0.0, 0.0, 0.0, 1.673044858299692E9, 0.0, 2023-01-06 17:40:58.299
42.0, -18306.05635715203, -25207.6491961061, -32742.601065945753, -25849.34542767351, -10331.646839576584, -7581.085870395407, -20252.44626432017, -4662.126858487947, -23812.565065928113, 3426.120093598377, -19795.978939053886, -23710.439945511815, -3978.7669752558445, -1723.6994771599147, -12319.789805387236, -19544.387703464952, -0.418, 0.842, 0.162, 192.0, 0.0, 0.0, 0.0, 0.0, 0.0, 0.0, 0.0, 0.0, 0.0, 1.6730448582996972E9, 0.0, 2023-01-06 17:40:58.299
44.0, -18303.79883096204, -25216.165210743573, -32729.592350672767, -25861.437721423834, -10308.244563131877, -7565.350242298871, -20136.731283275043, -4608.929706684316, -23895.11005820156, 3420.845081906925, -19838.380198285606, -23721.146431105906, -3914.4386547134704, -1731.3884772525403, -12308.993912815324, -19536.318723716584, -0.418, 0.842, 0.162, 192.0, 0.0, 0.0, 0.0, 0.0, 0.0, 0.0, 0.0, 0.0, 0.0, 1.6730448582997024E9, 0.0, 2023-01-06 17:40:58.299
46.0, -18285.96213888671, -25189.41017263057, -32739.784746144385, -25851.088863741024, -10299.639141516584, -7564.567931242935, -20221.779670927488, -4625.358238858967, -23850.451272779857, 3437.743000715137, -19809.859372360632, -23730.578867266046, -3894.5456021482473, -1754.880160675068, -12278.550836867194, -19539.515023173695, -0.418, 0.842, 0.162, 192.0, 0.0, 0.0, 0.0, 0.0, 0.0, 0.0, 0.0, 0.0, 0.0, 1.673044858299708E9, 0.0, 2023-01-06 17:40:58.299
48.0, -18284.08459235246, -25181.7435242824, -32756.749720185962, -25855.78273007664, -10339.224080946933, -7567.093678366385, -20245.20429911665, -4633.4048668628775, -23751.298934376115, 3492.4600711417283, -19811.8263258727, -23714.753832191687, -3818.013229133276, -1735.1882738099425, -12316.973485585868, -19553.507215202717, -0.378, 0.838, 0.126, 192.0, 122.0, 24.0, 13.0, 24.0, 1.5, 120.0, 0.0, 0.0, 0.0, 1.6730448582997131E9, 0.0, 2023-01-06 17:40:58.299
50.0, -18276.730868426665, -25182.905814994076, -32726.15018202665, -25835.01795947766, -10317.833461503204, -7532.20260527165, -20178.32787970637, -4586.600313973465, -23767.950983995317, 3536.090676318488, -19802.416241457016, -23698.615872694954, -3795.5497259556923, -1727.4098667394958, -12294.018244030267, -19536.318723716584, -0.378, 0.838, 0.126, 192.0, 0.0, 0.0, 0.0, 0.0, 0.0, 0.0, 0.0, 0.0, 0.0, 1.6730448582997184E9, 0.0, 2023-01-06 17:40:58.299
52.0, -18274.540397470046, -25177.183768413517, -32720.04815579035, -25827.284255896124, -10305.294132863777, -7547.82647464591, -20211.006130100028, -4587.04734886257, -23748.08028317455, 3524.1324930348987, -19794.526075664293, -23716.385509536925, -3852.658433039002, -1736.171750565976, -12285.613988115072, -19534.172956248876, -0.378, 0.838, 0.126, 192.0, 0.0, 0.0, 0.0, 0.0, 0.0, 0.0, 0.0, 0.0, 0.0, 1.6730448582997236E9, 0.0, 2023-01-06 17:40:58.299
54.0, -18289.784287188566, -25187.97966098543, -32746.445565992068, -25845.59033460502, -10322.080292949711, -7557.102448594863, -20227.591124485865, -4589.9083721528505, -23732.635227755934, 3621.9660785157776, -19786.278281960283, -23675.839445094996, -3837.2133776203846, -1729.108599318099, -12283.468220647363, -19529.657903868905, -0.378, 0.838, 0.126, 192.0, 0.0, 0.0, 0.0, 0.0, 0.0, 0.0, 0.0, 0.0, 0.0, 1.673044858299729E9, 0.0, 2023-01-06 17:40:58.299
56.0, -18291.460668022715, -25184.31397489476, -32750.96061837204, -25847.378474161444, -10344.588499616206, -7572.6816144802115, -20255.709619010642, -4589.2601715636465, -23759.70319029131, 3575.407394815373, -19825.103262079152, -23714.485611258224, -3848.1210289145747, -1772.0015969278334, -12306.937552325435, -19562.671430429393, -0.378, 0.838, 0.126, 192.0, 0.0, 0.0, 0.0, 0.0, 0.0, 0.0, 0.0, 0.0, 0.0, 1.673044858299734E9, 0.0, 2023-01-06 17:40:58.299
58.0, -18338.15346218985, -25239.18750753254, -32784.04120016589, -25861.191852234824, -10374.897465097603, -7603.236449150616, -20346.636515454833, -4626.319363870545, -23759.256155402203, 3585.1304036534316, -19821.21405854393, -23683.997831821183, -3864.2813401557614, -1781.0093499433221, -12318.426348975463, -19566.270061286697, -0.376, 0.906, 0.132, 192.0, 122.0, 32.0, 14.0, 40.0, 2.0, 16.0, 0.0, 0.0, 0.0, 1.6730448582997394E9, 0.0, 2023-01-06 17:40:58.299
60.0, -18365.891977058887, -25276.716086473, -32794.25594738197, -25864.611669136488, -10359.76533410136, -7628.896251785309, -20200.344347994847, -4632.48844534021, -23792.828475574075, 3550.3287375365185, -19856.663925250046, -23710.73051818973, -3898.546564405747, -1808.1443677120649, -12343.996744632334, -19587.168942352408, -0.376, 0.906, 0.132, 192.0, 0.0, 0.0, 0.0, 0.0, 0.0, 0.0, 0.0, 0.0, 0.0, 1.6730448582997448E9, 0.0, 2023-01-06 17:40:58.299
62.0, -18366.093142758982, -25277.654859740123, -32799.933290473615, -25879.050896054614, -10404.379416034153, -7620.939030759219, -20255.30728761045, -4665.010233522682, -23804.339623968557, 3547.9371008798007, -19868.97973644492, -23696.246587782694, -3925.5698234522133, -1839.235644249397, -12314.000703573312, -19591.505180776738, -0.376, 0.906, 0.132, 192.0, 0.0, 0.0, 0.0, 0.0, 0.0, 0.0, 0.0, 0.0, 0.0, 1.67304485829975E9, 0.0, 2023-01-06 17:40:58.299
64.0, -18369.35649744946, -25267.887147413156, -32814.23840692501, -25887.388096736446, -10399.663197954083, -7647.381144449848, -20266.10318018236, -4683.003387809204, -23799.824571588586, 3557.213074828753, -19871.50548356837, -23701.27573028514, -3914.9303930914875, -1837.3357459706958, -12325.757721156802, -19604.893875705468, -0.376, 0.906, 0.132, 192.0, 0.0, 0.0, 0.0, 0.0, 0.0, 0.0, 0.0, 0.0, 0.0, 1.673044858299755E9, 0.0, 2023-01-06 17:40:58.299
66.0, -18370.92111956133, -25259.14761533113, -32836.05370951339, -25910.83507667006, -10390.588389705228, -7649.549263662013, -20264.896185981775, -4691.586457680042, -23813.19091477286, 3568.5230575231385, -19887.30816689827, -23690.032802824117, -3952.63778598759, -1850.232702521408, -12351.059895880211, -19626.75388178276, -0.376, 0.906, 0.132, 192.0, 0.0, 0.0, 0.0, 0.0, 0.0, 0.0, 0.0, 0.0, 0.0, 1.6730448582997603E9, 0.0, 2023-01-06 17:40:58.299
68.0, -18373.335107962503, -25256.487757740946, -32850.02354979796, -25926.816573955606, -10403.887677656136, -7652.387935207837, -20262.72806676961, -4691.854678613506, -23812.788583372665, 3571.697005235792, -19893.968986745953, -23708.294178044103, -3987.3053416377716, -1863.2190660499414, -12363.845093708647, -19642.10953022355, -0.375, 0.905, 0.125, 192.0, 122.0, 40.0, 14.0, 32.0, 1.5, 88.0, 0.0, 0.0, 0.0, 1.6730448582997668E9, 0.0, 2023-01-06 17:40:58.299
70.0, -18368.753000349167, -25248.083501825753, -32853.89040158873, -25928.783527467673, -10405.96638989048, -7648.1634555057835, -20267.421933105223, -4706.919754376382, -23821.304598010138, 3579.2965983505965, -19904.85428629569, -23697.5429889611, -4050.1584470460953, -1882.1733453480417, -12371.556445545728, -19645.484643636304, -0.375, 0.905, 0.125, 192.0, 0.0, 0.0, 0.0, 0.0, 0.0, 0.0, 0.0, 0.0, 0.0, 1.6730448582997735E9, 0.0, 2023-01-06 17:40:58.299
72.0, -18380.845294099487, -25256.04072285184, -32869.5589744519, -25944.13917590847, -10408.49213701393, -7665.955444092208, -20283.425782135222, -4767.537685339175, -23823.71858641131, 3568.5230575231385, -19908.56467587527, -23723.135736362427, -4104.361427350214, -1876.6971679564915, -12381.435916594974, -19660.437960676903, -0.375, 0.905, 0.125, 192.0, 0.0, 0.0, 0.0, 0.0, 0.0, 0.0, 0.0, 0.0, 0.0, 1.6730448582997787E9, 0.0, 2023-01-06 17:40:58.299
74.0, -18397.653805929876, -25267.171891590584, -32875.437483243644, -25945.86026023153, -10418.081035385256, -7657.9088160882975, -20267.176063916217, -4648.246425181202, -23835.497955739254, 3575.921484937845, -19920.545210903314, -23713.077451357538, -4180.379710242714, -1878.8429354242012, -12392.45532661144, -19661.309678710662, -0.375, 0.905, 0.125, 192.0, 0.0, 0.0, 0.0, 0.0, 0.0, 0.0, 0.0, 0.0, 0.0, 1.673044858299784E9, 0.0, 2023-01-06 17:40:58.299
76.0, -18377.894863831385, -25247.70352217001, -32837.126593247245, -25911.28211155917, -10416.315247573286, -7640.474455413158, -20237.515299024024, -4639.551596588087, -23838.33662728508, 3564.477391776728, -19917.50537365739, -23728.96954166526, -4191.600285959278, -1863.84491489469, -12356.15609361602, -19635.11343420904, -0.375, 0.905, 0.125, 192.0, 0.0, 0.0, 0.0, 0.0, 0.0, 0.0, 0.0, 0.0, 0.0, 1.6730448582997892E9, 0.0, 2023-01-06 17:40:58.299
78.0, -18387.97550058073, -25258.789987419845, -32848.101299774804, -25917.071213373092, -10399.305570042798, -7637.322859444959, -20247.171252628716, -4645.228939679735, -23827.205458546337, 3582.112918151965, -19902.12737347214, -23703.443849497304, -4228.3242020993475, -1842.3425367286845, -12341.15807308651, -19623.244657903273, -0.36050000000000004, 0.9015, 0.1175, 192.0, 122.5, 24.0, 14.0, 8.0, 1.5, 56.0, 0.0, 0.0, 0.0, 1.6730448582997944E9, 0.0, 2023-01-06 17:40:58.299
80.0, -18378.967747565242, -25258.119435086184, -32830.64458735521, -25905.94004463435, -10418.975105163468, -7641.7708565915655, -20254.18970038768, -4653.208512450279, -23826.400795745947, 3577.9107901943676, -19893.097268712198, -23718.374814793446, -4271.932455531652, -1835.3464407141735, -12344.130855099065, -19615.488602577283, -0.36050000000000004, 0.9015, 0.1175, 192.0, 0.0, 0.0, 0.0, 0.0, 0.0, 0.0, 0.0, 0.0, 0.0, 1.6730448582997997E9, 0.0, 2023-01-06 17:40:58.299
82.0, -18392.132925049416, -25277.99013590695, -32846.87195382976, -25920.111050619013, -10417.388131307142, -7657.03709805454, -20272.67459305222, -4662.395079421411, -23830.826441148096, 3570.534714524116, -19893.11962045665, -23718.93360840483, -4311.830319384375, -1869.7010719419804, -12342.230956820364, -19624.474003848318, -0.36050000000000004, 0.9015, 0.1175, 192.0, 0.0, 0.0, 0.0, 0.0, 0.0, 0.0, 0.0, 0.0, 0.0, 1.673044858299805E9, 0.0, 2023-01-06 17:40:58.299
84.0, -18365.44494216978, -25257.38182751916, -32827.202418709094, -25897.848713141528, -10370.963558073468, -7659.18286552225, -20256.268412622027, -4646.882968769428, -23841.734092442286, 3560.1635050968534, -19894.41602163506, -23738.491384803223, -4361.808819986441, -1854.233664778908, -12356.044334893744, -19635.627524331514, -0.36050000000000004, 0.9015, 0.1175, 192.0, 0.0, 0.0, 0.0, 0.0, 0.0, 0.0, 0.0, 0.0, 0.0, 1.6730448582998102E9, 0.0, 2023-01-06 17:40:58.299
86.0, -18358.560604877544, -25252.687961183547, -32811.10916270127, -25878.64856465442, -10343.180339715522, -7634.707705343689, -20250.72517999711, -4639.551596588087, -23819.494106709255, 3586.963246698767, -19858.943803184487, -23708.87532339994, -4378.974959728117, -1814.8722427931123, -12327.143529313033, -19604.31273034963, -0.36050000000000004, 0.9015, 0.1175, 192.0, 0.0, 0.0, 0.0, 0.0, 0.0, 0.0, 0.0, 0.0, 0.0, 1.6730448582998157E9, 0.0, 2023-01-06 17:40:58.299
88.0, -18346.423607638313, -25247.927039614566, -32793.719505515044, -25869.663163383386, -10348.209482217966, -7645.458894426692, -20249.741703241078, -4645.877140268939, -23825.372615501, 3572.0769848915324, -19852.618259503637, -23724.32037881856, -4402.265477450547, -1802.0646932202212, -12318.67221816447, -19602.01050067073, -0.34525000000000006, 0.9047499999999999, 0.11274999999999999, 192.0, 122.5, 88.0, 14.0, 48.0, 1.5, 48.0, 0.0, 0.0, 0.0, 1.673044858299821E9, 0.0, 2023-01-06 17:40:58.299
90.0, -18335.784177277586, -25242.00382733391, -32795.239424138, -25865.88571857044, -10360.279424223832, -7642.352001947404, -20268.96420347264, -4641.898529755894, -23818.689443908865, 3567.8525051894794, -19839.788358186288, -23714.21739032476, -4414.4024746897785, -1793.816899516213, -12309.1056715376, -19599.037718658175, -0.34525000000000006, 0.9047499999999999, 0.11274999999999999, 192.0, 0.0, 0.0, 0.0, 0.0, 0.0, 0.0, 0.0, 0.0, 0.0, 1.673044858299826E9, 0.0, 2023-01-06 17:40:58.299
92.0, -18313.119508399905, -25227.028158548852, -32778.833243707806, -25842.77401480365, -10354.311508454264, -7610.344303887404, -20204.09944106334, -4627.727523771229, -23817.281284008182, 3558.1965515847864, -19825.01385510133, -23707.735384432723, -4402.332532683913, -1780.0035214428333, -12296.611046387083, -19582.54213125016, -0.34525000000000006, 0.9047499999999999, 0.11274999999999999, 192.0, 0.0, 0.0, 0.0, 0.0, 0.0, 0.0, 0.0, 0.0, 0.0, 1.6730448582998312E9, 0.0, 2023-01-06 17:40:58.299
94.0, -18303.44120305076, -25215.18173398754, -32766.271563323924, -25833.96742748826, -10325.678923807016, -7616.312219656971, -20231.56973499891, -4633.270756396146, -23809.61463566001, 3545.0090223561556, -19811.893381106067, -23708.964730377764, -4328.504720748034, -1771.2416376163528, -12274.125191465044, -19570.338078777564, -0.34525000000000006, 0.9047499999999999, 0.11274999999999999, 192.0, 0.0, 0.0, 0.0, 0.0, 0.0, 0.0, 0.0, 0.0, 0.0, 1.6730448582998364E9, 0.0, 2023-01-06 17:40:58.299
96.0, -18301.94363617225, -25210.107887996186, -32756.302685296858, -25832.11223269847, -10333.680848322016, -7590.02656817753, -20210.134412066272, -4602.559459514554, -23814.46496420681, 3517.7398941206807, -19814.15090729605, -23719.760622949678, -4333.556214994934, -1762.1444776230428, -12274.795743798702, -19576.328346291586, -0.34525000000000006, 0.9047499999999999, 0.11274999999999999, 192.0, 0.0, 0.0, 0.0, 0.0, 0.0, 0.0, 0.0, 0.0, 0.0, 1.673044858299842E9, 0.0, 2023-01-06 17:40:58.299
98.0, -18264.99620258763, -25165.60556478567, -32727.37952797169, -25799.05400264907, -10284.864638431625, -7577.397832560281, -20191.671871146187, -4610.203756118269, -23784.93830978135, 3540.315156020541, -19779.8186278127, -23703.667366941856, -4287.824545839375, -1724.0347533267443, -12226.873603686525, -19539.82794759607, -0.32962500000000006, 0.895375, 0.10037499999999999, 192.0, 123.0, 24.0, 13.5, 88.0, 1.0, 96.0, 0.0, 0.0, 0.0, 1.6730448582998471E9, 0.0, 2023-01-06 17:40:58.299
100.0, -18271.679374179766, -25172.333439866718, -32734.643844919665, -25802.78674397311, -10300.019121172325, -7563.338585297894, -20145.671981057167, -4529.268089445602, -23790.079211006072, 3521.5620424225385, -19785.87595056009, -23710.529352489633, -4312.5679269514, -1736.4399714994397, -12240.172891637432, -19536.184613249854, -0.32962500000000006, 0.895375, 0.10037499999999999, 192.0, 0.0, 0.0, 0.0, 0.0, 0.0, 0.0, 0.0, 0.0, 0.0, 1.6730448582998524E9, 0.0, 2023-01-06 17:40:58.299
102.0, -18245.41607444478, -25145.421939542528, -32715.510751665923, -25782.267842563135, -10255.382687495076, -7532.87315760531, -20130.472794827558, -4522.316696920001, -23770.432027629857, 3519.796254610569, -19765.088828216652, -23703.48855298621, -4311.740912406553, -1711.6071834095935, -12210.378016278508, -19504.24397042322, -0.32962500000000006, 0.895375, 0.10037499999999999, 192.0, 0.0, 0.0, 0.0, 0.0, 0.0, 0.0, 0.0, 0.0, 0.0, 1.6730448582998588E9, 0.0, 2023-01-06 17:40:58.299
104.0, -18252.47922569266, -25155.614335014146, -32713.38733594267, -25779.831502417506, -10283.65764423104, -7535.868291362321, -20159.820635297376, -4556.134886280881, -23764.642925815933, 3516.287030731086, -19753.890604244545, -23685.674212655333, -4320.1898718106595, -1708.1650147634764, -12211.22738256781, -19506.188572190833, -0.32962500000000006, 0.895375, 0.10037499999999999, 192.0, 0.0, 0.0, 0.0, 0.0, 0.0, 0.0, 0.0, 0.0, 0.0, 1.673044858299864E9, 0.0, 2023-01-06 17:40:58.299
106.0, -18261.688144408243, -25171.864053233156, -32716.024841788396, -25780.14442683988, -10263.451667243442, -7557.8847596507985, -20153.22687068306, -4522.339048664457, -23782.79254231364, 3483.2958559150525, -19766.519339861792, -23711.468125756757, -4339.568834253411, -1696.4527006688954, -12222.671475728926, -19509.697796070315, -0.32962500000000006, 0.895375, 0.10037499999999999, 192.0, 0.0, 0.0, 0.0, 0.0, 0.0, 0.0, 0.0, 0.0, 0.0, 1.6730448582998695E9, 0.0, 2023-01-06 17:40:58.299
108.0, -18243.538527910536, -25157.98361992641, -32695.08125723377, -25755.95983933924, -10231.30985871671, -7520.691456877167, -20098.39804153419, -4489.481984315155, -23778.56806261159, 3478.132602945877, -19756.706924045913, -23694.369041248447, -4331.09752310485, -1695.6703896129598, -12194.754146904248, -19496.24204590822, -0.31581250000000005, 0.8966875000000001, 0.0891875, 192.0, 123.0, 72.0, 14.0, 8.0, 1.0, 56.0, 0.0, 0.0, 0.0, 1.6730448582998748E9, 0.0, 2023-01-06 17:40:58.299
110.0, -18239.917545308774, -25158.54241353779, -32696.71293457901, -25756.00454282815, -10251.158207793023, -7534.482483206092, -20131.657437283688, -4489.504336059611, -23749.73431226424, 3477.842030267958, -19733.170537134476, -23686.50122720018, -4317.507662476023, -1670.5917323341052, -12173.497637927252, -19473.309156097075, -0.31581250000000005, 0.8966875000000001, 0.0891875, 192.0, 0.0, 0.0, 0.0, 0.0, 0.0, 0.0, 0.0, 0.0, 0.0, 1.67304485829988E9, 0.0, 2023-01-06 17:40:58.299
112.0, -18241.348056953913, -25163.30333510677, -32701.94324278155, -25765.19110979928, -10246.151417035035, -7545.904224622754, -20126.60594303679, -4496.075748929471, -23762.45245485931, 3457.479591069173, -19743.273525628272, -23683.55079693208, -4354.969186183118, -1693.6810843564374, -12202.823126652615, -19496.890246497424, -0.31581250000000005, 0.8966875000000001, 0.0891875, 192.0, 0.0, 0.0, 0.0, 0.0, 0.0, 0.0, 0.0, 0.0, 0.0, 1.6730448582998853E9, 0.0, 2023-01-06 17:40:58.299
114.0, -18227.959362025187, -25150.02639890032, -32697.674059590587, -25753.367036982425, -10257.148475307045, -7551.648622947768, -20131.94800996161, -4496.142804162837, -23771.035524730152, 3427.327087798964, -19744.30170587322, -23706.617797209954, -4387.803898787964, -1706.5109856737836, -12214.535440747195, -19512.91644727188, -0.31581250000000005, 0.8966875000000001, 0.0891875, 192.0, 0.0, 0.0, 0.0, 0.0, 0.0, 0.0, 0.0, 0.0, 0.0, 1.6730448582998905E9, 0.0, 2023-01-06 17:40:58.299
116.0, -18182.898245203287, -25099.466752942415, -32665.018160941385, -25709.13293470537, -10225.341942947143, -7531.085018048885, -20104.902399170685, -4463.822181680463, -23742.425291827356, 3481.083033213977, -19710.014129878775, -23648.279744181604, -4385.255799920059, -1670.3235114006416, -12195.514106215729, -19477.645394521405, -0.31581250000000005, 0.8966875000000001, 0.0891875, 192.0, 0.0, 0.0, 0.0, 0.0, 0.0, 0.0, 0.0, 0.0, 0.0, 1.6730448582998967E9, 0.0, 2023-01-06 17:40:58.299
118.0, -18224.09251023442, -25145.801919198268, -32696.15414096763, -25741.90059207685, -10237.702457630929, -7542.5067594655475, -20145.113187445782, -4482.284722600547, -23741.106538904496, 3482.960579748223, -19701.6992809414, -23650.62667734941, -4404.9476867851845, -1648.0388221787005, -12184.271178754709, -19473.532673541627, -0.30590625000000005, 0.91034375, 0.08359375, 192.0, 123.0, 96.0, 14.0, 112.0, 1.0, 56.0, 0.0, 0.0, 0.0, 1.673044858299902E9, 0.0, 2023-01-06 17:40:58.299
120.0, -18240.006952286596, -25171.46172183296, -32713.499094664945, -25756.13865329488, -10270.961853380424, -7549.860483391343, -20159.798283552922, -4532.397333669345, -23787.12878073797, 3432.7809134460585, -19742.938249461444, -23675.34770671698, -4451.104039085393, -1694.0610640121777, -12221.151557105966, -19503.416955878372, -0.30590625000000005, 0.91034375, 0.08359375, 192.0, 0.0, 0.0, 0.0, 0.0, 0.0, 0.0, 0.0, 0.0, 0.0, 1.673044858440612E9, 0.0, 2023-01-06 17:40:58.440
122.0, -18220.56093461048, -25155.92725943652, -32701.987946270463, -25738.48077517519, -10231.689838372451, -7550.374573513815, -20161.51936787598, -4473.254617840603, -23772.98012649776, 3426.388314531841, -19731.918839444977, -23683.036706809606, -4453.562730975477, -1675.1514882029878, -12207.494641243773, -19496.62202556396, -0.30590625000000005, 0.91034375, 0.08359375, 192.0, 0.0, 0.0, 0.0, 0.0, 0.0, 0.0, 0.0, 0.0, 0.0, 1.6730448584406326E9, 0.0, 2023-01-06 17:40:58.440
124.0, -18231.982676027143, -25166.767855497346, -32700.75860032542, -25743.7781386111, -10274.761649937827, -7548.698192679667, -20156.289059673436, -4495.896934973828, -23764.061780460095, 3449.6341287653604, -19724.94509517492, -23651.74426457218, -4485.503373802111, -1652.3974123474852, -12201.772594663214, -19480.349955600497, -0.30590625000000005, 0.91034375, 0.08359375, 192.0, 0.0, 0.0, 0.0, 0.0, 0.0, 0.0, 0.0, 0.0, 0.0, 1.6730448584406393E9, 0.0, 2023-01-06 17:40:58.440
126.0, -18248.590022157434, -25189.209006930472, -32714.348460954247, -25761.078388819504, -10269.710155690927, -7581.957588429164, -20174.03634477095, -4497.08157742996, -23787.531112138167, 3405.4670817216734, -19751.67778154347, -23696.6936226718, -4529.1563307233255, -1687.5120028867725, -12216.70355995936, -19507.686139069338, -0.30590625000000005, 0.91034375, 0.08359375, 192.0, 0.0, 0.0, 0.0, 0.0, 0.0, 0.0, 0.0, 0.0, 0.0, 1.6730448584406462E9, 0.0, 2023-01-06 17:40:58.440
128.0, -18235.044865017517, -25175.708553279466, -32711.66625161961, -25754.23875501618, -10266.93853937847, -7570.289977823494, -20181.010089041007, -4495.449900084723, -23774.03065848716, 3417.96170687219, -19738.356141848104, -23663.97066878923, -4572.362252755434, -1680.985293505823, -12215.317751803132, -19496.487915097227, -0.30095312500000004, 0.9221718750000001, 0.08379687499999999, 192.0, 123.0, 96.0, 14.5, 24.0, 1.0, 80.0, 0.0, 0.0, 0.0, 1.673044858440653E9, 0.0, 2023-01-06 17:40:58.440
130.0, -18258.313030995494, -25213.773574086856, -32720.56224591282, -25781.53023499611, -10267.206760311934, -7580.16944887274, -20172.203501725617, -4505.418778111789, -23785.027716759174, 3383.808241344481, -19742.446511083428, -23681.7403056312, -4619.77030274514, -1692.0494070112, -12235.009638668256, -19508.08847046953, -0.30095312500000004, 0.9221718750000001, 0.08379687499999999, 192.0, 0.0, 0.0, 0.0, 0.0, 0.0, 0.0, 0.0, 0.0, 0.0, 1.67304485844066E9, 0.0, 2023-01-06 17:40:58.440
132.0, -18288.644348221344, -25254.632562951156, -32741.99756884546, -25810.028709176626, -10293.872391447114, -7613.495899855602, -20203.026557329486, -4521.84731028644, -23820.499935209744, 3157.697994434595, -19773.53778762076, -23744.45930057279, -4662.238617210223, -1761.9209601784898, -12258.546025579695, -19537.235145239254, -0.30095312500000004, 0.9221718750000001, 0.08379687499999999, 192.0, 0.0, 0.0, 0.0, 0.0, 0.0, 0.0, 0.0, 0.0, 0.0, 1.673044858440667E9, 0.0, 2023-01-06 17:40:58.440
134.0, -18269.243034034138, -25245.691865169036, -32711.263920219415, -25748.740225880174, -10294.386481569587, -7603.705835784178, -20190.75544962352, -4580.565342970532, -23829.70885392533, 3462.9110649718127, -19758.09273220214, -23674.654802638866, -4696.101510060013, -1688.2943139427084, -12256.221444156343, -19521.72303458727, -0.30095312500000004, 0.9221718750000001, 0.08379687499999999, 192.0, 0.0, 0.0, 0.0, 0.0, 0.0, 0.0, 0.0, 0.0, 0.0, 1.6730448584406843E9, 0.0, 2023-01-06 17:40:58.440
136.0, -18244.723170366666, -25236.348835986715, -32714.95195805454, -25765.615792943932, -10286.205743098944, -7605.449271851692, -20192.789458368952, -4536.487702904667, -23775.21530094329, 3411.457349235696, -19740.636019782545, -23650.783139560597, -4692.257010013701, -1717.8656718570796, -12251.773447009737, -19520.538392131137, -0.30095312500000004, 0.9221718750000001, 0.08379687499999999, 192.0, 0.0, 0.0, 0.0, 0.0, 0.0, 0.0, 0.0, 0.0, 0.0, 1.6730448584406912E9, 0.0, 2023-01-06 17:40:58.440
138.0, -18223.51136487858, -25204.385841415628, -32714.19199874306, -25766.487510977688, -10284.03762388678, -7590.652417022278, -20187.134467021762, -4510.850252014429, -23772.890719519943, 3425.2260238201648, -19727.582601020647, -23644.837575535486, -4691.675864657863, -1719.2291282688534, -12228.393522309485, -19508.490801869728, -0.30095312500000004, 0.9221718750000001, 0.08379687499999999, 192.0, 0.0, 0.0, 0.0, 0.0, 0.0, 0.0, 0.0, 0.0, 0.0, 1.673044858440698E9, 0.0, 2023-01-06 17:40:58.440
140.0, -18232.496766149612, -25193.411134888072, -32742.668121179122, -25793.756639213163, -10308.713949765439, -7618.145062702306, -20205.77582189749, -4515.566470094499, -23826.736071912776, 3407.746959656115, -19757.332772890662, -23660.908479798854, -4735.731152979273, -1708.3661804635742, -12247.347801607586, -19528.585020135048, -0.28400000000000003, 0.898, 0.054, 192.0, 123.5, 16.0, 14.0, 8.0, 0.5, 88.0, 0.0, 0.0, 0.0, 1.6730448584407048E9, 0.0, 2023-01-06 17:40:58.440
142.0, -18236.385969684838, -25197.143876212107, -32745.372682258214, -25798.472857293233, -10302.0307781733, -7611.059559709974, -20208.48038297658, -4514.918269505295, -23814.57672292909, 3385.1716977562546, -19761.221976425884, -23676.286479984105, -4714.1170160909915, -1704.856956584091, -12256.71318253436, -19539.604430151514, -0.28400000000000003, 0.898, 0.054, 192.0, 0.0, 0.0, 0.0, 0.0, 0.0, 0.0, 0.0, 0.0, 0.0, 1.6730448584407115E9, 0.0, 2023-01-06 17:40:58.440
144.0, -18230.23923995963, -25188.873730763644, -32731.402841973646, -25781.95491814076, -10293.067728646723, -7589.601885032879, -20202.579522440377, -4504.278839144568, -23815.694310151855, 3349.4983136055844, -19748.05679894171, -23682.276747498126, -4718.475606259776, -1704.4099216949849, -12250.052362686678, -19529.92612480237, -0.28400000000000003, 0.898, 0.054, 192.0, 0.0, 0.0, 0.0, 0.0, 0.0, 0.0, 0.0, 0.0, 0.0, 1.6730448584407184E9, 0.0, 2023-01-06 17:40:58.440
146.0, -18223.28784743403, -25188.538454596815, -32737.43781297658, -25783.34072629699, -10280.975434896402, -7613.31708589996, -20195.09168804785, -4497.170984407781, -23809.033490304173, 3393.799471116003, -19736.47859531386, -23662.048418766073, -4718.6320684709635, -1699.0902065146217, -12252.153426665476, -19525.411072422394, -0.28400000000000003, 0.898, 0.054, 192.0, 0.0, 0.0, 0.0, 0.0, 0.0, 0.0, 0.0, 0.0, 0.0, 1.6730448584407256E9, 0.0, 2023-01-06 17:40:58.440
148.0, -18223.17608871175, -25177.7425620249, -32747.451394492557, -25783.698354208274, -10302.32135085122, -7599.593114804401, -20214.58240921288, -4495.762824507096, -23821.081080565582, 3374.4428604177074, -19746.827452996666, -23667.614003135444, -4649.833399037529, -1694.1281192455435, -12256.087333689611, -19528.115633501486, -0.28400000000000003, 0.898, 0.054, 192.0, 0.0, 0.0, 0.0, 0.0, 0.0, 0.0, 0.0, 0.0, 0.0, 1.6730448584407325E9, 0.0, 2023-01-06 17:40:58.440
150.0, -18171.11887587534, -25135.31895104873, -32705.228949216482, -25747.84615610196, -10284.976397153903, -7567.428954533215, -20197.125696793282, -4465.185638092236, -23797.164713998405, 3408.1716428007658, -19735.47276681337, -23651.654857594356, -4625.268831881146, -1711.3613142205852, -12255.796761011692, -19530.77549109167, -0.262, 0.91, 0.052000000000000005, 192.0, 123.5, 104.0, 14.0, 56.0, 0.5, 80.0, 0.0, 0.0, 0.0, 1.6730448584407396E9, 0.0, 2023-01-06 17:40:58.440
152.0, -18184.731088248624, -25137.509422005347, -32697.875225290685, -25742.3252752215, -10282.964740152926, -7570.446440034681, -20195.561074681413, -4453.9650623756725, -23722.42048053986, 3453.478628811673, -19687.729440656836, -23613.031043175586, -4591.3165320535345, -1662.7686217747478, -12218.335237304598, -19488.016603948665, -0.262, 0.91, 0.052000000000000005, 192.0, 0.0, 0.0, 0.0, 0.0, 0.0, 0.0, 0.0, 0.0, 0.0, 1.6730448584407468E9, 0.0, 2023-01-06 17:40:58.440
154.0, -18157.908994902253, -25123.472526487414, -32665.956934208505, -25733.250466972648, -10262.781114909783, -7574.469754036636, -20188.453219944622, -4458.815390922474, -23755.545765822622, 3387.2057065016875, -19702.32512978615, -23620.273008379103, -4568.853028875951, -1670.1894009339096, -12222.93969666239, -19487.77073475966, -0.262, 0.91, 0.052000000000000005, 192.0, 0.0, 0.0, 0.0, 0.0, 0.0, 0.0, 0.0, 0.0, 0.0, 1.6730448589101515E9, 0.0, 2023-01-06 17:40:58.910
156.0, -18169.062515385453, -25118.175163051506, -32699.23868170246, -25744.024007800104, -10284.46230703143, -7563.740916698089, -20201.23841777306, -4466.102059614904, -23710.194076322805, 3452.1375241443548, -19690.299891269195, -23619.82597349, -4467.241998582125, -1677.9454562599012, -12219.519879760728, -19494.453906351795, -0.262, 0.91, 0.052000000000000005, 192.0, 0.0, 0.0, 0.0, 0.0, 0.0, 0.0, 0.0, 0.0, 0.0, 1.6730448589101605E9, 0.0, 2023-01-06 17:40:58.910
158.0, -18143.626230195314, -25092.425953438993, -32672.550698822823, -25726.790812825064, -10266.60326321164, -7546.463018234136, -20184.720478620588, -4445.180826804737, -23776.578757355066, 3495.052873498544, -19689.65169067999, -23585.314880051003, -4291.020845296484, -1657.0242234497339, -12212.970818635324, -19483.345089357506, -0.262, 0.91, 0.052000000000000005, 192.0, 0.0, 0.0, 0.0, 0.0, 0.0, 0.0, 0.0, 0.0, 0.0, 1.6730448589101667E9, 0.0, 2023-01-06 17:40:58.910
160.0, -18140.094654571374, -25086.569796391705, -32683.503053605924, -25734.077481517492, -10256.388515995564, -7528.0675325474185, -20172.248205214528, -4439.9952220911055, -23719.335939805027, 3424.711933697693, -19692.04332733671, -23608.78421172908, -4192.427300504124, -1656.2642641382533, -12203.203106308354, -19475.23140612023, -0.292, 0.918, 0.042, 192.0, 123.0, 112.0, 14.0, 88.0, 0.5, 40.0, 0.0, 0.0, 0.0, 1.6730448589101732E9, 0.0, 2023-01-06 17:40:58.910
162.0, -18195.906960476277, -25123.047843342763, -32754.134566084693, -25782.781932685608, -10309.496260821374, -7581.108222139862, -20244.15376712725, -4530.0951039904485, -23794.99659478624, 3430.8586634229023, -19747.72152277488, -23608.58304602898, -4075.99706363643, -1662.8803804970241, -12234.227327612321, -19503.37225238946, -0.292, 0.918, 0.042, 192.0, 0.0, 0.0, 0.0, 0.0, 0.0, 0.0, 0.0, 0.0, 0.0, 1.6730448589101794E9, 0.0, 2023-01-06 17:40:58.910
164.0, -18161.038239125995, -25098.14800001955, -32717.008318544427, -25765.39227549938, -10316.894688236081, -7563.249178320072, -20313.06419528296, -4475.467440541678, -23808.13942052596, 3391.251372248098, -19757.019848468288, -23644.211726690737, -3931.850663644155, -1682.8404882956133, -12265.340955894108, -19532.094244014534, -0.292, 0.918, 0.042, 192.0, 0.0, 0.0, 0.0, 0.0, 0.0, 0.0, 0.0, 0.0, 0.0, 1.6730448589101856E9, 0.0, 2023-01-06 17:40:58.910
166.0, -18194.342338364404, -25111.8272676262, -32736.43198447609, -25790.225063589223, -10298.521554293819, -7568.323024311427, -20269.85827325085, -4479.915437688284, -23782.010231257707, 3448.9859281761564, -19760.663182814504, -23617.76961300011, -3950.8943499200764, -1667.9989299772897, -12274.259301931776, -19526.86393581199, -0.292, 0.918, 0.042, 192.0, 0.0, 0.0, 0.0, 0.0, 0.0, 0.0, 0.0, 0.0, 0.0, 1.673044858910201E9, 0.0, 2023-01-06 17:40:58.910
168.0, -18161.082942614907, -25078.612575365612, -32706.480646905977, -25778.691563450288, -10305.674112519517, -7549.994593858075, -20312.84067783841, -4495.628714040365, -23772.063704975095, 3439.642898993838, -19758.115083946595, -23633.885220752385, -3803.5963539596028, -1661.9639589743567, -12259.171874424443, -19532.653037625914, -0.292, 0.918, 0.042, 192.0, 0.0, 0.0, 0.0, 0.0, 0.0, 0.0, 0.0, 0.0, 0.0, 1.6730448589102073E9, 0.0, 2023-01-06 17:40:58.910
170.0, -18156.12085534583, -25056.14907218803, -32721.277501735392, -25790.537988011598, -10325.835386018203, -7550.374573513815, -20272.182854674204, -4513.778330538074, -23750.114291919985, 3495.8128328100247, -19752.214223410396, -23615.53443855458, -3761.3292051946173, -1700.207793737387, -12263.306947148676, -19542.19723250833, -0.272, 0.904, 0.04, 192.0, 123.5, 64.0, 14.0, 32.0, 0.5, 32.0, 0.0, 0.0, 0.0, 1.6730448589102132E9, 0.0, 2023-01-06 17:40:58.910
172.0, -18166.49206477309, -25059.837110023156, -32740.05296707785, -25818.075337180537, -10328.249374419376, -7553.570872970924, -20268.316002883435, -4507.452786857222, -23757.98210596825, 3456.1161346573995, -19760.48436885886, -23625.77153751511, -3743.2913474191846, -1708.0309042967444, -12256.28849938971, -19548.83570061156, -0.272, 0.904, 0.04, 192.0, 0.0, 0.0, 0.0, 0.0, 0.0, 0.0, 0.0, 0.0, 0.0, 1.6730448589102194E9, 0.0, 2023-01-06 17:40:58.910
174.0, -18198.142134921807, -25082.144150989552, -32767.791481946886, -25843.1986979483, -10354.535025898818, -7584.304521596971, -20304.749346345587, -4530.2739179460905, -23794.23663547476, 3441.1628176167987, -19796.336566965172, -23626.285627637582, -3737.2116729273407, -1728.3262882621634, -12295.828735331146, -19574.0708201016, -0.272, 0.904, 0.04, 192.0, 0.0, 0.0, 0.0, 0.0, 0.0, 0.0, 0.0, 0.0, 0.0, 1.6730448589102254E9, 0.0, 2023-01-06 17:40:58.910
176.0, -18265.33147875446, -25147.143023865585, -32811.332680145824, -25883.096561801027, -10387.481497225941, -7614.971114989653, -20343.149643319804, -4563.913293351328, -23816.364862485512, 3419.526328984062, -19826.042035346276, -23649.889069782384, -3740.0950479620756, -1762.6138642566043, -12318.918087353479, -19601.362300081528, -0.272, 0.904, 0.04, 192.0, 0.0, 0.0, 0.0, 0.0, 0.0, 0.0, 0.0, 0.0, 0.0, 1.6730448589102314E9, 0.0, 2023-01-06 17:40:58.910
178.0, -18334.599534821456, -25223.56363815828, -32869.73778840754, -25939.914696206415, -10457.531864348874, -7666.581292936957, -20394.5139520781, -4613.109482897458, -23875.14995040297, 3344.379764125319, -19899.51221937087, -23687.01531732265, -3799.260115535273, -1837.4028012040617, -12396.188067935476, -19660.549719399183, -0.272, 0.904, 0.04, 192.0, 0.0, 0.0, 0.0, 0.0, 0.0, 0.0, 0.0, 0.0, 0.0, 1.6730448589102376E9, 0.0, 2023-01-06 17:40:58.910
180.0, -18373.849198084976, -25261.449845010025, -32889.47437876158, -25970.00014424326, -10491.305350220842, -7678.450069242725, -20413.75880405412, -4638.590471576509, -23910.30924443117, 3222.518053354985, -19927.02721679535, -23719.626512482944, -3804.266906293262, -1859.0839933257096, -12414.449443155461, -19674.9442428284, -0.266, 0.898, 0.054, 192.0, 123.5, 88.0, 14.0, 8.0, 0.5, 88.0, 0.0, 0.0, 0.0, 1.6730448589102435E9, 0.0, 2023-01-06 17:40:58.910
182.0, -18444.07837916355, -25322.134831206185, -32961.75992033004, -26034.35081653009, -10541.127388611721, -7759.855122548953, -20486.58078748951, -4711.255992800712, -23935.92434357695, 3303.8113479389367, -19983.733592478467, -23728.723672476255, -3828.6079560050916, -1910.358895106184, -12469.993528126899, -19722.173478862464, -0.266, 0.898, 0.054, 192.0, 0.0, 0.0, 0.0, 0.0, 0.0, 0.0, 0.0, 0.0, 0.0, 1.6730448589102497E9, 0.0, 2023-01-06 17:40:58.910
184.0, -18459.23286190425, -25344.911258806143, -32965.47030990962, -26052.589840005618, -10545.664792736148, -7761.665613849833, -20487.05017412307, -4721.291926061145, -24001.12438215308, 3251.0388792799567, -20041.91518329563, -23791.308556951113, -3895.260857970817, -1957.3646136956947, -12528.24217417743, -19773.157807965017, -0.266, 0.898, 0.054, 192.0, 0.0, 0.0, 0.0, 0.0, 0.0, 0.0, 0.0, 0.0, 0.0, 1.6730448589102557E9, 0.0, 2023-01-06 17:40:58.910
186.0, -18475.817856290087, -25362.859709603752, -32981.67532463972, -26076.461503083887, -10553.242034106497, -7786.0513670505725, -20503.545761531088, -4738.882748947472, -23977.07390511917, 3214.337314884343, -20028.906468022644, -23807.4688681923, -3881.4027764085267, -1955.8670468171892, -12513.199450159009, -19771.01204049731, -0.266, 0.898, 0.054, 192.0, 0.0, 0.0, 0.0, 0.0, 0.0, 0.0, 0.0, 0.0, 0.0, 1.6730448589102616E9, 0.0, 2023-01-06 17:40:58.910
188.0, -18492.84988556503, -25379.847035389786, -32988.559661931955, -26093.314718403188, -10562.47330456654, -7826.351562303492, -20529.58554382152, -4790.157650727946, -23988.3615360691, 3179.9603319120806, -20047.369008942725, -23839.05188310765, -3903.48629993037, -2005.644381719158, -12538.993363260433, -19815.06732881872, -0.266, 0.898, 0.054, 192.0, 0.0, 0.0, 0.0, 0.0, 0.0, 0.0, 0.0, 0.0, 0.0, 1.6730448589102676E9, 0.0, 2023-01-06 17:40:58.910
190.0, -18489.005385518718, -25371.621593430234, -32980.75890311705, -26073.24285188232, -10555.834836463313, -7808.06783533905, -20520.957770461773, -4799.210107232346, -23990.931986681462, 3163.643558459706, -20043.412750174135, -23841.108243597537, -3924.273422273806, -2017.1778818580965, -12554.952508801522, -19821.236410288384, -0.27, 0.92, 0.014, 192.0, 123.5, 72.0, 14.0, 96.0, 0.0, 56.0, 0.0, 0.0, 0.0, 1.673044858910274E9, 0.0, 2023-01-06 17:40:58.910
192.0, -18476.26489117919, -25368.738218395498, -32932.81441126042, -26023.689034424908, -10520.049693590367, -7803.284562025615, -20486.938415400793, -4752.673775276396, -23971.575375983164, 3167.8009829283933, -20010.309816635825, -23811.24631300525, -3917.366733237116, -2009.2653643209178, -12516.753377527402, -19796.403622198537, -0.27, 0.92, 0.014, 192.0, 0.0, 0.0, 0.0, 0.0, 0.0, 0.0, 0.0, 0.0, 0.0, 1.67304485891028E9, 0.0, 2023-01-06 17:40:58.910
194.0, -18544.638877467976, -25454.904193270708, -32992.538272444996, -26084.485779343344, -10593.877505526247, -7874.832496027053, -20559.805102325096, -4834.749380916283, -23991.22255935938, 3143.683450661117, -20030.426386645602, -23817.102470052538, -3963.4783820484145, -2036.1768646451076, -12532.28783992384, -19810.328758994194, -0.27, 0.92, 0.014, 192.0, 0.0, 0.0, 0.0, 0.0, 0.0, 0.0, 0.0, 0.0, 0.0, 1.673044858910286E9, 0.0, 2023-01-06 17:40:58.910
196.0, -18535.206441307837, -25452.981943247552, -32992.135941044806, -26082.943508975924, -10584.355662388285, -7847.786885236131, -20558.709866846784, -4775.8078307876385, -24019.877495751083, 3123.6115841402516, -20065.071590551328, -23823.629179433487, -4023.358705444182, -2057.8804085112106, -12566.463657196005, -19829.528907481304, -0.27, 0.92, 0.014, 192.0, 0.0, 0.0, 0.0, 0.0, 0.0, 0.0, 0.0, 0.0, 0.0, 1.673044858910292E9, 0.0, 2023-01-06 17:40:58.910
198.0, -18532.99361860676, -25450.545603101924, -32994.79579863499, -26085.73747703284, -10564.574368545338, -7813.476957497234, -20588.057707316602, -4763.022632959203, -24018.089356194658, 3128.394857453687, -20069.474884209023, -23852.842909436575, -4049.5996534347123, -2042.2118356480405, -12565.256662995418, -19815.380253241095, -0.27, 0.92, 0.014, 192.0, 0.0, 0.0, 0.0, 0.0, 0.0, 0.0, 0.0, 0.0, 0.0, 1.6730448589103E9, 0.0, 2023-01-06 17:40:58.910
200.0, -18458.31644038158, -25371.55453819687, -32922.644367533256, -26013.42958371992, -10475.323852935297, -7753.3507649124585, -20445.498281180655, -4716.687466703352, -23985.14288486754, 3133.692220889595, -20048.01720953193, -23909.169305463947, -4008.9194785260534, -2000.2129078165185, -12542.077903995265, -19798.638796644067, -0.26, 0.896, 0.008, 192.0, 123.5, 112.0, 14.0, 0.0, 0.0, 32.0, 0.0, 0.0, 0.0, 1.673044858910306E9, 0.0, 2023-01-06 17:40:58.910
202.0, -18383.996890067683, -25296.85500822723, -32865.46860521658, -25953.57161206861, -10425.568869777784, -7694.9456566507415, -20420.173754712792, -4689.865373356984, -23892.293738400193, 3210.6045735603066, -19952.10587407421, -23873.09358991308, -3928.7661229093223, -1896.389054821617, -12435.571841665727, -19718.597199749613, -0.26, 0.896, 0.008, 192.0, 0.0, 0.0, 0.0, 0.0, 0.0, 0.0, 0.0, 0.0, 0.0, 1.673044858910312E9, 0.0, 2023-01-06 17:40:58.910
204.0, -18378.610119653957, -25294.01633668141, -32855.67854114516, -25929.588190268063, -10419.48919528594, -7661.798019623521, -20366.529568020054, -4596.993875145183, -23869.047924166673, 3251.3965071912417, -19925.507298172393, -23816.00723457423, -3930.822483399211, -1855.5077142128605, -12403.206515694443, -19676.75473412928, -0.26, 0.896, 0.008, 192.0, 0.0, 0.0, 0.0, 0.0, 0.0, 0.0, 0.0, 0.0, 0.0, 1.673044858910318E9, 0.0, 2023-01-06 17:40:58.910
206.0, -18378.811285354055, -25303.8734559862, -32851.6552271432, -25917.786469195664, -10421.143224375634, -7671.476324972668, -20369.74821922162, -4613.645924764386, -23875.44052308089, 3237.3596116733092, -19922.75803360439, -23818.644740419953, -3959.432716302004, -1862.168534060542, -12392.723547544903, -19656.638164119504, -0.26, 0.896, 0.008, 192.0, 0.0, 0.0, 0.0, 0.0, 0.0, 0.0, 0.0, 0.0, 0.0, 1.673044858910324E9, 0.0, 2023-01-06 17:40:58.910
208.0, -18359.566433378033, -25293.301080858837, -32826.53186637543, -25884.88470135745, -10360.61470039066, -7648.565786905979, -20332.53256470353, -4593.439947776788, -23855.43571179339, 3250.591844390851, -19899.623978093146, -23800.38336519997, -3956.2140651004393, -1856.8711706246343, -12376.160904903521, -19645.372884914028, -0.26, 0.896, 0.008, 192.0, 0.0, 0.0, 0.0, 0.0, 0.0, 0.0, 0.0, 0.0, 0.0, 1.6730448589103303E9, 0.0, 2023-01-06 17:40:58.910
210.0, -18317.791022991067, -25257.80651066381, -32788.824473479326, -25844.785671804628, -10353.484493909418, -7611.327780643437, -20288.879607782317, -4559.6217584159085, -23824.724414911798, 3281.034920338979, -19872.064277179754, -23792.359088940513, -3963.9924721708862, -1813.0841032366877, -12346.880119667068, -19616.583838055594, -0.245, 0.918, 0.022000000000000002, 192.0, 124.0, 104.0, 14.5, 48.0, 0.5, 16.0, 0.0, 0.0, 0.0, 1.6730448589103365E9, 0.0, 2023-01-06 17:40:58.910
212.0, -18350.15634896235, -25294.44101982606, -32829.504648387985, -25887.23163452526, -10402.568924733272, -7657.305318988004, -20330.87853561384, -4595.205735588758, -23829.217115547315, 3296.5023275020517, -19874.23239639192, -23766.56517583909, -3997.4977371093914, -1797.9519722404448, -12340.889852153046, -19612.31465486463, -0.245, 0.918, 0.022000000000000002, 192.0, 0.0, 0.0, 0.0, 0.0, 0.0, 0.0, 0.0, 0.0, 0.0, 1.6730448589103425E9, 0.0, 2023-01-06 17:40:58.910
214.0, -18281.00005161763, -25224.927094570055, -32773.312362827346, -25832.134584442927, -10332.04917097678, -7583.321044840938, -20276.653203565267, -4528.999868512138, -23812.252141505738, 3315.255441100054, -19861.536605541303, -23766.006382227708, -4042.0224120643634, -1789.301847136241, -12357.005459905322, -19604.02215767171, -0.245, 0.918, 0.022000000000000002, 192.0, 0.0, 0.0, 0.0, 0.0, 0.0, 0.0, 0.0, 0.0, 0.0, 1.6730448589103484E9, 0.0, 2023-01-06 17:40:58.910
216.0, -18314.95235144524, -25257.940621130543, -32793.58539504831, -25856.78855857713, -10359.787685845815, -7601.828289249932, -20304.235256223114, -4551.2845577340795, -23824.99263584526, 3320.910432447247, -19872.93599521351, -23757.289201890137, -4062.6307204521563, -1783.1327656665762, -12347.751837700825, -19616.40502409995, -0.245, 0.918, 0.022000000000000002, 192.0, 0.0, 0.0, 0.0, 0.0, 0.0, 0.0, 0.0, 0.0, 0.0, 1.6730448589103544E9, 0.0, 2023-01-06 17:40:58.910
218.0, -18270.494731723637, -25228.928056827554, -32741.10349906725, -25788.01224088815, -10335.066656478246, -7531.353238982349, -20250.121682896817, -4455.797905421007, -23802.909112323418, 3337.830702999914, -19845.286887322294, -23753.869384988473, -4078.6569212266118, -1733.1319133200543, -12322.360255999596, -19564.21370079681, -0.245, 0.918, 0.022000000000000002, 192.0, 0.0, 0.0, 0.0, 0.0, 0.0, 0.0, 0.0, 0.0, 0.0, 1.6730448589103603E9, 0.0, 2023-01-06 17:40:58.910
220.0, -18289.069031365994, -25271.329316059273, -32750.223010805013, -25800.86449394995, -10315.061845190745, -7551.559215969946, -20256.91661321123, -4481.658873755798, -23807.602978659033, 3296.167051335222, -19850.852471691665, -23766.22989967226, -4108.809424496821, -1751.2815298177636, -12321.399130988018, -19580.44106727136, -0.20650000000000002, 0.9470000000000001, 0.04700000000000001, 192.0, 125.0, 96.0, 15.0, 64.0, 1.0, 32.0, 0.0, 0.0, 0.0, 1.6730448589103665E9, 0.0, 2023-01-06 17:40:58.910
222.0, -18238.151757496806, -25228.212801004986, -32694.14248396665, -25747.935563079784, -10262.89287363206, -7471.405860353215, -20178.6631558732, -4389.524983111022, -23772.108408464006, 3300.346827548364, -19811.401642728048, -23765.693457805333, -4106.730712262477, -1708.1203112745657, -12272.046479230701, -19532.38481669245, -0.20650000000000002, 0.9470000000000001, 0.04700000000000001, 192.0, 0.0, 0.0, 0.0, 0.0, 0.0, 0.0, 0.0, 0.0, 0.0, 1.6730448589103725E9, 0.0, 2023-01-06 17:40:58.910
224.0, -18226.662960846777, -25209.14676298461, -32687.88399551916, -25757.300944006558, -10253.415733983009, -7470.020052196986, -20191.113077534807, -4374.348148625869, -23747.297972118613, 3321.201005125166, -19791.01685178481, -23768.576832840066, -4104.182613394572, -1671.7540230457812, -12236.775426480226, -19526.841584067533, -0.20650000000000002, 0.9470000000000001, 0.04700000000000001, 192.0, 0.0, 0.0, 0.0, 0.0, 0.0, 0.0, 0.0, 0.0, 0.0, 1.6730448589103787E9, 0.0, 2023-01-06 17:40:58.910
226.0, -18200.82434425644, -25162.230451372918, -32658.402044582614, -25738.726644364197, -10222.637381868051, -7405.982304332531, -20160.155911464204, -4243.590443562322, -23741.50887030469, 3322.586813281395, -19774.834188799166, -23801.61271114501, -4147.9696807825185, -1631.0961998815776, -12233.065036900645, -19487.32369987055, -0.20650000000000002, 0.9470000000000001, 0.04700000000000001, 192.0, 0.0, 0.0, 0.0, 0.0, 0.0, 0.0, 0.0, 0.0, 0.0, 1.673044858910385E9, 0.0, 2023-01-06 17:40:58.910
228.0, -18176.148018377786, -25126.557067222246, -32643.13580311964, -25738.547830408555, -10207.192326449434, -7374.309882439361, -20165.296812688925, -4202.68675120911, -23718.08424211553, 3326.386609838797, -19755.544633334237, -23800.47277217779, -4170.768460126932, -1606.3081152806421, -12218.491699515784, -19478.159484643875, -0.20650000000000002, 0.9470000000000001, 0.04700000000000001, 192.0, 0.0, 0.0, 0.0, 0.0, 0.0, 0.0, 0.0, 0.0, 0.0, 1.6730448589103909E9, 0.0, 2023-01-06 17:40:58.910
230.0, -18090.116153969306, -25037.463013823395, -32563.49653762538, -25639.395492004813, -10121.04870331868, -7283.450041228538, -20074.325212755826, -4061.736650673944, -23677.15819801786, 3361.18827595571, -19696.960711116877, -23779.99857425673, -4185.811184145354, -1539.4540476148186, -12155.906815040924, -19423.822393873026, -0.16225, 0.9365000000000001, 0.0495, 192.0, 126.0, 40.0, 14.0, 120.0, 0.5, 80.0, 0.0, 0.0, 0.0, 1.6730448589103985E9, 0.0, 2023-01-06 17:40:58.910
232.0, -18080.48255210907, -25027.650598007513, -32545.659845550043, -25618.898942339296, -10112.644447403485, -7258.281976971863, -20060.042448048884, -4057.80274364981, -23638.10970045444, 3415.8606428933913, -19632.40887312995, -23719.224181082747, -4184.134803311205, -1476.1315555729336, -12111.918581952881, -19368.032439712577, -0.16225, 0.9365000000000001, 0.0495, 192.0, 0.0, 0.0, 0.0, 0.0, 0.0, 0.0, 0.0, 0.0, 0.0, 1.6730448589104044E9, 0.0, 2023-01-06 17:40:58.910
234.0, -18077.934453241167, -25033.305589354706, -32534.863952978132, -25610.02529979054, -10092.147897737968, -7257.745535104935, -20019.384624884682, -4031.22651949245, -23648.458558137245, 3405.221212532665, -19622.55175382516, -23711.31166354557, -4227.072504409851, -1506.4628727987854, -12086.39288978492, -19381.242320685666, -0.16225, 0.9365000000000001, 0.0495, 192.0, 0.0, 0.0, 0.0, 0.0, 0.0, 0.0, 0.0, 0.0, 0.0, 1.6730448589104104E9, 0.0, 2023-01-06 17:40:58.910
236.0, -18057.75082799802, -25013.61370248958, -32514.792086457266, -25588.053534990973, -10093.779575083207, -7233.248023181918, -19961.158330578608, -3960.9302831805094, -23636.4780231092, 3423.102608096911, -19600.177657625398, -23664.752979845165, -4268.8255630523645, -1495.376407548953, -12067.48331397573, -19346.194785379743, -0.16225, 0.9365000000000001, 0.0495, 192.0, 0.0, 0.0, 0.0, 0.0, 0.0, 0.0, 0.0, 0.0, 0.0, 1.6730448589104166E9, 0.0, 2023-01-06 17:40:58.910
238.0, -18067.09385718034, -25017.011167646786, -32510.187627099473, -25583.62788958882, -10084.414194156432, -7270.553084677826, -19969.741400449446, -3987.5288590823247, -23636.321560898014, 3446.929567686268, -19585.760782451725, -23641.149537700363, -4291.46788018559, -1467.7943548911041, -12040.750627607184, -19333.141366617845, -0.16225, 0.9365000000000001, 0.0495, 192.0, 0.0, 0.0, 0.0, 0.0, 0.0, 0.0, 0.0, 0.0, 0.0, 1.6730448589104226E9, 0.0, 2023-01-06 17:40:58.910
240.0, -18113.25020948055, -25057.177252432975, -32556.120461955128, -25620.5976749179, -10113.314999737144, -7312.239088086973, -19982.593653511245, -4035.3392404722263, -23693.922006359342, 3399.365055485375, -19614.63923628798, -23649.218517448728, -4381.098375451372, -1494.0353028816346, -12065.471656974752, -19363.986773966168, -0.16412500000000002, 0.95325, 0.05475, 192.0, 125.0, 104.0, 15.0, 40.0, 0.5, 112.0, 0.0, 0.0, 0.0, 1.6730448589104288E9, 0.0, 2023-01-06 17:40:58.910
242.0, -18111.417366435217, -25051.946944230433, -32541.81534550373, -25616.462602193667, -10129.028276089224, -7296.659922201625, -19957.71616193249, -4040.569548674768, -23718.844201427008, 3414.743055670626, -19646.423416903428, -23654.806453562553, -4412.614335133354, -1540.7728005376819, -12095.780622456148, -19401.02361452861, -0.16412500000000002, 0.95325, 0.05475, 192.0, 0.0, 0.0, 0.0, 0.0, 0.0, 0.0, 0.0, 0.0, 0.0, 1.6730448589104347E9, 0.0, 2023-01-06 17:40:58.910
244.0, -18175.74568697759, -25106.932235590488, -32639.8053931958, -25674.286565099548, -10178.358576102088, -7358.21662643154, -19992.853104216232, -4082.5908282507457, -23726.17557360835, 3368.81022081497, -19659.722704854335, -23651.431340149804, -4459.038908367027, -1561.7834403256704, -12090.706776464795, -19404.51048666364, -0.16412500000000002, 0.95325, 0.05475, 192.0, 0.0, 0.0, 0.0, 0.0, 0.0, 0.0, 0.0, 0.0, 0.0, 1.6730448589104416E9, 0.0, 2023-01-06 17:40:58.910
246.0, -18176.863274200354, -25108.63096816909, -32619.241788296917, -25688.4128675953, -10178.11270691308, -7367.31378642485, -20025.039616231876, -4113.704456532533, -23811.112202538516, 3388.993846058112, -19741.083054671653, -23673.87249158293, -4565.030880574093, -1594.1711180414104, -12174.54816991665, -19457.171196600342, -0.16412500000000002, 0.95325, 0.05475, 192.0, 0.0, 0.0, 0.0, 0.0, 0.0, 0.0, 0.0, 0.0, 0.0, 1.6730448589104476E9, 0.0, 2023-01-06 17:40:58.910
248.0, -18257.486016450646, -25183.352849883184, -32699.059867746815, -25762.374789997913, -10245.078533301179, -7417.225231793551, -20068.804331875366, -4168.130954281206, -23795.465981419802, 3269.523771944496, -19741.038351182742, -23714.306797302583, -4545.1825314977805, -1667.2166189213538, -12186.327539244598, -19485.803781247592, -0.16412500000000002, 0.95325, 0.05475, 192.0, 0.0, 0.0, 0.0, 0.0, 0.0, 0.0, 0.0, 0.0, 0.0, 1.6730448589104538E9, 0.0, 2023-01-06 17:40:58.910
250.0, -18244.27613547756, -25155.8378524587, -32720.785763357377, -25723.974493023696, -10276.348623794154, -7411.592592190814, -20078.795561646886, -4166.231056002504, -23910.800982809185, 3329.806426740459, -19828.746596425368, -23717.32428280405, -4617.713942255252, -1660.3322816291193, -12244.397371339486, -19515.129269972953, -0.15306250000000002, 0.977625, 0.065375, 192.0, 125.5, 72.0, 15.5, 40.0, 1.0, 48.0, 0.0, 0.0, 0.0, 1.67304485891046E9, 0.0, 2023-01-06 17:40:58.910
252.0, -18235.536603395536, -25157.13425363711, -32682.94425999454, -25723.28158894558, -10261.574120709196, -7419.147481816707, -20067.373820230227, -4167.952140325563, -23783.060763247107, 3362.6634910897606, -19769.693287574446, -23685.718916144244, -4629.605070305475, -1639.7239732413261, -12217.821147182125, -19492.129324928443, -0.15306250000000002, 0.977625, 0.065375, 192.0, 0.0, 0.0, 0.0, 0.0, 0.0, 0.0, 0.0, 0.0, 0.0, 1.673044858910466E9, 0.0, 2023-01-06 17:40:58.910
254.0, -18270.584138701455, -25210.13023974064, -32738.19777228806, -25791.543816512087, -10283.143554108567, -7441.990964650031, -20086.283396039416, -4180.804393387365, -23861.090703140584, 3198.6687420211724, -19808.20534327094, -23723.739233462722, -4605.822814205028, -1681.3429214171078, -12241.625755027027, -19533.2118312373, -0.15306250000000002, 0.977625, 0.065375, 192.0, 0.0, 0.0, 0.0, 0.0, 0.0, 0.0, 0.0, 0.0, 0.0, 1.673044858910472E9, 0.0, 2023-01-06 17:40:58.910
0.0, -18281.514141740103, -25197.725021567945, -32749.887734638185, -25792.39318280139, -10313.47487133442, -7489.488421617559, -20114.603056264288, -4197.568201728845, -23834.067444094115, 3217.0195242189798, -19829.484203992393, -23753.377646610457, -4618.697419011285, -1708.3438287191188, -12253.18160691042, -19556.569404193095, -0.15306250000000002, 0.977625, 0.065375, 192.0, 0.0, 0.0, 0.0, 0.0, 0.0, 0.0, 0.0, 0.0, 0.0, 1.673044858910478E9, 0.0, 2023-01-06 17:40:58.910
2.0, -18306.883371696877, -25214.242960720418, -32767.6350197357, -25814.655520278877, -10327.064731963246, -7498.809099055422, -20141.738074033034, -4223.384466574725, -23890.237377910304, 3357.1649619537548, -19837.553183740758, -23708.383585021926, -4624.620631291942, -1751.6391577290485, -12271.308871663676, -19574.87548290199, -0.15306250000000002, 0.977625, 0.065375, 192.0, 0.0, 0.0, 0.0, 0.0, 0.0, 0.0, 0.0, 0.0, 0.0, 1.6730448589104843E9, 0.0, 2023-01-06 17:40:58.910
4.0, -18329.793909763564, -25239.835708121744, -32811.80206677938, -25841.857593280984, -10338.128845468622, -7516.243459730561, -20157.22783294056, -4246.339708130326, -23910.711575831363, 3219.008829475502, -19856.775683972322, -23753.71292277729, -4573.5915987004755, -1793.7274925383917, -12302.355444712097, -19597.853076202045, -0.15953125, 0.9988125, 0.0796875, 192.0, 125.0, 104.0, 15.5, 112.0, 1.0, 120.0, 0.0, 0.0, 0.0, 1.6730448589104905E9, 0.0, 2023-01-06 17:40:58.910
6.0, -18384.309814490058, -25278.303060329326, -32883.41705601419, -25885.35408799101, -10408.961523647491, -7565.1043731098625, -20226.562944240923, -4313.819624640897, -24024.66076906452, 3164.5152764934633, -19954.631621197655, -23779.663298089898, -4476.294455086524, -1806.2444694333637, -12345.673125466481, -19647.786873315203, -0.15953125, 0.9988125, 0.0796875, 192.0, 0.0, 0.0, 0.0, 0.0, 0.0, 0.0, 0.0, 0.0, 0.0, 1.673044858910498E9, 0.0, 2023-01-06 17:40:58.910
8.0, -18304.42467980679, -25216.07580376575, -32823.2461599405, -25859.44841616731, -10401.607799721694, -7555.850750905365, -20251.172214886217, -4307.09174955985, -24031.500402867845, 3191.136204139734, -19944.08159781475, -23791.576777884577, -4384.205267930659, -1828.327992955207, -12372.383460090574, -19668.641050892, -0.15953125, 0.9988125, 0.0796875, 192.0, 0.0, 0.0, 0.0, 0.0, 0.0, 0.0, 0.0, 0.0, 0.0, 1.673044858910504E9, 0.0, 2023-01-06 17:40:58.910
10.0, -18271.478208479668, -25170.12061716564, -32774.564060516845, -25817.15891565787, -10387.14622105911, -7502.273619445994, -20182.239434986048, -4295.111214531805, -23831.58640045958, 3352.873427018336, -19829.886535392587, -23708.36123327747, -4268.758507818998, -1763.9549689239227, -12333.290259038242, -19624.541059081683, -0.15953125, 0.9988125, 0.0796875, 192.0, 0.0, 0.0, 0.0, 0.0, 0.0, 0.0, 0.0, 0.0, 0.0, 1.67304485891051E9, 0.0, 2023-01-06 17:40:58.910
12.0, -18285.58215923097, -25182.257614404873, -32816.786505792916, -25854.463977153777, -10381.111250056178, -7526.078227290896, -20219.29862729295, -4328.303555047936, -23820.388176487468, 3317.3788568233085, -19848.8855181796, -23730.489460288223, -4154.339927952281, -1761.1610008670093, -12322.069683321677, -19613.700463020858, -0.15953125, 0.9988125, 0.0796875, 192.0, 0.0, 0.0, 0.0, 0.0, 0.0, 0.0, 0.0, 0.0, 0.0, 1.673044858910516E9, 0.0, 2023-01-06 17:40:58.910
14.0, -18317.14282240186, -25185.342155139704, -32873.895212876225, -25884.72823914626, -10412.984837649446, -7577.621350004834, -20248.691171251678, -4337.132494107783, -23906.487096129313, 3352.828723529425, -19907.26827469686, -23754.964620466784, -4053.958243603497, -1786.2620098903192, -12364.917977442501, -19652.950126284377, -0.16376562500000003, 0.9844062499999999, 0.08784375, 192.0, 125.0, 96.0, 15.0, 40.0, 1.5, 0.0, 0.0, 0.0, 0.0, 1.673044858910522E9, 0.0, 2023-01-06 17:40:58.910
16.0, -18309.58793277597, -25166.499634563883, -32847.81072709688, -25905.403602767423, -10369.175418517045, -7567.361899299848, -20240.5774880144, -4355.662090261232, -23902.73200306082, 3262.7958968634484, -19924.74733886091, -23807.915903081408, -3927.6932391754676, -1827.590385388182, -12363.889797197557, -19661.71201011086, -0.16376562500000003, 0.9844062499999999, 0.08784375, 192.0, 0.0, 0.0, 0.0, 0.0, 0.0, 0.0, 0.0, 0.0, 0.0, 1.6730448589105284E9, 0.0, 2023-01-06 17:40:58.910
18.0, -18314.997054934152, -25138.291733061284, -32840.25583747099, -25899.033355597658, -10417.790462707337, -7570.1558673567615, -20269.81356976194, -4332.550386494445, -23866.030438665206, 3378.0861947639223, -19923.048606282307, -23795.62244363099, -3860.392136620538, -1807.1608909560314, -12361.028773907277, -19668.50694042527, -0.16376562500000003, 0.9844062499999999, 0.08784375, 192.0, 0.0, 0.0, 0.0, 0.0, 0.0, 0.0, 0.0, 0.0, 0.0, 1.6730448591443996E9, 0.0, 2023-01-06 17:40:59.144
20.0, -18361.332221190005, -25150.808709956254, -32880.57838446837, -25920.08869887456, -10436.901204216625, -7582.002291918075, -20297.82030556444, -4335.724334207098, -23897.278177413726, 3356.0920782199, -19939.097158801218, -23833.508650482734, -3810.4136360184716, -1815.945126526967, -12365.163846631509, -19667.27759448023, -0.16376562500000003, 0.9844062499999999, 0.08784375, 192.0, 0.0, 0.0, 0.0, 0.0, 0.0, 0.0, 0.0, 0.0, 0.0, 1.6730448591444302E9, 0.0, 2023-01-06 17:40:59.144
22.0, -18359.655840355856, -25120.387985752583, -32878.14204432274, -25925.3190070771, -10429.055741912813, -7563.8750271648205, -20285.48214262511, -4328.370610281302, -23919.853439313585, 3388.5244594245505, -19944.685094915047, -23838.180165073893, -3759.518713893737, -1816.7944928162688, -12386.040375952767, -19677.000603318287, -0.16376562500000003, 0.9844062499999999, 0.08784375, 192.0, 0.0, 0.0, 0.0, 0.0, 0.0, 0.0, 0.0, 0.0, 0.0, 1.6730448591444547E9, 0.0, 2023-01-06 17:40:59.144
24.0, -18373.580977151512, -25115.560008950237, -32868.19551804013, -25937.500707805244, -10424.384227321652, -7541.5679861984245, -20308.25857022507, -4311.338581006358, -23868.802054977663, 3330.007592440557, -19920.433452181038, -23862.856490952552, -3745.459466631349, -1833.5806529022043, -12392.276512655797, -19682.65559466548, -0.16376562500000003, 0.9844062499999999, 0.08784375, 192.0, 0.0, 0.0, 0.0, 0.0, 0.0, 0.0, 0.0, 0.0, 0.0, 1.6730448591444757E9, 0.0, 2023-01-06 17:40:59.144
26.0, -18395.820962884543, -25123.249009042862, -32896.761047454005, -25959.4277691159, -10452.726239290982, -7552.632099703801, -20330.74442514711, -4321.575679966889, -23864.331706086603, 3446.862512452902, -19907.93882703052, -23847.09851111156, -3766.8724378195334, -1839.0568302937545, -12403.608847094638, -19691.41747849196, -0.132, 0.9, 0.062, 192.0, 125.5, 112.0, 14.0, 16.0, 0.5, 120.0, 0.0, 0.0, 0.0, 1.6730448591444817E9, 0.0, 2023-01-06 17:40:59.144
28.0, -18409.433175257825, -25125.327721277205, -32913.23428311757, -25958.3772371265, -10474.273320945898, -7566.624291732824, -20340.869765385363, -4294.351255220325, -23909.191657208405, 3361.1212207223443, -19942.114644302685, -23893.500732600776, -3738.7092398058467, -1843.169551273531, -12437.56114692225, -19709.9023711565, -0.132, 0.9, 0.062, 192.0, 0.0, 0.0, 0.0, 0.0, 0.0, 0.0, 0.0, 0.0, 0.0, 1.673044859144488E9, 0.0, 2023-01-06 17:40:59.144
30.0, -18440.815024473075, -25151.389855312093, -32934.96017872813, -25970.201309943357, -10472.865161045214, -7569.060631878452, -20357.23124232665, -4292.384301708258, -23922.960331792874, 3433.3620588018966, -19959.638411955646, -23886.48228484181, -3766.2018854858743, -1851.7302693999136, -12459.823484399734, -19717.18903984893, -0.132, 0.9, 0.062, 192.0, 0.0, 0.0, 0.0, 0.0, 0.0, 0.0, 0.0, 0.0, 0.0, 1.673044859144494E9, 0.0, 2023-01-06 17:40:59.144
32.0, -18425.5487830101, -25142.53856450779, -32907.13225688127, -25952.968114968317, -10454.559082336316, -7562.310405052949, -20304.83875332341, -4308.879889116274, -23859.168453117425, 3441.006355405612, -19933.822147109764, -23875.798150992174, -3744.431286386405, -1851.0373653217991, -12447.261804015852, -19706.348443788105, -0.132, 0.9, 0.062, 192.0, 0.0, 0.0, 0.0, 0.0, 0.0, 0.0, 0.0, 0.0, 0.0, 1.6730448591445005E9, 0.0, 2023-01-06 17:40:59.144
34.0, -18436.881117448942, -25143.857317430655, -32914.68714650717, -25955.940896980872, -10471.83698080027, -7582.538733785002, -20326.139965789316, -4293.99362730904, -23878.458008582355, 3441.9227769282793, -19940.99705707992, -23874.211177135847, -3743.3136991636397, -1853.3172432562403, -12425.066521771732, -19709.880019412045, -0.132, 0.9, 0.062, 192.0, 0.0, 0.0, 0.0, 0.0, 0.0, 0.0, 0.0, 0.0, 0.0, 1.6730448591445065E9, 0.0, 2023-01-06 17:40:59.144
36.0, -18465.17842592936, -25172.35579161117, -32919.44806807614, -25968.748446553764, -10488.377271697196, -7622.950687760197, -20349.296373045014, -4321.2404038000595, -23890.572654077132, 3428.288212810542, -19952.99994385242, -23878.569767304634, -3755.8977312919774, -1856.1112113131537, -12431.392065452585, -19718.776013705257, -0.128, 0.91, 0.046, 192.0, 126.0, 0.0, 14.0, 56.0, 0.5, 56.0, 0.0, 0.0, 0.0, 1.673044859144513E9, 0.0, 2023-01-06 17:40:59.144
38.0, -18469.17938818686, -25176.580271313225, -32923.62784428929, -25966.446216874865, -10451.631003812672, -7606.477452096636, -20328.039864068018, -4296.385263965758, -23911.583293865122, 3420.6886196957375, -19964.578147480268, -23886.504636586265, -3776.886019335511, -1871.84683940969, -12433.202556753464, -19723.671045740968, -0.128, 0.91, 0.046, 192.0, 0.0, 0.0, 0.0, 0.0, 0.0, 0.0, 0.0, 0.0, 0.0, 1.6730448591445282E9, 0.0, 2023-01-06 17:40:59.144
40.0, -18484.69149883884, -25192.137085454116, -32935.60837931733, -25978.203234458357, -10473.848637801248, -7607.148004430295, -20330.632666424834, -4322.469749745101, -23913.818468310652, 3435.150198358321, -19966.969784136985, -23866.47747355431, -3815.0180953762647, -1879.6923017135027, -12433.090798031188, -19710.729385701346, -0.128, 0.91, 0.046, 192.0, 0.0, 0.0, 0.0, 0.0, 0.0, 0.0, 0.0, 0.0, 0.0, 1.6730448591445355E9, 0.0, 2023-01-06 17:40:59.144
42.0, -18497.499048411733, -25203.111791981675, -32948.10300446785, -26001.38199345851, -10525.07883609281, -7645.8165223379765, -20353.56555623598, -4342.407505799235, -23937.064282544172, 3423.214366819187, -19987.265168102404, -23889.700936043377, -3849.61859579308, -1880.22874358043, -12444.13255979211, -19737.23855462534, -0.128, 0.91, 0.046, 192.0, 0.0, 0.0, 0.0, 0.0, 0.0, 0.0, 0.0, 0.0, 0.0, 1.6730448591445425E9, 0.0, 2023-01-06 17:40:59.144
44.0, -18524.544659202656, -25226.536420170836, -32977.495548426574, -26024.15842105847, -10547.743504970493, -7648.923414817264, -20385.4614955737, -4330.2258050710925, -23946.139090793025, 3421.96266912969, -20000.81032524232, -23883.062467940148, -3875.2560466833174, -1913.8010637523014, -12467.84776065919, -19747.743874519336, -0.128, 0.91, 0.046, 192.0, 0.0, 0.0, 0.0, 0.0, 0.0, 0.0, 0.0, 0.0, 0.0, 1.6730448591445487E9, 0.0, 2023-01-06 17:40:59.144
46.0, -18542.180185577894, -25240.528612199858, -33009.86087439786, -26047.11366261407, -10570.497580825995, -7677.75716516461, -20388.590739797444, -4377.924427738718, -23979.97963189836, 3391.519593181562, -20037.82481406031, -23913.01380551026, -3956.6387482450905, -1936.3539739077062, -12525.850537520711, -19780.310366190715, -0.156, 0.934, 0.032, 192.0, 125.5, 16.0, 14.5, 24.0, 0.5, 0.0, 0.0, 0.0, 0.0, 1.6730448591445549E9, 0.0, 2023-01-06 17:40:59.144
48.0, -18535.29584828566, -25227.318731226773, -33002.8424266389, -26032.92030488495, -10530.644420462182, -7676.70663317521, -20383.74041125064, -4395.694064580687, -23979.17496909797, 3414.1619103147877, -20030.985180256986, -23881.073162683628, -4004.6055918461793, -1923.1887964235302, -12519.167365928575, -19784.311328448217, -0.156, 0.934, 0.032, 192.0, 0.0, 0.0, 0.0, 0.0, 0.0, 0.0, 0.0, 0.0, 0.0, 1.6730448591445608E9, 0.0, 2023-01-06 17:40:59.144
50.0, -18535.09468258556, -25223.384824202636, -33002.194226049694, -26037.658874709476, -10557.175941130632, -7675.23141804116, -20403.90168474933, -4350.744706481064, -23983.04182088874, 3416.7323609271484, -20029.554668611847, -23888.605700565065, -4060.060269839796, -1928.62027032617, -12521.111967696186, -19782.947872036442, -0.156, 0.934, 0.032, 192.0, 0.0, 0.0, 0.0, 0.0, 0.0, 0.0, 0.0, 0.0, 0.0, 1.6730448591445668E9, 0.0, 2023-01-06 17:40:59.144
52.0, -18538.559202976132, -25223.004844546896, -32997.03097308052, -26033.121470585047, -10553.599662017783, -7672.3480430064255, -20393.55282706652, -4373.565837569933, -23984.159408111504, 3422.499110996617, -20030.40403490115, -23870.791360234187, -4111.558689064824, -1937.0468779858206, -12521.737816540935, -19787.86525581661, -0.156, 0.934, 0.032, 192.0, 0.0, 0.0, 0.0, 0.0, 0.0, 0.0, 0.0, 0.0, 0.0, 1.6730448591445727E9, 0.0, 2023-01-06 17:40:59.144
54.0, -18527.070406326104, -25211.448992663503, -32981.31769672843, -26021.342101257098, -10540.948574656079, -7667.676528415267, -20377.54897803652, -4377.969131227628, -23981.723067965875, 3428.668192466282, -20022.670331319612, -23876.267537625736, -4124.00861072643, -1919.746627777413, -12511.657179791591, -19782.702002847436, -0.156, 0.934, 0.032, 192.0, 0.0, 0.0, 0.0, 0.0, 0.0, 0.0, 0.0, 0.0, 0.0, 1.673044859144579E9, 0.0, 2023-01-06 17:40:59.144
56.0, -18516.967417832308, -25202.061259992275, -32977.026161793015, -26016.402365732476, -10548.056429392867, -7675.387880252348, -20381.41582982729, -4367.061479933439, -23990.03791690325, 3434.546701258028, -20022.6256278307, -23863.884671197495, -4162.431259445102, -1904.1451101476086, -12512.327732125252, -19788.021718027798, -0.168, 0.9500000000000001, 0.02, 192.0, 125.0, 96.0, 14.5, 88.0, 0.0, 80.0, 0.0, 0.0, 0.0, 1.6730448591445851E9, 0.0, 2023-01-06 17:40:59.144
58.0, -18509.457231695324, -25202.50829488138, -32968.24192622208, -26011.75320288577, -10530.152682084166, -7671.744545906133, -20380.4100013268, -4377.72326203862, -23966.59093696963, 3450.774067732581, -19993.724822249987, -23862.4318078079, -4173.294207250382, -1869.1199265861426, -12505.264580877374, -19761.847825270634, -0.168, 0.9500000000000001, 0.02, 192.0, 0.0, 0.0, 0.0, 0.0, 0.0, 0.0, 0.0, 0.0, 0.0, 1.673044859144591E9, 0.0, 2023-01-06 17:40:59.144
60.0, -18504.18222000387, -25198.149704712596, -32960.57527787391, -26009.1380487845, -10536.545280998384, -7663.586159179946, -20409.4672691187, -4384.160564441749, -23978.236195830847, 3428.332916299453, -19994.90946470612, -23861.470682796324, -4196.741187183999, -1894.7573774763798, -12504.884601221635, -19763.032467726764, -0.168, 0.9500000000000001, 0.02, 192.0, 0.0, 0.0, 0.0, 0.0, 0.0, 0.0, 0.0, 0.0, 0.0, 1.6730448591445973E9, 0.0, 2023-01-06 17:40:59.144
62.0, -18492.93929254285, -25187.30910865177, -32948.37122540131, -26004.82416210463, -10504.761100382937, -7663.854380113409, -20387.428449085768, -4382.260666163047, -23981.812474943697, 3415.1453870708215, -19990.28265360387, -23883.062467940148, -4229.017106177462, -1891.292857085807, -12511.56777281377, -19757.735104290856, -0.168, 0.9500000000000001, 0.02, 192.0, 0.0, 0.0, 0.0, 0.0, 0.0, 0.0, 0.0, 0.0, 0.0, 1.6730448591446035E9, 0.0, 2023-01-06 17:40:59.144
64.0, -18471.57102484358, -25171.439370088505, -32906.72992548107, -25971.832987288595, -10493.160545010633, -7642.620222880867, -20353.051466113506, -4370.570703812922, -23961.293573533723, 3424.9130993977906, -19957.358534021205, -23846.38325528899, -4238.136617915227, -1871.8021359207794, -12459.667022188547, -19724.654522497003, -0.168, 0.9500000000000001, 0.02, 192.0, 0.0, 0.0, 0.0, 0.0, 0.0, 0.0, 0.0, 0.0, 0.0, 1.6730448591446092E9, 0.0, 2023-01-06 17:40:59.144
66.0, -18471.347507399023, -25191.310070909272, -32894.4141142862, -25960.299487149656, -10478.453097159041, -7665.240188269639, -20386.17675139627, -4329.66701145971, -23958.54430896572, 3398.426282218252, -19937.957219834, -23855.21219434884, -4253.715783800577, -1873.590275477204, -12446.993583082389, -19722.46405154038, -0.20800000000000002, 0.986, 0.026000000000000002, 192.0, 124.5, 64.0, 15.0, 104.0, 0.0, 104.0, 0.0, 0.0, 0.0, 1.6730448591446157E9, 0.0, 2023-01-06 17:40:59.144
68.0, -18455.678934535856, -25185.677431306536, -32876.64447744423, -25948.430710843888, -10457.062477715312, -7656.99239456563, -20324.150660532792, -4347.548407023955, -23946.63082917104, 3377.4603459191735, -19919.80760333629, -23834.827403405598, -4276.849839311819, -1849.808019376757, -12434.118978276132, -19716.630246237546, -0.20800000000000002, 0.986, 0.026000000000000002, 192.0, 0.0, 0.0, 0.0, 0.0, 0.0, 0.0, 0.0, 0.0, 0.0, 1.6730448591446228E9, 0.0, 2023-01-06 17:40:59.144
70.0, -18417.859782917476, -25150.875765189623, -32849.12948001975, -25938.350074094546, -10447.1159514327, -7630.41617040827, -20318.093337785405, -4335.813741184919, -23931.185773752426, 3350.3476798948864, -19907.245922952407, -23854.787511204187, -4268.89261828573, -1840.5767489167154, -12422.31725720373, -19719.938304416934, -0.20800000000000002, 0.986, 0.026000000000000002, 192.0, 0.0, 0.0, 0.0, 0.0, 0.0, 0.0, 0.0, 0.0, 0.0, 1.6730448591446304E9, 0.0, 2023-01-06 17:40:59.144
72.0, -18383.54985517858, -25119.44921248546, -32829.102316987795, -25933.94678043685, -10410.101462614712, -7615.686370812223, -20304.101145756384, -4329.309383548425, -23879.933223716405, 3361.9482352671907, -19868.622108533636, -23836.213211561826, -4257.98496699154, -1811.4524258914503, -12400.010216237333, -19691.66334768097, -0.20800000000000002, 0.986, 0.026000000000000002, 192.0, 0.0, 0.0, 0.0, 0.0, 0.0, 0.0, 0.0, 0.0, 0.0, 1.6730448593467104E9, 0.0, 2023-01-06 17:40:59.346
74.0, -18393.11640180545, -25136.458890015947, -32833.37150017876, -25953.526908579697, -10391.102479827701, -7614.322914400449, -20302.938855044707, -4330.404619026735, -23868.75735148875, 3325.9619266941463, -19862.095399152684, -23870.523139300723, -4282.3260167033695, -1810.6254113466039, -12399.65258832605, -19684.08610631062, -0.20800000000000002, 0.986, 0.026000000000000002, 192.0, 0.0, 0.0, 0.0, 0.0, 0.0, 0.0, 0.0, 0.0, 0.0, 1.67304485934675E9, 0.0, 2023-01-06 17:40:59.346
76.0, -18393.40697448337, -25139.811651684246, -32832.656244356185, -25958.13136793749, -10392.264770539376, -7616.669847568256, -20297.306215441968, -4331.231633571581, -23890.438543610402, 3282.264266284021, -19882.480190095925, -23908.565808363655, -4328.23649981457, -1828.752676099858, -12394.891666757068, -19696.960711116877, -0.166, 0.916, -0.002, 192.0, 125.0, 104.0, 14.0, 80.0, 127.5, 120.0, 0.0, 0.0, 0.0, 1.673044859346756E9, 0.0, 2023-01-06 17:40:59.346
78.0, -18351.363343162935, -25102.238369254872, -32787.81864497884, -25912.600864482032, -10353.328031698231, -7576.101431381873, -20249.741703241078, -4266.9480165181185, -23864.756389231254, 3282.778356406493, -19857.848567706176, -23903.06727922765, -4338.317136563914, -1802.2435071758637, -12355.060858137711, -19665.154178756977, -0.166, 0.916, -0.002, 192.0, 0.0, 0.0, 0.0, 0.0, 0.0, 0.0, 0.0, 0.0, 0.0, 1.673044859346763E9, 0.0, 2023-01-06 17:40:59.346
80.0, -18355.29725018707, -25111.760212392834, -32783.39299957669, -25897.289919530147, -10359.944148057002, -7574.246236592083, -20250.613421274833, -4277.542743389934, -23843.991618632273, 3284.3429785183644, -19831.540564482282, -23880.894348727983, -4342.698078477154, -1780.0929284206545, -12330.608049703606, -19630.441919617882, -0.166, 0.916, -0.002, 192.0, 0.0, 0.0, 0.0, 0.0, 0.0, 0.0, 0.0, 0.0, 0.0, 1.6730448593467689E9, 0.0, 2023-01-06 17:40:59.346
82.0, -18344.411950637335, -25107.87100885761, -32747.71961542602, -25859.06843651157, -10346.421342661542, -7551.514512481036, -20234.14018561127, -4267.573865362867, -23844.393950032467, 3252.178818247178, -19821.996369599863, -23878.234491137802, -4386.663959820743, -1793.3698646271068, -12334.541956727739, -19621.903553235956, -0.166, 0.916, -0.002, 192.0, 0.0, 0.0, 0.0, 0.0, 0.0, 0.0, 0.0, 0.0, 0.0, 1.6730448593467743E9, 0.0, 2023-01-06 17:40:59.346
84.0, -18314.818240978508, -25086.569796391705, -32725.814905859817, -25821.852781993482, -10293.447708302463, -7512.667180617712, -20193.6164729138, -4217.729475227532, -23806.820667603097, 3285.348807018853, -19775.8176655552, -23839.163641829928, -4400.276172194025, -1747.4817332603616, -12298.980331299344, -19566.717096175802, -0.166, 0.916, -0.002, 192.0, 0.0, 0.0, 0.0, 0.0, 0.0, 0.0, 0.0, 0.0, 0.0, 1.67304485934678E9, 0.0, 2023-01-06 17:40:59.346
86.0, -18335.135976688383, -25113.660110671535, -32752.838164906287, -25846.663218338876, -10335.111359967155, -7538.662259419234, -20231.23445883208, -4223.585632274822, -23822.019853832706, 3258.258492739021, -19788.826380828188, -23846.80793843364, -4452.109867585882, -1736.5517302217163, -12310.491479693828, -19567.432351998374, -0.148, 0.916, -0.01, 192.0, 125.5, 48.0, 14.0, 80.0, 127.5, 88.0, 0.0, 0.0, 0.0, 1.6730448593467855E9, 0.0, 2023-01-06 17:40:59.346
88.0, -18309.56558103151, -25096.985709307875, -32759.76720568743, -25854.240459709225, -10315.575935313218, -7555.783695671999, -20233.559040255434, -4269.049080496917, -23816.85660086353, 3244.6015768768284, -19787.597034883147, -23860.867185696028, -4468.560751504988, -1728.7509714068142, -12327.925840368967, -19584.53143650668, -0.148, 0.916, -0.01, 192.0, 0.0, 0.0, 0.0, 0.0, 0.0, 0.0, 0.0, 0.0, 0.0, 1.6730448593467915E9, 0.0, 2023-01-06 17:40:59.346
90.0, -18311.532534543578, -25104.361784978126, -32764.34931330077, -25869.12672151646, -10335.13371171161, -7573.799201702977, -20262.638659791788, -4231.855777723286, -23808.85467634853, 3247.842579822848, -19779.125723734585, -23844.7292261993, -4512.169004937292, -1741.4244105129733, -12336.866538151091, -19613.74516650977, -0.148, 0.916, -0.01, 192.0, 0.0, 0.0, 0.0, 0.0, 0.0, 0.0, 0.0, 0.0, 0.0, 1.673044859346797E9, 0.0, 2023-01-06 17:40:59.346
92.0, -18349.955183262253, -25145.01960814233, -32809.11985744475, -25910.432745269867, -10371.879979596137, -7616.803958034988, -20306.157506246273, -4281.6107608808, -23838.023702862705, 3194.6901315081277, -19811.602808428146, -23885.744677274786, -4557.431287459289, -1782.1492889105427, -12377.591416548661, -19654.782969329714, -0.148, 0.916, -0.01, 192.0, 0.0, 0.0, 0.0, 0.0, 0.0, 0.0, 0.0, 0.0, 0.0, 1.6730448593468027E9, 0.0, 2023-01-06 17:40:59.346
94.0, -18328.452805096247, -25125.819459655224, -32784.93526994411, -25879.2073582658, -10342.018049003846, -7610.277248654038, -20266.930194727207, -4273.519429387979, -23852.798205947664, 3190.8009279729044, -19818.06246257573, -23872.91477595744, -4606.6945322387855, -1804.0539984767436, -12386.487410841872, -19665.73532411281, -0.148, 0.916, -0.01, 192.0, 0.0, 0.0, 0.0, 0.0, 0.0, 0.0, 0.0, 0.0, 0.0, 1.6730448593468084E9, 0.0, 2023-01-06 17:40:59.346
96.0, -18337.281744156095, -25138.87287841712, -32795.90997647166, -25887.097524058525, -10347.650688606584, -7611.372484132348, -20271.422895362724, -4267.506810129501, -23842.315237798124, 3205.307210124399, -19801.43276470098, -23858.989639161784, -4634.500102341188, -1763.5973410126378, -12352.758628458814, -19636.61100108755, -0.133, 0.912, -0.011, 192.0, 126.0, 40.0, 14.0, 48.0, 127.5, 80.0, 0.0, 0.0, 0.0, 1.673044859346814E9, 0.0, 2023-01-06 17:40:59.346
98.0, -18356.63835485439, -25164.75619849637, -32805.20830216507, -25895.993518351737, -10395.885753141136, -7640.362696690881, -20300.167238732247, -4294.172441264683, -23866.835101465596, 3183.469555791564, -19819.49297422087, -23854.362828059537, -4697.867297871983, -1778.327140608685, -12374.842151980658, -19643.94237326889, -0.133, 0.912, -0.011, 192.0, 0.0, 0.0, 0.0, 0.0, 0.0, 0.0, 0.0, 0.0, 0.0, 1.6730448593468196E9, 0.0, 2023-01-06 17:40:59.346
100.0, -18349.575203606513, -25165.851433974676, -32807.35406963278, -25897.491085230242, -10392.309474028287, -7644.475417670658, -20332.666675170265, -4303.269601257993, -23876.40164809247, 3171.1984480856, -19825.50559347935, -23871.730133501307, -4739.106266392025, -1782.5963237996489, -12395.763384790826, -19657.867510064545, -0.133, 0.912, -0.011, 192.0, 0.0, 0.0, 0.0, 0.0, 0.0, 0.0, 0.0, 0.0, 0.0, 1.6730448593468251E9, 0.0, 2023-01-06 17:40:59.346
102.0, -18365.847273569976, -25189.387820886117, -32819.91575001666, -25915.059556372114, -10394.365834518176, -7672.862133128898, -20317.042805796005, -4317.775883409487, -23886.906967986462, 3166.504581749986, -19829.81948015922, -23852.172357102914, -4799.053645021158, -1814.1569869705424, -12422.339608948185, -19670.51859742625, -0.133, 0.912, -0.011, 192.0, 0.0, 0.0, 0.0, 0.0, 0.0, 0.0, 0.0, 0.0, 0.0, 1.6730448593468359E9, 0.0, 2023-01-06 17:40:59.346
104.0, -18383.72866913422, -25208.56561762877, -32832.45507865609, -25926.28013208868, -10424.87596569967, -7696.264409573604, -20378.13012339236, -4367.083831677894, -23901.21208443786, 3145.8515698732817, -19840.50361400886, -23866.76804623223, -4839.979689118825, -1827.6797923660033, -12428.352228206662, -19684.26492026626, -0.133, 0.912, -0.011, 192.0, 0.0, 0.0, 0.0, 0.0, 0.0, 0.0, 0.0, 0.0, 0.0, 1.6730448593468416E9, 0.0, 2023-01-06 17:40:59.346
106.0, -18397.96673035225, -25221.619036390668, -32848.77185210846, -25938.148908394447, -10436.54357630534, -7724.405255842836, -20396.860885245907, -4397.705721581665, -23927.810660339674, 3134.943918579092, -19861.290736352294, -23852.082950125096, -4895.63553281254, -1857.0499845802767, -12448.826426127724, -19712.09284211312, -0.1335, 0.927, -0.0135, 192.0, 125.5, 104.0, 14.5, 56.0, 127.5, 64.0, 0.0, 0.0, 0.0, 1.6730448593468473E9, 0.0, 2023-01-06 17:40:59.346
108.0, -18402.63824494341, -25225.61999864817, -32841.954570049595, -25939.758233995228, -10446.288936887853, -7700.175964853283, -20347.664695699776, -4327.2306713140815, -23936.684302888432, 3125.042095785391, -19864.30822185376, -23865.404589820457, -4928.157320995012, -1852.780801389313, -12431.772045108324, -19701.855743152588, -0.1335, 0.927, -0.0135, 192.0, 0.0, 0.0, 0.0, 0.0, 0.0, 0.0, 0.0, 0.0, 0.0, 1.6730448593468528E9, 0.0, 2023-01-06 17:40:59.346
110.0, -18424.45354753179, -25249.446958237524, -32866.51913720598, -25959.874804005005, -10452.100390446234, -7729.188529156271, -20394.916283478295, -4360.110087407838, -23952.531689707244, 3110.267592700433, -19887.688146554014, -23870.903118956463, -4978.649911719551, -1876.138374345109, -12442.433827213506, -19716.987874148832, -0.1335, 0.927, -0.0135, 192.0, 0.0, 0.0, 0.0, 0.0, 0.0, 0.0, 0.0, 0.0, 0.0, 1.6730448593468585E9, 0.0, 2023-01-06 17:40:59.346
112.0, -18414.55172473809, -25244.440167479537, -32856.39379696772, -25954.979771969294, -10443.651431042128, -7711.351837080937, -20377.19135012524, -4364.4463258321675, -23947.5025472048, 3102.1986129520674, -19880.55794007277, -23886.035249952707, -4985.154269356045, -1851.3279379997182, -12445.160740037054, -19703.263903053274, -0.1335, 0.927, -0.0135, 192.0, 0.0, 0.0, 0.0, 0.0, 0.0, 0.0, 0.0, 0.0, 0.0, 1.673044859346864E9, 0.0, 2023-01-06 17:40:59.346
114.0, -18424.095919620504, -25252.28562978335, -32867.92729710666, -25965.038056974183, -10437.348239105731, -7731.088427434973, -20367.781265709553, -4382.43948011869, -23963.104064834602, 3096.6106768382406, -19897.03117573633, -23877.183959148402, -5020.358266873153, -1873.746737688391, -12464.316185035252, -19724.743929474822, -0.1335, 0.927, -0.0135, 192.0, 0.0, 0.0, 0.0, 0.0, 0.0, 0.0, 0.0, 0.0, 0.0, 1.6730448593468697E9, 0.0, 2023-01-06 17:40:59.346
116.0, -18403.50996297717, -25231.923190584566, -32850.35882596479, -25945.99437069826, -10447.339468877253, -7722.080674419484, -20368.049486643016, -4370.81657300193, -23961.74060842283, 3107.250107198967, -19889.856265766175, -23868.243261366282, -5042.195921205988, -1868.7399469304023, -12461.008126855866, -19723.76045271879, -0.14775, 0.9505, -0.01875, 192.0, 125.0, 120.0, 15.0, 56.0, 127.5, 32.0, 0.0, 0.0, 0.0, 1.6730448593468761E9, 0.0, 2023-01-06 17:40:59.346
118.0, -18420.340826552016, -25256.398350763127, -32858.2042882686, -25961.774702283707, -10483.772812339403, -7743.985383985685, -20396.346795123434, -4396.923410525729, -23959.572489210666, 3115.5649561363407, -19887.062297709264, -23843.388121531978, -5054.645842867594, -1866.9965108628883, -12479.962406153967, -19725.883868442044, -0.14775, 0.9505, -0.01875, 192.0, 0.0, 0.0, 0.0, 0.0, 0.0, 0.0, 0.0, 0.0, 0.0, 1.6730448593468819E9, 0.0, 2023-01-06 17:40:59.346
120.0, -18397.050308829585, -25249.871641382175, -32835.96430253557, -25940.18291713988, -10473.893341290157, -7748.0086979876405, -20361.634535984344, -4387.736843554598, -23972.871777161574, 3087.6029238227516, -19896.137105958118, -23862.409456063448, -5070.71674713096, -1896.5455170328044, -12482.219932343953, -19738.780824992755, -0.14775, 0.9505, -0.01875, 192.0, 0.0, 0.0, 0.0, 0.0, 0.0, 0.0, 0.0, 0.0, 0.0, 1.6730448593468874E9, 0.0, 2023-01-06 17:40:59.346
122.0, -18358.53825313309, -25218.98153054494, -32807.93521498862, -25905.291844045147, -10450.915747990102, -7747.58401484299, -20346.390646265823, -4366.078003177405, -23945.870869859562, 3126.517310919441, -19862.83300671971, -23805.345452469046, -5084.418366482064, -1858.2122752919527, -12445.920699348533, -19706.393147277016, -0.14775, 0.9505, -0.01875, 192.0, 0.0, 0.0, 0.0, 0.0, 0.0, 0.0, 0.0, 0.0, 0.0, 1.673044859346893E9, 0.0, 2023-01-06 17:40:59.346
124.0, -18356.236023454192, -25220.546152656814, -32801.140284674206, -25894.518303217686, -10441.371553107687, -7736.9222327378075, -20384.94740545123, -4366.167410155226, -23944.127433792048, 3138.788418625405, -19855.25576534936, -23796.292995964646, -5070.783802364326, -1848.55632168726, -12442.500882446871, -19704.157972831486, -0.14775, 0.9505, -0.01875, 192.0, 0.0, 0.0, 0.0, 0.0, 0.0, 0.0, 0.0, 0.0, 0.0, 1.673044859458794E9, 0.0, 2023-01-06 17:40:59.458
126.0, -18358.20297696626, -25231.967894073474, -32809.72335454504, -25896.395849751934, -10444.389038609152, -7751.294404422571, -20344.49074798712, -4396.006989003061, -23953.626925185556, 3136.7767616244273, -19863.771779986833, -23787.441705160345, -5101.137471334633, -1862.0567753382654, -12446.635955171103, -19705.61083622108, -0.165875, 0.9882500000000001, -0.021374999999999998, 192.0, 125.0, 32.0, 16.0, 8.0, 127.5, 32.0, 0.0, 0.0, 0.0, 1.6730448594588013E9, 0.0, 2023-01-06 17:40:59.458
