%OpenBCI Raw EEG Data
%Number of channels = 16
%Sample Rate = 125 Hz
%Board = OpenBCI_GUI$BoardCytonSerialDaisy
Sample Index, EXG Channel 0, EXG Channel 1, EXG Channel 2, EXG Channel 3, EXG Channel 4, EXG Channel 5, EXG Channel 6, EXG Channel 7, EXG Channel 8, EXG Channel 9, EXG Channel 10, EXG Channel 11, EXG Channel 12, EXG Channel 13, EXG Channel 14, EXG Channel 15, Accel Channel 0, Accel Channel 1, Accel Channel 2, Other, Other, Other, Other, Other, Other, Other, Analog Channel 0, Analog Channel 1, Analog Channel 2, Timestamp, Other, Timestamp (Formatted)
44.0, -13952.651793080782, -2118.699505174101, -33123.65360541983, -23742.827623227553, 13.031067017444018, -1808.8372717901793, 51585.30045572525, 31960.446472221196, -14442.803197241212, -1094.1849463206465, -15005.4413086702, -9395.265209110405, 14330.731550542301, -8274.057003743292, -4795.365607186032, -1804.009294987833, 0.0, 0.0, 0.0, 192.0, 0.0, 0.0, 0.0, 0.0, 0.0, 0.0, 0.0, 0.0, 0.0, 1.6625062580237813E9, 0.0, 2022-09-06 19:17:38.023
46.0, -13079.749116867677, -1345.8208853984936, -32159.6899222958, -23112.977816221457, 710.5396044897562, -1119.241251855046, 41655.53798145509, 32150.950390213777, -13763.578386733341, -248.730212298657, -13998.986959336635, -8532.063189990902, 15259.960622782783, -7052.467114027395, -4738.03338265817, -1732.3496022641186, 0.078, 0.464, 0.014, 192.0, 2.0, 112.0, 14.5, 0.0, 0.0, 112.0, 0.0, 0.0, 0.0, 1.6625062580237925E9, 0.0, 2022-09-06 19:17:38.023
48.0, -14029.675904473772, -2214.052047020441, -33199.20250167877, -23892.517255844745, -140.01132726804343, -1956.068212517287, 52969.49928635351, 32164.584954331513, -14340.253393680263, -1168.9962350125593, -14921.532859984978, -9301.231420186929, 14480.018851759298, -8187.980435845904, -4674.912056316382, -1693.3458081896079, 0.078, 0.464, 0.014, 192.0, 0.0, 0.0, 0.0, 0.0, 0.0, 0.0, 0.0, 0.0, 0.0, 1.6625062580238028E9, 0.0, 2022-09-06 19:17:38.023
50.0, -12966.783400390554, -1196.421825459221, -32107.0292123591, -22954.88392768907, 838.1457135851042, -952.6537004296423, 41224.417534401124, 31974.41631250576, -13865.189417027166, -441.98339485924186, -14091.344367425963, -8620.821967222926, 15242.146282451902, -7108.972324010411, -4868.746384232805, -1866.9965108628883, 0.078, 0.464, 0.014, 192.0, 0.0, 0.0, 0.0, 0.0, 0.0, 0.0, 0.0, 0.0, 0.0, 1.6625062580238135E9, 0.0, 2022-09-06 19:17:38.023
52.0, -14110.209239746242, -2322.882690773331, -33255.39478723941, -24045.626705363597, -272.6018753769249, -2052.9183212421326, 53938.31329802434, 32375.853642923077, -14201.069080957066, -1112.1557488627136, -14796.40779452417, -9158.582587073159, 14673.987290142453, -8056.105143559593, -4519.545080607543, -1531.8544545000143, 0.078, 0.464, 0.014, 192.0, 0.0, 0.0, 0.0, 0.0, 0.0, 0.0, 0.0, 0.0, 0.0, 1.6625062580238233E9, 0.0, 2022-09-06 19:17:38.023
54.0, -12955.763990374087, -1159.1838191966797, -32107.610357714937, -22865.834577779126, 940.3378892347681, -868.40997557759, 41187.58185953878, 31750.898867952692, -14072.412439872318, -702.4035695080245, -14299.774384471702, -8824.289896999586, 15029.178861281736, -7301.085567603775, -5028.114322199145, -2030.2983558533617, 0.078, 0.464, 0.014, 192.0, 0.0, 0.0, 0.0, 0.0, 0.0, 0.0, 0.0, 0.0, 0.0, 1.662506258023832E9, 0.0, 2022-09-06 19:17:38.023
56.0, -14128.470614966229, -2381.399557757325, -33206.891501771395, -24104.165924092045, -312.23151829618433, -2119.2359470410283, 54501.35374085352, 32605.517817201355, -14025.138500349343, -991.3669218262341, -14624.679341874045, -8979.075727352587, 14905.193734788149, -7847.943347447318, -4359.081907162894, -1346.9831761101696, 0.122, 0.7010000000000001, 0.033, 192.0, 2.5, 24.0, 14.5, 40.0, 0.5, 80.0, 0.0, 0.0, 0.0, 1.6625062580238392E9, 0.0, 2022-09-06 19:17:38.023
58.0, -12988.174019834283, -1178.7639473395286, -32134.052471405565, -22819.70057722337, 969.7304331934969, -831.4401902485121, 41594.20479466973, 31550.090795766213, -14229.09816850402, -939.3991159676452, -14456.773037525778, -8990.720986213802, 14979.178008935216, -7457.391316579738, -5122.081055889256, -2143.062906630386, 0.122, 0.7010000000000001, 0.033, 192.0, 0.0, 0.0, 0.0, 0.0, 0.0, 0.0, 0.0, 0.0, 0.0, 1.6625062580238469E9, 0.0, 2022-09-06 19:17:38.023
60.0, -14103.190791987276, -2417.9893634306627, -33161.60686750494, -24184.587500642243, -318.9593933772318, -2105.310810245372, 54583.33993951559, 32783.504758298965, -13907.054234391957, -1149.1478859362467, -14490.077136764186, -8924.559822626094, 15047.127312079348, -7745.684116564288, -4274.838182310842, -1260.0795936679356, 0.122, 0.7010000000000001, 0.033, 192.0, 0.0, 0.0, 0.0, 0.0, 0.0, 0.0, 0.0, 0.0, 0.0, 1.662506258023854E9, 0.0, 2022-09-06 19:17:38.023
62.0, -13088.779221627621, -1281.067881711469, -32251.175612351373, -22856.402141618986, 941.9919183244608, -874.6908157695312, 42403.76262709649, 31385.1572734305, -14402.637112455024, -1158.6697290742075, -14640.37026648167, -9210.751558631844, 14757.96279406104, -7614.5911353339125, -5224.742618172481, -2261.191876076684, 0.122, 0.7010000000000001, 0.033, 192.0, 0.0, 0.0, 0.0, 0.0, 0.0, 0.0, 0.0, 0.0, 0.0, 1.6625062580238614E9, 0.0, 2022-09-06 19:17:38.023
64.0, -14074.73702129567, -2414.8154157180093, -33106.93450056726, -24227.88282965217, -307.2694310271062, -2142.8617409302883, 54270.2590549301, 32880.60073621282, -13856.628698900784, -1188.2857904774894, -14392.355310005583, -8883.119688405954, 15186.333976547001, -7553.146189826273, -4245.713859285576, -1222.5286629830198, 0.122, 0.7010000000000001, 0.033, 192.0, 0.0, 0.0, 0.0, 0.0, 0.0, 0.0, 0.0, 0.0, 0.0, 1.6625062580238688E9, 0.0, 2022-09-06 19:17:38.023
66.0, -13129.168823858361, -1237.1914073457012, -32299.38832514147, -22762.83773932907, 931.7101158750196, -893.3545223897127, 43665.89858125432, 31286.42961817141, -14474.207398200919, -831.0602105927719, -14757.15813126065, -9260.730059233912, 14678.994080900442, -7707.261467845616, -5269.714328016559, -2301.8049957519765, 0.149, 0.8355, 0.052500000000000005, 192.0, 2.5, 64.0, 15.0, 40.0, 1.0, 32.0, 0.0, 0.0, 0.0, 1.6625062580238764E9, 0.0, 2022-09-06 19:17:38.023
68.0, -14065.483399091174, -2413.1613866283164, -33061.895735489816, -24157.20661368449, -248.23847392064025, -2092.838536839311, 53542.46390372085, 32930.75805077053, -13821.536460105952, -766.5530760947557, -14264.302166021129, -8626.678124270216, 15221.806194997573, -7371.493562637993, -4234.761504502476, -1177.1546217387465, 0.149, 0.8355, 0.052500000000000005, 192.0, 0.0, 0.0, 0.0, 0.0, 0.0, 0.0, 0.0, 0.0, 0.0, 1.6625062580238836E9, 0.0, 2022-09-06 19:17:38.023
70.0, -13264.91096793544, -1363.1211356069011, -32484.304307020226, -22966.506834805827, 816.2633557633586, -1018.3231256393344, 45220.26124242083, 31197.670840939387, -14710.66650279361, -1328.9229665902815, -14979.647395568776, -9495.088099847806, 14572.823294737733, -7970.408555317946, -5321.257450730497, -2373.4199849867805, 0.149, 0.8355, 0.052500000000000005, 192.0, 0.0, 0.0, 0.0, 0.0, 0.0, 0.0, 0.0, 0.0, 0.0, 1.6625062580238912E9, 0.0, 2022-09-06 19:17:38.023
72.0, -13906.495440780574, -2231.307593739938, -32934.04375720546, -24045.827871063695, -184.71481617865757, -1995.876669392189, 52596.64983709453, 32952.30513242545, -13683.179161927601, -290.6173814079024, -14139.579431960516, -8500.837802986838, 15426.302305019177, -7185.258827836375, -4252.285272155437, -1189.5374881669866, 0.149, 0.8355, 0.052500000000000005, 192.0, 0.0, 0.0, 0.0, 0.0, 0.0, 0.0, 0.0, 0.0, 0.0, 1.6625062580238984E9, 0.0, 2022-09-06 19:17:38.023
74.0, -13374.434515766445, -1506.8428524545257, -32605.339003245714, -23055.62323994914, 731.416133811013, -1110.6581819842079, 47099.4171022674, 31264.502556860753, -14640.99611532642, -1365.3786617968872, -15065.880425677351, -9508.230925587526, 14462.919767250987, -8091.264437587791, -5295.687055073626, -2341.0323072710407, 0.149, 0.8355, 0.052500000000000005, 192.0, 0.0, 0.0, 0.0, 0.0, 0.0, 0.0, 0.0, 0.0, 0.0, 1.6625062580239058E9, 0.0, 2022-09-06 19:17:38.023
76.0, -13780.92334043066, -2106.2719352569507, -32817.52411335994, -23963.059361345695, -43.787067387946536, -1871.0198248648437, 51357.91615938141, 32921.12444891029, -13626.919821133593, -379.08558596200777, -14038.951878422724, -8471.311148561377, 15522.817137577194, -7102.31150416273, -4258.342594902825, -1218.0806658364138, 0.1615, 0.88575, 0.05725, 192.0, 2.5, 56.0, 14.5, 32.0, 0.5, 120.0, 0.0, 0.0, 0.0, 1.6625062580239172E9, 0.0, 2022-09-06 19:17:38.023
78.0, -13482.080517063203, -1587.018559815712, -32703.261995704415, -23158.0165812989, 592.8129664436539, -1235.5150265115533, 49110.51530963365, 31330.037871603716, -14748.865634067732, -1180.9991217850593, -15130.342856686457, -9534.673039278156, 14408.716786946869, -8163.505275667343, -5229.7270571860145, -2271.048995381474, 0.1615, 0.88575, 0.05725, 192.0, 0.0, 0.0, 0.0, 0.0, 0.0, 0.0, 0.0, 0.0, 0.0, 1.6625062580239244E9, 0.0, 2022-09-06 19:17:38.023
80.0, -13630.116120590703, -1956.1129160061976, -32637.480811772446, -23863.25882235275, 114.2174141666191, -1697.1679564914652, 49950.40445928627, 32825.88366578623, -13468.155380267548, -66.89877115473404, -13946.169787188745, -8395.046996479869, 15498.54314309873, -7004.835546593135, -4296.206450010115, -1266.6733582822512, 0.1615, 0.88575, 0.05725, 192.0, 0.0, 0.0, 0.0, 0.0, 0.0, 0.0, 0.0, 0.0, 0.0, 1.662506258023932E9, 0.0, 2022-09-06 19:17:38.023
82.0, -13699.987673757993, -1800.8800507640901, -32894.458817775114, -23418.570866414415, 360.26541713063926, -1456.7078896412718, 51149.06145919102, 31407.30785218571, -14737.712113584534, -1133.74753400654, -15212.73138674872, -9622.046008353951, 14383.168743034452, -8285.299931204312, -5148.277300390876, -2197.2211834455948, 0.1615, 0.88575, 0.05725, 192.0, 0.0, 0.0, 0.0, 0.0, 0.0, 0.0, 0.0, 0.0, 0.0, 1.66250625802394E9, 0.0, 2022-09-06 19:17:38.023
84.0, -13503.985226629404, -1831.1443127565758, -32502.565682240212, -23674.431285194314, 243.11992444037492, -1582.3917487134636, 48560.37182335518, 32646.98030316595, -13619.163765807602, 171.9072666057666, -13981.127915516845, -8438.05175281188, 15555.093056570657, -7003.6509041370045, -4456.759030432586, -1408.1599006843448, 0.1615, 0.88575, 0.05725, 192.0, 0.0, 0.0, 0.0, 0.0, 0.0, 0.0, 0.0, 0.0, 0.0, 1.6625062580239499E9, 0.0, 2022-09-06 19:17:38.023
86.0, -13924.421539833731, -2128.4895692455257, -33064.488537846635, -23659.276802453616, 246.11505819738608, -1615.628792718505, 53087.337683121885, 31559.925563326546, -14666.745324938933, -1092.3073997864008, -15204.528296533621, -9662.793238495975, 14378.050193554187, -8395.114051713235, -5046.576863119229, -2072.476097640526, 0.1615, 0.88575, 0.05725, 192.0, 0.0, 0.0, 0.0, 0.0, 0.0, 0.0, 0.0, 0.0, 0.0, 1.6625062580239596E9, 0.0, 2022-09-06 19:17:38.023
88.0, -13509.751976698873, -1847.036403064299, -32627.64604421211, -23739.51956504817, 392.6083913574686, -1494.4152825373749, 47204.35854248507, 32392.17041637545, -14089.667986591816, -240.10243893890848, -14213.183726451842, -8877.956435436778, 15575.120219602612, -7018.783035133248, -4689.351283234511, -1637.3546883290635, 0.152, 0.978, 0.07, 192.0, 2.0, 96.0, 15.0, 72.0, 1.0, 24.0, 0.0, 0.0, 0.0, 1.66250625802397E9, 0.0, 2022-09-06 19:17:38.023
90.0, -13930.970600959135, -2037.4285623346047, -33106.286299978055, -23636.6791888093, 137.75380107805742, -1768.3806143260736, 54928.406170416616, 31771.95421122959, -14647.366362496181, -429.3770109864487, -15202.270770343635, -9620.391979264257, 14450.022810700275, -8215.316619314744, -5010.635258035095, -1988.0535588328314, 0.152, 0.978, 0.07, 192.0, 0.0, 0.0, 0.0, 0.0, 0.0, 0.0, 0.0, 0.0, 0.0, 1.6625062580239942E9, 0.0, 2022-09-06 19:17:38.023
92.0, -13207.265818985203, -1509.2121373667883, -32283.853862745033, -23237.342922370783, 650.7039845828992, -1234.6433084777962, 46158.006329298776, 32241.43025176886, -13613.419367482587, 519.9015760304422, -13964.878197297836, -8487.471459802564, 15323.730149713774, -7132.419303944029, -4698.5602019500975, -1618.825092175614, 0.152, 0.978, 0.07, 192.0, 0.0, 0.0, 0.0, 0.0, 0.0, 0.0, 0.0, 0.0, 0.0, 1.662506258024004E9, 0.0, 2022-09-06 19:17:38.024
94.0, -14085.175285956298, -2201.311552680916, -33355.016512276714, -23818.28711250867, -55.29821578242967, -1920.7301045334466, 56402.74958643313, 31981.680629453735, -14402.637112455024, -207.78181645653444, -15032.285753761025, -9416.275848898393, 14496.313273467216, -8353.740972726462, -4836.582223961619, -1776.337835352163, 0.152, 0.978, 0.07, 192.0, 0.0, 0.0, 0.0, 0.0, 0.0, 0.0, 0.0, 0.0, 0.0, 1.6625062580240135E9, 0.0, 2022-09-06 19:17:38.024
96.0, -13273.561093039643, -1502.3054483300982, -32604.757857889876, -23228.89396296668, 636.5106268537792, -1132.8534642283278, 45274.553629702765, 31955.14910878529, -14276.372108026995, 530.138674990973, -14407.107461346086, -8769.572826572994, 15641.661362846062, -7327.058294660842, -5068.347462218698, -1922.5629475787816, 0.152, 0.978, 0.07, 192.0, 0.0, 0.0, 0.0, 0.0, 0.0, 0.0, 0.0, 0.0, 0.0, 1.6625062580240223E9, 0.0, 2022-09-06 19:17:38.024
98.0, -14169.106086385977, -2423.5772995444895, -33393.30505052865, -24133.692578517508, -243.3881453738386, -2053.186542175596, 57510.1220619824, 32214.406992722394, -14253.327459493574, -213.6826769927355, -14972.494837343078, -9377.249703079427, 14577.450105839982, -8271.486553130931, -4677.326044717556, -1633.6890022383932, 0.18, 0.9560000000000001, 0.048, 192.0, 2.5, 80.0, 14.5, 112.0, 0.5, 64.0, 0.0, 0.0, 0.0, 1.6625062580240295E9, 0.0, 2022-09-06 19:17:38.024
100.0, -13182.298920428626, -1424.2308049477108, -32501.179874083984, -23228.26811412193, 753.7008230329542, -1073.8895623552278, 44857.38067118891, 31703.624928429716, -14157.192606591298, 415.40717070188174, -14508.584381173181, -9049.148446219975, 15712.695206725028, -7329.628745273202, -5254.6716039981375, -2107.121301546252, 0.18, 0.9560000000000001, 0.048, 192.0, 0.0, 0.0, 0.0, 0.0, 0.0, 0.0, 0.0, 0.0, 0.0, 1.662506258024037E9, 0.0, 2022-09-06 19:17:38.024
102.0, -14119.239344506186, -2347.6484236298115, -33146.631198719886, -24030.85220227864, -208.00533390108754, -2057.2769114109174, 58274.507018865, 32463.628943399068, -14290.721927967303, 428.30412725259396, -14800.02877712593, -9232.25393679785, 14551.365620060638, -7925.369790240502, -4458.435411266734, -1466.7885263906153, 0.18, 0.9560000000000001, 0.048, 192.0, 0.0, 0.0, 0.0, 0.0, 0.0, 0.0, 0.0, 0.0, 0.0, 1.6625062580240445E9, 0.0, 2022-09-06 19:17:38.024
104.0, -13156.37089686047, -1365.0433856300576, -32488.66289718901, -22975.224015143398, 829.6967541809981, -935.5546159213325, 44840.8850837809, 31516.51847559434, -14218.615200354481, 455.461496765792, -14480.890569793055, -9061.017222525743, 15122.877374038384, -7547.737067668089, -5141.549425309829, -2080.925057044632, 0.18, 0.9560000000000001, 0.048, 192.0, 0.0, 0.0, 0.0, 0.0, 0.0, 0.0, 0.0, 0.0, 0.0, 1.6625062580240517E9, 0.0, 2022-09-06 19:17:38.024
106.0, -13991.610883666383, -2193.57784909938, -32976.78029260401, -23985.50051277882, -93.96673369011089, -2052.73950728649, 58566.3760979624, 32721.56807441331, -13978.915092815769, 779.6288466011104, -14595.778536293334, -8939.91547106689, 14947.952621931152, -7943.407648015935, -4392.29659942348, -1292.6013818504075, 0.18, 0.9560000000000001, 0.048, 192.0, 0.0, 0.0, 0.0, 0.0, 0.0, 0.0, 0.0, 0.0, 0.0, 1.6625062580240588E9, 0.0, 2022-09-06 19:17:38.024
108.0, -12940.385990188837, -1091.3239230303673, -32104.525816980105, -22751.01366651221, 1118.1460163767358, -774.2644279318366, 45391.430901459564, 31432.811192609217, -13991.432069710741, 814.0728848067386, -14345.975440260821, -8968.995090603245, 14713.125194683695, -7616.558088845979, -5056.299871957287, -2081.0815192558193, 0.188, 0.98, 0.032, 192.0, 2.5, 112.0, 15.0, 80.0, 0.5, 0.0, 0.0, 0.0, 0.0, 1.6625062580240684E9, 0.0, 2022-09-06 19:17:38.024
110.0, -14102.497887909161, -2371.9000663638194, -33234.20533349578, -24180.6088901292, -267.59508461893614, -2122.7898744094223, 58280.07260323437, 32844.905000317696, -13683.223865416512, 757.7464887793648, -14397.071528085653, -8819.528975430605, 14919.588258217367, -7733.658878047333, -4238.807170248887, -1169.4432699016654, 0.188, 0.98, 0.032, 192.0, 0.0, 0.0, 0.0, 0.0, 0.0, 0.0, 0.0, 0.0, 0.0, 1.6625062580240762E9, 0.0, 2022-09-06 19:17:38.024
112.0, -13084.442983203291, -1215.5102152240534, -32405.872035726552, -22852.95997297287, 974.4913547624773, -865.2136761204811, 46233.778743002265, 31267.09535921757, -14336.900632011966, 487.0668634255962, -14700.965845700008, -9286.03223395732, 14608.496678888403, -7771.0756982655175, -5301.319694676363, -2264.9916726340857, 0.188, 0.98, 0.032, 192.0, 0.0, 0.0, 0.0, 0.0, 0.0, 0.0, 0.0, 0.0, 0.0, 1.6625062580240836E9, 0.0, 2022-09-06 19:17:38.024
114.0, -14177.465638812262, -2521.6344024699215, -33331.97186374329, -24345.520060720453, -327.2518905701507, -2153.6576335022014, 57585.96153091926, 32918.26342562001, -13832.332352677866, 666.484316168346, -14365.242643981295, -8822.479405698707, 15161.836464623984, -7541.277413520505, -4267.976196763062, -1160.7260895640957, 0.188, 0.98, 0.032, 192.0, 0.0, 0.0, 0.0, 0.0, 0.0, 0.0, 0.0, 0.0, 0.0, 1.662506258024091E9, 0.0, 2022-09-06 19:17:38.024
116.0, -13293.387090371501, -1406.2376506611886, -32625.83555291123, -23004.951835268956, 869.7063767559978, -952.6537004296423, 47436.12378074214, 31132.135526196427, -14761.986108062996, 134.4680946431273, -15046.993201612617, -9659.462828572134, 14728.34673265776, -7932.14236881046, -5473.472830471138, -2406.1876423582607, 0.188, 0.98, 0.032, 192.0, 0.0, 0.0, 0.0, 0.0, 0.0, 0.0, 0.0, 0.0, 0.0, 1.6625062580240984E9, 0.0, 2022-09-06 19:17:38.024
118.0, -13949.254327923576, -2231.888739095776, -33019.0921448579, -24109.597397994687, -236.0791249369532, -2053.9465014870766, 56625.14944376343, 32965.3809029318, -13774.329575816344, 1026.369753643245, -14257.239014773253, -8662.597377609894, 15225.561288066065, -7387.139783756707, -4313.864328129808, -1181.3791014407996, 0.186, 0.962, 0.02, 192.0, 2.5, 104.0, 15.0, 8.0, 0.0, 80.0, 0.0, 0.0, 0.0, 1.6625062580241058E9, 0.0, 2022-09-06 19:17:38.024
120.0, -13205.61178989551, -1272.1495356738014, -32457.728082862865, -22816.2360568328, 941.7460491354525, -945.8140666263183, 49094.533812348105, 31178.381285474457, -14323.199012660863, 371.79891726957766, -14883.914874066697, -9387.822078206787, 14223.689046345837, -8170.680185637497, -5284.689996801615, -2274.289998327494, 0.186, 0.962, 0.02, 192.0, 0.0, 0.0, 0.0, 0.0, 0.0, 0.0, 0.0, 0.0, 0.0, 1.6625062580241163E9, 0.0, 2022-09-06 19:17:38.024
122.0, -13864.876492604792, -2188.1463751967403, -32891.4636840181, -24019.676330050985, -98.4370825811723, -1919.52311033286, 55320.92515479626, 33012.23015931012, -13433.018437983805, 1140.0283741984815, -13982.33490971743, -8416.214098479044, 15036.934916607728, -7271.983596322965, -4158.072669276317, -1072.5484576879094, 0.186, 0.962, 0.02, 192.0, 0.0, 0.0, 0.0, 0.0, 0.0, 0.0, 0.0, 0.0, 0.0, 1.6625062580241263E9, 0.0, 2022-09-06 19:17:38.024
124.0, -13425.865879758107, -1491.800128436104, -32685.5147106069, -23070.196577333998, 709.1090928446166, -1130.4171240826993, 50877.28659835894, 31190.183006546857, -14625.193431996517, -14.841558318323889, -15108.70636805372, -9650.946813934663, 14100.955617541746, -8243.278651628334, -5320.34102920783, -2321.3180686614596, 0.186, 0.962, 0.02, 192.0, 0.0, 0.0, 0.0, 0.0, 0.0, 0.0, 0.0, 0.0, 0.0, 1.6625062580241356E9, 0.0, 2022-09-06 19:17:38.024
126.0, -13756.224662807545, -2056.9192834996325, -32811.86912201275, -23905.503619373278, 11.980535028044585, -1811.8324055471905, 53797.45260446699, 32934.08846069437, -13452.911490549028, 1188.4646044331319, -13952.227109936131, -8414.582421133808, 15277.931425324849, -7156.246263533386, -4298.8216041113865, -1185.5588776539419, 0.186, 0.962, 0.02, 192.0, 0.0, 0.0, 0.0, 0.0, 0.0, 0.0, 0.0, 0.0, 0.0, 1.6625062580241456E9, 0.0, 2022-09-06 19:17:38.024
128.0, -13657.89933894865, -1726.3816864945516, -32925.773611756995, -23277.08432401232, 505.21647992330554, -1311.6003646374184, 52799.64838023763, 31296.91258632095, -14678.994080900442, -118.17367293520844, -15207.702244246275, -9675.936064235695, 14061.616547300406, -8389.123784199213, -5281.225476411042, -2256.632120207801, 0.176, 0.9420000000000001, 0.01, 192.0, 2.5, 64.0, 14.5, 56.0, 0.0, 40.0, 0.0, 0.0, 0.0, 1.662506258024156E9, 0.0, 2022-09-06 19:17:38.024
130.0, -13662.883777962183, -1947.775715324368, -32734.934417597586, -23788.067554005094, 128.34371666237314, -1680.4264998944402, 52234.372762962914, 32784.33177284381, -13590.754698604906, 1010.9917534579937, -14018.522383990572, -8486.10800339079, 15274.891588078928, -7128.083065519699, -4441.761009903074, -1325.5702049219854, 0.176, 0.9420000000000001, 0.01, 192.0, 0.0, 0.0, 0.0, 0.0, 0.0, 0.0, 0.0, 0.0, 0.0, 1.6625062580241663E9, 0.0, 2022-09-06 19:17:38.024
132.0, -13771.468552526065, -1846.8352373642012, -33038.269941600556, -23397.314357437415, 345.73678323468965, -1458.0489943085904, 54737.16464485701, 31461.510832489832, -14696.09316540875, -214.1967671152076, -15254.752666324695, -9671.890398489286, 14068.88086424838, -8446.947747105092, -5211.957420344045, -2168.2309708870616, 0.176, 0.9420000000000001, 0.01, 192.0, 0.0, 0.0, 0.0, 0.0, 0.0, 0.0, 0.0, 0.0, 0.0, 1.6625062580241756E9, 0.0, 2022-09-06 19:17:38.024
134.0, -13488.964854355438, -1757.9870531543559, -32544.229333904903, -23551.98842906814, 310.5104339731257, -1463.8380961225148, 50692.43767171355, 32636.74320420542, -13564.78197154784, 975.4301280296003, -13944.80633077697, -8439.415209223653, 15250.662297089375, -7024.706247413904, -4499.4508623422225, -1372.419461300309, 0.176, 0.9420000000000001, 0.01, 192.0, 0.0, 0.0, 0.0, 0.0, 0.0, 0.0, 0.0, 0.0, 0.0, 1.662506258024183E9, 0.0, 2022-09-06 19:17:38.024
136.0, -13944.80633077697, -2028.35375408575, -33133.331910768975, -23588.75704869712, 118.0395624684766, -1690.887116299524, 56601.59070510754, 31615.469648297985, -14672.802647686322, -201.2774588200401, -15220.599200796987, -9626.739874689565, 13942.794673775992, -8467.623110726252, -5082.205543780988, -2024.3080883393395, 0.176, 0.9420000000000001, 0.01, 192.0, 0.0, 0.0, 0.0, 0.0, 0.0, 0.0, 0.0, 0.0, 0.0, 1.6625062580241904E9, 0.0, 2022-09-06 19:17:38.024
138.0, -13355.636698679531, -1593.209993029832, -32417.249073654304, -23358.735246507556, 470.3924620619371, -1308.4040651803095, 49359.714908565875, 32400.08293391263, -13695.51732486693, 921.0036302809275, -13998.830497125447, -8502.87181173227, 15162.305851257546, -7059.038526897255, -4647.866445525461, -1532.3238411335756, 0.19, 0.932, 0.006, 192.0, 2.5, 120.0, 14.5, 16.0, 0.0, 24.0, 0.0, 0.0, 0.0, 1.6625062580241976E9, 0.0, 2022-09-06 19:17:38.024
140.0, -14070.445486360251, -2163.447697573626, -33235.479382929734, -23733.730463234242, -24.25164273400816, -1818.5379288837826, 58257.34087912332, 31852.73341569107, -14575.997242450387, -112.98806822157721, -15168.653746682854, -9511.248411088993, 14069.126733437388, -8412.235487966, -4921.317687191688, -1852.5349322003046, 0.19, 0.932, 0.006, 192.0, 0.0, 0.0, 0.0, 0.0, 0.0, 0.0, 0.0, 0.0, 0.0, 1.6625062580242066E9, 0.0, 2022-09-06 19:17:38.024
142.0, -13201.432013682368, -1413.0325809756018, -32278.57885105358, -23140.91749679059, 636.9129582539748, -1126.6173275252972, 48265.55231398968, 32162.394483374894, -13768.227549580044, 916.8462058122404, -14037.767235966592, -8542.79202732945, 15050.681239447742, -7076.763460250314, -4765.3248626381, -1667.7977642771918, 0.19, 0.932, 0.006, 192.0, 0.0, 0.0, 0.0, 0.0, 0.0, 0.0, 0.0, 0.0, 0.0, 1.662506258024214E9, 0.0, 2022-09-06 19:17:38.024
144.0, -14169.486066041716, -2306.051827198485, -33322.78529677216, -23900.318014659646, -168.73331889311302, -1940.0196599983765, 59531.993810176114, 32122.004881144156, -14444.323115864172, -48.77150640148001, -15052.379972026345, -9387.57620901778, 14245.280831489663, -8284.249399214912, -4759.960443968826, -1667.015453221256, 0.19, 0.932, 0.006, 192.0, 0.0, 0.0, 0.0, 0.0, 0.0, 0.0, 0.0, 0.0, 0.0, 1.6625062580242405E9, 0.0, 2022-09-06 19:17:38.024
146.0, -13159.947175973319, -1350.1794755672784, -32318.566121884123, -23042.07808280922, 734.7912472237643, -1030.169550200647, 47499.82625243977, 31888.898538219757, -13952.04829598049, 736.8029042247421, -14203.393662380418, -8703.657532174293, 15026.966038580662, -7201.173269888553, -4932.672373374984, -1849.65155716557, 0.19, 0.932, 0.006, 192.0, 0.0, 0.0, 0.0, 0.0, 0.0, 0.0, 0.0, 0.0, 0.0, 1.6625062580242481E9, 0.0, 2022-09-06 19:17:38.024
148.0, -14215.351845664007, -2383.1876973137496, -33330.56370384261, -24006.198228144436, -269.45027940872666, -2058.0815742113086, 60422.42025404218, 32347.176354786916, -14334.419588377428, 37.05919230689911, -14948.28789809798, -9260.350079578171, 14344.522576871226, -8154.56457788522, -4628.040448193604, -1530.3345358770534, 0.186, 0.9380000000000001, 0.004, 192.0, 2.5, 104.0, 14.5, 40.0, 0.0, 16.0, 0.0, 0.0, 0.0, 1.6625062580242555E9, 0.0, 2022-09-06 19:17:38.024
150.0, -13061.264224203138, -1239.583044002419, -32174.553832358582, -22870.506092370284, 909.0007435084276, -915.7286185894751, 47131.02246892721, 31677.83101532829, -14039.44361680074, 667.4677929243795, -14286.497448265249, -8794.137393729377, 14834.31635312037, -7274.777564379879, -5009.763540001338, -1958.0798695182646, 0.186, 0.9380000000000001, 0.004, 192.0, 0.0, 0.0, 0.0, 0.0, 0.0, 0.0, 0.0, 0.0, 0.0, 1.662506258024263E9, 0.0, 2022-09-06 19:17:38.024
152.0, -14284.999881386744, -2489.6714078988325, -33374.596640419564, -24135.056034929283, -390.08264423401886, -2178.5574768254137, 60879.37931768648, 32555.29344741028, -14189.80380175159, 164.95587408016613, -14793.345605533792, -9101.518583478759, 14479.951796525931, -8008.898259269984, -4474.953350419206, -1385.092900406468, 0.186, 0.9380000000000001, 0.004, 192.0, 0.0, 0.0, 0.0, 0.0, 0.0, 0.0, 0.0, 0.0, 0.0, 1.6625062580242703E9, 0.0, 2022-09-06 19:17:38.024
154.0, -13078.005680800163, -1231.0893811094024, -32219.0561555691, -22809.642292218483, 901.3564469047126, -872.9026762131067, 47239.33902255762, 31448.83739338367, -14264.279814276673, 401.81731007305507, -14492.58053214318, -8989.558695502126, 14671.32743255227, -7477.262017400506, -5178.474507149996, -2121.225252297551, 0.186, 0.9380000000000001, 0.004, 192.0, 0.0, 0.0, 0.0, 0.0, 0.0, 0.0, 0.0, 0.0, 0.0, 1.6625062580242777E9, 0.0, 2022-09-06 19:17:38.024
156.0, -14258.736581651758, -2504.3118005170586, -33308.34606985403, -24180.810055829294, -438.83179889104355, -2217.1365877552735, 60865.99062275775, 32733.503905952446, -14049.077218660977, 336.3937540523713, -14629.194394254017, -8929.454854661806, 14666.253586560917, -7849.239748625726, -4384.138212697293, -1265.935750715226, 0.186, 0.9380000000000001, 0.004, 192.0, 0.0, 0.0, 0.0, 0.0, 0.0, 0.0, 0.0, 0.0, 0.0, 1.6625062580242853E9, 0.0, 2022-09-06 19:17:38.024
158.0, -13078.810343600553, -1209.2740785210226, -32238.680987200856, -22752.82415781309, 902.3399236607461, -854.1942661040147, 47781.704101765645, 31257.260591657236, -14382.587597678614, 270.6349218648579, -14626.579240152747, -9119.824662187655, 14526.756349415346, -7650.264519484583, -5250.156551618165, -2222.6798203801895, 0.184, 0.9450000000000001, 0.004, 192.0, 2.5, 88.0, 14.5, 96.0, 0.0, 16.0, 0.0, 0.0, 0.0, 1.6625062580242927E9, 0.0, 2022-09-06 19:17:38.024
160.0, -14201.940798990823, -2484.955189818763, -33248.689263902816, -24179.223081972967, -444.6656041938787, -2198.450529390637, 60399.643826442225, 32872.75527390901, -13905.37785355781, 461.54117125763554, -14460.371668383083, -8765.638919548861, 14859.529120865956, -7674.80673489651, -4305.348313492335, -1188.6881218776848, 0.184, 0.9450000000000001, 0.004, 192.0, 0.0, 0.0, 0.0, 0.0, 0.0, 0.0, 0.0, 0.0, 0.0, 1.6625062580242999E9, 0.0, 2022-09-06 19:17:38.024
162.0, -13114.439024262312, -1241.8182184479497, -32281.10459817703, -22738.228468683777, 900.5741358487769, -881.8657257396849, 48737.17412199666, 31151.87211655046, -14508.785546873278, 76.82294569289037, -14777.140590803694, -9258.807809210755, 14465.914901008, -7816.427387765335, -5319.67047687417, -2291.791414235999, 0.184, 0.9450000000000001, 0.004, 192.0, 0.0, 0.0, 0.0, 0.0, 0.0, 0.0, 0.0, 0.0, 0.0, 1.662506258024307E9, 0.0, 2022-09-06 19:17:38.024
164.0, -14078.31330040852, -2392.9777613851743, -33061.895735489816, -24112.97251140744, -339.07596338700813, -2137.9220054056655, 59478.75195488358, 32974.70158036966, -13738.365618987755, 629.6933447949106, -14241.145758765431, -8582.242856293065, 15009.241105227604, -7462.9121974601985, -4205.592477988301, -1105.1820045926577, 0.184, 0.9450000000000001, 0.004, 192.0, 0.0, 0.0, 0.0, 0.0, 0.0, 0.0, 0.0, 0.0, 0.0, 1.6625062580243144E9, 0.0, 2022-09-06 19:17:38.024
0.0, -6886.237190513277, -1100.8681179127834, -16299.674367865846, -11950.091952096458, -94.54787904594887, -936.2251682549917, 28729.010072828543, 16564.18491174995, -6679.4612025572305, 582.3747017830256, -6834.202329421321, -4049.666708668078, 7754.423648646313, -3367.8937992923024, -2116.061999328375, -567.3319777646038, 0.176, 0.968, 0.034, 192.0, 2.5, 64.0, 15.0, 32.0, 0.5, 8.0, 0.0, 0.0, 0.0, 1.6625062585809505E9, 0.0, 2022-09-06 19:17:38.580
2.0, -14106.878829822403, -2331.0857809884287, -33128.83921013346, -23731.674102744353, -152.08126927390924, -1872.5173917433492, 61637.170509954754, 31747.791975473403, -14598.684263072522, -1029.2307769335243, -15168.117304815925, -9476.379689738715, 14269.040735845654, -8384.653435308152, -4856.408221293476, -1843.7283448849137, 0.176, 0.968, 0.034, 192.0, 0.0, 0.0, 0.0, 0.0, 0.0, 0.0, 0.0, 0.0, 0.0, 1.662506258581106E9, 0.0, 2022-09-06 19:17:38.581
4.0, -13213.233734754771, -1543.6338238279611, -32132.621959760425, -23088.301490342797, 558.1007073045621, -1129.590109537853, 51087.370644494375, 31990.24134758012, -13851.085466275868, -46.11164881129847, -14090.673815092305, -8553.297347223443, 15271.605881643998, -7110.715760077926, -4761.078031191591, -1726.4710934723728, 0.176, 0.968, 0.034, 192.0, 0.0, 0.0, 0.0, 0.0, 0.0, 0.0, 0.0, 0.0, 0.0, 1.662506258581199E9, 0.0, 2022-09-06 19:17:38.581
6.0, -14226.706531847303, -2474.9863117916957, -33213.32880417452, -23903.894293772497, -328.1906638372736, -2003.2750968068956, 62799.95296000874, 32017.80104849351, -14494.659244377524, -994.5408695388877, -15089.4615160777, -9396.42749982208, 14388.287292514719, -8331.41158001561, -4729.047981387136, -1695.178651234943, 0.176, 0.968, 0.034, 192.0, 0.0, 0.0, 0.0, 0.0, 0.0, 0.0, 0.0, 0.0, 0.0, 1.6625062585812137E9, 0.0, 2022-09-06 19:17:38.581
8.0, -13144.45741706579, -1450.0470697935905, -32084.297488248052, -22937.963657136403, 675.5591244172007, -992.886840449195, 50322.60570795604, 31756.15152789969, -14012.241543798631, -233.73219176914594, -14232.830909828057, -8711.145366566821, 15140.065865524515, -7248.514264644893, -4913.583983610151, -1897.9313251890333, 0.176, 0.966, 0.048, 192.0, 2.5, 64.0, 15.0, 24.0, 0.5, 64.0, 0.0, 0.0, 0.0, 1.662506258581222E9, 0.0, 2022-09-06 19:17:38.581
10.0, -14284.262273819719, -2564.2368274017367, -33238.072185286546, -24020.48099285138, -404.6336298744238, -2108.1047783022855, 63575.78201005245, 32279.383513853973, -14343.7849693042, -873.7520425024084, -14945.449226552157, -9242.200463080462, 14547.811692692245, -8168.288548980779, -4556.112534536425, -1523.4278468403634, 0.176, 0.966, 0.048, 192.0, 0.0, 0.0, 0.0, 0.0, 0.0, 0.0, 0.0, 0.0, 0.0, 1.66250625858123E9, 0.0, 2022-09-06 19:17:38.581
12.0, -13103.665483434856, -1376.6215892579066, -32074.06038928752, -22834.18450763041, 782.0204832578282, -889.9794089769613, 49955.29949132198, 31543.966417785457, -14158.690173469804, -406.0194380306528, -14376.865551098055, -8866.892321931402, 15011.297465717491, -7362.664623578146, -5034.372810646631, -2045.6316525497023, 0.176, 0.966, 0.048, 192.0, 0.0, 0.0, 0.0, 0.0, 0.0, 0.0, 0.0, 0.0, 0.0, 1.6625062585812387E9, 0.0, 2022-09-06 19:17:38.581
14.0, -14305.518782796715, -2622.9101565969177, -33244.37537722294, -24116.593494009197, -487.6480087814342, -2169.706186021112, 63902.54216224458, 32532.58407504369, -14198.677444300349, -758.1488201795603, -14798.26298931396, -9096.46708923186, 14707.112575425217, -8009.792329048197, -4430.83100686443, -1377.6721212473062, 0.176, 0.966, 0.048, 192.0, 0.0, 0.0, 0.0, 0.0, 0.0, 0.0, 0.0, 0.0, 0.0, 1.662506258581248E9, 0.0, 2022-09-06 19:17:38.581
16.0, -13093.271922263137, -1341.5069987186193, -32097.30620352104, -22767.732771364783, 860.8997894406068, -836.6034432176881, 50059.23510303916, 31337.548057740696, -14305.809355474634, -597.0597978901623, -14534.333590785694, -9028.920117487922, 14858.769161554475, -7535.153035539751, -5135.6932682625375, -2173.95301746762, 0.176, 0.966, 0.048, 192.0, 0.0, 0.0, 0.0, 0.0, 0.0, 0.0, 0.0, 0.0, 0.0, 1.662506258581257E9, 0.0, 2022-09-06 19:17:38.581
18.0, -14283.703480208336, -2635.2706712807026, -33177.65542002385, -24159.59825034121, -499.4050263649257, -2189.8227560308883, 63750.43854122622, 32760.594220232277, -14035.017971398589, -627.6593360494776, -14621.170117994561, -8925.118616237476, 14894.107269538317, -7840.097885143506, -4293.546592419933, -1261.5101053130752, 0.17200000000000001, 0.9580000000000001, 0.066, 192.0, 2.5, 48.0, 14.5, 120.0, 1.0, 8.0, 0.0, 0.0, 0.0, 1.6625062585812657E9, 0.0, 2022-09-06 19:17:38.581
20.0, -13154.806274748598, -1365.1551443523342, -32161.008675218665, -22757.920355548904, 836.6034432176881, -854.0378038928276, 50667.20255222351, 31161.393959688423, -14452.235633401351, -794.313942708247, -14708.051348692341, -9193.875991568088, 14697.14369739815, -7736.542253082068, -5224.116769327733, -2284.8400217103986, 0.17200000000000001, 0.9580000000000001, 0.066, 192.0, 0.0, 0.0, 0.0, 0.0, 0.0, 0.0, 0.0, 0.0, 0.0, 1.6625062585812745E9, 0.0, 2022-09-06 19:17:38.581
22.0, -14274.9192446374, -2634.6671741804093, -33130.470887478696, -24188.78962859984, -508.2563171692273, -2175.696453535134, 63147.94726943342, 32860.99825632552, -13925.650885778772, -529.1104947460287, -14490.72533735339, -8798.987722276179, 15028.709474648176, -7709.80956671352, -4242.405801106191, -1191.973828312615, 0.17200000000000001, 0.9580000000000001, 0.066, 192.0, 0.0, 0.0, 0.0, 0.0, 0.0, 0.0, 0.0, 0.0, 0.0, 1.662506258581283E9, 0.0, 2022-09-06 19:17:38.581
24.0, -13244.43677001438, -1436.8818923094145, -32275.449606829836, -22787.670527418915, 753.0749741882056, -915.2815837003689, 51691.247724443405, 31028.110507501427, -14608.519030632859, -992.953895682561, -14902.869153364796, -9359.010679603896, 14538.088683854186, -7916.1832232693705, -5309.969819780567, -2347.4249061852584, 0.17200000000000001, 0.9580000000000001, 0.066, 192.0, 0.0, 0.0, 0.0, 0.0, 0.0, 0.0, 0.0, 0.0, 0.0, 1.6625062585812922E9, 0.0, 2022-09-06 19:17:38.581
26.0, -14174.559912033072, -2551.719850506765, -33033.68783398722, -24122.986092923416, -460.55769450160204, -2093.866717084255, 62159.463722641915, 32965.693827354175, -13801.241076140534, -410.26626947716113, -14337.615887834536, -8651.153284448777, 15168.273767027113, -7526.1899860131725, -4201.949143642085, -1133.4793130730764, 0.17200000000000001, 0.9580000000000001, 0.066, 192.0, 0.0, 0.0, 0.0, 0.0, 0.0, 0.0, 0.0, 0.0, 0.0, 1.662506258581301E9, 0.0, 2022-09-06 19:17:38.581
28.0, -13331.4968146678, -1493.5659162480733, -32389.756427974276, -22810.89398990798, 700.838947396153, -957.3475667652568, 53055.531150761984, 31019.348623674945, -14682.838580946755, -1119.8223972108838, -15024.842622857408, -9451.949233049063, 14413.56711549367, -8035.228614238336, -5290.657912571181, -2338.394801425314, 0.16, 0.924, 0.076, 192.0, 2.5, 0.0, 14.0, 112.0, 1.0, 48.0, 0.0, 0.0, 0.0, 1.6625062585813096E9, 0.0, 2022-09-06 19:17:38.581
30.0, -14054.195768141242, -2435.5131310836236, -32911.937881939164, -24013.104917181125, -316.59010846496926, -2009.220660832007, 60809.93244766384, 33003.60238595038, -13690.622292831218, -259.07906998146416, -14189.401470351395, -8505.911648978192, 15252.293974434611, -7306.919372906611, -4155.30105296386, -1088.3511410178114, 0.16, 0.924, 0.076, 192.0, 0.0, 0.0, 0.0, 0.0, 0.0, 0.0, 0.0, 0.0, 0.0, 1.662506258581318E9, 0.0, 2022-09-06 19:17:38.581
32.0, -13465.629633144097, -1618.9144991534351, -32540.96597921443, -22921.043386583733, 569.8353731435983, -1089.0216933514707, 54718.34447602564, 31041.90153383035, -14736.594526361767, -1236.967889901148, -15132.332161942979, -9533.93543171113, 14339.158158201953, -8185.924075356016, -5237.505464256462, -2300.352132362382, 0.16, 0.924, 0.076, 192.0, 0.0, 0.0, 0.0, 0.0, 0.0, 0.0, 0.0, 0.0, 0.0, 1.6625062585813272E9, 0.0, 2022-09-06 19:17:38.581
34.0, -13908.641208248284, -2288.93039094572, -32765.489252267987, -23885.543511574688, -231.0499824345091, -1869.8575341531675, 59245.377391025715, 32960.61998136282, -13632.84303341425, -195.51070875057087, -14090.584408114482, -8428.686371885105, 15446.351819795587, -7191.830240706235, -4188.024006846429, -1133.74753400654, 0.16, 0.924, 0.076, 192.0, 0.0, 0.0, 0.0, 0.0, 0.0, 0.0, 0.0, 0.0, 0.0, 1.6625062585813363E9, 0.0, 2022-09-06 19:17:38.581
36.0, -13629.356161279222, -1776.4719458188947, -32700.982117769974, -23086.736868230924, 427.74533364121123, -1237.6831457237179, 56580.848286253015, 31120.914950479862, -14774.6371954247, -1310.9745157926698, -15222.879078731428, -9598.129641786772, 14266.82791314458, -8311.898507106127, -5211.666847666126, -2244.1598468017396, 0.16, 0.924, 0.076, 192.0, 0.0, 0.0, 0.0, 0.0, 0.0, 0.0, 0.0, 0.0, 0.0, 1.6625062585813465E9, 0.0, 2022-09-06 19:17:38.581
38.0, -13759.644479709206, -2138.547854250414, -32605.808389879276, -23734.490422545725, -50.850218635823566, -1726.2252242833645, 57523.33194295549, 32817.18883719311, -13618.806137896318, -145.39809768177244, -14029.251221329121, -8402.870107039227, 15460.433418802431, -7103.78671929678, -4280.9178568026855, -1225.7026106956735, 0.17, 0.92, 0.082, 192.0, 2.5, 40.0, 14.0, 96.0, 1.0, 72.0, 0.0, 0.0, 0.0, 1.6625062585813587E9, 0.0, 2022-09-06 19:17:38.581
40.0, -13798.178887150156, -1961.4773346754712, -32844.25679972849, -23266.6907628406, 248.4172878762827, -1428.2094154607553, 58505.735815255146, 31262.04386497067, -14786.908303130664, -1369.647844987851, -15283.586416672042, -9647.728162733098, 14228.561726637094, -8404.770005317927, -5138.643698530638, -2162.1065929063075, 0.17, 0.92, 0.082, 192.0, 0.0, 0.0, 0.0, 0.0, 0.0, 0.0, 0.0, 0.0, 0.0, 1.662506258581367E9, 0.0, 2022-09-06 19:17:38.581
42.0, -13596.49909692992, -1963.4442881875384, -32445.680492601456, -23530.70956834669, 147.09683026037578, -1526.4006288529192, 55729.93972658393, 32653.886992202642, -13641.537862007364, -121.74995204805757, -14000.261008770587, -8404.479432640008, 15466.960128183382, -7045.515721501794, -4370.704814279654, -1326.7324956336613, 0.17, 0.92, 0.082, 192.0, 0.0, 0.0, 0.0, 0.0, 0.0, 0.0, 0.0, 0.0, 0.0, 1.6625062585813756E9, 0.0, 2022-09-06 19:17:38.581
44.0, -14016.1083955894, -2222.5233581690027, -33044.52843004804, -23572.6637926893, -41.55189294241583, -1700.9677530488675, 61470.225330618065, 31627.67370077058, -14727.810290790832, -1333.1027428034238, -15270.421239187866, -9600.320112743391, 14236.876575574468, -8434.631935910218, -4991.479813036896, -1997.6871606930688, 0.17, 0.92, 0.082, 192.0, 0.0, 0.0, 0.0, 0.0, 0.0, 0.0, 0.0, 0.0, 0.0, 1.662506258581384E9, 0.0, 2022-09-06 19:17:38.581
46.0, -13385.498629271822, -1658.6111973060606, -32313.291110192673, -23100.259673626384, 477.43326156535886, -1170.6055606133416, 53582.96526467386, 31965.587373445916, -13914.296199595476, -359.9077892193543, -14252.120465292986, -8659.490485130607, 15209.400976824878, -7272.855314356722, -4671.983977792737, -1644.9989849327785, 0.17, 0.92, 0.082, 192.0, 0.0, 0.0, 0.0, 0.0, 0.0, 0.0, 0.0, 0.0, 0.0, 1.6625062585813923E9, 0.0, 2022-09-06 19:17:38.581
48.0, -13632.686571203063, -1898.5571740337818, -32634.485678015433, -23343.938391678144, 206.3513048113948, -1414.6195548319288, 56421.86032794241, 32090.22070052871, -14099.79332683007, -642.389135645525, -14550.002163648864, -8901.13519443693, 14950.254851610049, -7669.8222958829765, -4524.685981832264, -1495.018779637668, 0.17200000000000001, 0.908, 0.068, 192.0, 2.5, 48.0, 14.0, 48.0, 1.0, 16.0, 0.0, 0.0, 0.0, 1.6625062585814016E9, 0.0, 2022-09-06 19:17:38.581
50.0, -13536.462311322966, -1821.2871934517855, -32471.13912953605, -23260.454626137573, 289.4550906962265, -1323.8491205989267, 54294.35423545292, 32087.471435960706, -13982.29020622852, -468.76078471669973, -14413.969446893865, -8769.371660872897, 15067.489751278134, -7492.662369330213, -4626.431122592821, -1601.5471937116617, 0.17200000000000001, 0.908, 0.068, 192.0, 0.0, 0.0, 0.0, 0.0, 0.0, 0.0, 0.0, 0.0, 0.0, 1.6625062585814104E9, 0.0, 2022-09-06 19:17:38.581
52.0, -13704.2345052045, -1992.6803699350799, -32677.937469236553, -23421.275427493507, 110.41761760921689, -1492.4930325142184, 57133.15989174365, 32109.800828671556, -14187.076888928044, -725.7611424638203, -14628.970876809464, -8978.96396863031, 14875.600025129323, -7743.6277560744, -4568.003662586649, -1564.5774083825838, 0.17200000000000001, 0.908, 0.068, 192.0, 0.0, 0.0, 0.0, 0.0, 0.0, 0.0, 0.0, 0.0, 0.0, 1.6625062585814338E9, 0.0, 2022-09-06 19:17:38.581
54.0, -13569.408782650087, -1868.5387812303045, -32508.28772882077, -23291.098867785797, 233.48632258013757, -1357.6002547264404, 54588.0338058512, 31959.351236742885, -14068.143256681355, -563.2416085292826, -14495.374500200094, -8853.28010955812, 14985.145924704782, -7572.167524357739, -4696.660303671397, -1684.5392208742169, 0.17200000000000001, 0.908, 0.068, 192.0, 0.0, 0.0, 0.0, 0.0, 0.0, 0.0, 0.0, 0.0, 0.0, 1.6625062585814424E9, 0.0, 2022-09-06 19:17:38.581
56.0, -13733.180014274123, -2029.225472119507, -32694.678925833578, -23457.395846533283, 89.78695747696847, -1516.4988060592182, 57544.58845193249, 32150.235134391205, -14197.291636144118, -750.4821718313899, -14630.51314717688, -8982.853172165534, 14876.13646699625, -7734.664706547822, -4584.81217441704, -1578.569600411606, 0.17200000000000001, 0.908, 0.068, 192.0, 0.0, 0.0, 0.0, 0.0, 0.0, 0.0, 0.0, 0.0, 0.0, 1.6625062585814512E9, 0.0, 2022-09-06 19:17:38.581
58.0, -13586.194942736023, -1877.166554590053, -32560.45670037946, -23321.18431582264, 235.4532760922046, -1372.642978744862, 54911.910583008605, 31891.84896848786, -14100.463879163728, -607.0286759172292, -14533.528927985302, -8879.275188359641, 14951.730066744098, -7584.550390785979, -4724.6223359849855, -1724.6382504270377, 0.167, 0.905, 0.056, 192.0, 2.5, 8.0, 14.0, 24.0, 0.5, 48.0, 0.0, 0.0, 0.0, 1.66250625858146E9, 0.0, 2022-09-06 19:17:38.581
60.0, -13774.284872327433, -2075.4712313975374, -32752.167612572626, -23536.923353305265, -15.802683329902093, -1596.8756791205026, 57845.442932300924, 32135.46063130625, -14211.395586895418, -788.6365996165991, -14647.27695551836, -8996.934771172379, 14877.231702474559, -7760.972709771719, -4612.461282308255, -1612.1866240723878, 0.167, 0.905, 0.056, 192.0, 0.0, 0.0, 0.0, 0.0, 0.0, 0.0, 0.0, 0.0, 0.0, 1.6625062585814688E9, 0.0, 2022-09-06 19:17:38.581
62.0, -13627.970353122993, -1934.2082064399967, -32599.75106713189, -23356.96945869559, 266.03046250706467, -1396.671104034317, 55365.33807102896, 31842.20574405262, -14178.247949868197, -737.6299187695884, -14619.60549588269, -8975.767669173201, 14868.246301203526, -7698.343121807948, -4807.2120317473455, -1803.1599286985313, 0.167, 0.905, 0.056, 192.0, 0.0, 0.0, 0.0, 0.0, 0.0, 0.0, 0.0, 0.0, 0.0, 1.6625062585814772E9, 0.0, 2022-09-06 19:17:38.581
64.0, -13798.49181157253, -2118.6548016851907, -32751.474708494512, -23549.641495900334, -5.587936113826766, -1631.1632551149435, 58121.017589690404, 32152.716178025745, -14221.655037600403, -867.828830221752, -14662.051458603319, -9033.792797779179, 14884.048984533429, -7762.962015028241, -4639.998631477193, -1632.7725807157256, 0.167, 0.905, 0.056, 192.0, 0.0, 0.0, 0.0, 0.0, 0.0, 0.0, 0.0, 0.0, 0.0, 1.662506258581486E9, 0.0, 2022-09-06 19:17:38.581
66.0, -13645.94115566506, -1959.3762706966725, -32639.537172262335, -23370.469912346594, 211.15692986928582, -1436.8595405649592, 55854.12601877761, 31805.660641868195, -14208.199287438309, -844.4712572659562, -14660.799760913822, -9030.060056455142, 14855.394048141725, -7735.9164042373195, -4835.062305338658, -1818.6049841171484, 0.167, 0.905, 0.056, 192.0, 0.0, 0.0, 0.0, 0.0, 0.0, 0.0, 0.0, 0.0, 0.0, 1.6625062585814948E9, 0.0, 2022-09-06 19:17:38.581
68.0, -13851.465445931608, -2178.28925589195, -32800.33562187381, -23591.6180719874, 41.64129992023706, -1644.2613773657536, 58285.48172539255, 32149.855154735465, -14198.520982089161, -898.4954236144333, -14649.400371241614, -9018.615963294025, 14862.166626711683, -7735.603479814945, -4650.012212993171, -1606.5539844696505, 0.1935, 0.9155, 0.045, 192.0, 3.0, 112.0, 14.0, 120.0, 0.5, 8.0, 0.0, 0.0, 0.0, 1.662506258581504E9, 0.0, 2022-09-06 19:17:38.581
70.0, -13717.332627455311, -2033.0476204213644, -32730.62053091771, -23440.49792772507, 206.55247051149257, -1496.605753493995, 56385.76226064709, 31728.457716519562, -14317.052282935654, -1016.6467448051865, -14798.665320714155, -9156.43681960545, 14758.92391907262, -7852.368992849469, -4925.162187238001, -1889.7058832294804, 0.1935, 0.9155, 0.045, 192.0, 0.0, 0.0, 0.0, 0.0, 0.0, 0.0, 0.0, 0.0, 0.0, 1.6625062585815156E9, 0.0, 2022-09-06 19:17:38.581
72.0, -13900.460469777641, -2220.7352186125777, -32828.58822686532, -23617.546095555557, 61.154372829720124, -1676.403185892485, 58441.42984645723, 32108.01268911513, -14253.372162982485, -987.4553665465554, -14720.791843031866, -9071.991929053298, 14863.910062779196, -7747.8969392653635, -4714.832271913561, -1656.4877815828065, 0.1935, 0.9155, 0.045, 192.0, 0.0, 0.0, 0.0, 0.0, 0.0, 0.0, 0.0, 0.0, 0.0, 1.6625062585815244E9, 0.0, 2022-09-06 19:17:38.581
74.0, -13713.085796008801, -2017.513158024926, -32741.125850811706, -23441.8837358813, 221.46108406318237, -1502.6854279858385, 56985.213695193976, 31742.271094592943, -14339.091102968587, -1061.1490680157028, -14817.21726861206, -9160.013098718298, 14761.226148751515, -7820.361294789469, -4908.800710296716, -1854.390126990095, 0.1935, 0.9155, 0.045, 192.0, 0.0, 0.0, 0.0, 0.0, 0.0, 0.0, 0.0, 0.0, 0.0, 1.662506258581534E9, 0.0, 2022-09-06 19:17:38.581
76.0, -13880.589768956874, -2191.3650263983045, -32837.84184906982, -23627.157345671338, 90.1669371327087, -1650.989252446801, 58463.46866649016, 32074.373313709893, -14242.218642499285, -993.5797445273096, -14710.822965004798, -9057.932681790911, 14825.88974546072, -7734.016505958618, -4741.430847815376, -1676.5819998481275, 0.1935, 0.9155, 0.045, 192.0, 0.0, 0.0, 0.0, 0.0, 0.0, 0.0, 0.0, 0.0, 0.0, 1.6625062585815427E9, 0.0, 2022-09-06 19:17:38.581
78.0, -13723.389950202698, -2026.5209110404148, -32787.19279613409, -23490.07409692694, 249.7583925436011, -1504.1606431198888, 57336.06902790893, 31745.46739405005, -14340.320448913628, -1087.1217950727696, -14812.366940065258, -9157.375592872571, 14705.81617424681, -7822.797634935097, -4894.652056056507, -1852.1773042890197, 0.24675, 0.9237500000000001, 0.0335, 192.0, 4.5, 48.0, 14.5, 16.0, 0.0, 88.0, 0.0, 0.0, 0.0, 1.6625062585815516E9, 0.0, 2022-09-06 19:17:38.581
80.0, -13829.448977643131, -2146.549778765414, -32793.5406915594, -23608.20306637324, 167.36986248133928, -1602.4636152343292, 58193.861924870245, 32077.88253758938, -14227.24297371423, -1011.3270296248234, -14694.796764230343, -9050.087219487097, 14874.169513484183, -7714.883412704875, -4748.024612429692, -1702.4429681829176, 0.24675, 0.9237500000000001, 0.0335, 192.0, 0.0, 0.0, 0.0, 0.0, 0.0, 0.0, 0.0, 0.0, 0.0, 1.6625062585815606E9, 0.0, 2022-09-06 19:17:38.581
82.0, -13686.867199762726, -2004.3032770518396, -32734.487382708478, -23489.224730637638, 272.5571718880143, -1455.2773779961321, 57536.96650707323, 31816.858865840302, -14328.272858652219, -1109.272373827979, -14780.538055960902, -9140.09769440862, 14725.5751163453, -7789.024149063129, -4831.933061114915, -1797.370826884607, 0.24675, 0.9237500000000001, 0.0335, 192.0, 0.0, 0.0, 0.0, 0.0, 0.0, 0.0, 0.0, 0.0, 0.0, 1.6625062585815697E9, 0.0, 2022-09-06 19:17:38.581
84.0, -13859.042687301957, -2224.5797186588907, -32835.42786066864, -23686.478875455723, 165.1570397802639, -1573.1157747645111, 57739.115683927026, 32049.384063408863, -14277.623805716492, -1442.4698284232413, -14680.33518556776, -9139.427142074961, 14797.033643368917, -7697.38199679637, -4723.951783651327, -1676.9619795038677, 0.24675, 0.9237500000000001, 0.0335, 192.0, 0.0, 0.0, 0.0, 0.0, 0.0, 0.0, 0.0, 0.0, 0.0, 1.6625062585815785E9, 0.0, 2022-09-06 19:17:38.581
86.0, -13654.3230598358, -1895.204412365486, -32692.868434532695, -23399.43777316067, 242.58348257344755, -1485.4522330107968, 57678.18482854186, 31765.315743126364, -14430.9567726799, -942.0142700689162, -14846.386295126236, -9162.315328397195, 14684.112630380707, -7706.0991771339395, -4837.230424550823, -1818.9179085395228, 0.24675, 0.9237500000000001, 0.0335, 192.0, 0.0, 0.0, 0.0, 0.0, 0.0, 0.0, 0.0, 0.0, 0.0, 1.662506258581587E9, 0.0, 2022-09-06 19:17:38.581
88.0, -13810.40529136721, -2105.7801968789336, -32814.26075866947, -23604.067993649005, 187.08410109092011, -1525.2159863967881, 57286.179934284686, 31959.41829197625, -14332.251469165263, -894.762682290397, -14641.04081881533, -8921.184709213341, 14847.928565493652, -7650.8680165848755, -4700.97419035127, -1673.1845346909208, 0.253375, 0.921875, 0.02375, 192.0, 4.0, 16.0, 14.0, 96.0, 0.0, 56.0, 0.0, 0.0, 0.0, 1.662506258581596E9, 0.0, 2022-09-06 19:17:38.581
90.0, -13676.451286846554, -1957.163447995597, -32781.04606640888, -23512.60465533789, 155.81401059794553, -1485.8098609220817, 57712.33829406957, 31845.938485376657, -14495.039224033264, -1090.3180945298784, -14843.972306725063, -9199.419224193005, 14905.57371444389, -7683.389804767347, -4828.803816891172, -1823.432960919495, 0.253375, 0.921875, 0.02375, 192.0, 0.0, 0.0, 0.0, 0.0, 0.0, 0.0, 0.0, 0.0, 0.0, 1.6625062585816047E9, 0.0, 2022-09-06 19:17:38.581
92.0, -13716.773833843927, -1974.6872156485579, -32774.34054307229, -23553.597754668925, 113.47980659959396, -1475.2598375391767, 57009.68885537254, 32041.471545871682, -14173.531731788127, -777.0136924998394, -14653.714257921489, -8926.280906949152, 15075.759896726597, -7606.611562563367, -4778.713557566829, -1723.140683548532, 0.253375, 0.921875, 0.02375, 192.0, 0.0, 0.0, 0.0, 0.0, 0.0, 0.0, 0.0, 0.0, 0.0, 1.6625062585816138E9, 0.0, 2022-09-06 19:17:38.581
94.0, -13607.250286012923, -1874.1937725774972, -32656.725663748464, -23530.70956834669, 113.01041996603252, -1453.8915698399032, 58119.43061583408, 31974.103388083386, -14242.285697732652, -921.7412378479527, -14698.440098576559, -9065.845199328089, 14692.092203151251, -7700.175964853283, -4727.84098718655, -1745.6488902150263, 0.253375, 0.921875, 0.02375, 192.0, 0.0, 0.0, 0.0, 0.0, 0.0, 0.0, 0.0, 0.0, 0.0, 1.6625062585816228E9, 0.0, 2022-09-06 19:17:38.581
96.0, -13707.229638961511, -1977.4364802165605, -32804.31423238686, -23644.614058090934, 43.49649471002754, -1507.893384443925, 57102.76151928443, 31973.924574127745, -14139.13239707141, -760.3616428806357, -14603.020501496852, -8938.708476866303, 14824.392178582213, -7585.556219286468, -4699.521326961676, -1739.077477345166, 0.253375, 0.921875, 0.02375, 192.0, 0.0, 0.0, 0.0, 0.0, 0.0, 0.0, 0.0, 0.0, 0.0, 1.6625062585816314E9, 0.0, 2022-09-06 19:17:38.581
98.0, -13608.792556380338, -1859.5310282148157, -32611.709250415475, -23565.24301353014, 12.24875596150827, -1536.3248033910756, 58598.11557508893, 31963.57571644494, -14258.87069211849, -851.6014637471991, -14736.438064150581, -9108.358217282082, 14838.965515967075, -7667.788287137543, -4711.099530589525, -1798.7566350408358, 0.1896875, 0.8979375, 0.022875, 192.0, 1.5, 120.0, 13.5, 40.0, 0.0, 88.0, 0.0, 0.0, 0.0, 1.6625062585816405E9, 0.0, 2022-09-06 19:17:38.581
100.0, -13568.984099505436, -1821.1977864739642, -32524.71626099542, -23533.03414977004, 48.25741627900795, -1446.7837151031156, 57447.581880996455, 32004.702926242702, -13970.175560733744, -564.4933062187798, -14475.660261590512, -8875.788316224613, 14724.926915756098, -7550.642794447279, -4631.3932098619, -1738.9657186228894, 0.1896875, 0.8979375, 0.022875, 192.0, 0.0, 0.0, 0.0, 0.0, 0.0, 0.0, 0.0, 0.0, 0.0, 1.6625062585816493E9, 0.0, 2022-09-06 19:17:38.581
102.0, -13680.98869097098, -1917.354991120695, -32715.153123754637, -23641.596572589468, -126.55557710594859, -1553.5579983661173, 59489.212571288655, 32004.43470530924, -14161.126513615432, -455.2379793212389, -14650.428551486559, -8997.78413746168, 14786.30480603037, -7710.390712069358, -4640.4456663662995, -1753.3602420521072, 0.1896875, 0.8979375, 0.022875, 192.0, 0.0, 0.0, 0.0, 0.0, 0.0, 0.0, 0.0, 0.0, 0.0, 1.6625062585816596E9, 0.0, 2022-09-06 19:17:38.581
104.0, -13633.535937492365, -1896.9702001774551, -32664.88405047465, -23610.43824081877, -91.66450401121426, -1484.3569975324867, 58464.60860545738, 31931.433907918206, -14150.688248954804, -296.697055899746, -14625.908687819086, -8921.967020269278, 14859.104437721306, -7628.024533751552, -4780.881676778994, -1838.6992023824696, 0.1896875, 0.8979375, 0.022875, 192.0, 0.0, 0.0, 0.0, 0.0, 0.0, 0.0, 0.0, 0.0, 0.0, 1.662506258581668E9, 0.0, 2022-09-06 19:17:38.581
106.0, -13788.72409924556, -2061.1437632016855, -32834.71260484608, -23754.428178599857, -247.90319775381064, -1658.4547350948735, 60960.35968784806, 31952.64571340629, -14303.820050218112, -325.5531579915474, -14755.258232981949, -9083.27956000323, 14755.906433571154, -7809.073663839539, -4751.667946775907, -1850.8809031106118, 0.1896875, 0.8979375, 0.022875, 192.0, 0.0, 0.0, 0.0, 0.0, 0.0, 0.0, 0.0, 0.0, 0.0, 1.6625062585816762E9, 0.0, 2022-09-06 19:17:38.581
108.0, -13788.657044012196, -2147.1979793546175, -32808.02462196644, -23741.397111582413, -171.5943421833923, -1559.280044946676, 59817.38088338148, 31838.674168428683, -14312.917210211423, -215.64963050480253, -14745.91520379963, -9061.17368473693, 14757.046372538374, -7771.992119788185, -4882.112727417079, -1952.2684159598848, 0.12284375, 0.93396875, 0.0304375, 192.0, 0.5, 96.0, 15.0, 40.0, 0.5, 24.0, 0.0, 0.0, 0.0, 1.6625062585816844E9, 0.0, 2022-09-06 19:17:38.581
110.0, -13917.716016497137, -2281.5543152754685, -33019.516828002554, -23952.151710051505, -302.32969550248333, -1742.5643494801939, 62178.93209206249, 31902.64486105977, -14666.834731916755, -986.5389450238878, -14965.67755528421, -9508.074463376339, 14668.712278451, -7896.4019294264235, -4875.295445358211, -1996.2119455590184, 0.12284375, 0.93396875, 0.0304375, 192.0, 0.0, 0.0, 0.0, 0.0, 0.0, 0.0, 0.0, 0.0, 0.0, 1.6625062585816927E9, 0.0, 2022-09-06 19:17:38.581
112.0, -13719.43369143411, -1967.0876225337533, -32882.45593100261, -23583.258519561117, -153.31061521895114, -1568.1760392398883, 61043.03879058824, 31779.777321788948, -14361.040516023699, 482.9541424458197, -14796.027814868428, -9033.792797779179, 14732.48180538199, -7796.646093922388, -5003.929734698503, -2027.8620157077332, 0.12284375, 0.93396875, 0.0304375, 192.0, 0.0, 0.0, 0.0, 0.0, 0.0, 0.0, 0.0, 0.0, 0.0, 1.6625062585817008E9, 0.0, 2022-09-06 19:17:38.581
114.0, -13791.898046958215, -2146.1697991096735, -32863.68046566015, -23696.53716046061, -258.45322113671557, -1667.9765782328343, 63441.0233427314, 31951.729291883625, -14448.011153699299, 87.95411443163329, -14828.214326884072, -9108.827603915644, 14818.178393623639, -7951.856607420041, -4906.498480617819, -1917.1314736761421, 0.12284375, 0.93396875, 0.0304375, 192.0, 0.0, 0.0, 0.0, 0.0, 0.0, 0.0, 0.0, 0.0, 0.0, 1.6625062585817096E9, 0.0, 2022-09-06 19:17:38.581
116.0, -13689.61646433073, -2012.0816841222866, -32785.85169146677, -23575.301298535025, -175.6400079298029, -1527.7417335202376, 62408.46215587404, 31782.034847978935, -14135.310248769552, 238.44840984921575, -14707.693720781055, -9067.990966795798, 14460.394020127538, -8001.835108022107, -4964.165981312512, -1973.9719598259878, 0.12284375, 0.93396875, 0.0304375, 192.0, 0.0, 0.0, 0.0, 0.0, 0.0, 0.0, 0.0, 0.0, 0.0, 1.6625062585817194E9, 0.0, 2022-09-06 19:17:38.581
118.0, -13859.892053591258, -2139.061944372886, -32953.98151325959, -23746.26979187367, -343.6804227448014, -1687.1320232310325, 64461.22401490498, 31901.25905290354, -14361.912234057456, 429.8016941310995, -14780.336890260804, -9095.684778175924, 14671.170970341083, -8021.147015231492, -4873.887285457527, -1926.6086133251922, 0.074421875, 0.9399843750000001, 0.02821875, 192.0, 0.0, 104.0, 14.5, 72.0, 0.0, 104.0, 0.0, 0.0, 0.0, 1.6625062585817282E9, 0.0, 2022-09-06 19:17:38.581
120.0, -13709.956551785059, -2012.998105644954, -32868.26257327349, -23650.425511649315, -218.3541915838947, -1551.9486727653352, 63425.44417684605, 31738.180725357623, -14340.812187291645, 467.82201144957685, -14801.12401260424, -9098.434042743927, 14672.065040119296, -8036.21209099437, -5004.5555835432515, -2040.7366205139901, 0.074421875, 0.9399843750000001, 0.02821875, 192.0, 0.0, 0.0, 0.0, 0.0, 0.0, 0.0, 0.0, 0.0, 0.0, 1.6625062590603096E9, 0.0, 2022-09-06 19:17:39.060
122.0, -13943.28641215401, -2240.0694775664183, -33142.38436727338, -23844.326894799102, -393.23424020221717, -1731.7014016749147, 65000.70571907827, 31859.34953204984, -14576.60073955068, 301.68149491327944, -14908.881772623274, -9228.476491984904, 14923.030426863485, -7987.4852880818, -4966.132934824578, -1997.9553816265325, 0.074421875, 0.9399843750000001, 0.02821875, 192.0, 0.0, 0.0, 0.0, 0.0, 0.0, 0.0, 0.0, 0.0, 0.0, 1.6625062590604844E9, 0.0, 2022-09-06 19:17:39.060
124.0, -13782.510314286985, -2115.70437141709, -32989.05140030997, -23762.810082770597, -272.82539282147803, -1621.6861154658934, 64151.7417611768, 31679.3285822068, -14477.426049402482, 665.2102667343935, -14893.99551081604, -9199.441575937459, 14745.781093332898, -8062.07305932916, -5068.52627617434, -2110.0046765809866, 0.074421875, 0.9399843750000001, 0.02821875, 192.0, 0.0, 0.0, 0.0, 0.0, 0.0, 0.0, 0.0, 0.0, 0.0, 1.6625062590606096E9, 0.0, 2022-09-06 19:17:39.060
126.0, -13981.150267261299, -2331.465760644169, -33286.75428471021, -23891.511427344256, -528.2387767122718, -1779.6458935315484, 65255.51560586877, 31783.085379968332, -14586.50256234438, 584.4310622729138, -14908.077109822883, -9237.193672322474, 15063.51114076509, -7894.747900336731, -5029.187205933, -2046.54807407237, 0.074421875, 0.9399843750000001, 0.02821875, 192.0, 0.0, 0.0, 0.0, 0.0, 0.0, 0.0, 0.0, 0.0, 0.0, 1.6625062590606186E9, 0.0, 2022-09-06 19:17:39.060
128.0, -13497.257351548356, -1787.8042802577354, -32456.632847384557, -23462.804968691467, -23.35757295579588, -1498.5950587505174, 64925.33563677498, 31775.083455453332, -14380.106554044076, 693.3064095147145, -14890.75450787002, -9209.052826053241, 14760.913224329142, -8022.577526876632, -5117.722465720471, -2109.51293820297, 0.074421875, 0.9399843750000001, 0.02821875, 192.0, 0.0, 0.0, 0.0, 0.0, 0.0, 0.0, 0.0, 0.0, 0.0, 1.6625062590606272E9, 0.0, 2022-09-06 19:17:39.060
130.0, -13590.17355324907, -1914.0916364302202, -32465.48413818886, -23473.600861263378, -54.58295995985985, -1534.4919603457404, 65684.1550092882, 31970.08007408143, -13732.107130540267, 1305.8336145679493, -14286.54215175416, -8710.653628188806, 14334.687809310892, -7861.220283653771, -4543.32733670799, -1738.2951662892303, 0.022, 0.976, -0.032, 192.0, 0.0, 88.0, 15.0, 64.0, 127.5, 0.0, 0.0, 0.0, 0.0, 1.6625062590606363E9, 0.0, 2022-09-06 19:17:39.060
132.0, -13616.749777406429, -1958.1469247516304, -32734.3756239862, -23545.03703654254, -137.6420423557809, -1539.4540476148186, 65587.59547324126, 31775.1505106867, -14141.211109305754, 824.7793704008307, -14627.786234353332, -8981.623826220492, 14449.95575546691, -8022.39871292099, -4832.245985537289, -1921.4006568671057, 0.022, 0.976, -0.032, 192.0, 0.0, 0.0, 0.0, 0.0, 0.0, 0.0, 0.0, 0.0, 0.0, 1.6625062590606463E9, 0.0, 2022-09-06 19:17:39.060
134.0, -13690.577589342307, -2076.4323564091155, -32767.746778457975, -23613.612188531424, -141.66535635773616, -1580.7824231126815, 65902.64331133882, 31916.681756577702, -14135.310248769552, 916.7567988344192, -14591.442297869004, -8956.522817197183, 14604.294550930805, -7877.514705361689, -4851.513189257764, -1852.5125804558493, 0.022, 0.976, -0.032, 192.0, 0.0, 0.0, 0.0, 0.0, 0.0, 0.0, 0.0, 0.0, 0.0, 1.662506259060662E9, 0.0, 2022-09-06 19:17:39.060
136.0, -13654.188949369069, -2043.7764577599119, -32833.639721112224, -23599.754106969132, -160.4184699557388, -1580.670664390405, 66328.57815367916, 31768.33322862783, -14279.367241784006, 757.835895757186, -14734.493462382969, -9120.718731965868, 14488.892494308055, -8010.686398826409, -4965.350623768642, -1968.6969481345354, 0.022, 0.976, -0.032, 192.0, 0.0, 0.0, 0.0, 0.0, 0.0, 0.0, 0.0, 0.0, 0.0, 1.6625062590606697E9, 0.0, 2022-09-06 19:17:39.060
138.0, -13691.024624231413, -2096.6830368856236, -32805.85650275427, -23619.06601417852, -180.75855741006822, -1617.595746230572, 66303.9018278005, 31864.803357696936, -14165.37334506194, 886.9395717310396, -14623.740568606921, -9002.299189841651, 14587.687204800512, -7885.427222898868, -4931.7112483634055, -1893.0139414088658, 0.022, 0.976, -0.032, 192.0, 0.0, 0.0, 0.0, 0.0, 0.0, 0.0, 0.0, 0.0, 0.0, 1.6625062590606768E9, 0.0, 2022-09-06 19:17:39.060
140.0, -13663.397868084654, -2054.102963698264, -32852.795166110416, -23607.823086717497, -199.46696751916022, -1609.7726356712146, 67199.60328335801, 31783.085379968332, -14290.788983200668, 718.5191772603008, -14749.647945123666, -9139.069514163675, 14459.589357327148, -8002.975046989328, -4972.100850594145, -1968.4063754566164, 0.042, 0.996, -0.054, 192.0, 0.5, 40.0, 15.5, 16.0, 127.0, 40.0, 0.0, 0.0, 0.0, 1.6625062590606842E9, 0.0, 2022-09-06 19:17:39.060
142.0, -13684.296749150366, -2086.6918071141013, -32789.83030197982, -23613.589836786967, -193.11907209385302, -1630.9620894148457, 66768.99692642652, 31858.567220993904, -14186.674557527847, 868.477030810956, -14636.078731546251, -8996.152460116442, 14551.209157849451, -7866.696461045321, -4948.832684616171, -1912.7952352518125, 0.042, 0.996, -0.054, 192.0, 0.0, 0.0, 0.0, 0.0, 0.0, 0.0, 0.0, 0.0, 0.0, 1.6625062590606914E9, 0.0, 2022-09-06 19:17:39.060
144.0, -13708.414281417643, -2092.5256124169364, -32866.38502673925, -23639.6296190774, -257.827372291967, -1665.9649212318566, 68075.03170669457, 31796.67524059716, -14325.613001062036, 632.3532023850921, -14774.30191925787, -9158.403773117516, 14418.797423696213, -8009.121776714537, -4965.7529551688385, -1990.8698786342002, 0.042, 0.996, -0.054, 192.0, 0.0, 0.0, 0.0, 0.0, 0.0, 0.0, 0.0, 0.0, 0.0, 1.6625062590606987E9, 0.0, 2022-09-06 19:17:39.060
146.0, -13659.642775016162, -2044.581120560303, -32757.5320312419, -23583.90672015032, -155.50108617557123, -1586.057434804134, 67300.61081655155, 31851.25820055702, -14204.600656581004, 772.7668610533311, -14647.679286918556, -8998.342931073063, 14515.91575335452, -7865.51181858919, -4973.777231428294, -1945.4287821565608, 0.042, 0.996, -0.054, 192.0, 0.0, 0.0, 0.0, 0.0, 0.0, 0.0, 0.0, 0.0, 0.0, 1.662506259060707E9, 0.0, 2022-09-06 19:17:39.060
148.0, -13729.894307839193, -2102.2709729994504, -32885.5628234819, -23688.93756734581, -282.9283813152768, -1693.658732611982, 68863.80241677791, 31810.734487859547, -14316.717006768824, 530.1833784798836, -14761.53907317389, -9143.629270032558, 14385.448620968893, -8004.450262123378, -4962.400193500543, -2006.1137683527195, 0.042, 0.996, -0.054, 192.0, 0.0, 0.0, 0.0, 0.0, 0.0, 0.0, 0.0, 0.0, 0.0, 1.6625062590607145E9, 0.0, 2022-09-06 19:17:39.060
150.0, -13651.84201620126, -2033.4276000771047, -32788.24332812349, -23639.115528954928, -182.0326068440207, -1609.3926560154744, 67773.32786003684, 31808.476961669563, -14231.914488305389, 645.0936967246172, -14674.434325031558, -9020.828785995101, 14470.675822576979, -7887.528286877667, -5035.535101358307, -2018.1166551252193, 0.046, 0.98, -0.088, 192.0, 0.5, 56.0, 15.0, 80.0, 126.5, 32.0, 0.0, 0.0, 0.0, 1.662506259060722E9, 0.0, 2022-09-06 19:17:39.060
152.0, -13730.363694472755, -2108.350647491294, -32899.73382946656, -23732.299951589102, -285.96821856119857, -1693.9269535454457, 69506.83975301264, 31815.853037339813, -14306.59166653057, 411.1379875109181, -14753.023058536419, -9145.350354355616, 14440.344505351128, -8008.294762169691, -4962.310786522721, -2021.7599894714344, 0.046, 0.98, -0.088, 192.0, 0.0, 0.0, 0.0, 0.0, 0.0, 0.0, 0.0, 0.0, 0.0, 1.6625062590607293E9, 0.0, 2022-09-06 19:17:39.060
154.0, -13636.687533460563, -2025.000992417454, -32807.80110452189, -23641.797738289566, -189.38633076981674, -1583.0175975582122, 68235.45017665031, 31792.271946939465, -14250.444084458839, 523.5449103766573, -14688.67238624959, -9043.381696150505, 14468.910034765011, -7896.156060237416, -5037.166778703544, -2028.2196436190181, 0.046, 0.98, -0.088, 192.0, 0.0, 0.0, 0.0, 0.0, 0.0, 0.0, 0.0, 0.0, 0.0, 1.66250625906074E9, 0.0, 2022-09-06 19:17:39.060
156.0, -13733.269421251944, -2121.538176719925, -32912.9660621841, -23747.633248285445, -273.115965499397, -1712.0989217876104, 70015.96778821561, 31829.10762180181, -14304.848230463056, 349.24600711417287, -14751.704305613555, -9154.916900982487, 14449.15109266652, -7992.469727095334, -4955.6052631861285, -2006.0243613748983, 0.046, 0.98, -0.088, 192.0, 0.0, 0.0, 0.0, 0.0, 0.0, 0.0, 0.0, 0.0, 0.0, 1.6625062590607483E9, 0.0, 2022-09-06 19:17:39.060
158.0, -13626.182213566568, -2004.9067741521328, -32832.16450597817, -23643.809395290544, -187.53113598002625, -1596.115719809022, 68529.66618891552, 31758.967847701057, -14257.998974084732, 474.61694176399016, -14700.205886388529, -9065.08524001661, 14504.717529382413, -7895.016121270195, -5038.373772904131, -2041.675393781113, 0.046, 0.98, -0.088, 192.0, 0.0, 0.0, 0.0, 0.0, 0.0, 0.0, 0.0, 0.0, 0.0, 1.6625062590607555E9, 0.0, 2022-09-06 19:17:39.060
160.0, -13751.016706349457, -2132.4234762696597, -32952.79687080346, -23782.434914402358, -293.43370120927113, -1699.045503025711, 70260.1829481343, 31847.659569699714, -14306.54696304166, 324.01088762413116, -14749.15620674565, -9159.677822551468, 14507.8244218617, -7985.116003169537, -4960.992033599858, -2012.8639951782222, 0.054, 0.96, -0.12, 192.0, 0.5, 88.0, 15.0, 0.0, 126.0, 32.0, 0.0, 0.0, 0.0, 1.662506259060763E9, 0.0, 2022-09-06 19:17:39.060
162.0, -13609.686626158551, -1975.8942098491443, -32874.36459950979, -23646.15632845835, -179.59626669839224, -1589.3878447279747, 68841.85300372279, 31759.146661656698, -14292.822991946101, 399.1127489939629, -14727.162090201628, -9099.037539844221, 14519.179108044997, -7897.720682349287, -5075.8129448667705, -2064.3624144032497, 0.054, 0.96, -0.12, 192.0, 0.0, 0.0, 0.0, 0.0, 0.0, 0.0, 0.0, 0.0, 0.0, 1.6625062590607703E9, 0.0, 2022-09-06 19:17:39.060
164.0, -13751.351982516288, -2103.187394522118, -32985.564528174946, -23797.388231442957, -311.4268554957933, -1726.6275556835599, 70462.35447673255, 31865.74213096406, -14276.729735938281, 260.7330990711569, -14709.817136504309, -9124.742045967823, 14600.181829951029, -7939.026706102694, -4930.325440207176, -1992.4792042349823, 0.054, 0.96, -0.12, 192.0, 0.0, 0.0, 0.0, 0.0, 0.0, 0.0, 0.0, 0.0, 0.0, 1.6625062590607777E9, 0.0, 2022-09-06 19:17:39.060
166.0, -13608.703149402518, -1914.650430041603, -32927.78526875797, -23684.489570199203, -239.70010753871293, -1552.64157684345, 69117.24884715663, 31746.964960928555, -14321.50028008226, 224.83619747593374, -14742.87536655371, -9118.260040075784, 14581.249902397383, -7903.129804507471, -5051.8071713217705, -2081.8861820562106, 0.054, 0.96, -0.12, 192.0, 0.0, 0.0, 0.0, 0.0, 0.0, 0.0, 0.0, 0.0, 0.0, 1.6625062590607872E9, 0.0, 2022-09-06 19:17:39.060
168.0, -13753.38599126172, -2065.7482225594786, -33011.71606918765, -23820.09760380955, -352.8446379714773, -1700.7218838598592, 70395.9697957003, 31867.060883886923, -14267.789038156157, 92.53622204497124, -14691.622816517689, -9105.56424922517, 14690.974615928486, -7868.395193623924, -4907.079625973657, -1969.1439830236416, 0.054, 0.96, -0.12, 192.0, 0.0, 0.0, 0.0, 0.0, 0.0, 0.0, 0.0, 0.0, 0.0, 1.662506259060797E9, 0.0, 2022-09-06 19:17:39.060
170.0, -13603.249323755423, -1911.0294474398434, -32912.40726857272, -23658.896822797877, -192.31440929346198, -1562.4539926593295, 69083.58712000694, 31737.46546953505, -14325.992980717778, -43.09416330983202, -14741.91424154213, -9134.532110039248, 14648.662763674589, -7876.374766394469, -5037.055019981268, -2066.128202215219, 0.06, 0.932, -0.154, 192.0, 0.5, 112.0, 14.5, 16.0, 125.5, 24.0, 0.0, 0.0, 0.0, 1.6625062590608065E9, 0.0, 2022-09-06 19:17:39.060
172.0, -13715.343322198787, -2045.542245571881, -32925.43833559017, -23740.659504015388, -216.25312760509584, -1672.335168401619, 69797.88181756518, 31851.079386601377, -14232.58504063905, -131.0482777414653, -14651.143807309129, -9069.488533674305, 14777.900550115175, -7778.87645708042, -4888.6841402869395, -1911.3200201177622, 0.06, 0.932, -0.154, 192.0, 0.0, 0.0, 0.0, 0.0, 0.0, 0.0, 0.0, 0.0, 0.0, 1.662506259060816E9, 0.0, 2022-09-06 19:17:39.060
174.0, -13554.768390031863, -1870.393976020095, -32849.241238742026, -23580.397496270838, -113.54686183295988, -1505.412340809386, 68493.05403149773, 31729.754117697972, -14296.712195481325, -284.85063133843323, -14710.890020238165, -9118.66237147598, 14738.673238596111, -7808.134890572416, -4995.570182272218, -1987.6959309215465, 0.06, 0.932, -0.154, 192.0, 0.0, 0.0, 0.0, 0.0, 0.0, 0.0, 0.0, 0.0, 0.0, 1.662506259060826E9, 0.0, 2022-09-06 19:17:39.060
176.0, -13641.515510262909, -1947.619253113181, -32859.74655863602, -23643.49647086817, -179.79743239849, -1581.765899868715, 68351.14280595098, 31825.531342688962, -14172.056516654076, -315.09254158646365, -14591.151725191085, -9009.07176841161, 14864.580615112856, -7675.1643628077945, -4869.171067377457, -1854.3454235011845, 0.06, 0.932, -0.154, 192.0, 0.0, 0.0, 0.0, 0.0, 0.0, 0.0, 0.0, 0.0, 0.0, 1.6625062590608356E9, 0.0, 2022-09-06 19:17:39.060
178.0, -13505.661607463553, -1771.331044594174, -32786.589299033796, -23502.90399824429, -22.798779344413205, -1428.4552846497638, 66706.76966986294, 31692.51611143543, -14255.29441300564, -474.97456967527506, -14663.19139757054, -9076.104650033076, 14777.788791392899, -7725.522843065602, -4960.321481266199, -1959.8233055857786, 0.06, 0.932, -0.154, 192.0, 0.0, 0.0, 0.0, 0.0, 0.0, 0.0, 0.0, 0.0, 0.0, 1.662506259060844E9, 0.0, 2022-09-06 19:17:39.060
180.0, -13570.21344545048, -1848.0645833092433, -32751.966446872528, -23571.166225810794, -71.30206481242953, -1497.0527883831012, 66318.98925530782, 31892.318355121417, -14117.473556694218, -440.97756635875305, -14522.420110991015, -8939.133160010953, 14942.387037561779, -7567.093678366385, -4807.726121869818, -1829.490283666883, 0.062, 0.92, -0.188, 192.0, 0.5, 120.0, 14.0, 96.0, 125.0, 16.0, 0.0, 0.0, 0.0, 1.6625062590608513E9, 0.0, 2022-09-06 19:17:39.060
182.0, -13536.3952560896, -1795.560335583727, -32794.30065087088, -23562.493748962137, -94.54787904594887, -1475.4162997503638, 66264.31688837014, 31834.606150937816, -14194.497668087206, -619.5456528122012, -14609.03312075533, -9029.523614588215, 14850.789588783931, -7681.579313466467, -4845.075886854635, -1888.5435925178044, 0.062, 0.92, -0.188, 192.0, 0.0, 0.0, 0.0, 0.0, 0.0, 0.0, 0.0, 0.0, 0.0, 1.6625062590608587E9, 0.0, 2022-09-06 19:17:39.060
184.0, -13641.157882351623, -1912.8846422296338, -32824.92254077465, -23682.030878309117, -163.10067929037564, -1578.0108068002232, 66243.97680091581, 31916.569997855426, -14176.23629286722, -648.4017549040026, -14581.987509964409, -8998.231172350785, 14892.27442649298, -7653.080839285951, -4858.6880992279175, -1880.9216476585445, 0.062, 0.92, -0.188, 192.0, 0.0, 0.0, 0.0, 0.0, 0.0, 0.0, 0.0, 0.0, 0.0, 1.6625062590608666E9, 0.0, 2022-09-06 19:17:39.060
186.0, -13602.399957466121, -1856.334728757707, -32862.02643657046, -23668.843349080485, -165.60407466937002, -1564.8456293160475, 66816.15910722723, 31839.612941695803, -14309.698559009857, -854.21661784847, -14709.884191737676, -9137.013153673786, 14760.197968506573, -7812.672294696844, -4935.265175731799, -1985.3489977537392, 0.062, 0.92, -0.188, 192.0, 0.0, 0.0, 0.0, 0.0, 0.0, 0.0, 0.0, 0.0, 0.0, 1.662506259060874E9, 0.0, 2022-09-06 19:17:39.060
188.0, -13624.88581238816, -1894.8020809652903, -32813.701965058084, -23697.274768027637, -173.56129569545934, -1600.541365211173, 66569.90993856311, 31913.530160609505, -14210.233296183742, -744.737773506376, -14591.46464961346, -9007.596553277559, 14869.945033782129, -7660.211045767194, -4889.399396109509, -1907.9002032161002, 0.062, 0.92, -0.188, 192.0, 0.0, 0.0, 0.0, 0.0, 0.0, 0.0, 0.0, 0.0, 0.0, 1.662506259060881E9, 0.0, 2022-09-06 19:17:39.060
190.0, -13659.151036638146, -1925.0216394688655, -32897.43159978767, -23769.13562645145, -271.5066398986149, -1645.0213366772339, 68075.12111367239, 31897.97334646861, -14351.853949052567, -979.0287588869046, -14728.257325679939, -9163.544674342236, 14754.654735881655, -7836.253385097192, -4908.912469018993, -1993.6861984355687, 0.048, 0.9520000000000001, -0.21, 192.0, 0.5, 64.0, 14.5, 96.0, 124.5, 56.0, 0.0, 0.0, 0.0, 1.6625062590608895E9, 0.0, 2022-09-06 19:17:39.060
192.0, -13687.56010384084, -1971.58032316927, -32868.88842211824, -23810.4192984604, -307.0012100936425, -1696.6091628800825, 68409.70437642389, 31927.924684038724, -14322.193184160375, -896.5284701023663, -14704.206848646028, -9109.520507993759, 14775.799486136377, -7781.379852459414, -4954.398268985542, -2027.5937947742696, 0.048, 0.9520000000000001, -0.21, 192.0, 0.0, 0.0, 0.0, 0.0, 0.0, 0.0, 0.0, 0.0, 0.0, 1.662506259060897E9, 0.0, 2022-09-06 19:17:39.060
194.0, -13767.53464550193, -2067.178734204618, -32986.90563284226, -23925.93311380543, -428.21472027477273, -1778.0589196752214, 70471.76456114824, 31812.567330904883, -14459.90228174952, -1123.5104350460094, -14837.691466533122, -9263.009937168354, 14639.722065892467, -7931.225947287792, -4962.26608303381, -2114.251508027495, 0.048, 0.9520000000000001, -0.21, 192.0, 0.0, 0.0, 0.0, 0.0, 0.0, 0.0, 0.0, 0.0, 0.0, 1.6625062590609045E9, 0.0, 2022-09-06 19:17:39.060
196.0, -13770.73094495904, -2141.542988007425, -32951.031082991496, -24007.65109153403, -411.8755950779432, -1745.2018553259202, 70514.88107620252, 31872.984096167576, -14466.496046363836, -1207.5529941979642, -14829.51072806248, -9263.345213335182, 14643.097179305218, -7855.9005684734075, -5053.774124833837, -2186.648808318235, 0.048, 0.9520000000000001, -0.21, 192.0, 0.0, 0.0, 0.0, 0.0, 0.0, 0.0, 0.0, 0.0, 0.0, 1.662506259060912E9, 0.0, 2022-09-06 19:17:39.060
198.0, -13835.327486434877, -2151.154238123207, -33092.00353527111, -24051.684028110987, -582.5311639942126, -1811.3853706580844, 72751.70955082292, 31868.245526343053, -14748.373895689714, -1444.123857512934, -14994.511305631555, -9493.63523645821, 14505.499840438348, -7887.193010710837, -5037.010316492358, -2266.802163934966, 0.048, 0.9520000000000001, -0.21, 192.0, 0.0, 0.0, 0.0, 0.0, 0.0, 0.0, 0.0, 0.0, 0.0, 1.6625062590609207E9, 0.0, 2022-09-06 19:17:39.060
200.0, -13695.1820487001, -2059.333271900806, -32972.10877801285, -23969.988402126837, -492.4089303504146, -1747.2582158158084, 72360.24109843267, 31805.370069190274, -14643.298345005316, -804.8192626022415, -14919.700016939643, -9224.184957049485, 14555.433637551503, -7872.8655425149855, -5135.5144543068955, -2340.9429002932193, 0.008, 0.994, -0.212, 192.0, 127.5, 0.0, 16.0, 48.0, 124.5, 40.0, 0.0, 0.0, 0.0, 1.6625062590609288E9, 0.0, 2022-09-06 19:17:39.060
202.0, -13752.782494161427, -2169.1697441541846, -33115.60697741592, -24061.56349916023, -601.5301467812237, -1842.3425367286845, 74207.70218464163, 31784.806464291392, -14599.377167150638, -1090.7651294189848, -14953.607613278344, -9331.138054268129, 14551.186806104995, -7916.049112802639, -5084.686587415527, -2391.726063695677, 0.008, 0.994, -0.212, 192.0, 0.0, 0.0, 0.0, 0.0, 0.0, 0.0, 0.0, 0.0, 0.0, 1.6625062590609365E9, 0.0, 2022-09-06 19:17:39.060
204.0, -13599.114251031191, -2088.904629815177, -32950.71815856912, -24016.591789316153, -481.45657556731413, -1702.465319927373, 73166.04383779094, 31740.728824225527, -14702.038729433863, -1066.5581901738872, -14952.333563844391, -9303.779519054833, 14670.768638940888, -7906.750787109231, -5218.774702402914, -2506.1893470513046, 0.008, 0.994, -0.212, 192.0, 0.0, 0.0, 0.0, 0.0, 0.0, 0.0, 0.0, 0.0, 0.0, 1.6625062590609436E9, 0.0, 2022-09-06 19:17:39.060
206.0, -13729.603735161274, -2230.413523961726, -33089.231918958656, -24167.086084733735, -645.2501589358043, -1825.690487109481, 74668.7292657768, 31774.68112405314, -14509.992541073865, -1119.4424175551437, -14868.067487247883, -9372.242912321439, 14699.177706143584, -7918.552508181633, -5087.81583163927, -2481.8930008283855, 0.008, 0.994, -0.212, 192.0, 0.0, 0.0, 0.0, 0.0, 0.0, 0.0, 0.0, 0.0, 0.0, 1.662506259060951E9, 0.0, 2022-09-06 19:17:39.060
208.0, -13463.349755209656, -2027.7949604743674, -32874.76693090999, -23939.992361067816, -452.1310868419513, -1603.9611821128349, 73400.55834061603, 31739.052443391378, -14557.64646025258, -860.9221411850622, -14872.47078090558, -9275.102230918674, 14753.805369592354, -7813.856937152975, -5211.130405799199, -2579.011330486695, 0.008, 0.994, -0.212, 192.0, 0.0, 0.0, 0.0, 0.0, 0.0, 0.0, 0.0, 0.0, 0.0, 1.6625062590609584E9, 0.0, 2022-09-06 19:17:39.060
210.0, -13585.300872957812, -2152.5623980238915, -32978.568432160435, -24060.401208448555, -613.4659783203576, -1738.4739802448728, 74858.16030003552, 31833.19799103713, -14415.04233062772, -771.1128319636383, -14779.755744904965, -9255.812675453744, 14615.403367925093, -7737.838654260476, -5017.474891838418, -2462.7152040857322, -0.081, 1.006, -0.222, 192.0, 125.0, 88.0, 15.5, 104.0, 124.0, 96.0, 0.0, 0.0, 0.0, 1.6625062590609655E9, 0.0, 2022-09-06 19:17:39.060
212.0, -13504.655778963064, -2111.032856825931, -32962.13989998578, -23992.831884960164, -637.6729175654552, -1661.762793274259, 73899.42692511404, 31701.233291773, -14545.084779868697, -772.2080674419484, -14807.516611518457, -9273.828181484721, 14528.745654671868, -7884.868429287485, -5185.627065375694, -2581.2465049322254, -0.081, 1.006, -0.222, 192.0, 0.0, 0.0, 0.0, 0.0, 0.0, 0.0, 0.0, 0.0, 0.0, 1.6625062590609727E9, 0.0, 2022-09-06 19:17:39.060
214.0, -13597.236704496945, -2191.7226543095894, -33163.260896594635, -24025.286617909267, -815.9951348298949, -1745.0900966036436, 75517.98379635619, 31838.696520173136, -14611.312998689771, -430.0699150645632, -14834.22694614255, -9249.241262583884, 14792.026852610928, -7866.539998834133, -5164.8622947767135, -2528.362277550969, -0.081, 1.006, -0.222, 192.0, 0.0, 0.0, 0.0, 0.0, 0.0, 0.0, 0.0, 0.0, 0.0, 1.6625062590609803E9, 0.0, 2022-09-06 19:17:39.060
216.0, -13398.17206837798, -2015.7026667240461, -32922.46555357761, -23863.415284563933, -630.6991732953994, -1575.6862253768713, 74725.48034494881, 31778.167996188167, -14226.214793469286, -300.0721693124973, -14690.57228452829, -9158.023793461776, 14634.692923390023, -7884.264932187192, -5167.8574285337245, -2505.2505737841816, -0.081, 1.006, -0.222, 192.0, 0.0, 0.0, 0.0, 0.0, 0.0, 0.0, 0.0, 0.0, 0.0, 1.6625062590609877E9, 0.0, 2022-09-06 19:17:39.060
218.0, -13645.069437631302, -2224.2891459809716, -33234.20533349578, -24071.018287064828, -827.1039518241826, -1730.0026690963114, 75844.96746599287, 31886.50690156304, -14395.328092018139, -71.65969272371444, -14698.95418869903, -9235.696105443967, 14548.281079325805, -7909.924734821884, -5066.961654062468, -2426.2148053902156, -0.081, 1.006, -0.222, 192.0, 0.0, 0.0, 0.0, 0.0, 0.0, 0.0, 0.0, 0.0, 0.0, 1.6625062590609949E9, 0.0, 2022-09-06 19:17:39.060
220.0, -13559.216387178469, -2157.479781804059, -33225.35404269148, -23965.853329402606, -717.2451278263484, -1649.6034442905718, 74961.35830418568, 31706.41889648663, -14550.560957260246, -62.78605017495754, -14829.063693173373, -9396.181630633073, 14494.860410077621, -7979.863343222541, -5235.516158999939, -2580.6653595763873, -0.0985, 1.0, -0.241, 192.0, 126.0, 48.0, 15.5, 8.0, 123.5, 112.0, 0.0, 0.0, 0.0, 1.6625062590610023E9, 0.0, 2022-09-06 19:17:39.061
222.0, -13712.124670997224, -2396.9116684093083, -33360.51504141272, -24051.795786833263, -722.028401139784, -1771.5769137831826, 75626.76973662016, 31855.862659914812, -14444.010191441797, 18.619003131270784, -14770.055087811363, -9352.908653367598, 14615.381016180638, -7972.464915807834, -5125.702038491016, -2436.3177938840145, -0.0985, 1.0, -0.241, 192.0, 0.0, 0.0, 0.0, 0.0, 0.0, 0.0, 0.0, 0.0, 0.0, 1.6625062590610118E9, 0.0, 2022-09-06 19:17:39.061
224.0, -13599.427175453566, -2239.1977595326616, -33338.811497546616, -23905.436564139913, -620.0373911902179, -1711.8307008541467, 75102.1742942541, 31669.002076268447, -14632.860080344688, 127.51670211752679, -14914.022673847996, -9495.915114392652, 14510.372520729605, -8061.02252733976, -5314.7754448384585, -2563.789792512631, -0.0985, 1.0, -0.241, 192.0, 0.0, 0.0, 0.0, 0.0, 0.0, 0.0, 0.0, 0.0, 0.0, 1.6625062590610216E9, 0.0, 2022-09-06 19:17:39.061
226.0, -13745.384066746721, -2424.3149071115145, -33380.51985270022, -23970.726009693863, -642.0762112231507, -1756.6012449981267, 75631.53065818915, 31854.722720947593, -14429.168633123474, 410.2215659882505, -14729.352561158248, -9240.948765390965, 14479.974148270387, -7993.274389895724, -5153.507608593418, -2380.438432745747, -0.0985, 1.0, -0.241, 192.0, 0.0, 0.0, 0.0, 0.0, 0.0, 0.0, 0.0, 0.0, 0.0, 1.6625062590610425E9, 0.0, 2022-09-06 19:17:39.061
228.0, -13544.240718393412, -2184.391282128249, -33317.04089844714, -23850.071293124118, -620.5291295682347, -1713.685895643937, 75597.89128278391, 31714.912559379645, -14559.524006786825, 210.64283974681376, -14880.13742925375, -9433.553747362346, 14491.909979809521, -8015.737893073308, -5260.080726156321, -2498.5674021920445, -0.0985, 1.0, -0.241, 192.0, 0.0, 0.0, 0.0, 0.0, 0.0, 0.0, 0.0, 0.0, 0.0, 1.66250625906105E9, 0.0, 2022-09-06 19:17:39.061
230.0, -13660.51449304992, -2318.434693626725, -33300.92529069487, -23896.652328568976, -681.8846680980525, -1752.4885240183503, 75751.24660149177, 31809.01340353649, -14317.49931782476, 713.8476626691416, -14678.547046011336, -9190.366767688605, 14446.267717631785, -8080.177972337959, -5148.21024515751, -2380.3266740234703, -0.09425, 0.9650000000000001, -0.26549999999999996, 192.0, 126.5, 24.0, 14.5, 8.0, 123.0, 120.0, 0.0, 0.0, 0.0, 1.6625062590610595E9, 0.0, 2022-09-06 19:17:39.061
232.0, -13877.013489844025, -2529.5469200071, -33718.277063164365, -24112.078441629226, -831.7084111819757, -1826.852777821157, 75677.48584478925, 31588.133464829145, -14609.837783555722, 393.1001297354853, -14891.447411948135, -9410.263229639915, 14401.340711276616, -8181.543133442776, -5271.122487917243, -2514.97358262224, -0.09425, 0.9650000000000001, -0.26549999999999996, 192.0, 0.0, 0.0, 0.0, 0.0, 0.0, 0.0, 0.0, 0.0, 0.0, 1.6625062590610669E9, 0.0, 2022-09-06 19:17:39.061
234.0, -13984.324214973953, -2669.915875186429, -33974.29394415545, -24337.00404608298, -957.5934359542651, -1974.8660296042003, 75156.57844025832, 31636.21206715251, -15467.541273539218, -446.4984472392139, -15401.558923907152, -9954.036468748625, 15217.96169495126, -8173.630615905598, -5608.611477447925, -2730.2432334713026, -0.09425, 0.9650000000000001, -0.26549999999999996, 192.0, 0.0, 0.0, 0.0, 0.0, 0.0, 0.0, 0.0, 0.0, 0.0, 1.662506259061074E9, 0.0, 2022-09-06 19:17:39.061
236.0, -13595.3591579627, -2141.2077118405955, -33402.93865238889, -23823.629179433487, -760.9651399809289, -1789.8159372587131, 75368.00359106107, 31606.35013656022, -14452.079171190164, 978.6264274867091, -14851.169568439671, -9296.068167217752, 14275.567445226605, -8105.100167405626, -5263.344080846797, -2532.7432194642092, -0.09425, 0.9650000000000001, -0.26549999999999996, 192.0, 0.0, 0.0, 0.0, 0.0, 0.0, 0.0, 0.0, 0.0, 0.0, 1.6625062590610812E9, 0.0, 2022-09-06 19:17:39.061
238.0, -13677.099487435758, -2341.7028596047, -33376.56359393163, -23956.93498336494, -764.7425847938758, -1785.3455883676515, 74327.30636922197, 31690.504454434453, -14227.712360347792, 769.7270238074093, -14684.313796080805, -9196.982884047377, 14535.697047197467, -8179.419717719522, -5192.176126501099, -2418.6152122754115, -0.09425, 0.9650000000000001, -0.26549999999999996, 192.0, 0.0, 0.0, 0.0, 0.0, 0.0, 0.0, 0.0, 0.0, 0.0, 1.6625062590610883E9, 0.0, 2022-09-06 19:17:39.061
240.0, -13501.593589972686, -2038.188521646085, -33107.761515112106, -23727.047291642106, -531.5691866361126, -1758.1658671099983, 74590.2075875053, 31692.65022190216, -14573.382088349115, 442.02809834815247, -14877.589330385845, -9432.123235717207, 14431.739083735834, -8247.905462730583, -5260.393650578696, -2433.724991527199, -0.028125, 0.9185000000000001, -0.30774999999999997, 192.0, 0.5, 24.0, 13.5, 32.0, 122.5, 8.0, 0.0, 0.0, 0.0, 1.662506259541109E9, 0.0, 2022-09-06 19:17:39.541
242.0, -13557.338840644223, -2132.870511158766, -33205.50569361517, -23774.142417209438, -503.5400990891575, -1738.6527942005152, 73313.2524267736, 31703.75903889645, -13901.80157444496, 979.274628075913, -14514.351131242649, -9050.802475309667, 14170.156618375377, -8075.014719368783, -5014.122130170123, -2283.789489720999, -0.028125, 0.9185000000000001, -0.30774999999999997, 192.0, 0.0, 0.0, 0.0, 0.0, 0.0, 0.0, 0.0, 0.0, 0.0, 1.6625062595412111E9, 0.0, 2022-09-06 19:17:39.541
244.0, -13636.441664271553, -2230.8158553619214, -33377.18944277638, -23884.3365173741, -585.4815942623133, -1794.6886175499699, 73650.1826226929, 31707.916463365134, -14305.496431052261, 612.7507224977878, -14761.226148751515, -9308.428681901536, 14217.363502664984, -8154.944557540961, -5097.449433499508, -2263.4270505222144, -0.028125, 0.9185000000000001, -0.30774999999999997, 192.0, 0.0, 0.0, 0.0, 0.0, 0.0, 0.0, 0.0, 0.0, 0.0, 1.6625062595413413E9, 0.0, 2022-09-06 19:17:39.541
246.0, -13669.343432109767, -2274.4017570497704, -33386.84539638107, -23906.621206596043, -578.843126159087, -1805.7527310553469, 72228.20934393517, 31633.418099095597, -14313.632466033992, 595.584582756112, -14782.147381561683, -9323.6502198756, 14223.845508557024, -8078.009853125794, -5232.386914776196, -2336.5843101244345, -0.028125, 0.9185000000000001, -0.30774999999999997, 192.0, 0.0, 0.0, 0.0, 0.0, 0.0, 0.0, 0.0, 0.0, 0.0, 1.6625062595413804E9, 0.0, 2022-09-06 19:17:39.541
248.0, -13735.929278842126, -2357.639653401334, -33468.49631887631, -23987.020431401783, -639.6398710775222, -1922.8088167677902, 72924.10855580671, 31653.378206894187, -14430.688551746434, 466.8832381824539, -14875.75648734051, -9393.85704920972, 14107.236457733687, -8194.440089993488, -5214.214946534032, -2237.700192654156, -0.028125, 0.9185000000000001, -0.30774999999999997, 192.0, 0.0, 0.0, 0.0, 0.0, 0.0, 0.0, 0.0, 0.0, 0.0, 1.662506259541391E9, 0.0, 2022-09-06 19:17:39.541
250.0, -13709.66597910714, -2324.5814233519345, -33416.14853336198, -23935.142032521017, -568.8071928986541, -1908.7272177609466, 71614.67631038146, 31498.033582929802, -14356.212539221353, 491.13488091646207, -14849.56024283889, -9347.477179464959, 14079.229721931188, -8144.081609735681, -5285.986397980023, -2318.6135075823677, 0.07493749999999999, 0.8772500000000001, -0.348875, 192.0, 2.5, 72.0, 13.0, 16.0, 121.5, 104.0, 0.0, 0.0, 0.0, 1.6625062595414016E9, 0.0, 2022-09-06 19:17:39.541
252.0, -13773.3013955714, -2383.277104291571, -33460.29322866121, -23999.425649574478, -596.679818234422, -1980.453965718027, 71852.52122313037, 31621.526971045372, -14438.869290217077, 402.15258623988467, -14895.448374205635, -9342.112760795684, 14023.260953815097, -8197.234058050402, -5212.7620831444365, -2165.928741208165, 0.07493749999999999, 0.8772500000000001, -0.348875, 192.0, 0.0, 0.0, 0.0, 0.0, 0.0, 0.0, 0.0, 0.0, 0.0, 1.6625062595414116E9, 0.0, 2022-09-06 19:17:39.541
254.0, -13742.880671367726, -2338.3500979364035, -33409.84534142558, -23959.058399088193, -535.5254454047019, -1941.159598965597, 70370.86878667698, 31436.3204164887, -14362.493379413294, 380.3819871404156, -14877.522275152478, -9304.047739988297, 14006.228924540153, -8202.889049397594, -5307.9134592906785, -2256.073326596418, 0.07493749999999999, 0.8772500000000001, -0.348875, 192.0, 0.0, 0.0, 0.0, 0.0, 0.0, 0.0, 0.0, 0.0, 0.0, 1.6625062595414217E9, 0.0, 2022-09-06 19:17:39.541
0.0, -13777.3023578289, -2351.3811649538475, -33404.927957645414, -23969.921346893472, -517.3758289069925, -1958.1916282405411, 70724.24986651538, 31647.119718446702, -14405.319321789662, 304.2966490145503, -14879.13160075326, -9258.383126066105, 13996.86354361338, -8214.62371523663, -5180.664978106615, -2073.683091841113, 0.07493749999999999, 0.8772500000000001, -0.348875, 192.0, 0.0, 0.0, 0.0, 0.0, 0.0, 0.0, 0.0, 0.0, 0.0, 1.6625062595414312E9, 0.0, 2022-09-06 19:17:39.541
2.0, -13765.791209434416, -2323.7767605515432, -33372.38381771849, -23953.47046297437, -480.18252613336165, -1965.902980077622, 69514.64051182753, 31388.085351954145, -14329.770425530724, 249.87015126587767, -14855.550510352912, -9214.707817400435, 14010.565162964484, -8203.939581386994, -5217.858280880247, -2165.280540618961, 0.07493749999999999, 0.8772500000000001, -0.348875, 192.0, 0.0, 0.0, 0.0, 0.0, 0.0, 0.0, 0.0, 0.0, 0.0, 1.6625062595414667E9, 0.0, 2022-09-06 19:17:39.541
4.0, -13806.426680854163, -2351.8729033318646, -33359.39745418995, -23971.26245156079, -458.3672235449819, -2007.0748933642976, 70000.79095373047, 31655.21104993952, -14386.879132614033, 173.7624613955571, -14855.684620819644, -9156.570930072181, 14017.807128168002, -8196.205877805458, -5131.5805472827615, -2012.998105644954, 0.19746875, 0.8446250000000001, -0.3694375, 192.0, 5.0, 0.0, 12.5, 48.0, 121.5, 104.0, 0.0, 0.0, 0.0, 1.662506259541477E9, 0.0, 2022-09-06 19:17:39.541
6.0, -13814.719178047084, -2354.46570568868, -33361.945553057856, -23958.566660710178, -433.02034533266374, -2026.0738761513087, 69023.32681695544, 31361.86675570807, -14337.012390734244, 103.75679776153538, -14866.167588969183, -9143.741028754834, 14030.949953907724, -8217.14946236008, -5210.7057226545485, -2131.37294428026, 0.19746875, 0.8446250000000001, -0.3694375, 192.0, 0.0, 0.0, 0.0, 0.0, 0.0, 0.0, 0.0, 0.0, 0.0, 1.6625062595414934E9, 0.0, 2022-09-06 19:17:39.541
8.0, -13845.698695862138, -2366.84857211692, -33330.58605558706, -23929.040006284715, -428.23707201922804, -1992.4792042349823, 69290.87719808545, 31613.30152908582, -14387.348519247595, 75.28067532547419, -14871.286138449448, -9086.632321671525, 14050.59713728394, -8172.423621705011, -5164.906998265624, -1993.8203089023007, 0.19746875, 0.8446250000000001, -0.3694375, 192.0, 0.0, 0.0, 0.0, 0.0, 0.0, 0.0, 0.0, 0.0, 0.0, 1.662506259541504E9, 0.0, 2022-09-06 19:17:39.541
10.0, -13845.765751095505, -2371.497734963624, -33335.07875622258, -23917.93118929043, -407.53935665361365, -2027.0573529073422, 68518.15504052103, 31295.973813053828, -14354.849082809578, 4.850328546801633, -14886.060641534406, -9090.499173462293, 14061.773009511591, -8176.312825240234, -5220.026400092412, -2086.93767630311, 0.19746875, 0.8446250000000001, -0.3694375, 192.0, 0.0, 0.0, 0.0, 0.0, 0.0, 0.0, 0.0, 0.0, 0.0, 1.662506259541514E9, 0.0, 2022-09-06 19:17:39.541
12.0, -13840.021352770491, -2349.883598075342, -33260.91566811987, -23851.255935580248, -359.72897526371185, -1970.3286254797729, 68620.63778884862, 31622.644558268137, -14379.257187754774, -16.67440136365907, -14863.172455212172, -9030.238870410785, 14111.818565347025, -8123.652115303531, -5136.58733804075, -1968.9204655790886, 0.19746875, 0.8446250000000001, -0.3694375, 192.0, 0.0, 0.0, 0.0, 0.0, 0.0, 0.0, 0.0, 0.0, 0.0, 1.662506259541524E9, 0.0, 2022-09-06 19:17:39.541
14.0, -13803.856230241803, -2322.122731461851, -33228.14801074839, -23828.926542869394, -312.29857352955025, -1996.0778350922867, 68021.8569066354, 31312.111772550557, -14318.639256791981, -25.235119490041672, -14840.686600290133, -9001.78509971918, 14171.922406187345, -8090.07979513166, -5146.422105601086, -1983.4267477305827, 0.19746875, 0.8446250000000001, -0.3694375, 192.0, 0.0, 0.0, 0.0, 0.0, 0.0, 0.0, 0.0, 0.0, 0.0, 1.6625062595415344E9, 0.0, 2022-09-06 19:17:39.541
16.0, -13819.122471704779, -2316.3783331368368, -33183.15394915986, -23791.42031567339, -277.8098318350115, -1974.6201604151918, 67933.76868173703, 31508.360088868154, -14338.152329701465, -42.021279575977275, -14824.638047771223, -8952.790075873147, 14222.705569589803, -8028.836015324118, -5116.448416286518, -1907.453168326994, 0.438, 0.8, -0.38, 192.0, 6.5, 88.0, 12.5, 0.0, 122.0, 16.0, 0.0, 0.0, 0.0, 1.662506259541545E9, 0.0, 2022-09-06 19:17:39.541
18.0, -13799.698805773116, -2321.854510528387, -33175.17437638931, -23790.190969728348, -257.76031705860106, -2035.3274983558058, 67494.78042063481, 31138.416366388366, -14311.39729158846, -127.18142595069719, -14816.12203313375, -8930.281869206652, 14251.516968192695, -8022.4881198988105, -5101.718616690471, -1922.8982237456114, 0.438, 0.8, -0.38, 192.0, 0.0, 0.0, 0.0, 0.0, 0.0, 0.0, 0.0, 0.0, 0.0, 1.6625062595415556E9, 0.0, 2022-09-06 19:17:39.541
20.0, -13769.099267613801, -2279.83323095241, -33110.689593635754, -23714.664425213865, -215.8731479493556, -1987.2488960324404, 67211.7179288528, 31329.88140939253, -14317.052282935654, -242.7399447846347, -14800.140535848206, -8892.9991594552, 14280.68599470687, -7977.449354821367, -5078.271636756854, -1917.0197149538656, 0.438, 0.8, -0.38, 192.0, 0.0, 0.0, 0.0, 0.0, 0.0, 0.0, 0.0, 0.0, 0.0, 1.6625062595415657E9, 0.0, 2022-09-06 19:17:39.541
22.0, -13721.422996690631, -2267.1597918462508, -33102.12887550937, -23712.56336123507, -163.57006592393708, -2011.3440765552614, 66855.4758257241, 31097.087990890504, -14252.366334481996, -346.1614663793405, -14734.96284901653, -8814.052798039056, 14361.219329979342, -7899.687635861354, -4983.209667588433, -1852.0655455667431, 0.438, 0.8, -0.38, 192.0, 0.0, 0.0, 0.0, 0.0, 0.0, 0.0, 0.0, 0.0, 0.0, 1.6625062595415752E9, 0.0, 2022-09-06 19:17:39.541
24.0, -13741.42780797813, -2256.028623107508, -33130.046204334045, -23676.487645684203, -176.42231898573866, -1982.2644570189068, 66364.20683434092, 31273.264440687235, -14247.62776465747, -491.93954371685317, -14755.30293647086, -8812.689341627281, 14356.704277599369, -7907.398987698435, -5013.853909236659, -1906.5814502932371, 0.438, 0.8, -0.38, 192.0, 0.0, 0.0, 0.0, 0.0, 0.0, 0.0, 0.0, 0.0, 0.0, 1.6625062595415845E9, 0.0, 2022-09-06 19:17:39.541
26.0, -13693.460964377042, -2217.1365877552735, -33103.3135179655, -23639.8307847775, -132.94817602016641, -1959.868009074689, 66138.78949150915, 31118.411555100865, -14230.953363293811, -575.1997918128719, -14732.995895504464, -8727.238622574643, 14392.80234489469, -7807.889021383407, -4921.1612249805, -1776.047262674244, 0.47600000000000003, 0.736, -0.406, 192.0, 7.0, 112.0, 11.5, 0.0, 121.5, 40.0, 0.0, 0.0, 0.0, 1.6625062595415945E9, 0.0, 2022-09-06 19:17:39.541
28.0, -13772.049697881903, -2294.0042369370744, -33116.92573033878, -23653.10772098395, -142.80529532495683, -1961.7902590978456, 65570.56344396633, 31083.274612817124, -14245.861976845501, -771.3139976637361, -14762.142570274184, -8742.706029737716, 14389.449583226393, -7798.501288712179, -4948.944443338447, -1844.108324540654, 0.47600000000000003, 0.736, -0.406, 192.0, 0.0, 0.0, 0.0, 0.0, 0.0, 0.0, 0.0, 0.0, 0.0, 1.6625062595416071E9, 0.0, 2022-09-06 19:17:39.541
30.0, -13670.684536777084, -2234.3921344747705, -33000.71901091564, -23569.065161831997, -73.4254805356837, -1931.5707005942704, 65388.575540611215, 30961.99404740263, -14245.481997189761, -863.9843301754393, -14691.533409539868, -8646.437066368708, 14451.654488045513, -7732.1613111688275, -4832.782427404217, -1672.4916306128064, 0.47600000000000003, 0.736, -0.406, 192.0, 0.0, 0.0, 0.0, 0.0, 0.0, 0.0, 0.0, 0.0, 0.0, 1.662506259541618E9, 0.0, 2022-09-06 19:17:39.541
32.0, -13696.344339411777, -2255.380422518304, -32956.41785340522, -23552.79309186853, -77.1805736041753, -1934.454075629005, 64702.44404106666, 30919.749250382098, -14190.988444207722, -1018.4572361060663, -14665.38186852716, -8641.586737821906, 14505.388081716072, -7731.267241390615, -4865.751250475794, -1757.2941490762412, 0.47600000000000003, 0.736, -0.406, 192.0, 0.0, 0.0, 0.0, 0.0, 0.0, 0.0, 0.0, 0.0, 0.0, 1.6625062595416257E9, 0.0, 2022-09-06 19:17:39.541
34.0, -13677.010080457936, -2270.9148849147423, -32897.968041654596, -23557.352847737417, -66.20586707661953, -1961.4326311865607, 64452.32802061177, 30900.07971526143, -14224.828985313057, -1098.7670539339847, -14626.109853519185, -8566.663690407717, 14540.480320510904, -7673.510333718102, -4811.414159704943, -1616.4781590078069, 0.47600000000000003, 0.736, -0.406, 192.0, 0.0, 0.0, 0.0, 0.0, 0.0, 0.0, 0.0, 0.0, 0.0, 1.6625062595416336E9, 0.0, 2022-09-06 19:17:39.541
36.0, -13705.843830805283, -2297.245239883094, -32881.62891645776, -23557.866937859886, -61.04261410744359, -1976.4977069494375, 63710.764194818046, 30840.5793715214, -14177.33152834553, -1252.4800005531313, -14633.105949533696, -8603.164089103233, 14516.899230110554, -7704.467499788702, -4912.980486509859, -1784.5185738228054, 0.498, 0.8260000000000001, -0.386, 192.0, 7.5, 72.0, 12.5, 104.0, 121.5, 120.0, 0.0, 0.0, 0.0, 1.6625062595416412E9, 0.0, 2022-09-06 19:17:39.541
38.0, -13691.270493420423, -2291.1655653912503, -32852.5045934325, -23556.36937098138, -53.93475937065594, -1973.6366836591583, 63474.79682860337, 30930.366328998367, -14233.948497050822, -1301.16209997679, -14600.338292162216, -8517.802777028415, 14531.673733195512, -7665.240188269639, -4857.838732938616, -1639.7016214968708, 0.498, 0.8260000000000001, -0.386, 192.0, 0.0, 0.0, 0.0, 0.0, 0.0, 0.0, 0.0, 0.0, 0.0, 1.6625062595416515E9, 0.0, 2022-09-06 19:17:39.541
40.0, -13740.936069600115, -2331.912795533275, -32890.52491075097, -23592.71330746571, -95.33019010188463, -1985.550163453837, 62834.799329614565, 30824.217894580117, -14193.581246564538, -1483.2394103097213, -14635.966972823975, -8592.256437809043, 14508.53967768427, -7711.508299292123, -4963.8754086345925, -1832.6418796350813, 0.498, 0.8260000000000001, -0.386, 192.0, 0.0, 0.0, 0.0, 0.0, 0.0, 0.0, 0.0, 0.0, 0.0, 1.662506259541659E9, 0.0, 2022-09-06 19:17:39.541
42.0, -13714.471604165032, -2311.2597836565715, -32849.7553288645, -23567.65700193131, -74.90069566973396, -1981.8174221298007, 62676.32546142644, 31007.18927469126, -14255.249709516731, -1491.1742795913553, -14605.076861986741, -8520.97672474107, 14536.836986164688, -7676.438412241747, -4892.662750799984, -1663.1038979415773, 0.498, 0.8260000000000001, -0.386, 192.0, 0.0, 0.0, 0.0, 0.0, 0.0, 0.0, 0.0, 0.0, 0.0, 1.6625062595416667E9, 0.0, 2022-09-06 19:17:39.541
44.0, -13758.035154108424, -2333.0750862449513, -32897.47630327658, -23609.43241231828, -140.74893483506858, -2021.938803427077, 62197.416984727024, 30856.382054851303, -14223.15260447891, -1639.27693835222, -14656.24000504494, -8611.277772340509, 14503.845811348656, -7741.526692095601, -4989.714025224927, -1860.7603741598577, 0.498, 0.8260000000000001, -0.386, 192.0, 0.0, 0.0, 0.0, 0.0, 0.0, 0.0, 0.0, 0.0, 0.0, 1.6625062595416744E9, 0.0, 2022-09-06 19:17:39.541
46.0, -13720.975961801525, -2296.529984060524, -32844.16739275067, -23537.213925983182, -92.84914646734553, -1978.48701220596, 62108.94878017292, 31061.81693814003, -14300.10966063853, -1461.3794042324312, -14619.739606349422, -8476.38499455273, 14503.331721226183, -7684.887371645853, -4925.676277360472, -1672.8492585240913, 0.468, 0.874, -0.384, 192.0, 7.0, 80.0, 13.5, 40.0, 122.0, 0.0, 0.0, 0.0, 0.0, 1.6625062595416827E9, 0.0, 2022-09-06 19:17:39.541
48.0, -13799.050605183913, -2365.37335698287, -32918.911626209214, -23631.448880606757, -152.99769079657685, -2055.9134549991436, 61746.26937464111, 30805.263615282016, -14237.368313952484, -1628.7492667137703, -14658.765752168389, -8576.029071334491, 14504.337549726672, -7740.856139761942, -5024.292173897287, -1855.4406589794946, 0.468, 0.874, -0.384, 192.0, 0.0, 0.0, 0.0, 0.0, 0.0, 0.0, 0.0, 0.0, 0.0, 1.6625062595416908E9, 0.0, 2022-09-06 19:17:39.541
50.0, -13771.356793803787, -2307.6388010548117, -32902.706611479116, -23611.332310596983, -122.8228357819123, -2014.7638934569234, 61593.58460826691, 31059.13472880539, -14407.75566193529, -1612.2536793057538, -14683.375022813681, -8527.503434122018, 14491.373537942594, -7681.8028309110205, -4994.9890369163795, -1733.690706931437, 0.468, 0.874, -0.384, 192.0, 0.0, 0.0, 0.0, 0.0, 0.0, 0.0, 0.0, 0.0, 0.0, 1.6625062595416985E9, 0.0, 2022-09-06 19:17:39.541
52.0, -13828.107872975812, -2379.9466943677303, -32924.83483848987, -23726.68966373082, -198.3940837853055, -2084.8813158132216, 61305.51532572691, 30797.216987278105, -14295.907532680934, -1760.4680967888949, -14671.148618596628, -8607.32151357192, 14499.57662815769, -7738.553910083046, -5018.346609872176, -1895.4726332989496, 0.468, 0.874, -0.384, 192.0, 0.0, 0.0, 0.0, 0.0, 0.0, 0.0, 0.0, 0.0, 0.0, 1.662506259541706E9, 0.0, 2022-09-06 19:17:39.541
54.0, -13793.77559349246, -2305.9624202206637, -32899.6667742332, -23643.183546445794, -173.7401096511018, -2022.3187830828172, 61153.59051866419, 31102.944147937793, -14485.338566939661, -1676.559648103672, -14744.48469215449, -8593.686949454182, 14477.895436036044, -7701.092386375951, -5021.8111302627485, -1801.8858792645788, 0.468, 0.874, -0.384, 192.0, 0.0, 0.0, 0.0, 0.0, 0.0, 0.0, 0.0, 0.0, 0.0, 1.6625062595417137E9, 0.0, 2022-09-06 19:17:39.541
56.0, -13836.065094001902, -2391.94958114023, -32856.59496266782, -23705.7460791762, -223.18216838624102, -2099.9240398316433, 61054.50523549381, 30863.959296221652, -14240.698723876325, -1562.0963647480446, -14667.147656339128, -8567.513056697018, 14542.335515300694, -7721.521880808102, -5005.248487621366, -1859.754545659369, 0.44, 0.916, -0.358, 192.0, 6.5, 96.0, 14.0, 80.0, 122.0, 104.0, 0.0, 0.0, 0.0, 1.6625062595417216E9, 0.0, 2022-09-06 19:17:39.541
58.0, -13843.93290805017, -2369.4860779626465, -32871.34711400832, -23697.185361049815, -224.88090096484436, -2013.2216230895071, 60973.055478698676, 31184.952698344317, -14474.967357512398, -1734.7635906652918, -14751.458436424547, -8633.830682495915, 14507.39973871705, -7775.277826223115, -5030.014220477846, -1809.9548590129448, 0.44, 0.916, -0.358, 192.0, 0.0, 0.0, 0.0, 0.0, 0.0, 0.0, 0.0, 0.0, 0.0, 1.6625062595417295E9, 0.0, 2022-09-06 19:17:39.541
60.0, -13897.375929042808, -2440.6093288194334, -32902.6172045013, -23813.28032175068, -289.5221459295924, -2111.859871370777, 60983.2925776592, 30911.16618051126, -14405.47578400085, -1643.5908250320942, -14729.352561158248, -8669.57112187995, 14569.582291791714, -7748.500436365657, -5047.023898008335, -1878.3735487906397, 0.44, 0.916, -0.358, 192.0, 0.0, 0.0, 0.0, 0.0, 0.0, 0.0, 0.0, 0.0, 0.0, 1.6625062595417373E9, 0.0, 2022-09-06 19:17:39.541
62.0, -13874.353632253842, -2373.1070605644063, -32921.146800654744, -23782.65843184691, -290.99736106364264, -2086.311827458361, 60925.60272522006, 31153.25792470669, -14504.784584615778, -1542.2256639272766, -14776.805314636866, -8673.013290526067, 14555.187768362495, -7759.765715571131, -5104.400826025108, -1905.1285869036421, 0.44, 0.916, -0.358, 192.0, 0.0, 0.0, 0.0, 0.0, 0.0, 0.0, 0.0, 0.0, 0.0, 1.6625062595417447E9, 0.0, 2022-09-06 19:17:39.541
64.0, -13830.611268354807, -2373.330578008959, -32811.01975572345, -23787.79933307163, -253.06645072298656, -2121.7169906755676, 60967.936929218406, 30943.307989037992, -14278.9202068949, -1436.7477818426826, -14684.67142399209, -8651.846188526892, 14448.10056067712, -7639.982717035141, -5034.0822379687115, -1886.911915172567, 0.44, 0.916, -0.358, 192.0, 0.0, 0.0, 0.0, 0.0, 0.0, 0.0, 0.0, 0.0, 0.0, 1.6625062595417523E9, 0.0, 2022-09-06 19:17:39.541
66.0, -13847.576242396384, -2332.9409757782196, -32908.83098945987, -23734.17749812335, -289.38803546286056, -2039.0378879353868, 60796.56610447957, 31149.189907215823, -14335.336009900095, -1279.0562247104913, -14708.252514392438, -8641.385572121808, 14451.073342689675, -7744.700639808255, -5063.564188905262, -1907.1402439046199, 0.4, 0.86, -0.34600000000000003, 192.0, 6.0, 64.0, 13.0, 112.0, 122.5, 24.0, 0.0, 0.0, 0.0, 1.6625062595417602E9, 0.0, 2022-09-06 19:17:39.541
68.0, -13807.052529698913, -2336.9642897801746, -32928.27700713599, -23827.00429284624, -320.8369399114776, -2096.928906074632, 60693.39045207387, 30986.089227925448, -14374.563321419158, -1183.1895927416795, -14720.367159887215, -8623.459473068651, 14654.116589321684, -7700.7571102091215, -5050.130790487622, -1877.6582929680699, 0.4, 0.86, -0.34600000000000003, 192.0, 0.0, 0.0, 0.0, 0.0, 0.0, 0.0, 0.0, 0.0, 0.0, 1.6625062595417688E9, 0.0, 2022-09-06 19:17:39.541
70.0, -13841.585974882362, -2383.992360114141, -32967.303152954955, -23857.983810661295, -331.7445912056674, -2053.9688532315317, 60451.030486944976, 31165.59608764602, -14265.710325921813, -1040.8760357947392, -14699.28946486586, -8680.322310962953, 14388.734327403823, -7712.871755703897, -5013.473929580919, -1929.7602092933905, 0.4, 0.86, -0.34600000000000003, 192.0, 0.0, 0.0, 0.0, 0.0, 0.0, 0.0, 0.0, 0.0, 0.0, 1.6625062595417783E9, 0.0, 2022-09-06 19:17:39.541
72.0, -13702.71458658154, -2222.9703930581086, -32901.92430042318, -23803.780830357176, -369.6978532907788, -2087.2282489810286, 60349.441808395604, 31031.932655803284, -14358.939452044899, -782.445166402479, -14729.687837325078, -8648.0910954584, 14516.54160219927, -7686.206124568716, -4973.93369363948, -1876.5407057453044, 0.4, 0.86, -0.34600000000000003, 192.0, 0.0, 0.0, 0.0, 0.0, 0.0, 0.0, 0.0, 0.0, 0.0, 1.6625062595417862E9, 0.0, 2022-09-06 19:17:39.541
74.0, -13723.300543224877, -2242.371707245315, -32832.14215423371, -23723.538067762624, -343.7027744892567, -2057.388670133194, 60054.55524379674, 31099.926662436326, -14153.75043794518, -325.5531579915474, -14616.364492936671, -8502.40242509871, 14469.647642332035, -7717.81149122852, -4976.884123907581, -1921.0206772113654, 0.4, 0.86, -0.34600000000000003, 192.0, 0.0, 0.0, 0.0, 0.0, 0.0, 0.0, 0.0, 0.0, 0.0, 1.662506259541794E9, 0.0, 2022-09-06 19:17:39.541
76.0, -13857.567472167906, -2421.073904165495, -33031.72088047515, -23891.243206410792, -418.26819399216106, -2116.866662128766, 59686.10908819546, 31047.48946994418, -14435.740045993334, -569.0307103432071, -14731.811253048332, -8655.064839728457, 14682.23508384646, -7687.211953069205, -4955.247635274844, -1836.4863796813943, 0.385, 0.854, -0.338, 192.0, 5.5, 72.0, 13.0, 64.0, 122.5, 88.0, 0.0, 0.0, 0.0, 1.6625062595418017E9, 0.0, 2022-09-06 19:17:39.541
78.0, -13693.170391699123, -2207.525337639491, -32777.49213904049, -23657.667476852832, -363.6181787989353, -2005.6220299747026, 59145.35333458822, 31098.20557811327, -14472.709831322412, -241.95763372869897, -14776.470038470035, -8654.170769950244, 14535.16060533054, -7733.837692002976, -5020.112397684145, -1944.5347123783486, 0.385, 0.854, -0.338, 192.0, 0.0, 0.0, 0.0, 0.0, 0.0, 0.0, 0.0, 0.0, 0.0, 1.662506259541809E9, 0.0, 2022-09-06 19:17:39.541
80.0, -13659.665126760618, -2227.4854454380807, -32751.117080583226, -23668.30690721356, -260.2860641820507, -1942.5230553773708, 58245.449751073094, 31135.957674498284, -14148.006039620166, 85.74129173055789, -14548.951631659465, -8447.350078505287, 14585.094402443696, -7561.237521319094, -4859.492762028309, -1722.2913172592305, 0.385, 0.854, -0.338, 192.0, 0.0, 0.0, 0.0, 0.0, 0.0, 0.0, 0.0, 0.0, 0.0, 1.6625062595418167E9, 0.0, 2022-09-06 19:17:39.541
82.0, -13676.920673480116, -2182.826660016377, -32797.429895094625, -23585.873673662387, -273.7194625996903, -1854.5018857123716, 56863.68726059047, 31085.710952962752, -14371.501132428783, 97.7888819919684, -14683.822057702788, -8542.143826740245, 14677.854141933221, -7616.423978379247, -4952.274853262288, -1875.2666563113519, 0.385, 0.854, -0.338, 192.0, 0.0, 0.0, 0.0, 0.0, 0.0, 0.0, 0.0, 0.0, 0.0, 1.6625062595418246E9, 0.0, 2022-09-06 19:17:39.541
84.0, -13531.567279287254, -2137.9443571501206, -32574.292430197293, -23548.70272263321, -152.32713846291765, -1762.367995067596, 55480.36014799597, 31218.435611538367, -14173.576435277038, 315.9642596202206, -14474.967357512398, -8431.212119008556, 14652.574318954268, -7453.8597409558, -4753.3890310989655, -1619.8756241650135, 0.385, 0.854, -0.338, 192.0, 0.0, 0.0, 0.0, 0.0, 0.0, 0.0, 0.0, 0.0, 0.0, 1.6625062595418324E9, 0.0, 2022-09-06 19:17:39.541
86.0, -13602.869344099683, -2096.3254089743386, -32790.41144733565, -23662.048418766073, -249.78074428805644, -1841.336708228196, 54268.537970607045, 31088.549624508578, -14213.094319474021, 477.03093016516334, -14527.605715704647, -8474.753317207495, 14959.776694748009, -7514.723541107601, -4854.843599181605, -1817.2862311942854, 0.36350000000000005, 0.849, -0.321, 192.0, 5.0, 88.0, 13.0, 48.0, 123.0, 64.0, 0.0, 0.0, 0.0, 1.6625062595418403E9, 0.0, 2022-09-06 19:17:39.541
88.0, -13319.516279639754, -1784.8091465007242, -32328.892627822475, -23250.821024277335, -33.505264938505285, -1630.470351036829, 52912.32352403683, 31318.34790925359, -14066.980965969678, 1118.07896114337, -14372.194036506897, -8189.254485279857, 14773.87723611322, -7297.39752976865, -4652.381497905433, -1546.3383849070533, 0.36350000000000005, 0.849, -0.321, 192.0, 0.0, 0.0, 0.0, 0.0, 0.0, 0.0, 0.0, 0.0, 0.0, 1.6625062595418484E9, 0.0, 2022-09-06 19:17:39.541
90.0, -13309.25682893477, -1834.4747226804166, -32329.674938878412, -23280.66060312517, -5.8338053028351435, -1633.8454644495803, 51879.8964476462, 31235.69115825786, -13715.164508243146, 1074.6942251556188, -14233.032075528155, -8077.763983936786, 14577.919492473542, -7414.967705603565, -4610.650791007375, -1601.0331035891895, 0.36350000000000005, 0.849, -0.321, 192.0, 0.0, 0.0, 0.0, 0.0, 0.0, 0.0, 0.0, 0.0, 0.0, 1.662506259541856E9, 0.0, 2022-09-06 19:17:39.541
92.0, -13228.052941328639, -1743.167846580487, -32275.13668240746, -23190.27014854791, 70.98914039005523, -1535.6318993129612, 50582.51179248236, 31416.539122645754, -13724.57459265883, 1322.5750711649741, -14121.340408484986, -7969.134505883993, 14661.202092314017, -7241.495816885927, -4470.326539316958, -1371.614798499918, 0.36350000000000005, 0.849, -0.321, 192.0, 0.0, 0.0, 0.0, 0.0, 0.0, 0.0, 0.0, 0.0, 0.0, 1.6625062595418637E9, 0.0, 2022-09-06 19:17:39.541
94.0, -13345.824282863652, -1887.4930605284048, -32421.026518467253, -23326.928714147656, -56.03582334945481, -1654.2526071372756, 49682.764671178425, 31214.009966136215, -13781.63859625323, 1187.0117410435369, -14246.420770456883, -8129.195347928447, 14604.182792208529, -7424.176624319151, -4584.2757325501125, -1559.4812106467737, 0.36350000000000005, 0.849, -0.321, 192.0, 0.0, 0.0, 0.0, 0.0, 0.0, 0.0, 0.0, 0.0, 0.0, 1.6625062595418713E9, 0.0, 2022-09-06 19:17:39.541
96.0, -13225.840118627564, -1780.3387976096628, -32328.914979566933, -23201.691889964568, 79.34869281634008, -1527.0041259532127, 48440.611176563645, 31461.399073767552, -13855.2205390001, 1292.288457428033, -14198.677444300349, -8047.700887644397, 14696.38373808667, -7318.028189900898, -4518.494548618144, -1385.9869701846803, 0.35975, 0.8574999999999999, -0.2915, 192.0, 5.5, 16.0, 13.5, 8.0, 123.5, 104.0, 0.0, 0.0, 0.0, 1.6625062595418792E9, 0.0, 2022-09-06 19:17:39.541
98.0, -13352.127474800049, -1921.266546400374, -32446.306341446205, -23323.397138523716, -67.30110255492957, -1652.5762263031277, 47926.230481413666, 31240.720300760306, -13787.360642833788, 1254.134029642824, -14250.421732714383, -8114.040865187749, 14683.062098391307, -7369.995995759487, -4558.727688637697, -1516.9458409483245, 0.35975, 0.8574999999999999, -0.2915, 192.0, 0.0, 0.0, 0.0, 0.0, 0.0, 0.0, 0.0, 0.0, 0.0, 1.6625062595418868E9, 0.0, 2022-09-06 19:17:39.541
100.0, -13235.652534443443, -1791.1793936704867, -32347.466927464837, -23184.324584522794, 57.511038483505075, -1521.7738177506708, 46745.34311835088, 31448.41271023902, -13899.722862210616, 1289.9638760046812, -14262.178750297875, -8084.223638084369, 14646.89697586262, -7342.123370423719, -4557.408935714833, -1424.029639247613, 0.35975, 0.8574999999999999, -0.2915, 192.0, 0.0, 0.0, 0.0, 0.0, 0.0, 0.0, 0.0, 0.0, 0.0, 1.6625062595418944E9, 0.0, 2022-09-06 19:17:39.541
102.0, -13335.721294369852, -1908.1684241495639, -32441.52306813277, -23297.916149844667, -35.941605084133755, -1621.2837840656978, 46034.7141068833, 31187.83607337905, -13788.768802734472, 1288.4439573817203, -14250.95817458131, -8091.353844565612, 14690.125249639184, -7355.422658374627, -4560.605235171943, -1512.8107682240927, 0.35975, 0.8574999999999999, -0.2915, 192.0, 0.0, 0.0, 0.0, 0.0, 0.0, 0.0, 0.0, 0.0, 0.0, 1.6625062595419044E9, 0.0, 2022-09-06 19:17:39.541
104.0, -13212.026740554184, -1768.6264835150819, -32310.407735157936, -23136.24598219943, 88.69172199865842, -1464.5086484561741, 44829.57510108651, 31490.00930667035, -13883.18257131369, 1298.1446144753236, -14254.57915718307, -8062.676556429453, 14652.082580576252, -7320.844509702267, -4542.120342507404, -1421.772113057627, 0.35975, 0.8574999999999999, -0.2915, 192.0, 0.0, 0.0, 0.0, 0.0, 0.0, 0.0, 0.0, 0.0, 0.0, 1.6625062600214784E9, 0.0, 2022-09-06 19:17:40.021
106.0, -13306.574619600133, -1898.7359879894243, -32390.158759374473, -23274.670335611147, -13.522805395460773, -1619.4732927648179, 44427.69073578009, 31292.509292663253, -13741.383104489221, 1301.6985418437175, -14197.358691377485, -8026.220861222847, 14711.448813849547, -7303.991294382965, -4491.65010352732, -1435.2055114752666, 0.358875, 0.8607499999999999, -0.26075, 192.0, 5.5, 24.0, 13.5, 0.0, 124.0, 104.0, 0.0, 0.0, 0.0, 1.6625062600216277E9, 0.0, 2022-09-06 19:17:40.021
108.0, -13250.71761020632, -1808.1220159676095, -32320.95775854084, -23165.01267731341, 70.2515328230301, -1500.9196401738693, 43617.52940625303, 31506.169617911535, -13887.027071360002, 1198.2099650156458, -14269.286605034662, -8078.389832781534, 14622.019484283863, -7390.738414614012, -4540.555720395532, -1447.0519360365793, 0.358875, 0.8607499999999999, -0.26075, 192.0, 0.0, 0.0, 0.0, 0.0, 0.0, 0.0, 0.0, 0.0, 0.0, 1.6625062600217204E9, 0.0, 2022-09-06 19:17:40.021
110.0, -13354.228538778847, -1930.9001482606113, -32412.801076507698, -23307.66151042718, -44.0105848324996, -1650.3857553465075, 43261.39906184663, 31299.952423566872, -13778.844628196315, 1162.7377465650734, -14222.347941678518, -8039.140169518015, 14695.757889241922, -7389.307902968872, -4495.136975662348, -1443.1403807569004, 0.358875, 0.8607499999999999, -0.26075, 192.0, 0.0, 0.0, 0.0, 0.0, 0.0, 0.0, 0.0, 0.0, 0.0, 1.6625062600217977E9, 0.0, 2022-09-06 19:17:40.021
112.0, -13283.39586059998, -1816.5039201383497, -32330.881933079, -23190.426610759096, 26.62092764627071, -1539.9457859928355, 42662.05938602202, 31503.465056832443, -13891.18449582869, 1028.7390385555075, -14282.96587264131, -8081.4743735163665, 14621.952429050498, -7475.9432644776425, -4563.823886373507, -1481.8983056424029, 0.358875, 0.8607499999999999, -0.26075, 192.0, 0.0, 0.0, 0.0, 0.0, 0.0, 0.0, 0.0, 0.0, 0.0, 1.662506260021808E9, 0.0, 2022-09-06 19:17:40.021
114.0, -13381.385908292044, -1953.00602352691, -32426.301530158704, -23355.58365053936, -122.93459450418885, -1712.367142721074, 42987.85841320258, 31327.109793080068, -13785.036061410436, 1010.9917534579937, -14219.710435832792, -8015.424968650934, 14704.363310857216, -7451.803380465911, -4499.987304209149, -1424.3649154144425, 0.358875, 0.8607499999999999, -0.26075, 192.0, 0.0, 0.0, 0.0, 0.0, 0.0, 0.0, 0.0, 0.0, 0.0, 1.6625062600218182E9, 0.0, 2022-09-06 19:17:40.021
116.0, -13420.143833177548, -1937.71743031948, -32466.422911455982, -23330.728510705056, -117.52547234600453, -1677.0737382261443, 43565.986283539096, 31539.0937374942, -13969.348546188898, 844.2700915658584, -14383.258150012274, -8157.157380242036, 14561.848588210178, -7593.021701934541, -4651.3980211494, -1549.7582018087153, 0.3514375, 0.853375, -0.235375, 192.0, 5.0, 96.0, 13.0, 56.0, 124.5, 56.0, 0.0, 0.0, 0.0, 1.662506260021848E9, 0.0, 2022-09-06 19:17:40.021
118.0, -13542.765503259363, -2093.88906882871, -32556.79101428879, -23510.592998336913, -287.7563581176231, -1878.7088249574692, 44946.94411122133, 31382.810340262695, -13936.491481839596, 888.7947665208301, -14369.377716705529, -8126.5578420827205, 14601.433527640525, -7565.171428343228, -4595.205735588758, -1490.5931342355175, 0.3514375, 0.853375, -0.235375, 192.0, 0.0, 0.0, 0.0, 0.0, 0.0, 0.0, 0.0, 0.0, 0.0, 1.662506260021856E9, 0.0, 2022-09-06 19:17:40.021
120.0, -13642.856614930228, -2158.8432382158326, -32648.924904933563, -23554.67063840278, -388.2274494442284, -1933.2023779395079, 46287.333522717185, 31374.2049186474, -14149.950641387779, 680.6553221530106, -14588.000129222886, -8341.626327231685, 14383.302853501184, -7759.609253359945, -4804.865098579538, -1730.0697243296772, 0.3514375, 0.853375, -0.235375, 192.0, 0.0, 0.0, 0.0, 0.0, 0.0, 0.0, 0.0, 0.0, 0.0, 1.6625062600218637E9, 0.0, 2022-09-06 19:17:40.021
122.0, -13691.47165912052, -2235.867349608821, -32673.13184417866, -23662.361343188448, -448.0407176066301, -2043.9105682266438, 47456.352109474195, 31259.495766102766, -14144.586222718504, 646.3453944141144, -14556.26065209635, -8314.714826907495, 14438.466958816882, -7729.501453578646, -4778.1547639554465, -1694.9327820459346, 0.3514375, 0.853375, -0.235375, 192.0, 0.0, 0.0, 0.0, 0.0, 0.0, 0.0, 0.0, 0.0, 0.0, 1.662506260021871E9, 0.0, 2022-09-06 19:17:40.021
124.0, -13741.070180066847, -2235.867349608821, -32707.28530970637, -23651.72191282772, -460.8035636906104, -2014.0262858898982, 48361.70951863641, 31267.274173173213, -14249.594718169537, 373.25178065917265, -14686.14663912614, -8450.501674473486, 14350.870472296534, -7849.373859092458, -4911.594678353629, -1864.7613364173576, 0.3514375, 0.853375, -0.235375, 192.0, 0.0, 0.0, 0.0, 0.0, 0.0, 0.0, 0.0, 0.0, 0.0, 1.662506260021879E9, 0.0, 2022-09-06 19:17:40.021
126.0, -13739.259688765966, -2260.8789516543093, -32694.254242688927, -23715.290274058614, -470.6159795064902, -2073.1019464852748, 48959.64103456033, 31160.49988991021, -14236.586002896549, 266.23162820716243, -14620.99130403892, -8368.80604848934, 14437.95286869441, -7742.599575829456, -4834.838787894105, -1751.2815298177636, 0.32471875, 0.8286875, -0.2376875, 192.0, 4.5, 40.0, 12.5, 16.0, 124.0, 64.0, 0.0, 0.0, 0.0, 1.6625062600218868E9, 0.0, 2022-09-06 19:17:40.021
128.0, -13779.984567163536, -2259.4260882647145, -32754.648656207166, -23724.141564862915, -524.3495731770483, -2035.6851262670907, 49681.89295314467, 31154.442567162823, -14279.322538295095, -20.45184617660596, -14726.91622101262, -8492.277084860454, 14356.905443299467, -7872.79848728162, -4949.83851311666, -1928.5085116038933, 0.32471875, 0.8286875, -0.2376875, 192.0, 0.0, 0.0, 0.0, 0.0, 0.0, 0.0, 0.0, 0.0, 0.0, 1.6625062600218945E9, 0.0, 2022-09-06 19:17:40.021
130.0, -13722.540583913396, -2227.351334971349, -32686.85581527422, -23712.4963060017, -463.23990383623885, -2020.642402248669, 50041.55487317502, 31194.18396880436, -14240.38579945395, -113.34569613286212, -14619.449033671503, -8362.145228641657, 14503.532886926281, -7726.483968077179, -4834.637622194007, -1722.984221337345, 0.32471875, 0.8286875, -0.2376875, 192.0, 0.0, 0.0, 0.0, 0.0, 0.0, 0.0, 0.0, 0.0, 0.0, 1.662506260021902E9, 0.0, 2022-09-06 19:17:40.021
132.0, -13821.268239172488, -2289.8021089794765, -32764.57283074532, -23770.968469496784, -557.7207276488218, -2089.1504990041853, 50754.553169554856, 31134.59421808651, -14278.227302816786, -461.63057823545677, -14730.58190710329, -8500.837802986838, 14445.798330998223, -7844.79175147912, -4945.189350269956, -1912.2364416404298, 0.32471875, 0.8286875, -0.2376875, 192.0, 0.0, 0.0, 0.0, 0.0, 0.0, 0.0, 0.0, 0.0, 0.0, 1.66250626002191E9, 0.0, 2022-09-06 19:17:40.021
134.0, -13755.62116570725, -2259.2025708201613, -32710.70512660803, -23750.874251231464, -506.6693433129005, -2055.220550921029, 51068.32695821845, 31213.585282991564, -14302.478945550794, -509.1727386918949, -14643.968897338975, -8393.616484834729, 14523.381236002593, -7719.912555207319, -4870.556875533685, -1725.91229986099, 0.32471875, 0.8286875, -0.2376875, 192.0, 0.0, 0.0, 0.0, 0.0, 0.0, 0.0, 0.0, 0.0, 0.0, 1.6625062600219228E9, 0.0, 2022-09-06 19:17:40.021
