%OpenBCI Raw EEG Data
%Number of channels = 16
%Sample Rate = 125 Hz
%Board = OpenBCI_GUI$BoardCytonSerialDaisy
Sample Index, EXG Channel 0, EXG Channel 1, EXG Channel 2, EXG Channel 3, EXG Channel 4, EXG Channel 5, EXG Channel 6, EXG Channel 7, EXG Channel 8, EXG Channel 9, EXG Channel 10, EXG Channel 11, EXG Channel 12, EXG Channel 13, EXG Channel 14, EXG Channel 15, Accel Channel 0, Accel Channel 1, Accel Channel 2, Other, Other, Other, Other, Other, Other, Other, Analog Channel 0, Analog Channel 1, Analog Channel 2, Timestamp, Other, Timestamp (Formatted)
76.0, -6128.714219178465, -4832.491854726298, -24037.200097703946, -19905.904818285086, 1760.8927799335456, 8728.669134219783, 23760.530204836155, 26328.812697984304, -13815.568544336385, 4485.726891246663, -8068.778582665752, -13705.2850371939, 17884.234235791475, -8243.569224306253, -19515.33043567305, 1343.608062697418, 0.0, 0.0, 0.0, 192.0, 0.0, 0.0, 0.0, 0.0, 0.0, 0.0, 0.0, 0.0, 0.0, 1.662506568746558E9, 0.0, 2022-09-06 19:22:48.746
78.0, -6316.20065166958, -4896.73076829085, -24508.978367922115, -19833.97690462791, 1850.3891647325952, 8647.979336736124, 27323.577084967743, 24820.271112951174, -14283.301148808141, 3881.3133694307057, -8637.51872033104, -14237.927107563866, 17407.784450982148, -8961.216683532797, -20214.917685379707, 877.9765222044614, 0.0, 0.0, 0.0, 192.0, 0.0, 0.0, 0.0, 0.0, 0.0, 0.0, 0.0, 0.0, 0.0, 1.662506568746565E9, 0.0, 2022-09-06 19:22:48.746
80.0, -5985.908923853508, -4711.188937567346, -23929.375282451547, -19772.397848653538, 1912.2811451293405, 8810.297704970564, 22550.965553637216, 26108.960939521905, -13865.345879238354, 4376.829192260408, -8093.387853311045, -13771.021517636958, 17841.229479459464, -8264.132829205135, -19514.30225542811, 1417.9499647557695, 0.0, 0.0, 0.0, 192.0, 0.0, 0.0, 0.0, 0.0, 0.0, 0.0, 0.0, 0.0, 0.0, 1.6625065687465708E9, 0.0, 2022-09-06 19:22:48.746
82.0, -6321.699180805586, -4947.491579948853, -24482.580957720395, -19889.006899476874, 1796.8343850176796, 8599.94543790167, 28386.938975684523, 25124.45600324345, -14186.51809531666, 3887.0354160112643, -8536.913518537704, -14164.747496217191, 17518.00090289127, -8926.839700560535, -20175.824484327375, 1058.7574313589848, 0.326, 0.9480000000000001, 0.016, 192.0, 5.0, 24.0, 14.5, 80.0, 0.0, 64.0, 0.0, 0.0, 0.0, 1.6625065687465763E9, 0.0, 2022-09-06 19:22:48.746
84.0, -5900.569963523146, -4626.67699178183, -23870.232566622803, -19666.539986913205, 2052.9406729865877, 8927.487901149738, 21503.004014850143, 25979.007897258747, -13915.547897284974, 4304.789519880953, -8104.116690649592, -13839.26139345901, 17829.71833106498, -8289.412652184088, -19512.29059842713, 1467.6602444243724, 0.326, 0.9480000000000001, 0.016, 192.0, 0.0, 0.0, 0.0, 0.0, 0.0, 0.0, 0.0, 0.0, 0.0, 1.662506568746582E9, 0.0, 2022-09-06 19:22:48.746
86.0, -6384.64169319173, -5035.199825191477, -24493.84623692587, -19991.176723382083, 1744.8889309035458, 8550.816303588905, 29314.42461185749, 25366.100712549774, -14129.655257422359, 3931.15775956604, -8466.997261881503, -14110.946847313267, 17638.07447410518, -8910.18765094133, -20108.79160270591, 1156.7027755621405, 0.326, 0.9480000000000001, 0.016, 192.0, 0.0, 0.0, 0.0, 0.0, 0.0, 0.0, 0.0, 0.0, 0.0, 1.6625065687465875E9, 0.0, 2022-09-06 19:22:48.746
88.0, -5846.568148919124, -4547.2388919876685, -23845.936220399886, -19557.910508860412, 2176.277598890972, 9035.044495468675, 20781.44500034392, 25712.575103351486, -14015.080215344457, 4260.443658881624, -8183.2642177658345, -13923.438063077696, 17782.75731596438, -8351.997536658948, -19508.28963616963, 1381.9636561827251, 0.326, 0.9480000000000001, 0.016, 192.0, 0.0, 0.0, 0.0, 0.0, 0.0, 0.0, 0.0, 0.0, 0.0, 1.6625065687465935E9, 0.0, 2022-09-06 19:22:48.746
90.0, -6427.691153012652, -5075.120040788655, -24489.353536290353, -20045.916145553132, 1677.3643109040631, 8493.282913360943, 29983.904061782847, 25586.645375090287, -14036.91786967729, 4089.743386476444, -8383.513496340931, -13994.024872067557, 17751.420170238038, -8811.683513126793, -19986.125229135185, 1207.485938964598, 0.326, 0.9480000000000001, 0.016, 192.0, 0.0, 0.0, 0.0, 0.0, 0.0, 0.0, 0.0, 0.0, 0.0, 1.6625065687465992E9, 0.0, 2022-09-06 19:22:48.746
92.0, -5861.3203002596265, -4507.452786857222, -23905.16834320645, -19516.76094731819, 2207.413578917215, 9071.589597653103, 20329.000989079595, 25401.014137388964, -14098.161649484831, 4260.778935048454, -8271.330090919744, -13992.884933100337, 17728.017893793334, -8417.465796168543, -19565.44304674185, 1198.7240551381178, 0.32, 0.972, 0.042, 192.0, 5.0, 0.0, 15.0, 48.0, 0.5, 40.0, 0.0, 0.0, 0.0, 1.6625065687466047E9, 0.0, 2022-09-06 19:22:48.746
94.0, -6510.0573313304585, -5135.603861284717, -24530.41369085475, -20167.777856323464, 1554.8096960556145, 8440.756313890972, 30373.00322926083, 25799.88101719392, -13991.946159833213, 4219.651725250688, -8346.521359267397, -13931.685856781705, 17825.851479274213, -8753.792494987547, -19969.38377253816, 1141.3471271213446, 0.32, 0.972, 0.042, 192.0, 0.0, 0.0, 0.0, 0.0, 0.0, 0.0, 0.0, 0.0, 0.0, 1.6625065687466104E9, 0.0, 2022-09-06 19:22:48.746
96.0, -5896.345483821093, -4478.93196093225, -24016.234161404867, -19527.176860234365, 2218.902375567243, 9114.504947007294, 20245.33840958338, 25112.29665425976, -14175.074002155543, 4259.013147236485, -8377.813801504828, -14080.839047531968, 17669.344564598152, -8470.595892738807, -19690.389298247017, 997.8265759738179, 0.32, 0.972, 0.042, 192.0, 0.0, 0.0, 0.0, 0.0, 0.0, 0.0, 0.0, 0.0, 0.0, 1.662506568746616E9, 0.0, 2022-09-06 19:22:48.746
98.0, -6519.132139579313, -5151.6524138036275, -24549.90441201978, -20240.935115925684, 1516.0964746590228, 8448.154741305678, 30434.91756140203, 26035.80367991968, -13897.778260443005, 4360.3336048523915, -8280.203733468501, -13835.752169579528, 17922.455718810048, -8651.846188526892, -19935.83380411074, 1099.1023301008142, 0.32, 0.972, 0.042, 192.0, 0.0, 0.0, 0.0, 0.0, 0.0, 0.0, 0.0, 0.0, 0.0, 1.6625065687466216E9, 0.0, 2022-09-06 19:22:48.746
100.0, -5908.795405482699, -4479.155478376803, -24116.10175563118, -19517.699720585315, 2224.244442492061, 9120.115234865574, 20529.339674632512, 24866.49452048475, -14231.24393597173, 4213.527347269935, -8471.24409332801, -14130.32580975602, 17621.9588663529, -8557.834751347871, -19846.180957100507, 829.0709053362496, 0.32, 0.972, 0.042, 192.0, 0.0, 0.0, 0.0, 0.0, 0.0, 0.0, 0.0, 0.0, 0.0, 1.6625065687466273E9, 0.0, 2022-09-06 19:22:48.746
102.0, -6494.276999745011, -5156.390983628152, -24486.80543742245, -20256.424874833214, 1445.7331831137162, 8420.550336903374, 30225.168791433432, 26200.871312722127, -13836.892108546748, 4438.318841256958, -8224.346724074689, -13740.131406799723, 17995.545923178903, -8572.609254432828, -19920.209934736486, 1118.1460163767358, 0.28400000000000003, 0.85, 0.022, 192.0, 4.0, 112.0, 13.0, 72.0, 0.0, 88.0, 0.0, 0.0, 0.0, 1.6625065687466328E9, 0.0, 2022-09-06 19:22:48.746
104.0, -5931.415370871469, -4498.668551286287, -24129.982188937927, -19486.80960974808, 2202.1385672257625, 9093.427251985939, 21163.32455436284, 24626.63795073485, -14292.30890182363, 4124.656811315634, -8542.613213373807, -14164.389868305907, 17567.62177558205, -8663.96083402167, -19967.215653325995, 768.0953464621718, 0.28400000000000003, 0.85, 0.022, 192.0, 0.0, 0.0, 0.0, 0.0, 0.0, 0.0, 0.0, 0.0, 0.0, 1.6625065687466388E9, 0.0, 2022-09-06 19:22:48.746
106.0, -6441.03514445247, -5137.9731461969795, -24350.079816589336, -20210.38028125528, 1479.216096307766, 8427.702895129072, 29668.230374840543, 26317.122735634177, -13785.617206766274, 4481.234190611147, -8141.265289934313, -13656.625289514695, 18049.055999404907, -8503.11768092128, -19797.074174532198, 1280.7326055446395, 0.28400000000000003, 0.85, 0.022, 192.0, 0.0, 0.0, 0.0, 0.0, 0.0, 0.0, 0.0, 0.0, 0.0, 1.6625065687466457E9, 0.0, 2022-09-06 19:22:48.746
108.0, -5969.815667845687, -4552.983290312683, -24159.531195107844, -19484.417973091364, 2203.412616659715, 9002.25448635274, 22065.37390534567, 24426.54513437094, -14345.975440260821, 4032.388810204126, -8599.878382668303, -14220.693912588826, 17520.45959478135, -8779.36289064442, -20002.643168287657, 846.7734869448527, 0.28400000000000003, 0.85, 0.022, 192.0, 0.0, 0.0, 0.0, 0.0, 0.0, 0.0, 0.0, 0.0, 0.0, 1.6625065687466536E9, 0.0, 2022-09-06 19:22:48.746
110.0, -6369.420155217666, -5106.7477591929155, -24241.517393769907, -20153.673905572166, 1529.0157829541902, 8430.630973652718, 28736.229686287606, 26343.83307025827, -13762.281985554933, 4502.110719932404, -8100.048673158726, -13639.928536406582, 18087.970386501598, -8435.615412666251, -19688.869379624055, 1397.967505212725, 0.28400000000000003, 0.85, 0.022, 192.0, 0.0, 0.0, 0.0, 0.0, 0.0, 0.0, 0.0, 0.0, 0.0, 1.6625065687466595E9, 0.0, 2022-09-06 19:22:48.746
112.0, -6013.692142211455, -4600.5925060024865, -24208.280349764867, -19497.091412197522, 2183.184287927662, 8955.002898574221, 23109.401537108606, 24410.563637085397, -14366.650803881981, 3977.4705740774366, -8643.419580867241, -14240.922241320879, 17504.187524817888, -8831.55421394756, -20057.047314291874, 856.0941643827158, 0.334, 0.922, 0.034, 192.0, 5.0, 56.0, 14.0, 104.0, 0.5, 8.0, 0.0, 0.0, 0.0, 1.6625065687466652E9, 0.0, 2022-09-06 19:22:48.746
114.0, -6267.04916561236, -5008.198917889466, -24108.993900894395, -20057.695514881078, 1612.119568839022, 8551.553911155928, 27538.757328838987, 26509.705365861104, -13738.700895154583, 4552.335089723479, -8041.531806174733, -13582.171628734068, 18119.151070016753, -8330.405751515122, -19587.660680730427, 1485.094605099512, 0.334, 0.922, 0.034, 192.0, 0.0, 0.0, 0.0, 0.0, 0.0, 0.0, 0.0, 0.0, 0.0, 1.6625065687466707E9, 0.0, 2022-09-06 19:22:48.746
116.0, -6072.141953962083, -4649.811047293073, -24256.783635232885, -19550.579136679073, 2132.669345458668, 8920.625915601959, 24274.977955219503, 24425.78517505946, -14349.819940307134, 3980.197486900984, -8631.32728711692, -14208.758081049691, 17531.836632709103, -8867.51817077615, -20088.20564606257, 850.2603590798807, 0.334, 0.922, 0.034, 192.0, 0.0, 0.0, 0.0, 0.0, 0.0, 0.0, 0.0, 0.0, 0.0, 1.6625065687466767E9, 0.0, 2022-09-06 19:22:48.746
118.0, -6195.74710079993, -4935.488693176352, -24035.70253082544, -20004.319549121803, 1677.4537178818844, 8600.347769301865, 26291.127656832658, 26372.26448920542, -13748.558014459375, 4590.020130875127, -8015.715541328853, -13566.570111104264, 18126.907125342743, -8279.041442756825, -19523.48882239924, 1438.8935493103922, 0.334, 0.922, 0.034, 192.0, 0.0, 0.0, 0.0, 0.0, 0.0, 0.0, 0.0, 0.0, 0.0, 1.662506568746683E9, 0.0, 2022-09-06 19:22:48.746
120.0, -6169.796725487319, -4748.493999063254, -24352.359694523777, -19658.716876353847, 2018.4295795475937, 8803.525126400606, 25681.819102980986, 24435.329369941875, -14344.142597215487, 3971.525010052325, -8651.197987937689, -14207.148755448909, 17536.239926366798, -8928.225508716763, -20161.675830087166, 767.7153668064317, 0.334, 0.922, 0.034, 192.0, 0.0, 0.0, 0.0, 0.0, 0.0, 0.0, 0.0, 0.0, 0.0, 1.6625065687466884E9, 0.0, 2022-09-06 19:22:48.746
122.0, -6112.039817814805, -4844.695907198895, -23976.135131852046, -19913.437356166527, 1757.8082391987134, 8699.701273405704, 25048.95181047342, 26265.28904024232, -13780.230436352544, 4598.223221090224, -8027.517262401255, -13583.088050256736, 18095.972311016598, -8244.195073151002, -19503.171086689366, 1362.8752664178928, 0.322, 0.912, 0.03, 192.0, 5.0, 8.0, 14.0, 64.0, 0.0, 120.0, 0.0, 0.0, 0.0, 1.662506568746694E9, 0.0, 2022-09-06 19:22:48.746
124.0, -6262.4670579990225, -4840.583186219119, -24440.492622911053, -19774.498912632338, 1936.9798227524548, 8715.034570102045, 27082.02178263924, 24567.38347618383, -14304.624713018504, 4011.8252053052433, -8635.797636007981, -14160.813589193058, 17561.497397601295, -8926.616183115982, -20197.66213866021, 751.5550555652446, 0.322, 0.912, 0.03, 192.0, 0.0, 0.0, 0.0, 0.0, 0.0, 0.0, 0.0, 0.0, 0.0, 1.6625065687467E9, 0.0, 2022-09-06 19:22:48.746
126.0, -6077.81929705373, -4788.928304782904, -23970.591899227133, -19876.22170164844, 1848.4445629649836, 8766.465934093707, 23887.91279648695, 26091.526578846762, -13847.352724951832, 4550.524598422599, -8089.453946286911, -13666.258891374933, 18027.352455538807, -8258.075506457748, -19511.597694349017, 1246.0874016389134, 0.322, 0.912, 0.03, 192.0, 0.0, 0.0, 0.0, 0.0, 0.0, 0.0, 0.0, 0.0, 0.0, 1.6625065687467055E9, 0.0, 2022-09-06 19:22:48.746
128.0, -6362.982852814538, -4937.142722266045, -24542.796557282993, -19898.84166703721, 1825.4222661760173, 8634.009496451557, 28379.85347269219, 24765.442283802306, -14250.824064114579, 4018.9777635309415, -8633.1377784178, -14150.867062910445, 17608.503116190805, -8945.414000202894, -20208.14510680975, 729.6503459990438, 0.322, 0.912, 0.03, 192.0, 0.0, 0.0, 0.0, 0.0, 0.0, 0.0, 0.0, 0.0, 0.0, 1.6625065687467113E9, 0.0, 2022-09-06 19:22:48.746
130.0, -6020.531776014778, -4700.035417084148, -23989.970861669884, -19782.746706336344, 1922.741761534424, 8850.977879879223, 22817.59951324457, 25886.78459963615, -13888.904617894248, 4504.3235426334795, -8151.6812028504855, -13727.94970607158, 17971.584853122815, -8266.01037573938, -19547.807520366612, 1164.302368676945, 0.322, 0.912, 0.03, 192.0, 0.0, 0.0, 0.0, 0.0, 0.0, 0.0, 0.0, 0.0, 0.0, 1.6625065687467172E9, 0.0, 2022-09-06 19:22:48.746
132.0, -6428.495815813043, -5009.540022556785, -24582.850883346902, -19983.19715061154, 1700.1630902484765, 8523.368361397786, 29479.514596404388, 24923.245599656773, -14169.03903115261, 4056.774563404866, -8577.057251579434, -14057.392067598352, 17675.290128623263, -8911.23818293073, -20219.745662182053, 764.5637708382334, 0.317, 0.89, 0.037, 192.0, 4.5, 96.0, 13.5, 16.0, 0.5, 48.0, 0.0, 0.0, 0.0, 1.662506568746723E9, 0.0, 2022-09-06 19:22:48.746
134.0, -5961.724336352866, -4625.514701070154, -23942.451052957902, -19678.56522543016, 2010.6958759660574, 8906.566668339572, 21958.979601738407, 25561.745531767076, -13962.039525752012, 4431.076876053438, -8206.040645365792, -13780.92334043066, 17885.508285225427, -8320.325114765777, -19600.02119541421, 1075.3200740003674, 0.317, 0.89, 0.037, 192.0, 0.0, 0.0, 0.0, 0.0, 0.0, 0.0, 0.0, 0.0, 0.0, 1.662506568746729E9, 0.0, 2022-09-06 19:22:48.746
136.0, -6467.253740698546, -5076.349386733697, -24548.51860386355, -20044.463282163535, 1633.018449904734, 8464.538569991419, 30326.489249049337, 25143.20911684145, -14093.914818038324, 4131.585852096779, -8498.379111096754, -13960.363144917865, 17737.651495653572, -8868.389888809907, -20150.298792159414, 858.3963940616125, 0.317, 0.89, 0.037, 192.0, 0.0, 0.0, 0.0, 0.0, 0.0, 0.0, 0.0, 0.0, 0.0, 1.6625065687467344E9, 0.0, 2022-09-06 19:22:48.746
138.0, -5906.627286270534, -4552.4021449568445, -23900.899160015484, -19578.116485848008, 2098.2476589974954, 8964.100058567532, 21332.92959128971, 25289.30011860134, -14040.717666234694, 4372.917636980729, -8269.072564729759, -13841.965954538102, 17806.539572064827, -8368.068440922314, -19605.8773524615, 1052.7448121005073, 0.317, 0.89, 0.037, 192.0, 0.0, 0.0, 0.0, 0.0, 0.0, 0.0, 0.0, 0.0, 0.0, 1.6625065687467403E9, 0.0, 2022-09-06 19:22:48.746
140.0, -6496.0874910458915, -5116.649581986616, -24501.311719573943, -20109.953893417587, 1579.1954492563546, 8385.547505086364, 30855.935019962195, 25356.623572900724, -14012.196840309722, 4213.147367614194, -8417.130520001712, -13858.215672757111, 17813.133336679144, -8791.812812306025, -20044.284468207894, 990.6069625147537, 0.317, 0.89, 0.037, 192.0, 0.0, 0.0, 0.0, 0.0, 0.0, 0.0, 0.0, 0.0, 0.0, 1.6625065687467475E9, 0.0, 2022-09-06 19:22:48.746
142.0, -5876.631245211512, -4497.394501852334, -23894.2383401678, -19490.60940630548, 2172.969540711587, 9013.229192880297, 20977.939185850526, 25019.939246170434, -14121.653332907359, 4302.531993690967, -8348.51066452392, -13912.977446672612, 17728.353169960163, -8421.064427025847, -19651.005524516764, 1014.1880529151026, 0.3165, 0.906, 0.0385, 192.0, 4.5, 112.0, 14.0, 104.0, 0.5, 32.0, 0.0, 0.0, 0.0, 1.6625065687467535E9, 0.0, 2022-09-06 19:22:48.746
144.0, -6478.362557692833, -5123.7127332344935, -24431.2166489621, -20121.50974530098, 1534.0449254566342, 8391.940104000581, 30996.03575420806, 25646.346884530412, -13912.686873994695, 4308.119929804794, -8318.536975209354, -13754.570633717853, 17903.45673602304, -8686.066709287967, -19954.698676431024, 1124.113932146303, 0.3165, 0.906, 0.0385, 192.0, 0.0, 0.0, 0.0, 0.0, 0.0, 0.0, 0.0, 0.0, 0.0, 1.6625065687467594E9, 0.0, 2022-09-06 19:22:48.746
146.0, -5882.755623192265, -4488.856135470407, -23932.59393365311, -19452.834958176012, 2211.481596408081, 9040.185396693398, 20986.18697955453, 24802.233255175743, -14179.633758024427, 4223.496225297002, -8412.235487966, -13979.831514338437, 17663.220186617396, -8480.073032387858, -19722.46405154038, 975.4524797740555, 0.3165, 0.906, 0.0385, 192.0, 0.0, 0.0, 0.0, 0.0, 0.0, 0.0, 0.0, 0.0, 0.0, 1.6625065687467651E9, 0.0, 2022-09-06 19:22:48.746
148.0, -6479.077813515403, -5157.888550506657, -24386.96019494059, -20176.115057005296, 1474.1422503164115, 8341.693382465051, 30988.860844237908, 25833.34157864351, -13861.16610302521, 4359.461886818634, -8248.374849364143, -13695.00323474446, 17950.12717844572, -8616.977467176614, -19882.569597073747, 1186.14002300978, 0.3165, 0.906, 0.0385, 192.0, 0.0, 0.0, 0.0, 0.0, 0.0, 0.0, 0.0, 0.0, 0.0, 1.6625065687467709E9, 0.0, 2022-09-06 19:22:48.746
150.0, -5912.2152223843605, -4510.917307247795, -24000.207960630414, -19451.315039553054, 2214.5661371429132, 9002.746224730758, 21510.558904476038, 24528.357330364863, -14248.834758858056, 4135.385648654181, -8493.327616849854, -14061.68360253377, 17581.792781566714, -8600.526583257506, -19825.326779523704, 863.3137778417799, 0.3165, 0.906, 0.0385, 192.0, 0.0, 0.0, 0.0, 0.0, 0.0, 0.0, 0.0, 0.0, 0.0, 1.6625065687467766E9, 0.0, 2022-09-06 19:22:48.746
152.0, -6474.51805764652, -5168.684443078571, -24342.01083684097, -20189.771972867486, 1477.5844189625286, 8346.007269144926, 30699.74102970851, 25986.629842118007, -13816.395558881231, 4409.596849631888, -8202.084386597204, -13657.65346975964, 17990.85205684329, -8547.195320987144, -19800.046956544753, 1215.5996222018746, 0.31325000000000003, 0.91, 0.042249999999999996, 192.0, 4.5, 88.0, 14.0, 72.0, 0.5, 56.0, 0.0, 0.0, 0.0, 1.6625065687467823E9, 0.0, 2022-09-06 19:22:48.746
154.0, -5962.484295664346, -4539.147560494847, -24080.942461602983, -19462.915594925358, 2215.1249307542957, 8971.945520871344, 22229.435709647623, 24349.029284599936, -14304.177678129397, 4047.1409615446287, -8577.258417279532, -14139.713542427247, 17527.545097773684, -8697.913133849279, -19898.70755657048, 770.9787214969065, 0.31325000000000003, 0.91, 0.042249999999999996, 192.0, 0.0, 0.0, 0.0, 0.0, 0.0, 0.0, 0.0, 0.0, 0.0, 1.6625065687467883E9, 0.0, 2022-09-06 19:22:48.746
156.0, -6417.543461029943, -5116.448416286518, -24258.594126533764, -20173.32108894838, 1499.4667767842743, 8374.84101949227, 29942.44157581825, 26097.561549849695, -13771.334442059333, 4453.629786208843, -8142.494635879355, -13596.655559141107, 18035.24262133153, -8465.097363602801, -19708.985949633832, 1222.6627734497517, 0.31325000000000003, 0.91, 0.042249999999999996, 192.0, 0.0, 0.0, 0.0, 0.0, 0.0, 0.0, 0.0, 0.0, 0.0, 1.662506568746794E9, 0.0, 2022-09-06 19:22:48.746
158.0, -6012.485148010868, -4575.357386512445, -24147.193032168514, -19491.14584817241, 2190.269790919994, 8933.76874134168, 23077.952632659988, 24227.63696046316, -14330.172756930919, 4007.354856414182, -8616.776301476515, -14153.348106544985, 17500.633597449494, -8789.823507049503, -19980.738458721455, 696.2121362939043, 0.31325000000000003, 0.91, 0.042249999999999996, 192.0, 0.0, 0.0, 0.0, 0.0, 0.0, 0.0, 0.0, 0.0, 0.0, 1.6625065687467997E9, 0.0, 2022-09-06 19:22:48.746
160.0, -6363.005204558994, -5076.170572778055, -24175.758561582395, -20127.052977925894, 1543.7902860391482, 8394.823479035316, 28898.592758010956, 26117.07462275918, -13751.150816816189, 4508.302153146524, -8103.289676104746, -13560.199863934502, 18065.708049024113, -8367.46494382202, -19629.92782949541, 1268.841477494416, 0.31325000000000003, 0.91, 0.042249999999999996, 192.0, 0.0, 0.0, 0.0, 0.0, 0.0, 0.0, 0.0, 0.0, 0.0, 1.6625065687468057E9, 0.0, 2022-09-06 19:22:48.746
162.0, -6088.168154736538, -4649.229901937235, -24230.587390731263, -19547.986334322257, 2121.1134935752743, 8823.55228943256, 24189.147256511125, 24097.750973433373, -14349.775236818223, 3949.016803385831, -8665.503104389085, -14183.47825807074, 17483.668623407917, -8846.060496099055, -20058.455474192557, 684.7680431327872, 0.31862500000000005, 0.921, 0.040124999999999994, 192.0, 5.0, 16.0, 14.5, 16.0, 0.5, 24.0, 0.0, 0.0, 0.0, 1.6625065687468112E9, 0.0, 2022-09-06 19:22:48.746
164.0, -6292.239581613491, -5019.084217439201, -24105.14940084808, -20063.283450994906, 1595.9145541089242, 8451.663965185162, 27718.420650770742, 26155.340809266665, -13749.116808070758, 4502.468347843689, -8088.850449186618, -13565.474875625954, 18063.562281556402, -8340.754609197927, -19586.118410363008, 1309.7898733365387, 0.31862500000000005, 0.921, 0.040124999999999994, 192.0, 0.0, 0.0, 0.0, 0.0, 0.0, 0.0, 0.0, 0.0, 0.0, 1.6625065687468169E9, 0.0, 2022-09-06 19:22:48.746
166.0, -6143.667536219065, -4717.201556825824, -24299.274301442423, -19588.30888131963, 2069.391556905694, 8793.958579773735, 25470.103379500317, 24257.364780588723, -14337.437073878895, 3920.160701294029, -8683.943293564713, -14187.47922032824, 17492.206989789844, -8895.56961006756, -20120.995655178507, 728.1527791205382, 0.31862500000000005, 0.921, 0.040124999999999994, 192.0, 0.0, 0.0, 0.0, 0.0, 0.0, 0.0, 0.0, 0.0, 0.0, 1.6625065687468226E9, 0.0, 2022-09-06 19:22:48.746
168.0, -6203.167879959093, -4936.539225165752, -24036.551897114743, -19971.507188261414, 1683.6675028404597, 8547.105914009324, 26475.23897591102, 26101.3613464071, -13751.240223794011, 4518.315734662501, -8070.052632099704, -13556.042439465815, 18069.48549383706, -8274.079355487747, -19513.564647861083, 1347.2513970436332, 0.31862500000000005, 0.921, 0.040124999999999994, 192.0, 0.0, 0.0, 0.0, 0.0, 0.0, 0.0, 0.0, 0.0, 0.0, 1.6625065687468283E9, 0.0, 2022-09-06 19:22:48.746
170.0, -6217.629458621676, -4791.074072250613, -24383.67448850566, -19672.262033493764, 1974.9777883264767, 8704.909229863792, 26865.723951545235, 24277.011963964935, -14304.267085107218, 3914.7068756469343, -8680.568180151962, -14154.488045512206, 17516.81626043514, -8905.024397972154, -20157.004315496008, 728.1974826094488, 0.31862500000000005, 0.921, 0.040124999999999994, 192.0, 0.0, 0.0, 0.0, 0.0, 0.0, 0.0, 0.0, 0.0, 0.0, 1.662506568746834E9, 0.0, 2022-09-06 19:22:48.746
172.0, -6132.312850035769, -4848.6521659674845, -23987.445114546434, -19891.867922767153, 1755.0366228862551, 8628.756836504559, 25238.8075278768, 25974.403437900954, -13784.946654432613, 4502.043664699038, -8085.721204962874, -13574.817904808273, 18037.030760887952, -8235.075561413236, -19501.04767096611, 1293.6519138398069, 0.3173125, 0.9175, 0.0410625, 192.0, 4.5, 112.0, 14.0, 72.0, 0.5, 40.0, 0.0, 0.0, 0.0, 1.662506568746841E9, 0.0, 2022-09-06 19:22:48.746
174.0, -6313.674904546131, -4898.071872958169, -24457.301134741443, -19796.49302917636, 1862.5038102273716, 8593.686949454182, 28241.16089834701, 24394.224511888566, -14279.63546271747, 3920.1830530384846, -8676.611921383372, -14125.028446320111, 17539.81620547965, -8949.012631060199, -20196.343385737346, 694.6251624375776, 0.3173125, 0.9175, 0.0410625, 192.0, 0.0, 0.0, 0.0, 0.0, 0.0, 0.0, 0.0, 0.0, 0.0, 1.662506568746847E9, 0.0, 2022-09-06 19:22:48.746
176.0, -6054.305261886748, -4761.547417825153, -23928.905895817985, -19805.031395558286, 1844.2424350073857, 8707.34557000942, 24051.10288275515, 25743.71108337773, -13840.870719059792, 4477.926132431761, -8119.9864292128605, -13620.706036175017, 17985.062955029363, -8259.617776825164, -19499.795973276614, 1185.3130084649335, 0.3173125, 0.9175, 0.0410625, 192.0, 0.0, 0.0, 0.0, 0.0, 0.0, 0.0, 0.0, 0.0, 0.0, 1.6625065687468522E9, 0.0, 2022-09-06 19:22:48.746
178.0, -6387.50271648201, -4973.084327350179, -24483.899710643258, -19895.287739668816, 1756.400079298029, 8508.951486224114, 29459.308619416788, 24556.453473145186, -14219.24104919923, 3973.849591475677, -8624.867632969337, -14054.463989074708, 17602.66931088797, -8929.141930239432, -20187.7156123776, 691.9429531029407, 0.3173125, 0.9175, 0.0410625, 192.0, 0.0, 0.0, 0.0, 0.0, 0.0, 0.0, 0.0, 0.0, 0.0, 1.662506568746858E9, 0.0, 2022-09-06 19:22:48.746
180.0, -5995.430766991469, -4681.192896508324, -23894.595968079087, -19723.425176551962, 1928.106180203698, 8784.235570935676, 23003.387213157086, 25518.964292879617, -13911.65869374975, 4438.788227890519, -8170.501371681854, -13676.965376969025, 17920.287599597883, -8266.993852495414, -19506.993234991223, 1093.7379114315404, 0.3173125, 0.9175, 0.0410625, 192.0, 0.0, 0.0, 0.0, 0.0, 0.0, 0.0, 0.0, 0.0, 0.0, 1.6625065687468636E9, 0.0, 2022-09-06 19:22:48.746
182.0, -6449.864083512317, -5052.321261444243, -24506.89965568777, -20011.561514325324, 1649.1117059125552, 8415.811767078849, 30460.80088148128, 24746.622114970938, -14147.938984386801, 4029.6395456361233, -8571.804591632437, -13986.224113252654, 17666.125913396587, -8898.430633357839, -20147.37071363577, 733.092514645161, 0.29965625, 0.91275, 0.04253125, 192.0, 4.0, 104.0, 14.0, 48.0, 0.5, 48.0, 0.0, 0.0, 0.0, 1.662506568746869E9, 0.0, 2022-09-06 19:22:48.746
184.0, -5935.148112195506, -4603.833508948506, -23869.427903822412, -19643.763559313247, 2012.9534021560435, 8855.671746214837, 22183.078191647317, 25223.56363815828, -13992.236732511132, 4371.91180848024, -8244.239776639912, -13761.05263960989, 17840.782444570355, -8321.241536288446, -19547.00285756622, 1002.2075178870581, 0.29965625, 0.91275, 0.04253125, 192.0, 0.0, 0.0, 0.0, 0.0, 0.0, 0.0, 0.0, 0.0, 0.0, 1.6625065687468748E9, 0.0, 2022-09-06 19:22:48.746
186.0, -6501.965999837637, -5127.043143158334, -24513.649882513273, -20108.232809094527, 1545.1090389620113, 8335.837225417761, 31230.147925632948, 24995.598196458603, -14067.293890392053, 4092.515002788902, -8500.144898908722, -13906.070757635924, 17737.427978209016, -8850.173217078831, -20108.903361428187, 812.4188557170459, 0.29965625, 0.91275, 0.04253125, 192.0, 0.0, 0.0, 0.0, 0.0, 0.0, 0.0, 0.0, 0.0, 0.0, 1.6625065687468805E9, 0.0, 2022-09-06 19:22:48.746
188.0, -5910.874117717042, -4566.148467796858, -23880.715534772342, -19570.472189244294, 2067.4022516491714, 8897.402453112896, 21680.47686582528, 24969.08902753461, -14078.559169597527, 4285.0305777824615, -8323.834338645262, -13848.380905196776, 17749.922603359533, -8398.511516870441, -19616.36032061104, 943.8024096253407, 0.29965625, 0.91275, 0.04253125, 192.0, 0.0, 0.0, 0.0, 0.0, 0.0, 0.0, 0.0, 0.0, 0.0, 1.6625065687468865E9, 0.0, 2022-09-06 19:22:48.746
190.0, -6550.782209728028, -5186.185858987076, -24504.686832986696, -20169.70010634662, 1453.645700650895, 8274.571093865765, 31718.13121058121, 25184.738658039412, -14002.29501751602, 4137.643174844167, -8445.539587204408, -13836.243907957543, 17799.543476050316, -8788.974140760201, -20041.758721084443, 903.9268975170729, 0.29965625, 0.91275, 0.04253125, 192.0, 0.0, 0.0, 0.0, 0.0, 0.0, 0.0, 0.0, 0.0, 0.0, 1.662506568746892E9, 0.0, 2022-09-06 19:22:48.746
192.0, -5905.330885092126, -4523.724856820686, -23910.465706642357, -19495.14681042991, 2122.23108079804, 8930.728904095758, 21523.657026726847, 24668.569823333004, -14166.110952628966, 4182.6372364327, -8426.719418373039, -13935.32919112792, 17665.34360234065, -8455.62022395375, -19683.639071421512, 876.4789553259559, 0.295828125, 0.9233750000000001, 0.048265625, 192.0, 4.5, 16.0, 14.5, 24.0, 0.5, 88.0, 0.0, 0.0, 0.0, 1.6625065687468977E9, 0.0, 2022-09-06 19:22:48.746
194.0, -6546.0436399035025, -5205.900097596657, -24460.519785943008, -20197.14804853774, 1413.8148920315377, 8244.083314428724, 31886.998639941055, 25427.947989457607, -13920.867612465336, 4212.409760047169, -8366.906150210638, -13754.302412784387, 17872.052535063332, -8688.659511644782, -19946.89791761612, 1003.6156777877425, 0.295828125, 0.9233750000000001, 0.048265625, 192.0, 0.0, 0.0, 0.0, 0.0, 0.0, 0.0, 0.0, 0.0, 0.0, 1.6625065687469032E9, 0.0, 2022-09-06 19:22:48.746
196.0, -5908.594239782601, -4511.5431560925435, -23952.151710051505, -19453.349048298485, 2152.7859154684443, 8944.408171702406, 21718.76540407722, 24450.483852682573, -14221.81149981159, 4107.490671573958, -8495.182811639645, -14009.738148419638, 17593.415688683475, -8541.473274406586, -19747.72152277488, 819.1690825425485, 0.295828125, 0.9233750000000001, 0.048265625, 192.0, 0.0, 0.0, 0.0, 0.0, 0.0, 0.0, 0.0, 0.0, 0.0, 1.662506568746909E9, 0.0, 2022-09-06 19:22:48.746
198.0, -3452.9868904336563, -2755.3889459835227, -12348.981183645867, -10339.738171069404, 484.25054362422753, 3857.106430185608, 19472.549196785592, 12348.86942492359, -13842.07771326038, 4286.349330705325, -8280.382547424144, -13675.356051368244, 17943.421655109127, -8596.950304144657, -19838.62606747461, 1100.108158601303, 0.2479140625, 0.9126875000000001, 0.0431328125, 192.0, 3.0, 32.0, 14.0, 24.0, 0.5, 24.0, 0.0, 0.0, 0.0, 1.6625065688527317E9, 0.0, 2022-09-06 19:22:48.852
2.0, -6206.542993371844, -4679.49416392972, -24271.42402785111, -19725.81681320868, 1899.3394850897178, 8572.631606177283, 28096.90273963246, 23006.87408529211, -14394.210504795374, 3735.5576438376484, -8917.317857422573, -14263.005764842721, 17396.58622701004, -8908.198345684808, -20119.006349921983, -29.549006169915938, 0.2479140625, 0.9126875000000001, 0.0431328125, 192.0, 0.0, 0.0, 0.0, 0.0, 0.0, 0.0, 0.0, 0.0, 0.0, 1.6625065693334537E9, 0.0, 2022-09-06 19:22:49.333
4.0, -6548.994070171603, -5197.786414359381, -24268.831225494294, -20402.828801015476, 1231.4693607651427, 8014.530898872722, 33120.85963736292, 24961.869414075543, -13699.272417935423, 4376.315102137935, -8246.407895852077, -13539.368038102155, 18084.48351436657, -8329.399923014633, -19577.758857936726, 685.3491884886251, 0.2479140625, 0.9126875000000001, 0.0431328125, 192.0, 0.0, 0.0, 0.0, 0.0, 0.0, 0.0, 0.0, 0.0, 0.0, 1.6625065693335416E9, 0.0, 2022-09-06 19:22:49.333
6.0, -6307.170546909636, -4779.540572111675, -24376.49957853551, -19818.68831142048, 1811.9888677583776, 8460.559959478374, 29603.611481620253, 22948.893660175047, -14418.931534162944, 3679.2535995547296, -8957.282776508662, -14288.754974455236, 17377.766058178673, -8991.212724591818, -20207.966292854107, -25.50334042350536, 0.2479140625, 0.9126875000000001, 0.0431328125, 192.0, 0.0, 0.0, 0.0, 0.0, 0.0, 0.0, 0.0, 0.0, 0.0, 1.6625065693335528E9, 0.0, 2022-09-06 19:22:49.333
8.0, -6430.7533420030295, -5078.562209434773, -24160.537023608333, -20288.946663015686, 1346.1338098208678, 8109.279943618768, 31659.435529641574, 24925.21255316884, -13719.120767011735, 4384.451137119668, -8237.646012025596, -13551.616794063664, 18069.172569414684, -8287.69156786103, -19524.76287183319, 729.2256628543929, 0.19, 0.914, 0.01, 192.0, 2.5, 120.0, 14.0, 72.0, 0.0, 40.0, 0.0, 0.0, 0.0, 1.6625065693335602E9, 0.0, 2022-09-06 19:22:49.333
10.0, -6343.760352582974, -4821.6512586654735, -24415.905704010216, -19856.775683972322, 1750.946253650934, 8391.761290044939, 31177.666029651886, 23016.395928430073, -14380.754754633279, 3703.5499457776486, -8939.423732688872, -14260.994107841743, 17395.49099153173, -9018.660666782936, -20236.263601334525, 32.54413992692708, 0.19, 0.914, 0.01, 192.0, 0.0, 0.0, 0.0, 0.0, 0.0, 0.0, 0.0, 0.0, 0.0, 1.6625065693335671E9, 0.0, 2022-09-06 19:22:49.333
12.0, -6291.8148984688405, -4942.820065357693, -24036.686007581477, -20143.615620567278, 1468.5766659470398, 8219.854023439173, 30106.033993486642, 24824.249723464218, -13722.875860080227, 4448.064201839471, -8194.708310926952, -13518.156232614068, 18049.57008952738, -8206.442976765988, -19449.884527907914, 772.3645296531356, 0.19, 0.914, 0.01, 192.0, 0.0, 0.0, 0.0, 0.0, 0.0, 0.0, 0.0, 0.0, 0.0, 1.662506569333574E9, 0.0, 2022-09-06 19:22:49.333
14.0, -6400.086748610348, -4879.207000637889, -24450.01446604901, -19932.391635464624, 1661.0028339627784, 8304.477727946965, 32747.406691003645, 23088.99439442091, -14324.853041750555, 3747.828751543612, -8900.911676992378, -14207.059348471088, 17442.07202697659, -9022.102835429054, -20244.82431946091, 54.49355298203862, 0.19, 0.914, 0.01, 192.0, 0.0, 0.0, 0.0, 0.0, 0.0, 0.0, 0.0, 0.0, 0.0, 1.6625065693335807E9, 0.0, 2022-09-06 19:22:49.333
16.0, -6146.908539165085, -4767.492981850264, -23910.242189197805, -19986.326394835283, 1610.1302635824995, 8386.083946953291, 28635.848001938823, 24715.41907971133, -13748.312145270365, 4514.337124149457, -8180.537304942287, -13507.896781909083, 18036.114339365286, -8145.914452781017, -19374.73796304917, 753.4549538439458, 0.19, 0.914, 0.01, 192.0, 0.0, 0.0, 0.0, 0.0, 0.0, 0.0, 0.0, 0.0, 0.0, 1.662506569333588E9, 0.0, 2022-09-06 19:22:49.333
18.0, -6467.097278487358, -4939.802579856227, -24490.51582700203, -20045.82673857531, 1544.796114539637, 8245.826750496239, 34254.00367426917, 23308.935559861133, -14250.175863525375, 3862.5379040882476, -8835.286955271597, -14113.450242692263, 17518.067958124633, -8975.901779639933, -20200.81373462841, 98.7723587480019, 0.138, 0.926, 0.002, 192.0, 2.0, 40.0, 14.0, 120.0, 0.0, 8.0, 0.0, 0.0, 0.0, 1.662506569333595E9, 0.0, 2022-09-06 19:22:49.333
20.0, -6049.253767639848, -4642.792599534107, -23848.216098334327, -19889.722155299445, 1716.0551805561997, 8509.934962980147, 27341.771404954365, 24503.47983878611, -13816.68613155915, 4534.140769736859, -8213.416721036045, -13540.44092183601, 17984.75003060699, -8129.731789795374, -19369.194730424253, 688.1878600344492, 0.138, 0.926, 0.002, 192.0, 0.0, 0.0, 0.0, 0.0, 0.0, 0.0, 0.0, 0.0, 0.0, 1.6625065693336017E9, 0.0, 2022-09-06 19:22:49.333
22.0, -6540.790979956506, -5026.817921020737, -24542.77420553854, -20178.596100639832, 1404.963601227236, 8149.311917938223, 35591.37560026355, 23480.30638459997, -14168.055554396577, 3933.325878778205, -8776.434812120773, -14047.445541315741, 17588.364194436574, -8944.542282169137, -20170.974155780576, 159.94908332217733, 0.138, 0.926, 0.002, 192.0, 0.0, 0.0, 0.0, 0.0, 0.0, 0.0, 0.0, 0.0, 0.0, 1.6625065693336084E9, 0.0, 2022-09-06 19:22:49.333
24.0, -5947.799199557209, -4533.157292980825, -23814.979054329284, -19779.975090023887, 1814.6040218596486, 8629.472092327129, 26230.353263658675, 24253.855556709237, -13883.763716669526, 4494.041740184038, -8279.44377415702, -13629.020885112392, 17911.279846582394, -8157.4256011755, -19400.88950406188, 625.2006441593938, 0.138, 0.926, 0.002, 192.0, 0.0, 0.0, 0.0, 0.0, 0.0, 0.0, 0.0, 0.0, 0.0, 1.6625065693336143E9, 0.0, 2022-09-06 19:22:49.333
26.0, -6572.999843716603, -5099.7069596894935, -24562.354333681385, -20306.6939481132, 1283.4595183681868, 8062.944777362916, 36587.50344365877, 23681.896767842387, -14044.629221514371, 4022.12935949914, -8687.899552333301, -13965.772267076049, 17698.155963201043, -8867.451115542784, -20123.968437191063, 209.8381769464227, 0.138, 0.926, 0.002, 192.0, 0.0, 0.0, 0.0, 0.0, 0.0, 0.0, 0.0, 0.0, 0.0, 1.6625065693336215E9, 0.0, 2022-09-06 19:22:49.333
28.0, -5857.341689746581, -4430.518082442055, -23792.984937785262, -19712.651635724502, 1898.3783600781394, 8710.430110744252, 25402.93638741212, 23981.432495287954, -13944.851034265881, 4423.142006771804, -8342.609803987718, -13710.917676796636, 17852.58416564276, -8198.4857557399, -19458.19937684529, 507.4069508799256, 0.07, 0.916, -0.012, 192.0, 1.0, 24.0, 14.0, 80.0, 127.5, 80.0, 0.0, 0.0, 0.0, 1.662506569333628E9, 0.0, 2022-09-06 19:22:49.333
30.0, -6618.329181471966, -5173.73593732547, -24590.852807861902, -20447.48758643718, 1155.5181331060091, 7938.266746791214, 37186.038456682974, 23887.10813368656, -13936.446778350686, 4109.703494275033, -8587.003777862046, -13868.318661250909, 17812.865115745677, -8769.483419595173, -20037.48953789348, 286.90699182832145, 0.07, 0.916, -0.012, 192.0, 0.0, 0.0, 0.0, 0.0, 0.0, 0.0, 0.0, 0.0, 0.0, 1.6625065693336349E9, 0.0, 2022-09-06 19:22:49.333
32.0, -5828.910270799431, -4383.713529552642, -23840.57180173061, -19665.578861901628, 1933.2247296839632, 8715.906288135802, 24968.977268812334, 23692.424439480834, -14053.413457085308, 4291.758452863509, -8453.58621520832, -13833.3158294339, 17752.247184782886, -8317.531146708865, -19572.126218333986, 385.4781848762256, 0.07, 0.916, -0.012, 192.0, 0.0, 0.0, 0.0, 0.0, 0.0, 0.0, 0.0, 0.0, 0.0, 1.6625065693336418E9, 0.0, 2022-09-06 19:22:49.333
34.0, -6602.459442908698, -5192.757271856937, -24555.224127200145, -20481.43988626479, 1115.0167721529929, 7888.154135722415, 37398.3800290084, 24123.969569679448, -13831.88531778876, 4186.682902179111, -8480.028328898947, -13768.384011791231, 17917.717148985525, -8680.121145262856, -19943.09812105872, 411.4285601888371, 0.07, 0.916, -0.012, 192.0, 0.0, 0.0, 0.0, 0.0, 0.0, 0.0, 0.0, 0.0, 0.0, 1.6625065693336487E9, 0.0, 2022-09-06 19:22:49.333
36.0, -5814.940430514865, -4360.646529274765, -23885.45410459687, -19600.915265192423, 1995.228468802985, 8729.719666209181, 24964.976306554832, 23422.12479378281, -14130.616382433938, 4189.16394581365, -8539.618079616796, -13926.746121257082, 17681.280396137285, -8414.42595892262, -19651.497262894783, 338.6736319868126, 0.07, 0.916, -0.012, 192.0, 0.0, 0.0, 0.0, 0.0, 0.0, 0.0, 0.0, 0.0, 0.0, 1.6625065693336563E9, 0.0, 2022-09-06 19:22:49.333
38.0, -6606.996847033125, -5234.8903101551905, -24526.47978383062, -20513.53699130261, 1066.8264111073509, 7856.951100462807, 37227.34448043638, 24323.660054643162, -13759.599776220295, 4245.244472652015, -8393.348263901265, -13698.490106879486, 18012.153269309198, -8606.740368216082, -19835.094491850676, 525.7353813332775, 0.08, 0.9560000000000001, -0.016, 192.0, 1.0, 64.0, 14.5, 112.0, 127.5, 64.0, 0.0, 0.0, 0.0, 1.6625065693336651E9, 0.0, 2022-09-06 19:22:49.333
40.0, -5800.970590230298, -4343.703906977643, -23919.31699744666, -19519.24199095273, 2028.2196436190181, 8786.068413981011, 25419.767250986966, 23256.923050513633, -14222.616162611981, 4076.7570229479106, -8631.640211539294, -14021.025779369567, 17605.1056510336, -8520.753207296517, -19753.398865866526, 291.08676804146387, 0.08, 0.9560000000000001, -0.016, 192.0, 0.0, 0.0, 0.0, 0.0, 0.0, 0.0, 0.0, 0.0, 0.0, 1.662506569333672E9, 0.0, 2022-09-06 19:22:49.333
42.0, -6530.620936229341, -5189.40451018864, -24413.961102242603, -20459.155197042848, 1089.6922456851298, 7895.329045692569, 36622.10394407558, 24485.062001354934, -13662.883777962183, 4368.737860767586, -8258.030802968837, -13564.916082014572, 18125.767186375524, -8435.995392321991, -19665.020068290243, 708.6844096999657, 0.08, 0.9560000000000001, -0.016, 192.0, 0.0, 0.0, 0.0, 0.0, 0.0, 0.0, 0.0, 0.0, 0.0, 1.6625065693336792E9, 0.0, 2022-09-06 19:22:49.333
44.0, -5858.146352546973, -4383.847640019374, -24005.505324066322, -19525.43342416685, 1996.4131112591162, 8744.471817549684, 26238.869278296148, 23101.28785387133, -14278.517875494705, 3975.0565856762632, -8708.396101998818, -14094.250094205154, 17552.95903121937, -8636.647002297283, -19844.906907666555, 250.987738488643, 0.08, 0.9560000000000001, -0.016, 192.0, 0.0, 0.0, 0.0, 0.0, 0.0, 0.0, 0.0, 0.0, 0.0, 1.6625065693336866E9, 0.0, 2022-09-06 19:22:49.333
46.0, -6500.289619003489, -5176.060518748823, -24349.655133444685, -20449.85687134944, 1106.3442953043336, 7898.994731783239, 35666.566868611204, 24652.096587669443, -13624.617591454697, 4426.204195762181, -8200.139784829591, -13515.272857579335, 18169.82247469693, -8362.167580386113, -19572.86382590101, 799.8571753331632, 0.08, 0.9560000000000001, -0.016, 192.0, 0.0, 0.0, 0.0, 0.0, 0.0, 0.0, 0.0, 0.0, 0.0, 1.6625065693336937E9, 0.0, 2022-09-06 19:22:49.333
48.0, -5938.456170374891, -4457.049603110505, -24116.146459120093, -19588.64415748646, 1955.8893985616446, 8653.410810638763, 27402.344632428245, 22912.035633568245, -14340.521614613726, 3877.9159042734987, -8799.144184487366, -14180.125496402443, 17484.763858886225, -8764.409573603818, -19960.934813134052, 156.75278386506844, 0.082, 0.988, -0.008, 192.0, 1.0, 72.0, 15.0, 112.0, 127.5, 96.0, 0.0, 0.0, 0.0, 1.6625065693337014E9, 0.0, 2022-09-06 19:22:49.333
50.0, -6423.421969821688, -5112.469805773474, -24269.99351620597, -20395.206856156216, 1167.0963367338584, 7955.321127810613, 34396.5183969162, 24698.16353299183, -13607.943190091037, 4485.279856357558, -8147.434371403978, -13471.776362869306, 18185.133419648817, -8281.366024180177, -19492.777525517646, 814.2069952734704, 0.082, 0.988, -0.008, 192.0, 0.0, 0.0, 0.0, 0.0, 0.0, 0.0, 0.0, 0.0, 0.0, 1.6625065693337083E9, 0.0, 2022-09-06 19:22:49.333
52.0, -6030.008915663829, -4538.342897694457, -24225.625303462184, -19661.66730662195, 1882.329807559229, 8565.41199271822, 28777.22278561864, 22830.9882081733, -14363.812132336156, 3826.3504298151056, -8847.558062977561, -14217.072929987065, 17453.784341071172, -8851.290804301596, -20053.180462501106, 83.17084111819759, 0.082, 0.988, -0.008, 192.0, 0.0, 0.0, 0.0, 0.0, 0.0, 0.0, 0.0, 0.0, 0.0, 1.6625065693337152E9, 0.0, 2022-09-06 19:22:49.333
54.0, -6348.9906607855155, -5034.350458902176, -24195.517503680887, -20333.873669370852, 1234.330384055422, 8017.34721867409, 32870.72126516358, 24698.431753925295, -13603.450489455521, 4536.018316271105, -8106.12834765057, -13442.383818910577, 18197.918617477255, -8179.218552019424, -19408.26557973213, 832.7812949158306, 0.082, 0.988, -0.008, 192.0, 0.0, 0.0, 0.0, 0.0, 0.0, 0.0, 0.0, 0.0, 0.0, 1.6625065693337224E9, 0.0, 2022-09-06 19:22:49.333
56.0, -6135.665611704066, -4640.468018110754, -24345.542412464907, -19766.04995322823, 1781.232867387875, 8453.2956425304, 30318.062641389686, 22792.029117587703, -14376.262053997763, 3765.464277918849, -8891.501592576695, -14251.226395514776, 17429.35388438152, -8942.664735634891, -20144.174414178662, 36.32158473987398, 0.082, 0.988, -0.008, 192.0, 0.0, 0.0, 0.0, 0.0, 0.0, 0.0, 0.0, 0.0, 0.0, 1.6625065693337297E9, 0.0, 2022-09-06 19:22:49.333
58.0, -6245.613842679721, -4931.197158240933, -24104.590607236696, -20228.060511119427, 1358.4049175268315, 8116.678371033475, 31218.346204560545, 24643.02177942059, -13611.564172692797, 4561.991043328171, -8089.006911397805, -13431.498519360843, 18189.17908539523, -8117.594792556142, -19343.289058600552, 857.3011585833024, 0.089, 0.994, -0.005, 192.0, 1.5, 0.0, 15.5, 32.0, 127.5, 120.0, 0.0, 0.0, 0.0, 1.662506569333737E9, 0.0, 2022-09-06 19:22:49.333
60.0, -6242.752819389441, -4747.979908940782, -24439.97853278858, -19878.479227838427, 1685.5674011191609, 8335.390190528655, 31895.715820278627, 22846.410911847463, -14335.9842104893, 3749.438077144394, -8890.38400535393, -14235.602526140516, 17456.2206812168, -8988.619922235004, -20182.261786730505, 48.413878490195096, 0.089, 0.994, -0.005, 192.0, 0.0, 0.0, 0.0, 0.0, 0.0, 0.0, 0.0, 0.0, 0.0, 1.6625065693337443E9, 0.0, 2022-09-06 19:22:49.333
62.0, -6132.8045884137855, -4803.993380545781, -24004.85712347712, -20088.20564606257, 1496.9857331497353, 8242.608099294675, 29548.38032107119, 24563.315458692963, -13649.897414433648, 4559.353537482445, -8090.504478276311, -13445.691877089963, 18154.01979136703, -8090.750347465319, -19307.12393607187, 863.3137778417799, 0.089, 0.994, -0.005, 192.0, 0.0, 0.0, 0.0, 0.0, 0.0, 0.0, 0.0, 0.0, 0.0, 1.662506569333752E9, 0.0, 2022-09-06 19:22:49.333
64.0, -6349.549454396899, -4866.48885804282, -24527.440908842196, -19994.261264116914, 1569.3606816960196, 8224.81611070825, 33409.51006525875, 22955.599183511637, -14271.00768935772, 3766.4924581637933, -8858.219845082742, -14191.927217474846, 17516.212763334843, -8987.59174199006, -20194.577597925378, 104.40499835073929, 0.089, 0.994, -0.005, 192.0, 0.0, 0.0, 0.0, 0.0, 0.0, 0.0, 0.0, 0.0, 0.0, 1.6625065693337593E9, 0.0, 2022-09-06 19:22:49.333
66.0, -6030.031267408284, -4687.317274489078, -23939.791195367718, -19957.157368321106, 1621.2614323212424, 8363.75455424244, 27974.415180017375, 24405.981529472057, -13710.76121458545, 4526.384714410868, -8130.4917491068545, -13496.542095725787, 18114.524258914502, -8074.701794946408, -19314.701177442217, 835.6199664616545, 0.089, 0.994, -0.005, 192.0, 0.0, 0.0, 0.0, 0.0, 0.0, 0.0, 0.0, 0.0, 0.0, 1.6625065693337667E9, 0.0, 2022-09-06 19:22:49.333
68.0, -6436.900071728239, -4966.6917284359615, -24602.073383578467, -20111.853791696285, 1453.3104244840652, 8104.921353449983, 34815.010108352915, 23125.11481346069, -14180.058441169078, 3823.7352757138347, -8793.891524540368, -14115.03721654859, 17614.24751451582, -8952.00776481721, -20187.067411788394, 183.2619527890626, 0.1075, 0.993, 5.0E-4, 192.0, 1.5, 120.0, 15.5, 0.0, 0.0, 24.0, 0.0, 0.0, 0.0, 1.6625065693337734E9, 0.0, 2022-09-06 19:22:49.333
70.0, -5961.992557286329, -4604.302895582067, -23936.326674977146, -19861.849529963678, 1736.4399714994397, 8449.071162828346, 26665.22880378113, 24196.679794392563, -13791.316901602377, 4465.78913519253, -8201.369130774634, -13570.839294295229, 18051.268822105983, -8105.0778156611705, -19360.701067531238, 767.447145872968, 0.1075, 0.993, 5.0E-4, 192.0, 0.0, 0.0, 0.0, 0.0, 0.0, 0.0, 0.0, 0.0, 0.0, 1.6625065693338037E9, 0.0, 2022-09-06 19:22:49.333
72.0, -6531.62676472983, -5081.780860636337, -24682.13733221738, -20245.539575283477, 1330.7334578911614, 7996.91772424194, 36024.3512421073, 23323.71006294609, -14110.142184512877, 3873.6243693380798, -8748.428076318274, -14051.647669273338, 17708.705986583947, -8919.933011523844, -20177.411458183702, 228.68069752224656, 0.1075, 0.993, 5.0E-4, 192.0, 0.0, 0.0, 0.0, 0.0, 0.0, 0.0, 0.0, 0.0, 0.0, 1.6625065693338113E9, 0.0, 2022-09-06 19:22:49.333
74.0, -5888.745890706288, -4513.733627049163, -23925.575485894144, -19753.868252500088, 1836.6875453814919, 8555.845446091347, 25635.81921289196, 23953.716332163374, -13891.810344673437, 4401.036131505505, -8290.373777195666, -13663.911958207127, 17987.23107424153, -8173.965892072427, -19453.32669655403, 651.12866772755, 0.1075, 0.993, 5.0E-4, 192.0, 0.0, 0.0, 0.0, 0.0, 0.0, 0.0, 0.0, 0.0, 0.0, 1.6625065693338182E9, 0.0, 2022-09-06 19:22:49.333
76.0, -6586.20972468969, -5165.845771532747, -24711.84280059848, -20360.919280161772, 1227.4236950187321, 7907.644856887443, 36885.6086594592, 23551.8096151125, -14017.114224089888, 3978.386995600104, -8652.76261004956, -13950.707191313171, 17835.86506079019, -8854.777676436624, -20146.878975257754, 293.45605295372644, 0.1075, 0.993, 5.0E-4, 192.0, 0.0, 0.0, 0.0, 0.0, 0.0, 0.0, 0.0, 0.0, 0.0, 1.662506569333825E9, 0.0, 2022-09-06 19:22:49.333
78.0, -5834.6099656355345, -4438.475303468144, -23937.399558711, -19675.525388184236, 1919.746627777413, 8631.28258362801, 24987.216292287863, 23704.06969834205, -13994.24838951211, 4331.030467871484, -8378.059670693836, -13754.190654062111, 17910.899866926655, -8257.96374773547, -19564.21370079681, 516.7946835511545, 0.12975, 0.9755, -0.00275, 192.0, 2.0, 96.0, 14.5, 120.0, 127.5, 104.0, 0.0, 0.0, 0.0, 1.6625065693338327E9, 0.0, 2022-09-06 19:22:49.333
80.0, -6601.140689985835, -5202.279114994898, -24692.93322478929, -20433.405987430335, 1150.1313626922802, 7845.730524746243, 37393.7755696506, 23805.211342002316, -13912.999798417068, 4113.190366410061, -8548.268204720998, -13830.477157888075, 17954.41871338114, -8766.0188992046, -20080.98603260351, 360.6453967863795, 0.12975, 0.9755, -0.00275, 192.0, 0.0, 0.0, 0.0, 0.0, 0.0, 0.0, 0.0, 0.0, 0.0, 1.6625065693338404E9, 0.0, 2022-09-06 19:22:49.333
82.0, -5809.598363590046, -4394.710587824654, -23960.667724688974, -19612.046433931166, 1970.8650673467002, 8662.105639231879, 24748.007923127167, 23420.11313678183, -14090.472649392206, 4276.067528255883, -8467.980738637536, -13837.875585302781, 17841.698866093026, -8359.619481518208, -19668.641050892, 382.6618650748569, 0.12975, 0.9755, -0.00275, 192.0, 0.0, 0.0, 0.0, 0.0, 0.0, 0.0, 0.0, 0.0, 0.0, 1.662506569333848E9, 0.0, 2022-09-06 19:22:49.333
84.0, -6624.83353910846, -5254.001051664478, -24674.13540770238, -20503.59046502, 1089.0887485848366, 7793.315683998548, 37488.79283533011, 24014.4683735929, -13829.471329387587, 4227.921870699152, -8449.138218061713, -13725.267496736944, 18061.57297629988, -8681.082270274434, -19984.828827956775, 422.31385973857164, 0.12975, 0.9755, -0.00275, 192.0, 0.0, 0.0, 0.0, 0.0, 0.0, 0.0, 0.0, 0.0, 0.0, 1.662506569333855E9, 0.0, 2022-09-06 19:22:49.333
86.0, -5821.690657340367, -4385.3452068978795, -24027.83471677717, -19580.843398671557, 2018.2507655919512, 8678.131840006334, 24953.196937226887, 23155.53553766436, -14196.688139043825, 4175.104698551261, -8588.41193776273, -13948.80729303447, 17752.001315593876, -8495.2051633841, -19776.555273122227, 241.62235756186934, 0.12975, 0.9755, -0.00275, 192.0, 0.0, 0.0, 0.0, 0.0, 0.0, 0.0, 0.0, 0.0, 0.0, 1.662506569333862E9, 0.0, 2022-09-06 19:22:49.333
88.0, -6588.757823557595, -5243.56278700385, -24610.477639493663, -20513.91697095835, 1099.2587923120013, 7795.68496891081, 37117.64211864974, 24240.444510036054, -13748.692124926107, 4351.348203581358, -8348.04127789036, -13621.354236764222, 18167.5873002514, -8565.255530507033, -19855.769855471834, 511.6984858153446, 0.138875, 0.95475, -0.007375, 192.0, 2.0, 80.0, 14.5, 24.0, 127.5, 80.0, 0.0, 0.0, 0.0, 1.6625065693338697E9, 0.0, 2022-09-06 19:22:49.333
90.0, -5833.559433646135, -4378.863201005841, -24085.368107005135, -19556.144721048444, 2083.9425425460986, 8684.747956365103, 25500.769972893, 22944.356256050618, -14254.0650670606, 4105.389607595159, -8664.47492414414, -14019.751729935615, 17710.203553462452, -8593.686949454182, -19876.199349903985, 143.45349591416073, 0.138875, 0.95475, -0.007375, 192.0, 0.0, 0.0, 0.0, 0.0, 0.0, 0.0, 0.0, 0.0, 0.0, 1.6625065693338768E9, 0.0, 2022-09-06 19:22:49.333
92.0, -6530.062142617959, -5200.803899860847, -24530.212525154653, -20498.360156817456, 1162.2460081870565, 7817.410864521368, 36330.212513233724, 24425.53930587045, -13658.949870938048, 4465.677376470253, -8244.798570251294, -13509.774328443329, 18271.366449757392, -8430.295697485888, -19738.110272659098, 584.9898558842964, 0.138875, 0.95475, -0.007375, 192.0, 0.0, 0.0, 0.0, 0.0, 0.0, 0.0, 0.0, 0.0, 0.0, 1.662506569333884E9, 0.0, 2022-09-06 19:22:49.333
94.0, -5876.117155089039, -4412.927259555729, -24185.146294253624, -19588.73356446428, 2036.9591757010433, 8636.490540086095, 26453.53543204492, 22771.487864433275, -14309.028006676199, 4026.1750252455504, -8745.812922217003, -14081.889579521368, 17656.96169816991, -8693.800412869503, -19999.75979325292, 34.57814867236002, 0.138875, 0.95475, -0.007375, 192.0, 0.0, 0.0, 0.0, 0.0, 0.0, 0.0, 0.0, 0.0, 0.0, 1.6625065693338916E9, 0.0, 2022-09-06 19:22:49.333
96.0, -6456.949586504649, -5156.279224905876, -24456.921155085704, -20480.00937461965, 1147.4044498687329, 7848.055106169594, 35235.021738412586, 24536.13573743531, -13611.698283159529, 4537.962918038716, -8168.601473403153, -13438.584022353176, 18319.981493947686, -8316.860594375205, -19650.22321346083, 634.677783808444, 0.138875, 0.95475, -0.007375, 192.0, 0.0, 0.0, 0.0, 0.0, 0.0, 0.0, 0.0, 0.0, 0.0, 1.662506569333898E9, 0.0, 2022-09-06 19:22:49.333
98.0, -5940.378420398048, -4480.161306877292, -24278.71069654354, -19645.79756805868, 1955.0176805278875, 8564.562626428919, 27728.90361892028, 22633.0411592771, -14347.450655394872, 3921.68061991699, -8810.901202070858, -14143.200414562276, 17606.647921401014, -8811.169423004321, -20113.08313764133, -47.40804998970628, 0.1484375, 0.9353750000000001, -0.0166875, 192.0, 2.0, 120.0, 14.0, 80.0, 127.5, 24.0, 0.0, 0.0, 0.0, 1.662506569333906E9, 0.0, 2022-09-06 19:22:49.333
100.0, -6366.73794588303, -5084.217200781965, -24353.790206168916, -20405.578065583475, 1203.4626249626428, 7925.302735007136, 33845.48084085951, 24590.91986309527, -13589.905332315604, 4579.268941792124, -8111.626876786576, -13393.209981108903, 18347.295325672072, -8229.085293899214, -19554.44598846984, 680.8564878531084, 0.1484375, 0.9353750000000001, -0.0166875, 192.0, 0.0, 0.0, 0.0, 0.0, 0.0, 0.0, 0.0, 0.0, 0.0, 1.6625065693339136E9, 0.0, 2022-09-06 19:22:49.333
102.0, -6036.066238411217, -4577.458450491244, -24388.927148452658, -19739.540784304238, 1851.8420281221902, 8456.290776287411, 29236.148802775006, 22546.89753614635, -14363.476856169327, 3860.101563942619, -8858.80099043858, -14178.024432423645, 17582.798610067202, -8906.879592761945, -20209.19563879915, -105.29906812895157, 0.1484375, 0.9353750000000001, -0.0166875, 192.0, 0.0, 0.0, 0.0, 0.0, 0.0, 0.0, 0.0, 0.0, 0.0, 1.6625065693339217E9, 0.0, 2022-09-06 19:22:49.333
104.0, -6272.368880792723, -4990.541039769774, -24248.915821184615, -20319.88147734183, 1296.7364545746393, 7995.286046896702, 32258.752853721722, 24561.147339480798, -13597.795498108328, 4621.759608001663, -8084.491859017833, -13371.595844220621, 18341.61798258042, -8166.1204297686145, -19492.509304584182, 676.5202494287788, 0.1484375, 0.9353750000000001, -0.0166875, 192.0, 0.0, 0.0, 0.0, 0.0, 0.0, 0.0, 0.0, 0.0, 0.0, 1.6625065693339272E9, 0.0, 2022-09-06 19:22:49.333
106.0, -6137.319640793758, -4676.968416806271, -24458.821053364405, -19822.465756233425, 1752.3544135516183, 8354.813856460316, 30870.128377691315, 22556.441731028764, -14358.69358285589, 3825.925746670455, -8879.65516801538, -14182.628891781438, 17586.687813602428, -8972.414907504906, -20257.609517289344, -117.32430664590677, 0.1484375, 0.9353750000000001, -0.0166875, 192.0, 0.0, 0.0, 0.0, 0.0, 0.0, 0.0, 0.0, 0.0, 0.0, 1.6625065693339326E9, 0.0, 2022-09-06 19:22:49.333
108.0, -6148.0037746433945, -4854.955357903881, -24121.041491155804, -20170.81769356939, 1413.7031333092611, 8122.936859480961, 30586.99883067594, 24499.076545128413, -13618.023826840381, 4643.284337912123, -8062.184818051436, -13358.318908014167, 18334.845404010466, -8099.311065591702, -19411.50658267815, 723.5930232516555, 0.14721875, 0.9356875, -0.02134375, 192.0, 2.0, 72.0, 14.5, 32.0, 127.5, 24.0, 0.0, 0.0, 0.0, 1.6625065693339393E9, 0.0, 2022-09-06 19:22:49.333
110.0, -6214.544917886844, -4756.361813111522, -24516.108574403355, -19910.12929798714, 1661.5839793186165, 8243.502169072886, 32512.512208522825, 22644.82052860505, -14294.9240559249, 3857.24054065234, -8836.717466916736, -14122.41329221884, 17645.964639897902, -8969.911512125911, -20249.89816545226, -45.8881313667454, 0.14721875, 0.9356875, -0.02134375, 192.0, 0.0, 0.0, 0.0, 0.0, 0.0, 0.0, 0.0, 0.0, 0.0, 1.6625065693339467E9, 0.0, 2022-09-06 19:22:49.333
112.0, -6050.43841009598, -4746.325879851089, -24029.019359233305, -20048.955982799052, 1540.1693034373884, 8224.72670373043, 28982.322392740538, 24336.042921071403, -13665.36482159672, 4628.956869716271, -8075.93114089145, -13379.5083617578, 18288.6666999658, -8087.442289285933, -19370.334669391475, 712.3277440461808, 0.14721875, 0.9356875, -0.02134375, 192.0, 0.0, 0.0, 0.0, 0.0, 0.0, 0.0, 0.0, 0.0, 0.0, 1.6625065693339536E9, 0.0, 2022-09-06 19:22:49.333
114.0, -6326.750675052485, -4881.017491938769, -24592.3056712515, -20032.572154113313, 1533.5531870786176, 8129.776493284285, 34112.53948361152, 22769.87853883249, -14236.071912774076, 3876.2842269282614, -8804.396844434363, -14073.97706198419, 17692.97035848741, -8977.73462268527, -20241.158633370236, 0.6705523336592119, 0.14721875, 0.9356875, -0.02134375, 192.0, 0.0, 0.0, 0.0, 0.0, 0.0, 0.0, 0.0, 0.0, 0.0, 1.6625065693339589E9, 0.0, 2022-09-06 19:22:49.333
116.0, -5959.2879962072375, -4642.837303023017, -23967.909689892494, -19926.311960972784, 1683.6675028404597, 8335.41254227311, 27501.944005721096, 24135.570125051752, -13735.526947441931, 4583.04638660507, -8128.748313039341, -13443.166129966514, 18218.92925726524, -8099.93691443645, -19374.000355482145, 650.9275020274523, 0.14721875, 0.9356875, -0.02134375, 192.0, 0.0, 0.0, 0.0, 0.0, 0.0, 0.0, 0.0, 0.0, 0.0, 1.6625065693339653E9, 0.0, 2022-09-06 19:22:49.333
118.0, -6426.864138467806, -4995.033740405291, -24651.381331846875, -20168.13548423475, 1455.5455989295958, 7989.184020660404, 35516.27373889372, 22948.424273541485, -14151.381153032919, 3909.968305822409, -8751.602024030928, -14014.543773477528, 17766.619356467647, -8958.19919803133, -20208.681548676675, 45.59755868882641, 0.136609375, 0.9418437500000001, -0.017671875, 192.0, 1.5, 120.0, 14.5, 80.0, 127.5, 72.0, 0.0, 0.0, 0.0, 1.6625065693339703E9, 0.0, 2022-09-06 19:22:49.333
120.0, -5885.571942993634, -4542.545025652054, -23923.228552726338, -19822.59986670016, 1823.2541469638525, 8418.873956069227, 26273.782703135337, 23880.44731383888, -13822.005846739514, 4502.356589121412, -8207.068825610737, -13536.171738645047, 18131.913916100733, -8157.403249431044, -19404.242265730176, 555.9772915813079, 0.136609375, 0.9418437500000001, -0.017671875, 192.0, 0.0, 0.0, 0.0, 0.0, 0.0, 0.0, 0.0, 0.0, 0.0, 1.662506569333976E9, 0.0, 2022-09-06 19:22:49.333
122.0, -6513.633610443308, -5092.844974141714, -24673.420151879807, -20294.221674707136, 1350.805324412027, 7897.22894397127, 36616.918339361946, 23181.374154254696, -14059.873111232891, 3981.4938880793916, -8678.645930128805, -13942.57115633144, 17852.897090065133, -8910.299409663607, -20148.84592876982, 111.75872227653531, 0.136609375, 0.9418437500000001, -0.017671875, 192.0, 0.0, 0.0, 0.0, 0.0, 0.0, 0.0, 0.0, 0.0, 0.0, 1.6625065698127809E9, 0.0, 2022-09-06 19:22:49.812
124.0, -5856.87230311302, -4480.295417344024, -23917.752375334785, -19753.130644933062, 1909.6212875391589, 8500.279009375454, 25362.30091599237, 23622.195258402262, -13930.14358641429, 4410.960306043662, -8310.892678605638, -13658.256966859934, 18023.932638637143, -8231.05224741128, -19471.38690607392, 439.3458890135156, 0.136609375, 0.9418437500000001, -0.017671875, 192.0, 0.0, 0.0, 0.0, 0.0, 0.0, 0.0, 0.0, 0.0, 0.0, 1.6625065698129292E9, 0.0, 2022-09-06 19:22:49.812
126.0, -6577.537247841031, -5157.977957484479, -24682.830236295493, -20396.860885245907, 1268.7744222610502, 7822.484710512724, 37351.10608948542, 23427.73508164109, -13977.10460151489, 4046.291595255327, -8613.244725852577, -13877.549931710952, 17921.896925198667, -8848.273318800131, -20079.35435525827, 165.44761245818287, 0.136609375, 0.9418437500000001, -0.017671875, 192.0, 0.0, 0.0, 0.0, 0.0, 0.0, 0.0, 0.0, 0.0, 0.0, 1.6625065698129404E9, 0.0, 2022-09-06 19:22:49.812
128.0, -5811.408854890926, -4390.419052889234, -23909.348119419592, -19648.74799832678, 2003.319800295806, 8582.756946415539, 24816.225447204764, 23368.10062743433, -14008.754671663604, 4335.053781873439, -8390.598999333262, -13754.637688951218, 17936.894945728178, -8294.464146430988, -19512.692929827324, 345.2003413677623, 0.136609375, 0.9418437500000001, -0.017671875, 192.0, 0.0, 0.0, 0.0, 0.0, 0.0, 0.0, 0.0, 0.0, 0.0, 1.6625065698129468E9, 0.0, 2022-09-06 19:22:49.812
130.0, -6617.837443093949, -5198.6134289042275, -24652.16364290281, -20474.600252461463, 1193.9854853135926, 7754.53540736859, 37692.70779999588, 23692.15621854737, -13855.354649466832, 4165.404041457658, -8487.806735969394, -13773.569616504863, 18033.32037130837, -8720.019009115578, -19939.70065590151, 285.87881158337734, 0.076, 0.964, 0.02, 192.0, 1.0, 48.0, 15.0, 16.0, 0.0, 80.0, 0.0, 0.0, 0.0, 1.6625065698129525E9, 0.0, 2022-09-06 19:22:49.812
132.0, -5829.558471388635, -4359.238369374081, -23948.620134427565, -19615.734471766293, 2066.575237104325, 8598.55962974544, 24760.077865133033, 23097.778629991848, -14105.783594344091, 4225.284364853426, -8496.568619795873, -13895.878362164303, 17829.025426986867, -8403.317141928334, -19606.905532706445, 226.98196494364322, 0.076, 0.964, 0.02, 192.0, 0.0, 0.0, 0.0, 0.0, 0.0, 0.0, 0.0, 0.0, 0.0, 1.6625065698129587E9, 0.0, 2022-09-06 19:22:49.812
134.0, -6643.899577128837, -5229.235318807998, -24634.39400606084, -20531.68660780032, 1158.9379500076711, 7714.14580513785, 37646.886723862495, 23929.375282451547, -13766.461761768076, 4261.538894359934, -8393.32591215681, -13698.266589434934, 18105.337691943372, -8616.776301476515, -19838.715474452434, 386.90869652136524, 0.076, 0.964, 0.02, 192.0, 0.0, 0.0, 0.0, 0.0, 0.0, 0.0, 0.0, 0.0, 0.0, 1.6625065698129704E9, 0.0, 2022-09-06 19:22:49.812
136.0, -5861.4991142152685, -4364.2675118765255, -24036.373083159102, -19587.705384219335, 2104.0814643003305, 8602.538240258484, 25125.953570121954, 22854.05520845118, -14193.916522731368, 4105.568421550801, -8611.367179318331, -14017.829479912458, 17723.480489668906, -8517.847480517326, -19736.94798194742, 151.6118826403478, 0.076, 0.964, 0.02, 192.0, 0.0, 0.0, 0.0, 0.0, 0.0, 0.0, 0.0, 0.0, 0.0, 1.6625065698129764E9, 0.0, 2022-09-06 19:22:49.812
138.0, -6642.111437572413, -5246.021478893934, -24606.901360380813, -20555.513567389677, 1136.0274119409814, 7689.558886237012, 37191.55933756344, 24123.544886534797, -13683.46973460552, 4338.2053778416375, -8312.613762928697, -13629.020885112392, 18183.92642544823, -8503.609419299295, -19741.775958749768, 522.650840598445, 0.076, 0.964, 0.02, 192.0, 0.0, 0.0, 0.0, 0.0, 0.0, 0.0, 0.0, 0.0, 0.0, 1.662506569812982E9, 0.0, 2022-09-06 19:22:49.812
140.0, -5912.572850295645, -4396.275209936525, -24141.35922686568, -19597.808372713134, 2074.8006790638783, 8565.16612352921, 25941.255800873736, 22647.927421084336, -14275.746259182246, 3975.458917076459, -8722.34359053893, -14154.71156295676, 17644.0647416192, -8647.912281502759, -19870.49965506788, 95.44194882416116, 0.108, 0.978, 0.046, 192.0, 1.5, 48.0, 15.0, 72.0, 0.5, 56.0, 0.0, 0.0, 0.0, 1.6625065698129878E9, 0.0, 2022-09-06 19:22:49.812
142.0, -6594.546925371519, -5215.55605120135, -24549.502080619586, -20545.656448084887, 1140.2742433874898, 7706.345046322947, 36357.4816414692, 24296.592092107785, -13636.307553804822, 4393.0342069905055, -8240.618794038153, -13613.88875411615, 18249.931126824755, -8407.318104185833, -19653.352457684574, 631.6602983069776, 0.108, 0.978, 0.046, 192.0, 0.0, 0.0, 0.0, 0.0, 0.0, 0.0, 0.0, 0.0, 0.0, 1.6625065698129935E9, 0.0, 2022-09-06 19:22:49.812
144.0, -5974.598941159123, -4440.196387791203, -24247.150033372647, -19644.344704669085, 2027.3926290741717, 8512.460710103596, 27120.667948802467, 22509.83834383945, -14331.335047642595, 3865.4436308674376, -8813.583411405494, -14286.87742792099, 17590.152333993, -8770.668062051303, -19999.513924063915, 28.431418947150583, 0.108, 0.978, 0.046, 192.0, 0.0, 0.0, 0.0, 0.0, 0.0, 0.0, 0.0, 0.0, 0.0, 1.6625065698129992E9, 0.0, 2022-09-06 19:22:49.812
146.0, -6517.209889556157, -5144.566910811295, -24463.336105744376, -20516.710939015262, 1187.816403843928, 7771.008643032151, 35183.568022676474, 24405.48979109404, -13594.956826562504, 4448.935919873228, -8175.843438606673, -13583.892713057126, 18312.516011299613, -8302.555477923808, -19550.154453534422, 688.8584123681084, 0.108, 0.978, 0.046, 192.0, 0.0, 0.0, 0.0, 0.0, 0.0, 0.0, 0.0, 0.0, 0.0, 1.6625065698130047E9, 0.0, 2022-09-06 19:22:49.813
148.0, -6050.907796729541, -4505.731702534164, -24342.234354285523, -19743.832319239656, 1961.3432242087395, 8447.014802338457, 28572.927841297133, 22425.23699107611, -14351.876300797023, 3786.3184554956506, -8868.948682421289, -14334.59840233307, 17581.591615866615, -8862.846656184991, -20094.419431021146, -62.45077400812794, 0.108, 0.978, 0.046, 192.0, 0.0, 0.0, 0.0, 0.0, 0.0, 0.0, 0.0, 0.0, 0.0, 1.6625065698130107E9, 0.0, 2022-09-06 19:22:49.813
150.0, -6425.277164611479, -5053.8635318116585, -24359.087569604824, -20475.606080961952, 1257.9338262002261, 7869.289263402136, 33741.58993263125, 24463.671381911205, -13554.075485953748, 4518.874528273885, -8105.524850550277, -13515.317561068245, 18375.614985896944, -8199.871563896128, -19440.47444349223, 691.0265315802732, 0.12, 0.934, 0.038, 192.0, 1.5, 96.0, 14.5, 24.0, 0.5, 24.0, 0.0, 0.0, 0.0, 1.6625065698130164E9, 0.0, 2022-09-06 19:22:49.813
152.0, -6161.88420795014, -4612.885965452906, -24468.14173080227, -19880.043849950296, 1835.5476064142713, 8344.107370866224, 30268.017085554253, 22378.879473075805, -14370.472952183838, 3742.6431468299807, -8914.389778898929, -14347.31654492814, 17576.2495489418, -8949.325555482574, -20177.99260353954, -162.2960164899846, 0.12, 0.934, 0.038, 192.0, 0.0, 0.0, 0.0, 0.0, 0.0, 0.0, 0.0, 0.0, 0.0, 1.662506569813022E9, 0.0, 2022-09-06 19:22:49.813
154.0, -6329.902271020684, -4965.216513301911, -24281.772885533916, -20406.89681850634, 1319.5352339190524, 7954.67292722141, 32172.497471868694, 24397.979604957058, -13585.882018313649, 4553.89971183535, -8099.132251636059, -13503.158212084558, 18357.711238588243, -8136.5937753431535, -19398.587274382982, 641.8973972675083, 0.12, 0.934, 0.038, 192.0, 0.0, 0.0, 0.0, 0.0, 0.0, 0.0, 0.0, 0.0, 0.0, 1.6625065698130276E9, 0.0, 2022-09-06 19:22:49.813
156.0, -6247.267871769413, -4707.612658454497, -24549.010342241567, -19985.879359946175, 1709.5061194307948, 8250.028878453837, 32045.450156384726, 22409.411956001753, -14346.444826894383, 3729.299155390162, -8922.52581388066, -14321.58968706008, 17596.254360229297, -8994.431375793383, -20241.89624093726, -205.21136584417414, 0.12, 0.934, 0.038, 192.0, 0.0, 0.0, 0.0, 0.0, 0.0, 0.0, 0.0, 0.0, 0.0, 1.6625065698130336E9, 0.0, 2022-09-06 19:22:49.813
158.0, -6222.546842401844, -4858.553988761186, -24189.41547744459, -20305.531657401523, 1422.1744444578226, 8059.770829650263, 30521.46351593298, 24275.112065686237, -13609.105480802713, 4568.696566664764, -8093.298446333224, -13493.94929336897, 18340.992133735675, -8087.665806730486, -19357.84004424096, 599.4514345468801, 0.12, 0.934, 0.038, 192.0, 0.0, 0.0, 0.0, 0.0, 0.0, 0.0, 0.0, 0.0, 0.0, 1.6625065698130405E9, 0.0, 2022-09-06 19:22:49.813
160.0, -6361.015899302471, -4845.724087443839, -24645.92750619978, -20140.93341123264, 1572.4452224308518, 8115.2925628772455, 33775.54223245886, 22493.968605276183, -14313.140727655975, 3725.588765810581, -8917.675485333859, -14298.075651893098, 17629.804328656715, -9039.648954826469, -20284.386907146803, -241.86822675087774, 0.106, 0.89, -0.002, 192.0, 1.5, 40.0, 13.5, 104.0, 127.5, 120.0, 0.0, 0.0, 0.0, 1.6625065698130465E9, 0.0, 2022-09-06 19:22:49.813
162.0, -6108.4411869575015, -4737.742809980251, -24100.63434846811, -20187.335632721857, 1543.4326581278633, 8189.299188768768, 28934.82493577301, 24103.562426991753, -13667.197664642057, 4558.258302004136, -8114.778472754774, -13525.599363517686, 18297.24976983664, -8078.143963592525, -19334.236602096153, 531.8374075695763, 0.106, 0.89, -0.002, 192.0, 0.0, 0.0, 0.0, 0.0, 0.0, 0.0, 0.0, 0.0, 0.0, 1.662506569813052E9, 0.0, 2022-09-06 19:22:49.813
164.0, -6466.493781387065, -4956.476981219886, -24706.16545750683, -20269.746514528575, 1446.0461075360904, 7997.409462619957, 35350.37909154643, 22630.15778424237, -14253.953308338323, 3772.236856488807, -8875.408336568873, -14234.887270317946, 17687.047146206754, -9024.427416852406, -20274.64154656429, -224.97030794266558, 0.106, 0.89, -0.002, 192.0, 0.0, 0.0, 0.0, 0.0, 0.0, 0.0, 0.0, 0.0, 0.0, 1.6625065698130577E9, 0.0, 2022-09-06 19:22:49.813
166.0, -6017.648400980044, -4626.095846425992, -24016.927065482985, -20055.97443055802, 1692.4740901558507, 8308.83631811575, 27527.335587422323, 23886.25876739726, -13755.710572685073, 4518.56160385151, -8180.917284598027, -13592.162858505591, 18209.966207738664, -8104.094338905137, -19341.344456832943, 437.3789355014486, 0.106, 0.89, -0.002, 192.0, 0.0, 0.0, 0.0, 0.0, 0.0, 0.0, 0.0, 0.0, 0.0, 1.662506569813065E9, 0.0, 2022-09-06 19:22:49.813
168.0, -6572.06107044948, -5072.5272384318405, -24753.148824351887, -20403.566408582497, 1325.0561147995134, 7884.577856609566, 36641.5499617517, 22822.785117958203, -14159.584243248017, 3850.1773894044627, -8808.26369622513, -14158.399600791885, 17755.577594706727, -8990.9221519139, -20191.448353701635, -169.51562994904876, 0.106, 0.89, -0.002, 192.0, 0.0, 0.0, 0.0, 0.0, 0.0, 0.0, 0.0, 0.0, 0.0, 1.6625065698130708E9, 0.0, 2022-09-06 19:22:49.813
170.0, -5956.985766528341, -4535.1465982373475, -23984.98642265635, -19946.719103660478, 1797.236716417875, 8401.260781438445, 26375.751361340448, 23610.95233094124, -13855.2205390001, 4454.970890876161, -8271.486553130931, -13695.450269633564, 18093.82654354889, -8166.634519891086, -19375.54262584956, 319.51818698861445, 0.054, 0.908, -0.012, 192.0, 0.5, 88.0, 14.0, 48.0, 127.5, 80.0, 0.0, 0.0, 0.0, 1.6625065698130767E9, 0.0, 2022-09-06 19:22:49.813
172.0, -6640.926795116281, -5159.676690063083, -24770.09144664901, -20502.51758128614, 1235.9173579117487, 7771.545084899079, 37542.36996678948, 23052.89632712559, -14055.894500719847, 3946.803980684755, -8724.198785328721, -14064.1199426794, 17843.62111611618, -8919.128348723454, -20110.467983540057, -93.22912612308576, 0.054, 0.908, -0.012, 192.0, 0.0, 0.0, 0.0, 0.0, 0.0, 0.0, 0.0, 0.0, 0.0, 1.6625065698130827E9, 0.0, 2022-09-06 19:22:49.813
174.0, -5905.599106025589, -4458.077783355449, -23967.59676547012, -19826.846698146666, 1928.8661395151782, 8467.57840723734, 25570.23919466009, 23353.840214471846, -13947.62265057834, 4366.927369466707, -8368.761345000428, -13807.678378543662, 17984.392402695707, -8243.859796984172, -19419.12852753741, 231.9440522127214, 0.054, 0.908, -0.012, 192.0, 0.0, 0.0, 0.0, 0.0, 0.0, 0.0, 0.0, 0.0, 0.0, 1.6625065698130887E9, 0.0, 2022-09-06 19:22:49.813
176.0, -6689.005397439647, -5225.1449495726765, -24769.957336182277, -20551.356142920988, 1200.266325505534, 7714.48108130468, 38079.549441283874, 23323.397138523716, -13934.815101005448, 4046.4704092109696, -8616.999818921067, -13963.358278674876, 17944.986277221, -8806.676722368804, -19975.977537152474, 79.61691374980376, 0.054, 0.908, -0.012, 192.0, 0.0, 0.0, 0.0, 0.0, 0.0, 0.0, 0.0, 0.0, 0.0, 1.6625065698130944E9, 0.0, 2022-09-06 19:22:49.813
178.0, -5890.154050606972, -4413.642515378298, -24021.75504228533, -19725.19096436393, 2018.4966347809595, 8528.285745177955, 25218.400385189103, 23077.147969859598, -14041.187052868254, 4259.974272248062, -8477.614340497774, -13943.979316232124, 17876.902863610132, -8328.729370680972, -19495.303272641097, 213.88384269283327, 0.054, 0.908, -0.012, 192.0, 0.0, 0.0, 0.0, 0.0, 0.0, 0.0, 0.0, 0.0, 0.0, 1.6625065698131003E9, 0.0, 2022-09-06 19:22:49.813
180.0, -6748.796313857593, -5297.944581263612, -24791.19149341482, -20622.54644901114, 1134.529845062476, 7628.628030851845, 38290.4381502197, 23536.051635271506, -13827.906707275713, 4121.415808369614, -8521.893146263737, -13907.568324514428, 18026.480737505048, -8705.19980254171, -19867.03513467731, 248.7525640431123, 0.068, 1.012, 0.03, 192.0, 1.0, 16.0, 15.5, 80.0, 0.0, 120.0, 0.0, 0.0, 0.0, 1.662506569813106E9, 0.0, 2022-09-06 19:22:49.813
182.0, -5939.283184919737, -4411.295582210491, -24094.509970487354, -19688.265882523763, 2056.74046954399, 8537.002925515524, 25385.792599414897, 22787.80463788565, -14158.600766491982, 4102.550936049335, -8609.221411850622, -14145.815568663547, 17737.293867742286, -8455.82138965385, -19610.63827403048, 159.8596763443561, 0.068, 1.012, 0.03, 192.0, 0.0, 0.0, 0.0, 0.0, 0.0, 0.0, 0.0, 0.0, 0.0, 1.662506569813112E9, 0.0, 2022-09-06 19:22:49.813
184.0, -6751.500874936685, -5284.511182845972, -24727.399614739374, -20620.400681543433, 1130.9535659496269, 7644.475417670658, 38111.80300853289, 23750.717789020277, -13744.042962079402, 4210.576917001834, -8431.010953308458, -13885.75302192605, 18093.424212148693, -8588.233123807087, -19753.19770016643, 427.365353985471, 0.068, 1.012, 0.03, 192.0, 0.0, 0.0, 0.0, 0.0, 0.0, 0.0, 0.0, 0.0, 0.0, 1.6625065698131175E9, 0.0, 2022-09-06 19:22:49.813
186.0, -5981.527981940268, -4412.569631644444, -24173.188110970033, -19657.97926878682, 2078.7122343435567, 8540.936832539659, 25962.42290287291, 22577.34061209448, -14231.24393597173, 3991.976856228931, -8721.695389949726, -14322.148480671463, 17653.564233012705, -8561.858065349825, -19724.43100505245, 120.36414389182853, 0.068, 1.012, 0.03, 192.0, 0.0, 0.0, 0.0, 0.0, 0.0, 0.0, 0.0, 0.0, 0.0, 1.6625065698131232E9, 0.0, 2022-09-06 19:22:49.813
188.0, -6703.064644702035, -5262.628825024227, -24646.665113766805, -20603.547466224132, 1138.5308073199758, 7656.075973042963, 37532.37873701796, 23949.13422455004, -13670.572778054808, 4274.145278232727, -8364.112182153724, -13851.711315120616, 18170.20245435267, -8474.52979976294, -19645.864623292044, 529.8033988241433, 0.068, 1.012, 0.03, 192.0, 0.0, 0.0, 0.0, 0.0, 0.0, 0.0, 0.0, 0.0, 0.0, 1.6625065698131292E9, 0.0, 2022-09-06 19:22:49.813
190.0, -6006.2490113078375, -4437.849454623396, -24253.967315431513, -19658.046324020186, 2049.7667252739343, 8508.01271295699, 26912.7520218792, 22401.20886578666, -14275.54509348215, 3869.779869291767, -8814.656295139348, -14409.052063113699, 17596.991967796323, -8678.95885455118, -19841.12946285361, 50.917273869189486, 0.107, 1.0230000000000001, 0.05, 192.0, 2.0, 72.0, 16.0, 40.0, 1.0, 24.0, 0.0, 0.0, 0.0, 1.662506569813135E9, 0.0, 2022-09-06 19:22:49.813
192.0, -6614.9540680592145, -5197.272324236908, -24579.54282516752, -20572.83616934254, 1149.3043481474338, 7702.321732320993, 36585.84941456907, 24090.53135997431, -13596.856724841206, 4351.035279158983, -8267.865570529171, -13746.1440260582, 18241.057484275996, -8360.155923385135, -19560.816235639602, 592.6341524880114, 0.107, 1.0230000000000001, 0.05, 192.0, 0.0, 0.0, 0.0, 0.0, 0.0, 0.0, 0.0, 0.0, 0.0, 1.6625065698131406E9, 0.0, 2022-09-06 19:22:49.813
194.0, -6062.374241635113, -4484.810469723996, -24365.77074119696, -19736.29978135822, 1980.7668901404013, 8464.046831613401, 28201.91123508349, 22272.663983424187, -14302.322483339607, 3798.4778044793375, -8859.918577661345, -14415.33290330564, 17571.689793072914, -8770.73511728467, -19981.47606628848, -77.60525674882612, 0.107, 1.0230000000000001, 0.05, 192.0, 0.0, 0.0, 0.0, 0.0, 0.0, 0.0, 0.0, 0.0, 0.0, 1.6625065698131464E9, 0.0, 2022-09-06 19:22:49.813
196.0, -6572.552808827497, -5159.944910996546, -24507.257283599054, -20601.84873364553, 1172.0137205140259, 7761.8667795499305, 35337.3927280179, 24179.379544184154, -13572.806247807295, 4417.01762879105, -8198.19518306198, -13678.887626992182, 18293.874656423886, -8260.400087881098, -19488.62010104896, 537.067715772118, 0.107, 1.0230000000000001, 0.05, 192.0, 0.0, 0.0, 0.0, 0.0, 0.0, 0.0, 0.0, 0.0, 0.0, 1.662506569813152E9, 0.0, 2022-09-06 19:22:49.813
198.0, -6182.313702382291, -4587.628494218408, -24471.18156804819, -19898.88637052612, 1875.1548975890755, 8394.555258101853, 29775.719913926117, 22176.484427033, -14359.051210767177, 3730.0591147016426, -8934.685162864347, -14474.833247045666, 17537.022237422734, -8892.261551888174, -20090.731393186023, -285.3200179719947, 0.107, 1.0230000000000001, 0.05, 192.0, 0.0, 0.0, 0.0, 0.0, 0.0, 0.0, 0.0, 0.0, 0.0, 1.6625065698131623E9, 0.0, 2022-09-06 19:22:49.813
200.0, -6481.402394938755, -5069.174476763544, -24405.82506726087, -20571.02567804166, 1239.4489335356873, 7874.586626838044, 33805.873549684715, 24188.901387322116, -13575.890788542127, 4486.352740091413, -8162.544150655765, -13649.584490011275, 18313.410081077825, -8175.776383373307, -19394.69807084776, 455.32738629906015, 0.0925, 0.9845000000000002, 0.051000000000000004, 192.0, 1.0, 56.0, 14.5, 72.0, 0.5, 80.0, 0.0, 0.0, 0.0, 1.6625065698131683E9, 0.0, 2022-09-06 19:22:49.813
202.0, -6276.883933172695, -4686.4679081997765, -24597.267758520575, -20038.8306425608, 1736.4846749883504, 8282.930646292049, 31496.044277673278, 22137.950019592052, -14356.391353176994, 3698.274934086196, -8960.97081434379, -14461.556310839214, 17535.971705433334, -8966.670509179892, -20173.23168197056, -403.73956009621145, 0.0925, 0.9845000000000002, 0.051000000000000004, 192.0, 0.0, 0.0, 0.0, 0.0, 0.0, 0.0, 0.0, 0.0, 0.0, 1.662506569813174E9, 0.0, 2022-09-06 19:22:49.813
204.0, -6378.316149510879, -4978.9628361419245, -24359.02051437146, -20492.548703259075, 1309.0299140250581, 7956.3940115444675, 32165.210803176262, 24106.62461598213, -13590.307663715801, 4503.340065877445, -8148.194330715458, -13631.904260147126, 18290.61130173341, -8120.768740268796, -19369.574710079993, 399.64919086089026, 0.0925, 0.9845000000000002, 0.051000000000000004, 192.0, 0.0, 0.0, 0.0, 0.0, 0.0, 0.0, 0.0, 0.0, 0.0, 1.66250656981318E9, 0.0, 2022-09-06 19:22:49.813
206.0, -6384.038196091437, -4814.543403928686, -24742.151766079878, -20168.09078074584, 1600.6754756779046, 8138.001935243838, 33339.95143651384, 22186.67682250462, -14339.091102968587, 3647.849398595023, -8993.626712992993, -14450.983935711854, 17529.400292563474, -9022.885146484989, -20261.699886524664, -440.1058483249961, 0.0925, 0.9845000000000002, 0.051000000000000004, 192.0, 0.0, 0.0, 0.0, 0.0, 0.0, 0.0, 0.0, 0.0, 0.0, 1.662506569813186E9, 0.0, 2022-09-06 19:22:49.813
208.0, -6256.789714907374, -4861.325605073644, -24287.67374607012, -20359.533472005543, 1414.1054647094566, 8059.16733254997, 30594.933699957575, 24007.204056644925, -13627.411559511609, 4483.581123778954, -8168.735583869885, -13632.284239802866, 18249.12646402436, -8084.871838673573, -19355.20253839523, 397.36931292644897, 0.0925, 0.9845000000000002, 0.051000000000000004, 192.0, 0.0, 0.0, 0.0, 0.0, 0.0, 0.0, 0.0, 0.0, 0.0, 1.6625065698131917E9, 0.0, 2022-09-06 19:22:49.813
210.0, -6481.670615872218, -4934.751085609328, -24808.894075023425, -20285.191569947194, 1459.9712443317467, 8017.794253563196, 35149.61572284886, 22319.80381248043, -14279.389593528462, 3653.3255759865733, -8964.547093456638, -14384.554551190682, 17578.52942687624, -9037.100855958564, -20275.49091285359, -377.2750946611279, 0.09125, 0.9392500000000001, 0.0345, 192.0, 1.0, 104.0, 13.5, 120.0, 0.0, 72.0, 0.0, 0.0, 0.0, 1.6625065698131974E9, 0.0, 2022-09-06 19:22:49.813
212.0, -6149.12136186616, -4750.885635719971, -24186.085067520748, -20225.311246551424, 1534.760181279204, 8173.5188571833205, 29176.313182868147, 23830.602923703544, -13696.165525456134, 4444.711440171175, -8210.019255878837, -13672.942062967071, 18181.98182368062, -8099.244010358336, -19358.68941053026, 360.3101206195499, 0.09125, 0.9392500000000001, 0.0345, 192.0, 0.0, 0.0, 0.0, 0.0, 0.0, 0.0, 0.0, 0.0, 0.0, 1.662506569813203E9, 0.0, 2022-09-06 19:22:49.813
214.0, -6566.428430846743, -5040.966575260946, -24832.58692414605, -20389.730678764663, 1342.3563650079209, 7893.362092180502, 36755.2756375403, 22495.086192498948, -14212.401415395907, 3706.5227277902045, -8912.355770153496, -14311.464346821827, 17639.68379970596, -9021.49933832876, -20264.33739237039, -322.2227480677066, 0.09125, 0.9392500000000001, 0.0345, 192.0, 0.0, 0.0, 0.0, 0.0, 0.0, 0.0, 0.0, 0.0, 0.0, 1.6625065698132093E9, 0.0, 2022-09-06 19:22:49.813
216.0, -6050.326651373703, -4637.830512265028, -24099.494409500887, -20081.500122725978, 1667.1719154324433, 8290.731405106952, 27951.28112450613, 23587.550054496536, -13777.972910162558, 4415.363599701357, -8259.416611125065, -13729.939011328104, 18115.261866481527, -8118.2206414008915, -19360.321087875498, 287.51048892861473, 0.09125, 0.9392500000000001, 0.0345, 192.0, 0.0, 0.0, 0.0, 0.0, 0.0, 0.0, 0.0, 0.0, 0.0, 1.6625065698132148E9, 0.0, 2022-09-06 19:22:49.813
218.0, -6653.51082724462, -5142.644660788138, -24844.567459174094, -20512.86643896895, 1237.0796486234246, 7786.878381595419, 38019.6244143992, 22707.24895086872, -14123.799100375069, 3796.9355341119212, -8829.74372264668, -14221.29740968912, 17739.327876487718, -8974.940654628355, -20184.161685009203, -264.3540816729166, 0.09125, 0.9392500000000001, 0.0345, 192.0, 0.0, 0.0, 0.0, 0.0, 0.0, 0.0, 0.0, 0.0, 0.0, 1.6625065698132207E9, 0.0, 2022-09-06 19:22:49.813
220.0, -5997.75534841482, -4545.450752431244, -24057.741350858374, -19988.226293113985, 1793.5039750938388, 8377.366766615722, 27025.136593000483, 23316.199876809107, -13878.51105672253, 4352.443439059668, -8352.824551203794, -13836.176852724178, 18001.22326627055, -8202.53142148631, -19394.943940036766, 146.11335350434226, 0.059625, 0.9316250000000001, 0.02425, 192.0, 0.0, 112.0, 14.0, 112.0, 0.0, 56.0, 0.0, 0.0, 0.0, 1.6625065698132265E9, 0.0, 2022-09-06 19:22:49.813
222.0, -6744.437723688809, -5241.0370398804, -24863.655848938924, -20624.871030434493, 1150.0196039700036, 7692.554019994023, 38901.89247153908, 22933.20273556742, -14023.685636959748, 3902.7263406188895, -8758.151085156333, -14136.69605692578, 17804.349101108208, -8908.511270107183, -20067.798503374877, -188.20168831368548, 0.059625, 0.9316250000000001, 0.02425, 192.0, 0.0, 0.0, 0.0, 0.0, 0.0, 0.0, 0.0, 0.0, 0.0, 1.6625065698132324E9, 0.0, 2022-09-06 19:22:49.813
224.0, -5975.023624303773, -4486.464498813689, -24074.4828074554, -19885.52002734185, 1908.8613282276785, 8438.901119101181, 26469.159301419175, 23034.567896672237, -13994.136630789833, 4267.305644429403, -8493.081747660846, -13983.452496940195, 17864.944680326545, -8281.008396268893, -19441.815548159546, 67.59167523284856, 0.059625, 0.9316250000000001, 0.02425, 192.0, 0.0, 0.0, 0.0, 0.0, 0.0, 0.0, 0.0, 0.0, 0.0, 1.6625065698132381E9, 0.0, 2022-09-06 19:22:49.813
226.0, -6808.050788408612, -5323.403218198207, -24903.352547091552, -20695.457839424354, 1110.0993883728252, 7586.226771620128, 39393.31792513346, 23161.01171505591, -13918.364217086342, 4013.6356966061235, -8679.897627818302, -14064.388163612863, 17873.415991475107, -8796.149050730355, -19952.75407466341, -8.694828593114448, 0.059625, 0.9316250000000001, 0.02425, 192.0, 0.0, 0.0, 0.0, 0.0, 0.0, 0.0, 0.0, 0.0, 0.0, 1.662506569813244E9, 0.0, 2022-09-06 19:22:49.813
228.0, -5986.244200020337, -4477.635559753842, -24167.756637067396, -19813.994445084863, 1995.8319659032782, 8433.737866132005, 26367.302401936344, 22739.480166373276, -14096.395861672863, 4142.649965602156, -8622.341885845886, -14139.065341838044, 17734.566954918737, -8386.016891719924, -19547.025209310676, 60.93085538516705, 0.059625, 0.9316250000000001, 0.02425, 192.0, 0.0, 0.0, 0.0, 0.0, 0.0, 0.0, 0.0, 0.0, 0.0, 1.6625065698132498E9, 0.0, 2022-09-06 19:22:49.813
230.0, -6810.353018087509, -5348.906558621712, -24868.819101908102, -20713.786269877706, 1095.4813474990544, 7547.155922312251, 39493.38668505987, 23429.031482819497, -13808.572448321875, 4092.067967899796, -8580.275902780999, -13993.510781945084, 17967.002745509475, -8671.135743991821, -19827.53960222478, 197.8352901739228, 0.0688125, 0.9788125000000001, 0.042124999999999996, 192.0, 1.0, 56.0, 16.0, 8.0, 0.5, 112.0, 0.0, 0.0, 0.0, 1.6625065698132567E9, 0.0, 2022-09-06 19:22:49.813
232.0, -6008.372427031091, -4468.985434649639, -24232.643751221152, -19757.9139182465, 2021.7599894714344, 8454.457933242074, 26723.34333936493, 22513.92871307477, -14179.924330702344, 3996.938943498009, -8736.335782567952, -14286.586855243071, 17639.68379970596, -8495.160459895189, -19653.441864662393, 45.776372644468864, 0.0688125, 0.9788125000000001, 0.042124999999999996, 192.0, 0.0, 0.0, 0.0, 0.0, 0.0, 0.0, 0.0, 0.0, 0.0, 1.6625065698132627E9, 0.0, 2022-09-06 19:22:49.813
234.0, -6804.653323251406, -5361.647052961237, -24833.63745613545, -20716.647293167985, 1046.9110067976721, 7537.20939602964, 39262.82844100338, 23645.083444724496, -13724.887517081204, 4147.880273804698, -8498.982608197048, -13929.80831024746, 18033.38742654174, -8563.042707805957, -19740.0101709378, 356.532675806603, 0.0688125, 0.9788125000000001, 0.042124999999999996, 192.0, 0.0, 0.0, 0.0, 0.0, 0.0, 0.0, 0.0, 0.0, 0.0, 1.6625065698132684E9, 0.0, 2022-09-06 19:22:49.813
236.0, -6021.202328348438, -4465.8785421703515, -24312.238313226502, -19719.290103827727, 2031.9076814541438, 8461.968119379058, 27513.07517445984, 22332.65606554223, -14250.131160036464, 3860.436840109449, -8840.18198730731, -14414.327074805151, 17552.13201667452, -8621.291353856486, -19799.801087355743, -1.6093256007821086, 0.0688125, 0.9788125000000001, 0.042124999999999996, 192.0, 0.0, 0.0, 0.0, 0.0, 0.0, 0.0, 0.0, 0.0, 0.0, 1.6625065698132741E9, 0.0, 2022-09-06 19:22:49.813
238.0, -6723.315325178543, -5305.566526122871, -24753.081769118522, -20670.80386529015, 1090.854536396806, 7590.920637955742, 38577.74747344822, 23866.76804623223, -13623.812928654306, 4221.082236895828, -8390.017853977424, -13850.347858708843, 18143.73798891759, -8420.438578181098, -19630.821899273622, 481.21070637830576, 0.0688125, 0.9788125000000001, 0.042124999999999996, 192.0, 0.0, 0.0, 0.0, 0.0, 0.0, 0.0, 0.0, 0.0, 0.0, 1.66250656981328E9, 0.0, 2022-09-06 19:22:49.813
240.0, -6046.012764693829, -4491.694807016231, -24421.717157568593, -19743.586450050647, 2009.2430125764624, 8444.53375870392, 28631.534115258946, 22182.407639313657, -14271.00768935772, 3750.1309812225086, -8906.544316595116, -14463.679726562468, 17536.195222877886, -8706.92088686477, -19929.217687751974, -84.24372485205232, 0.10340625, 0.97940625, 0.0510625, 192.0, 2.0, 40.0, 15.0, 80.0, 0.5, 112.0, 0.0, 0.0, 0.0, 1.6625065698132856E9, 0.0, 2022-09-06 19:22:49.813
242.0, -6660.395164536854, -5262.405307579674, -24714.83793435549, -20694.161438245945, 1099.0576266119035, 7651.829141596454, 37541.09591735553, 23986.30517557921, -13570.705183828495, 4278.436813168146, -8318.067588575792, -13760.67265995415, 18214.101280462895, -8305.55061168082, -19586.610148741027, 461.429412535359, 0.10340625, 0.97940625, 0.0510625, 192.0, 0.0, 0.0, 0.0, 0.0, 0.0, 0.0, 0.0, 0.0, 0.0, 1.6625065702935848E9, 0.0, 2022-09-06 19:22:50.293
244.0, -6150.194245600015, -4583.292255794079, -24568.992801784614, -19907.55884737478, 1887.4707087839497, 8371.890589224171, 30092.220615413265, 22028.001788616395, -14341.862719281045, 3643.557863659604, -8994.900762426945, -14515.088738809674, 17474.102076781044, -8841.65720244136, -20115.608884764777, -323.5191492461144, 0.10340625, 0.97940625, 0.0510625, 192.0, 0.0, 0.0, 0.0, 0.0, 0.0, 0.0, 0.0, 0.0, 0.0, 1.6625065702937021E9, 0.0, 2022-09-06 19:22:50.293
246.0, -6577.537247841031, -5191.371463700708, -24638.77494797408, -20699.592912148586, 1125.298574602434, 7733.033029202585, 36162.12739492982, 24033.80263254674, -13557.808227277785, 4349.5377122804775, -8254.074544200248, -13707.85548780626, 18237.078873762952, -8224.324372330233, -19525.38872067794, 354.58807403899124, 0.10340625, 0.97940625, 0.0510625, 192.0, 0.0, 0.0, 0.0, 0.0, 0.0, 0.0, 0.0, 0.0, 0.0, 1.6625065702937748E9, 0.0, 2022-09-06 19:22:50.293
248.0, -6236.382572219679, -4678.108355773492, -24685.691259585772, -20032.214526202028, 1770.7498992383362, 8295.335864464745, 31740.639417247705, 21971.183654211003, -14343.382637904006, 3613.897098767412, -9020.180585405897, -14514.105262053641, 17462.255652219734, -8929.834834317546, -20202.42306022919, -478.66260751040073, 0.10340625, 0.97940625, 0.0510625, 192.0, 0.0, 0.0, 0.0, 0.0, 0.0, 0.0, 0.0, 0.0, 0.0, 1.6625065702937803E9, 0.0, 2022-09-06 19:22:50.293
250.0, -6474.451002413154, -5107.708884204493, -24558.71099933517, -20637.008027673724, 1179.5015549065538, 7821.300068056592, 34606.06600118471, 24011.85321949163, -13564.35728840319, 4405.037093763005, -8221.396293806589, -13667.801161742349, 18237.883536563342, -8163.639386134075, -19450.80094943058, 305.3024775150392, 0.094703125, 0.9237031250000001, 0.03953125, 192.0, 1.0, 88.0, 13.5, 16.0, 0.0, 112.0, 0.0, 0.0, 0.0, 1.6625065702937896E9, 0.0, 2022-09-06 19:22:50.293
252.0, -6324.984887240516, -4784.681473336395, -24795.259510905686, -20150.6564200707, 1647.725897756326, 8162.477095422399, 33588.659297068036, 21966.24391868638, -14339.426379135417, 3595.3227991250515, -9039.648954826469, -14479.705927336923, 17457.874710306492, -8997.78413746168, -20266.19258716018, -540.8228088406097, 0.094703125, 0.9237031250000001, 0.03953125, 192.0, 0.0, 0.0, 0.0, 0.0, 0.0, 0.0, 0.0, 0.0, 0.0, 1.6625065702937956E9, 0.0, 2022-09-06 19:22:50.293
254.0, -6347.984832285027, -4988.574086257707, -24448.047512536945, -20505.468011554243, 1295.037721996036, 7917.144348280949, 32981.34004847289, 23912.007977009773, -13581.165800233579, 4429.892233597307, -8198.843383651183, -13630.674914202085, 18219.51040262108, -8108.4752808183775, -19394.251035958652, 310.59984095094694, 0.094703125, 0.9237031250000001, 0.03953125, 192.0, 0.0, 0.0, 0.0, 0.0, 0.0, 0.0, 0.0, 0.0, 0.0, 1.6625065702938015E9, 0.0, 2022-09-06 19:22:50.293
0.0, -6424.405446577722, -4901.469338115375, -24860.72777041528, -20252.289802108982, 1503.959477419791, 8041.554157919188, 35440.68013914587, 22042.105739367693, -14309.586800287581, 3579.6765780063365, -9027.623716309514, -14423.826566198655, 17476.89604483796, -9047.203844452362, -20303.274131211536, -501.48373859926926, 0.094703125, 0.9237031250000001, 0.03953125, 192.0, 0.0, 0.0, 0.0, 0.0, 0.0, 0.0, 0.0, 0.0, 0.0, 1.6625065702938073E9, 0.0, 2022-09-06 19:22:50.293
2.0, -6235.4661506970115, -4874.088451157624, -24328.599790167784, -20351.799768424007, 1414.641906576384, 8045.622175410053, 31437.527410689287, 23743.766396494677, -13634.161786337112, 4414.603640389877, -8214.377846047622, -13635.815815426806, 18158.847768169377, -8092.940818421939, -19365.350230377942, 323.8767771573993, 0.094703125, 0.9237031250000001, 0.03953125, 192.0, 0.0, 0.0, 0.0, 0.0, 0.0, 0.0, 0.0, 0.0, 0.0, 1.662506570293813E9, 0.0, 2022-09-06 19:22:50.293
4.0, -6528.452817017176, -5019.486548839396, -24897.250520855254, -20358.438236527236, 1387.7304062521944, 7919.4689297043005, 37145.87237189679, 22176.327964821812, -14248.946517580334, 3621.2508226932077, -8985.356567544528, -14358.559472389159, 17528.46151929635, -9036.162082691442, -20269.92532848422, -415.04954279059683, 0.094703125, 0.9237031250000001, 0.03953125, 192.0, 0.0, 0.0, 0.0, 0.0, 0.0, 0.0, 0.0, 0.0, 0.0, 1.6625065702938187E9, 0.0, 2022-09-06 19:22:50.293
6.0, -6126.568451710756, -4748.292833363156, -24236.018864633905, -20211.47551673359, 1556.7095943343156, 8153.223473217902, 30071.411141325374, 23530.46369915768, -13705.57560987182, 4389.3908726442905, -8270.72659381945, -13707.721377339529, 18087.34453765685, -8111.336304108657, -19339.01987540959, 273.94298004424337, 0.052000000000000005, 0.89, 0.02, 192.0, 0.5, 80.0, 13.5, 104.0, 0.0, 80.0, 0.0, 0.0, 0.0, 1.66250657029383E9, 0.0, 2022-09-06 19:22:50.293
8.0, -6630.957917089215, -5136.967317696491, -24937.304846919164, -20487.184284589803, 1254.5587127874749, 7777.535352413101, 38627.25658741672, 22339.160423178724, -14154.823321679036, 3705.9415824343664, -8929.09722675052, -14289.872561678001, 17608.48076444635, -9008.758843989235, -20203.89827536324, -341.4005448103601, 0.052000000000000005, 0.89, 0.02, 192.0, 0.0, 0.0, 0.0, 0.0, 0.0, 0.0, 0.0, 0.0, 0.0, 1.6625065702938356E9, 0.0, 2022-09-06 19:22:50.293
10.0, -6048.985546706384, -4644.82660827954, -24165.36500041068, -20073.721715655534, 1675.7102818143705, 8249.693602287007, 28949.465328391234, 23259.56055635936, -13799.430584839653, 4357.67374726221, -8362.346394341756, -13817.848422270827, 18003.212571527074, -8155.905682552539, -19349.525195303584, 204.47375827714902, 0.052000000000000005, 0.89, 0.02, 192.0, 0.0, 0.0, 0.0, 0.0, 0.0, 0.0, 0.0, 0.0, 0.0, 1.6625065702938411E9, 0.0, 2022-09-06 19:22:50.293
12.0, -6708.406711626853, -5232.856301409758, -24949.821823814134, -20580.2569485017, 1176.6181798718192, 7671.990415095141, 39755.12561263151, 22563.259013087634, -14047.870224460392, 3831.178406617452, -8846.015792610144, -14194.09533668701, 17724.41926293603, -8930.10305525101, -20099.090945612304, -192.7390924381128, 0.052000000000000005, 0.89, 0.02, 192.0, 0.0, 0.0, 0.0, 0.0, 0.0, 0.0, 0.0, 0.0, 0.0, 1.6625065702938468E9, 0.0, 2022-09-06 19:22:50.293
14.0, -6012.216927077405, -4585.57213372852, -24166.39318065562, -19972.311851061804, 1814.1569869705424, 8318.536975209354, 28192.411743689987, 23004.12482072411, -13899.253475577054, 4292.160784263705, -8461.34227053431, -13922.633400277306, 17934.50330907146, -8225.173738619535, -19383.566902109018, 178.74690040909059, 0.052000000000000005, 0.89, 0.02, 192.0, 0.0, 0.0, 0.0, 0.0, 0.0, 0.0, 0.0, 0.0, 0.0, 1.6625065702938523E9, 0.0, 2022-09-06 19:22:50.293
16.0, -6775.0819653370345, -5318.0611512733885, -24966.764446111258, -20668.81456003363, 1113.854481441317, 7569.597073745379, 40596.62408788491, 22815.878428921515, -13961.324269929442, 3912.0246663122975, -8767.427059105285, -14102.631998375893, 17837.496738135425, -8861.349089306485, -19990.70733674852, -29.884282336745542, 0.076, 0.988, 0.048, 192.0, 1.0, 48.0, 15.0, 112.0, 0.5, 64.0, 0.0, 0.0, 0.0, 1.662506570293858E9, 0.0, 2022-09-06 19:22:50.293
18.0, -5985.886572109052, -4526.138845221859, -24192.12003852368, -19879.26153889436, 1916.4609213424828, 8371.75647875744, 27890.752600521162, 22731.63470406946, -14003.39025299433, 4194.595419716289, -8562.12628628329, -14031.106416118912, 17853.43353193206, -8323.342600267244, -19455.9418506553, 127.96373700663294, 0.076, 0.988, 0.048, 192.0, 0.0, 0.0, 0.0, 0.0, 0.0, 0.0, 0.0, 0.0, 0.0, 1.6625065702938635E9, 0.0, 2022-09-06 19:22:50.293
20.0, -6800.741767971727, -5356.170875569686, -24947.07255924613, -20711.4393367099, 1072.883733854739, 7530.258003504039, 41001.81651137072, 23059.780664417824, -13855.354649466832, 4029.0807520247404, -8659.803409552982, -13983.72071787366, 17967.27096644294, -8757.659346778315, -19888.157533187572, 100.09111167086503, 0.076, 0.988, 0.048, 192.0, 0.0, 0.0, 0.0, 0.0, 0.0, 0.0, 0.0, 0.0, 0.0, 1.6625065702938693E9, 0.0, 2022-09-06 19:22:50.293
22.0, -5987.920580854486, -4491.605400038409, -24230.07330060879, -19807.132459537086, 1968.4957824344376, 8412.28019145491, 27988.429723790854, 22469.96283173118, -14100.240361719176, 4104.808462239321, -8668.05120325699, -14116.043045049079, 17781.90794967508, -8437.112979544758, -19570.181616566377, 39.58493943034881, 0.076, 0.988, 0.048, 192.0, 0.0, 0.0, 0.0, 0.0, 0.0, 0.0, 0.0, 0.0, 0.0, 1.6625065702938747E9, 0.0, 2022-09-06 19:22:50.293
24.0, -6801.591134261029, -5374.20873334512, -24889.382706806984, -20734.416930009953, 1039.1996549605913, 7522.367837711316, 41035.16531409804, 23323.441842012628, -13749.094456326302, 4151.30009070636, -8549.318736710398, -13843.418817927697, 18089.892636524753, -8637.272851142032, -19785.786543582268, 199.77989194153452, 0.076, 0.988, 0.048, 192.0, 0.0, 0.0, 0.0, 0.0, 0.0, 0.0, 0.0, 0.0, 0.0, 1.6625065702938805E9, 0.0, 2022-09-06 19:22:50.293
26.0, -6006.494880496845, -4487.783251736552, -24302.04591775488, -19788.513456405813, 1985.7513291539346, 8426.630011395218, 28546.105747950765, 22244.031398776937, -14189.133249417931, 3985.874829992632, -8773.171457430299, -14188.865028484468, 17711.544658129773, -8560.494608938052, -19710.81879267917, -77.1805736041753, 0.114, 1.01, 0.074, 192.0, 1.5, 72.0, 15.5, 72.0, 1.0, 40.0, 0.0, 0.0, 0.0, 1.662506570293886E9, 0.0, 2022-09-06 19:22:50.293
28.0, -6769.181104800833, -5344.995003342033, -24826.57430488757, -20775.857064230095, 1013.4504453480776, 7530.973259326609, 40670.78717598762, 23528.56380087898, -13673.590263556274, 4247.189074419627, -8443.215005781056, -13718.42786293362, 18197.672748288245, -8518.585088084352, -19704.202676320398, 243.61166281839166, 0.114, 1.01, 0.074, 192.0, 0.0, 0.0, 0.0, 0.0, 0.0, 0.0, 0.0, 0.0, 0.0, 1.6625065702938917E9, 0.0, 2022-09-06 19:22:50.293
30.0, -6031.998220920351, -4476.875600442362, -24360.96511613907, -19839.989523886386, 1969.613369657203, 8428.865185840748, 29490.89163433214, 22049.660628993588, -14251.896947848434, 3919.8254251271997, -8844.51822573164, -14231.892136560935, 17660.157997627022, -8669.90639804678, -19854.339343826694, -257.42504089177146, 0.114, 1.01, 0.074, 192.0, 0.0, 0.0, 0.0, 0.0, 0.0, 0.0, 0.0, 0.0, 0.0, 1.6625065702938972E9, 0.0, 2022-09-06 19:22:50.293
32.0, -6722.577717611518, -5304.963029022579, -24750.17604233933, -20822.818079330693, 1007.8178057453401, 7579.230675605617, 39907.65391679453, 23692.64795692539, -13609.194887780535, 4364.692195021176, -8344.822626688794, -13620.326056519278, 18277.781400416065, -8404.926467529114, -19610.25829437474, 206.84304318941156, 0.114, 1.01, 0.074, 192.0, 0.0, 0.0, 0.0, 0.0, 0.0, 0.0, 0.0, 0.0, 0.0, 1.6625065702939029E9, 0.0, 2022-09-06 19:22:50.293
34.0, -6094.046663528284, -4517.712237562208, -24472.634431437786, -19919.18175449154, 1884.4979267713938, 8389.548467343864, 30784.38708596076, 21900.350976032136, -14304.334140340585, 3859.6768807979684, -8917.608430100492, -14283.301148808141, 17612.794651126223, -8781.441602878762, -19987.399278569137, -443.32449952656026, 0.114, 1.01, 0.074, 192.0, 0.0, 0.0, 0.0, 0.0, 0.0, 0.0, 0.0, 0.0, 0.0, 1.6625065702939084E9, 0.0, 2022-09-06 19:22:50.293
36.0, -6641.418533494299, -5239.628879979716, -24690.765105577124, -20790.028070214757, 1046.6427858642085, 7639.222757723661, 38726.96771943184, 23793.029641274174, -13558.501131355899, 4475.802716708507, -8258.030802968837, -13546.721762027952, 18340.455691868745, -8287.535105649842, -19520.29252294213, 197.61177272936973, 0.064, 0.912, 0.046, 192.0, 1.0, 0.0, 14.0, 64.0, 0.5, 56.0, 0.0, 0.0, 0.0, 1.662506570293914E9, 0.0, 2022-09-06 19:22:50.293
38.0, -6174.17766740056, -4606.850994449973, -24616.467907007685, -20004.43130784408, 1785.7255680233918, 8309.104539049213, 32298.494255363257, 21785.55241650968, -14339.336972157595, 3791.7052259093794, -8967.206951046819, -14323.131957427498, 17591.62754912705, -8878.984615681722, -20097.97335838954, -560.5593991946458, 0.064, 0.912, 0.046, 192.0, 0.0, 0.0, 0.0, 0.0, 0.0, 0.0, 0.0, 0.0, 0.0, 1.6625065702939212E9, 0.0, 2022-09-06 19:22:50.293
40.0, -6548.234110860123, -5169.69027157906, -24617.473735508174, -20720.20122053638, 1087.1217950727696, 7708.870793446397, 37211.22887268411, 23821.170487543404, -13562.725611057951, 4512.325467148479, -8211.650933224075, -13510.57899124372, 18365.82492182552, -8211.047436123781, -19457.99821114519, 195.2648395615625, 0.064, 0.912, 0.046, 192.0, 0.0, 0.0, 0.0, 0.0, 0.0, 0.0, 0.0, 0.0, 0.0, 1.6625065702939267E9, 0.0, 2022-09-06 19:22:50.293
42.0, -6262.71292718803, -4706.383312509455, -24723.66687341534, -20089.770268174445, 1683.8463167961022, 8180.917284598027, 34021.54553193397, 21753.008276582754, -14363.342745702595, 3716.8715854730112, -9020.180585405897, -14330.351570886562, 17571.198054694898, -8976.505276740227, -20208.05569983193, -627.2793563937374, 0.064, 0.912, 0.046, 192.0, 0.0, 0.0, 0.0, 0.0, 0.0, 0.0, 0.0, 0.0, 0.0, 1.6625065702939324E9, 0.0, 2022-09-06 19:22:50.293
44.0, -6407.082844624859, -5034.5516246022735, -24477.708277429138, -20565.750666350206, 1207.1506627977685, 7811.621762707444, 35558.42912893643, 23783.150170224926, -13553.047305708804, 4551.642185645364, -8171.842476349173, -13448.642307358064, 18370.719953861233, -8124.2109089149135, -19375.54262584956, 250.47364836617095, 0.064, 0.912, 0.046, 192.0, 0.0, 0.0, 0.0, 0.0, 0.0, 0.0, 0.0, 0.0, 0.0, 1.662506570293938E9, 0.0, 2022-09-06 19:22:50.293
46.0, -6353.952748054594, -4805.580354402108, -24780.686173520826, -20172.382315681258, 1559.995300769246, 8067.057498342693, 35822.537341420335, 21800.17045738345, -14311.129070654997, 3719.1961668963636, -8995.526611271693, -14272.035869602665, 17605.664444644983, -9009.272934111706, -20218.158688325726, -559.7547363942548, 0.068, 0.896, 0.034, 192.0, 1.0, 16.0, 14.0, 0.0, 0.5, 8.0, 0.0, 0.0, 0.0, 1.6625065702939436E9, 0.0, 2022-09-06 19:22:50.293
48.0, -6297.872221216228, -4923.150530237023, -24357.075912603847, -20434.07653976399, 1331.2922515025439, 7926.487377463267, 33924.27074006447, 23658.29332569758, -13592.296968972323, 4566.394336985867, -8167.841514091673, -13464.221473243413, 18335.828880766498, -8098.528754535766, -19308.82266865047, 282.9060295708215, 0.068, 0.896, 0.034, 192.0, 0.0, 0.0, 0.0, 0.0, 0.0, 0.0, 0.0, 0.0, 0.0, 1.6625065702939491E9, 0.0, 2022-09-06 19:22:50.293
50.0, -6467.6784238431965, -4932.40415244152, -24830.664674122894, -20291.807686305965, 1458.6971948977941, 7951.722496953309, 37587.94517373385, 21899.68042369848, -14272.77347716969, 3751.4497341453716, -8973.644253449947, -14248.030096057666, 17648.199814343432, -9044.678097328913, -20203.361833496314, -512.3690381490038, 0.068, 0.896, 0.034, 192.0, 0.0, 0.0, 0.0, 0.0, 0.0, 0.0, 0.0, 0.0, 0.0, 1.6625065702939548E9, 0.0, 2022-09-06 19:22:50.293
52.0, -6209.359313173212, -4818.946697586382, -24265.813739992827, -20306.291616713002, 1470.7000816702941, 8037.8661200840625, 32403.770971747756, 23469.488140283604, -13662.3249843508, 4557.498342692655, -8210.53334600131, -13529.53327054182, 18268.192502044738, -8111.917449464495, -19274.780961845037, 231.9217004682661, 0.068, 0.896, 0.034, 192.0, 0.0, 0.0, 0.0, 0.0, 0.0, 0.0, 0.0, 0.0, 0.0, 1.6625065702939603E9, 0.0, 2022-09-06 19:22:50.293
54.0, -6596.178602716756, -5065.687604628516, -24915.42248909742, -20426.14167048236, 1335.583786437963, 7801.87640212493, 39194.20858552559, 22026.392463015614, -14224.560764379594, 3800.0871300801196, -8952.454799706316, -14201.113784445977, 17677.078268179688, -9037.436132125395, -20177.254995972515, -475.9580464313086, 0.068, 0.896, 0.034, 192.0, 0.0, 0.0, 0.0, 0.0, 0.0, 0.0, 0.0, 0.0, 0.0, 1.6625065702939663E9, 0.0, 2022-09-06 19:22:50.293
56.0, -6120.041742329806, -4698.023760083171, -24207.721556153483, -20165.743847578033, 1621.3061358101531, 8135.029153231282, 31050.32814149, 23241.969733473034, -13746.076970824835, 4529.022220256594, -8283.511791647887, -13605.953884834515, 18181.043050413497, -8120.813443757706, -19264.208586717676, 172.37665323932808, 0.042, 0.96, 0.042, 192.0, 0.5, 40.0, 15.0, 0.0, 0.5, 40.0, 0.0, 0.0, 0.0, 1.6625065702939715E9, 0.0, 2022-09-06 19:22:50.293
58.0, -6695.643865542873, -5179.078004250289, -24974.00641131478, -20545.58939285152, 1228.4295235192208, 7662.200351023716, 40511.10631359891, 22223.4454421336, -14127.733007399203, 3867.879971013066, -8893.535601322128, -14130.459920222751, 17758.37156276364, -8991.548000758648, -20109.082175383828, -359.1701816523292, 0.042, 0.96, 0.042, 192.0, 0.0, 0.0, 0.0, 0.0, 0.0, 0.0, 0.0, 0.0, 0.0, 1.6625065702939775E9, 0.0, 2022-09-06 19:22:50.293
60.0, -6051.511293829834, -4608.4603200507545, -24189.63899488914, -20048.44189267658, 1752.1755995959759, 8210.823918679229, 30002.120733513922, 22973.480579075884, -13844.961088295113, 4419.185748003215, -8390.241371421978, -13743.10418881228, 18072.57003457189, -8195.311808027245, -19314.030625108557, 122.10757995934249, 0.042, 0.96, 0.042, 192.0, 0.0, 0.0, 0.0, 0.0, 0.0, 0.0, 0.0, 0.0, 0.0, 1.6625065702939827E9, 0.0, 2022-09-06 19:22:50.293
62.0, -6753.512531937663, -5256.280929598919, -24988.04330683271, -20635.689274750865, 1157.2615691735232, 7552.520340981525, 41489.71038934116, 22463.413770605777, -14007.72649141866, 3930.4425037434703, -8801.558172888539, -14051.692372762249, 17858.14975001213, -8911.081720719543, -20015.718938794013, -212.07335139195342, 0.042, 0.96, 0.042, 192.0, 0.0, 0.0, 0.0, 0.0, 0.0, 0.0, 0.0, 0.0, 0.0, 1.6625065702939887E9, 0.0, 2022-09-06 19:22:50.293
64.0, -6013.513328255812, -4550.636357144876, -24204.324090996277, -19958.766693921887, 1834.653536636059, 8253.783971522329, 29313.530542079276, 22698.755287975706, -13930.031827692012, 4311.785615895465, -8476.228532341544, -13855.153483766733, 17968.477960643526, -8273.162933965079, -19389.668928345316, 67.45756476611672, 0.042, 0.96, 0.042, 192.0, 0.0, 0.0, 0.0, 0.0, 0.0, 0.0, 0.0, 0.0, 0.0, 1.6625065702939942E9, 0.0, 2022-09-06 19:22:50.293
66.0, -6791.197573089311, -5316.38477043924, -24974.699315392892, -20704.80086860667, 1091.592143963831, 7485.710976804612, 42088.46891980993, 22717.195477151334, -13900.683987222194, 3997.810661531766, -8704.931581608245, -13937.720827784638, 17935.956172461054, -8832.448283725773, -19957.24677529893, -94.9502104461444, 0.092, 1.01, 0.066, 192.0, 1.0, 112.0, 15.5, 72.0, 1.0, 8.0, 0.0, 0.0, 0.0, 1.662506570294E9, 0.0, 2022-09-06 19:22:50.294
68.0, -5984.5901709306445, -4494.980513451161, -24210.381413743668, -19864.397628831583, 1905.2179938814634, 8331.143359082145, 29022.711994971276, 22446.91818319776, -14015.482546744652, 4195.824765661331, -8580.342958014364, -13932.691685282194, 17873.05836356382, -8368.604882789241, -19489.402412104897, -8.359552426284841, 0.092, 1.01, 0.066, 192.0, 0.0, 0.0, 0.0, 0.0, 0.0, 0.0, 0.0, 0.0, 0.0, 1.6625065702940054E9, 0.0, 2022-09-06 19:22:50.294
70.0, -6813.504614055707, -5361.959977383612, -24949.50889939176, -20764.748247235806, 1018.2560704059686, 7453.90444444471, 42285.723064628015, 22971.15599765253, -13802.358663363299, 4082.3002555728267, -8615.099920642368, -13819.390692638242, 18044.04920864692, -8696.1026425484, -19862.363620086147, 7.599593114804401, 0.092, 1.01, 0.066, 192.0, 0.0, 0.0, 0.0, 0.0, 0.0, 0.0, 0.0, 0.0, 0.0, 1.6625065702940133E9, 0.0, 2022-09-06 19:22:50.294
72.0, -5993.016778590296, -4479.177830121259, -24288.590167592785, -19854.585213015704, 1912.459959084983, 8345.873158678194, 29210.757221073774, 22189.42608707262, -14116.333617726998, 4066.832848409754, -8699.43305247224, -14032.268706830588, 17776.90115891709, -8462.795133923904, -19635.761634798248, -147.96854829413275, 0.092, 1.01, 0.066, 192.0, 0.0, 0.0, 0.0, 0.0, 0.0, 0.0, 0.0, 0.0, 0.0, 1.6625065702940187E9, 0.0, 2022-09-06 19:22:50.294
74.0, -6803.267515095176, -5371.526524010483, -24920.205762410853, -20826.975503799382, 980.2134013430359, 7441.409819294193, 42086.0325796643, 23210.096145879765, -13716.393854188187, 4171.997806071974, -8515.053512460412, -13712.2364297195, 18129.49992769956, -8599.587809990384, -19796.58243615418, 34.84636960582371, 0.092, 1.01, 0.066, 192.0, 0.0, 0.0, 0.0, 0.0, 0.0, 0.0, 0.0, 0.0, 0.0, 1.6625065702940245E9, 0.0, 2022-09-06 19:22:50.294
76.0, -6011.009932876817, -4476.786193464541, -24353.320819535355, -19866.655155021566, 1931.3695348941726, 8343.83914993276, 29826.72659477313, 21960.387761639093, -14203.52777284715, 3963.8360099596994, -8796.417271663819, -14113.047911292066, 17694.333814899186, -8589.373062774308, -19769.358011407618, -323.563852735025, 0.08499999999999999, 0.988, 0.064, 192.0, 1.0, 56.0, 15.0, 24.0, 0.5, 120.0, 0.0, 0.0, 0.0, 1.66250657029403E9, 0.0, 2022-09-06 19:22:50.294
78.0, -6768.287035022621, -5349.778276655469, -24840.857069594513, -20865.040524606768, 967.5176104924216, 7448.0035839085085, 41428.3772025558, 23391.033517245476, -13648.198681855045, 4294.463013942601, -8408.972133275525, -13606.132698790158, 18218.214001442673, -8476.250884086, -19666.472931679837, 54.448849493128, 0.08499999999999999, 0.988, 0.064, 192.0, 0.0, 0.0, 0.0, 0.0, 0.0, 0.0, 0.0, 0.0, 0.0, 1.6625065702940357E9, 0.0, 2022-09-06 19:22:50.294
80.0, -6060.317881145225, -4499.294400131035, -24434.83763156386, -19910.956312531987, 1909.263659627874, 8315.765358896895, 30813.645519452755, 21757.635087685, -14274.673375448392, 3887.3036369447277, -8883.611426783971, -14186.585150550027, 17619.54487795173, -8726.232794074154, -19900.65215833809, -489.5479070601353, 0.08499999999999999, 0.988, 0.064, 192.0, 0.0, 0.0, 0.0, 0.0, 0.0, 0.0, 0.0, 0.0, 0.0, 1.6625065702940414E9, 0.0, 2022-09-06 19:22:50.294
82.0, -6691.0841096739905, -5281.538400833417, -24758.826167443534, -20826.863745077106, 1005.6049830442647, 7509.470881160603, 40310.47705536807, 23530.530754391046, -13579.73528858844, 4408.479262409122, -8316.637076930652, -13520.190241359502, 18280.351851028427, -8357.18314137258, -19568.795808410145, 91.30687609992935, 0.08499999999999999, 0.988, 0.064, 192.0, 0.0, 0.0, 0.0, 0.0, 0.0, 0.0, 0.0, 0.0, 0.0, 1.6625065702940469E9, 0.0, 2022-09-06 19:22:50.294
84.0, -6117.784216139819, -4549.317604222012, -24537.23097291362, -19949.110740317195, 1866.1247928291314, 8273.11823047617, 32066.72901710618, 21648.357409043005, -14310.480870065794, 3822.5282815132477, -8949.124389782475, -14228.539374892638, 17574.684926829927, -8807.347274702463, -20023.095014464263, -568.5613237096458, 0.08499999999999999, 0.988, 0.064, 192.0, 0.0, 0.0, 0.0, 0.0, 0.0, 0.0, 0.0, 0.0, 0.0, 1.6625065702940526E9, 0.0, 2022-09-06 19:22:50.294
86.0, -6610.684884868251, -5219.065275080833, -24657.997448205646, -20755.33816282012, 1076.728233901052, 7579.968283172641, 38850.952845925436, 23609.94650244075, -13543.614869548665, 4482.821164467474, -8248.53131157533, -13450.341039936668, 18329.749206274653, -8240.708201015974, -19469.91169093987, 168.2862840040069, 0.08049999999999999, 0.95, 0.053000000000000005, 192.0, 1.0, 48.0, 14.0, 64.0, 0.5, 40.0, 0.0, 0.0, 0.0, 1.662506570294058E9, 0.0, 2022-09-06 19:22:50.294
88.0, -6225.854900581229, -4661.657471854386, -24644.92167769929, -20032.505098879945, 1767.9782829258781, 8159.437258176477, 33598.8293407952, 21565.521844091636, -14344.79079780469, 3740.5420828511815, -9013.050378924654, -14260.591776441548, 17547.885185228013, -8908.220697429264, -20110.825611451342, -617.3104783666705, 0.08049999999999999, 0.95, 0.053000000000000005, 192.0, 0.0, 0.0, 0.0, 0.0, 0.0, 0.0, 0.0, 0.0, 0.0, 1.6625065702940638E9, 0.0, 2022-09-06 19:22:50.294
90.0, -6507.106901062358, -5130.530015293362, -24550.105577719878, -20659.35977212903, 1161.1284209642913, 7666.357775492404, 37216.14625646428, 23605.453801805237, -13543.369000359655, 4519.567432351999, -8215.271915825835, -13417.618086054097, 18333.325485387504, -8167.103906524648, -19387.903140533344, 201.52332800904847, 0.08049999999999999, 0.95, 0.053000000000000005, 192.0, 0.0, 0.0, 0.0, 0.0, 0.0, 0.0, 0.0, 0.0, 0.0, 1.6625065702940695E9, 0.0, 2022-09-06 19:22:50.294
92.0, -6320.380427882723, -4768.722327795306, -24730.014768840643, -20134.18318440714, 1667.6860055549153, 8062.855370385096, 35280.08285523449, 21554.636544541903, -14333.011428476744, 3720.850195986056, -9032.07171345612, -14255.473226961283, 17545.113568915556, -8981.467364009306, -20177.52321690598, -634.9013012529971, 0.08049999999999999, 0.95, 0.053000000000000005, 192.0, 0.0, 0.0, 0.0, 0.0, 0.0, 0.0, 0.0, 0.0, 0.0, 1.662506570294075E9, 0.0, 2022-09-06 19:22:50.294
94.0, -6391.928361884161, -5014.189185403488, -24440.35851244432, -20555.759436578686, 1275.68111129774, 7757.195264958771, 35510.194064401876, 23507.262588413072, -13559.328145900745, 4552.715069379219, -8199.536287729297, -13421.239068655857, 18317.679264268787, -8136.7725892987955, -19327.419320037287, 188.67107494724692, 0.08049999999999999, 0.95, 0.053000000000000005, 192.0, 0.0, 0.0, 0.0, 0.0, 0.0, 0.0, 0.0, 0.0, 0.0, 1.6625065702940807E9, 0.0, 2022-09-06 19:22:50.294
96.0, -6409.966219659594, -4856.028241637736, -24798.0534789626, -20251.798063730963, 1567.3490246950419, 7940.546624725655, 37012.79008540989, 21610.851181847, -14291.30307332314, 3734.775332781712, -9015.374960348006, -14226.795938825124, 17579.132923976533, -9037.234966425296, -20202.020728828997, -650.2122462048825, 0.06125, 0.9359999999999999, 0.044500000000000005, 192.0, 0.5, 40.0, 14.0, 104.0, 0.5, 16.0, 0.0, 0.0, 0.0, 1.6625065702940865E9, 0.0, 2022-09-06 19:22:50.294
98.0, -6284.282360587402, -4888.147698420013, -24335.57353443784, -20434.881202564386, 1403.8460140044706, 7887.617693855488, 33828.82879124031, 23371.632203058267, -13599.918913831581, 4579.023072603116, -8205.325389543223, -13446.09420849016, 18290.23132207767, -8105.949533694928, -19273.663374622272, 144.056993014454, 0.06125, 0.9359999999999999, 0.044500000000000005, 192.0, 0.0, 0.0, 0.0, 0.0, 0.0, 0.0, 0.0, 0.0, 0.0, 1.662506570294092E9, 0.0, 2022-09-06 19:22:50.294
100.0, -6559.119410409858, -5002.342760842176, -24895.01534640972, -20403.208780671215, 1435.898415553381, 7783.033881549107, 38651.351767939545, 21709.645892339457, -14252.366334481996, 3762.3126819506506, -9011.73162600179, -14203.304255402596, 17618.71786340688, -9056.591577123592, -20197.192752026647, -626.0500104486955, 0.06125, 0.9359999999999999, 0.044500000000000005, 192.0, 0.0, 0.0, 0.0, 0.0, 0.0, 0.0, 0.0, 0.0, 0.0, 1.6625065702940974E9, 0.0, 2022-09-06 19:22:50.294
102.0, -6203.994894503939, -4780.3899384009765, -24264.09265566977, -20302.871799811342, 1551.2334169427654, 7989.899276482974, 32293.755685538734, 23160.87760458918, -13700.345301669277, 4521.13205446387, -8292.385434196643, -13552.466160352966, 18190.900169718287, -8124.367371126101, -19279.81010434748, 87.35061733134, 0.06125, 0.9359999999999999, 0.044500000000000005, 192.0, 0.0, 0.0, 0.0, 0.0, 0.0, 0.0, 0.0, 0.0, 0.0, 1.6625065702941046E9, 0.0, 2022-09-06 19:22:50.294
104.0, -6649.688678942762, -5112.894488918125, -24940.188221953897, -20507.077337155028, 1310.2592599701, 7659.384031222347, 40089.0606747938, 21885.934100858463, -14180.125496402443, 3803.104615581586, -8966.804619646624, -14157.684344969315, 17675.89362572356, -9006.993056177265, -20157.138425962738, -510.98322999277474, 0.06125, 0.9359999999999999, 0.044500000000000005, 192.0, 0.0, 0.0, 0.0, 0.0, 0.0, 0.0, 0.0, 0.0, 0.0, 1.6625065702941103E9, 0.0, 2022-09-06 19:22:50.294
106.0, -6126.948431366495, -4705.466890986788, -24228.240457563457, -20182.239434986048, 1651.1233629135327, 8049.779599878741, 31001.780152533076, 22917.467107470886, -13761.566729732363, 4450.366431518368, -8348.644774990651, -13643.571870752798, 18108.39988093375, -8137.331382910179, -19295.43397372174, 73.24666658004125, 0.06962499999999999, 0.959, 0.05025, 192.0, 1.0, 56.0, 15.0, 88.0, 0.5, 96.0, 0.0, 0.0, 0.0, 1.6625065707729309E9, 0.0, 2022-09-06 19:22:50.772
108.0, -6742.224900987733, -5244.814484693347, -25003.488362251326, -20630.79424271515, 1178.3839676837883, 7516.15405275274, 41271.35619775727, 22087.233911422958, -14079.766163798115, 3826.529243770748, -8909.450043374305, -14099.748623341158, 17739.46198695445, -8978.62869246348, -20128.63995178222, -405.88532756392095, 0.06962499999999999, 0.959, 0.05025, 192.0, 0.0, 0.0, 0.0, 0.0, 0.0, 0.0, 0.0, 0.0, 0.0, 1.662506570773045E9, 0.0, 2022-09-06 19:22:50.773
110.0, -6053.880578742097, -4619.636192278408, -24223.45718425002, -20063.886948095198, 1764.8713904465903, 8143.65692659103, 30032.720271673235, 22656.890470610913, -13861.970765825603, 4321.486272989067, -8462.951596135092, -13770.462724025576, 18001.983225582033, -8230.560509033265, -19384.34921316495, 19.423665931661837, 0.06962499999999999, 0.959, 0.05025, 192.0, 0.0, 0.0, 0.0, 0.0, 0.0, 0.0, 0.0, 0.0, 0.0, 1.662506570773131E9, 0.0, 2022-09-06 19:22:50.773
112.0, -6782.905075896392, -5309.411026169184, -25017.055871135697, -20698.63178713701, 1124.0915804018475, 7456.8101712238995, 42105.992687462895, 22349.464577372622, -13967.448647910196, 3889.136479990063, -8814.142205016877, -13983.787773107026, 17856.13809301115, -8899.212944413775, -20053.15811075665, -252.8876367673441, 0.06962499999999999, 0.959, 0.05025, 192.0, 0.0, 0.0, 0.0, 0.0, 0.0, 0.0, 0.0, 0.0, 0.0, 1.6625065707731385E9, 0.0, 2022-09-06 19:22:50.773
114.0, -5990.334569255659, -4533.537272636566, -24229.290989552857, -19943.723969903465, 1857.586426447204, 8199.268066795834, 29445.852869254693, 22402.661729176252, -13961.994822263101, 4214.711989726065, -8556.02426004699, -13842.323582449388, 17912.978579160997, -8289.658521373096, -19474.404391575383, -34.8016661169131, 0.06962499999999999, 0.959, 0.05025, 192.0, 0.0, 0.0, 0.0, 0.0, 0.0, 0.0, 0.0, 0.0, 0.0, 1.662506570773146E9, 0.0, 2022-09-06 19:22:50.773
116.0, -6798.864221437481, -5356.930834881167, -25004.717708196367, -20778.2039973979, 1071.9896640765267, 7376.299187695884, 42521.46691339814, 22600.541722839087, -13858.863873346314, 3982.1867921575063, -8703.38931124083, -13850.325506964387, 17973.998841523986, -8779.049966222045, -19973.272976073382, -153.66824313023605, 0.0938125, 0.9724999999999999, 0.050125, 192.0, 1.5, 88.0, 15.0, 104.0, 0.5, 72.0, 0.0, 0.0, 0.0, 1.6625065707731543E9, 0.0, 2022-09-06 19:22:50.773
118.0, -5968.452211433913, -4494.2876093730465, -24257.118911399713, -19901.45682113848, 1922.585299323237, 8284.048233514814, 29286.864910944096, 22122.95199906254, -14052.027648929079, 4100.449872070536, -8655.266005428553, -13938.14551092929, 17833.786348555845, -8419.23158398051, -19580.39636378245, -188.46990924714916, 0.0938125, 0.9724999999999999, 0.050125, 192.0, 0.0, 0.0, 0.0, 0.0, 0.0, 0.0, 0.0, 0.0, 0.0, 1.662506570773162E9, 0.0, 2022-09-06 19:22:50.773
120.0, -6812.319971599576, -5389.720843997103, -24955.968553539344, -20847.092073809155, 998.5194800519324, 7365.4138881461495, 42507.541776602484, 22825.690844737393, -13769.38984029172, 4097.0747586577845, -8599.878382668303, -13747.351020258788, 18078.33678464136, -8687.787793611025, -19857.06625665024, -124.23099568259666, 0.0938125, 0.9724999999999999, 0.050125, 192.0, 0.0, 0.0, 0.0, 0.0, 0.0, 0.0, 0.0, 0.0, 0.0, 1.6625065707731695E9, 0.0, 2022-09-06 19:22:50.773
122.0, -5994.961380357908, -4485.324559846468, -24305.309272445356, -19894.84070477971, 1939.5055698759045, 8283.176515481056, 29573.90601323915, 21865.258737237305, -14154.309231556563, 4021.347048443204, -8762.912006725313, -14039.421265056286, 17737.36092297565, -8531.504396379518, -19689.785801146725, -357.8961322183767, 0.0938125, 0.9724999999999999, 0.050125, 192.0, 0.0, 0.0, 0.0, 0.0, 0.0, 0.0, 0.0, 0.0, 0.0, 1.6625065707731771E9, 0.0, 2022-09-06 19:22:50.773
124.0, -6800.004160404702, -5381.137774126265, -24900.40211682345, -20885.22414984991, 969.9763023825053, 7358.596606087281, 42024.16295101201, 23027.571800657726, -13690.488182364486, 4237.443713837113, -8496.166288395678, -13633.893565403649, 18150.711733187643, -8540.243928461543, -19745.128720418063, -85.80834696392381, 0.0938125, 0.9724999999999999, 0.050125, 192.0, 0.0, 0.0, 0.0, 0.0, 0.0, 0.0, 0.0, 0.0, 0.0, 1.6625065707731848E9, 0.0, 2022-09-06 19:22:50.773
126.0, -6038.793151234764, -4503.854155999918, -24400.393593358232, -19915.292550956317, 1930.9001482606113, 8260.243625669913, 30264.016123296755, 21621.624722674456, -14245.72786637877, 3917.9478785929537, -8869.060441143565, -14122.301533496564, 17626.496270477328, -8650.28156641502, -19837.284962807295, -527.7693900787103, 0.09190625, 0.95625, 0.0480625, 192.0, 1.0, 104.0, 14.5, 48.0, 0.5, 56.0, 0.0, 0.0, 0.0, 1.6625065707731926E9, 0.0, 2022-09-06 19:22:50.773
128.0, -6757.200569772789, -5355.813247658401, -24850.69183715485, -20886.632309750596, 978.469965275522, 7387.162135501163, 41125.444009953026, 23198.160314340632, -13618.336751262756, 4321.978011367084, -8408.726264086517, -13545.984154460926, 18205.40645186978, -8433.62610740973, -19646.781044814714, -33.59467191632652, 0.09190625, 0.95625, 0.0480625, 192.0, 0.0, 0.0, 0.0, 0.0, 0.0, 0.0, 0.0, 0.0, 0.0, 1.6625065707732005E9, 0.0, 2022-09-06 19:22:50.773
130.0, -6097.712349618954, -4549.451714688744, -24512.264074357045, -19950.8094728958, 1877.9265139015336, 8239.054171926282, 31315.73275515232, 21464.938994042754, -14296.443974547861, 3823.3776478025497, -8964.949424856834, -14190.742575018714, 17551.349705618584, -8781.441602878762, -19973.09416211774, -625.3347546261257, 0.09190625, 0.95625, 0.0480625, 192.0, 0.0, 0.0, 0.0, 0.0, 0.0, 0.0, 0.0, 0.0, 0.0, 1.662506570773208E9, 0.0, 2022-09-06 19:22:50.773
132.0, -6687.016092183125, -5300.470328387061, -24763.31886807905, -20836.966733570902, 1028.2249484330355, 7428.266993554473, 39861.475212749865, 23305.783963892933, -13574.437925152532, 4390.82138428943, -8347.594243001253, -13475.464400704432, 18242.778568599053, -8319.699265921028, -19565.26423278621, 40.166084786186794, 0.09190625, 0.95625, 0.0480625, 192.0, 0.0, 0.0, 0.0, 0.0, 0.0, 0.0, 0.0, 0.0, 0.0, 1.6625065707732155E9, 0.0, 2022-09-06 19:22:50.773
134.0, -6167.405088830601, -4614.629401520419, -24583.72260138066, -19998.57515079679, 1861.9673683604442, 8165.673394879508, 32664.41466384109, 21364.13262654932, -14333.436111621395, 3750.8685887895335, -9025.299134886161, -14225.253668457708, 17526.18164136191, -8868.635757998914, -20073.54290169989, -674.5309441722566, 0.09190625, 0.95625, 0.0480625, 192.0, 0.0, 0.0, 0.0, 0.0, 0.0, 0.0, 0.0, 0.0, 0.0, 1.6625065707732275E9, 0.0, 2022-09-06 19:22:50.773
136.0, -6587.997864246115, -5217.053618079855, -24629.11899436939, -20741.81535742466, 1137.2344061415681, 7537.6340791742905, 38311.046458607496, 23351.023894670474, -13540.262107880368, 4474.595722507921, -8276.448640400009, -13413.594772052142, 18300.021386149096, -8229.241756110401, -19426.996341585676, 104.02501869499908, 0.088953125, 0.939125, 0.04403125, 192.0, 1.0, 88.0, 14.0, 104.0, 0.5, 32.0, 0.0, 0.0, 0.0, 1.6625065707732348E9, 0.0, 2022-09-06 19:22:50.773
138.0, -6263.025851610405, -4712.619449212486, -24668.16749193281, -20071.710058654557, 1761.3621665671071, 8068.420954754467, 34254.11543299144, 21304.45346885365, -14328.228155163308, 3719.106759918542, -9053.641146855492, -14230.394569682428, 17520.45959478135, -8935.601584387015, -20119.16281213317, -697.7991101502312, 0.088953125, 0.939125, 0.04403125, 192.0, 0.0, 0.0, 0.0, 0.0, 0.0, 0.0, 0.0, 0.0, 0.0, 1.6625065707732427E9, 0.0, 2022-09-06 19:22:50.773
