%OpenBCI Raw EEG Data
%Number of channels = 16
%Sample Rate = 125 Hz
%Board = OpenBCI_GUI$BoardCytonSerialDaisy
Sample Index, EXG Channel 0, EXG Channel 1, EXG Channel 2, EXG Channel 3, EXG Channel 4, EXG Channel 5, EXG Channel 6, EXG Channel 7, EXG Channel 8, EXG Channel 9, EXG Channel 10, EXG Channel 11, EXG Channel 12, EXG Channel 13, EXG Channel 14, EXG Channel 15, Accel Channel 0, Accel Channel 1, Accel Channel 2, Other, Other, Other, Other, Other, Other, Other, Analog Channel 0, Analog Channel 1, Analog Channel 2, Timestamp, Other, Timestamp (Formatted)
118.0, -3445.7672769745923, -8011.0440267376935, -33190.41826610783, -26014.569522687143, -14187.85919998398, 13121.770396443653, 29255.75128266231, 17782.33263281973, -13916.37491182982, -11039.839510898533, -21886.5152462143, -30482.45972185847, 2403.013694645607, -14786.327157774826, -12214.155461091455, -11010.782243106634, 0.0, 0.0, 0.0, 192.0, 0.0, 0.0, 0.0, 0.0, 0.0, 0.0, 0.0, 0.0, 0.0, 1.662677452192291E9, 0.0, 2022-09-08 18:50:52.192
120.0, -3437.5641867594945, -7999.018788220738, -33182.19282414828, -26002.410173703454, -14177.152714389887, 13139.472978052258, 29265.11666358908, 17805.489040075427, -13912.75392922806, -11025.489690958226, -21894.405412007025, -30484.98546898192, 2394.430624774769, -14769.026907566418, -12215.049530869668, -11012.905658829888, 0.0, 0.0, 0.0, 192.0, 0.0, 0.0, 0.0, 0.0, 0.0, 0.0, 0.0, 0.0, 0.0, 1.6626774521922967E9, 0.0, 2022-09-08 18:50:52.192
122.0, -3453.3668700893963, -8007.780672047219, -33194.12865568741, -26010.389746474, -14181.354842347484, 13139.741198985721, 29248.844593625618, 17802.739775507423, -13923.505118311063, -11009.910525072877, -21894.405412007025, -30479.12931193463, 2390.429662517269, -14773.452552968569, -12203.292513286176, -11001.32745520204, 0.23, 0.932, 0.216, 192.0, 3.5, 24.0, 14.5, 16.0, 3.0, 96.0, 0.0, 0.0, 0.0, 1.6626774521923015E9, 0.0, 2022-09-08 18:50:52.192
124.0, -3448.471838053684, -8001.969218488839, -33194.66509755434, -26007.752240628273, -14201.717281546269, 13143.250422865203, 29269.050570613217, 17795.989548681922, -13923.32630435542, -11028.820100882067, -21899.322795787193, -30482.21385266946, 2380.9972263571294, -14775.30774775836, -12221.620943739528, -11007.429481438337, 0.23, 0.932, 0.216, 192.0, 0.0, 0.0, 0.0, 0.0, 0.0, 0.0, 0.0, 0.0, 0.0, 1.6626774521923063E9, 0.0, 2022-09-08 18:50:52.192
126.0, -3447.197788619732, -8008.786500547708, -33196.20736792176, -26011.306167996667, -14201.091432701522, 13126.128986612439, 29275.01848638278, 17770.37444953614, -13939.218394663143, -11029.89298461592, -21901.401508021536, -30480.6939340465, 2370.1342785518505, -14791.579817721822, -12213.261391313243, -11011.318684973561, 0.23, 0.932, 0.216, 192.0, 0.0, 0.0, 0.0, 0.0, 0.0, 0.0, 0.0, 0.0, 0.0, 1.6626774521923108E9, 0.0, 2022-09-08 18:50:52.192
128.0, -3440.000526905123, -8007.467747624844, -33182.30458287056, -26004.95827257136, -14184.238217382219, 13146.580832789045, 29269.430550268957, 17784.701917731993, -13926.768473001537, -11019.7005891443, -21889.6668421825, -30470.389779852605, 2380.9972263571294, -14780.046317582885, -12203.60543770855, -11006.915391315866, 0.23, 0.932, 0.216, 192.0, 0.0, 0.0, 0.0, 0.0, 0.0, 0.0, 0.0, 0.0, 0.0, 1.662677452192315E9, 0.0, 2022-09-08 18:50:52.192
130.0, -3440.4922652831397, -8004.718483056842, -33173.386236832885, -25997.962176556848, -14174.023470166145, 13146.849053722508, 29280.673477729975, 17779.29279557381, -13927.99781894658, -11029.490653215726, -21890.225635793882, -30467.774625751335, 2383.8806013918643, -14786.036585096906, -12191.60255093605, -10998.198210978295, 0.23, 0.932, 0.216, 192.0, 0.0, 0.0, 0.0, 0.0, 0.0, 0.0, 0.0, 0.0, 0.0, 1.66267745219232E9, 0.0, 2022-09-08 18:50:52.192
132.0, -3443.4426955512404, -8004.427910378923, -33177.54366130158, -25996.33049921161, -14185.37815634944, 13146.066742666573, 29252.957314605395, 17761.43375175402, -13921.538164798996, -11024.953249091299, -21881.08377231166, -30457.13519539061, 2392.821299173987, -14781.298015272381, -12186.640463666972, -10991.425632408338, 0.23600000000000002, 0.936, 0.23, 192.0, 3.5, 48.0, 14.5, 32.0, 3.5, 24.0, 0.0, 0.0, 0.0, 1.6626774521923249E9, 0.0, 2022-09-08 18:50:52.192
134.0, -3459.155971903321, -8020.811739064663, -33191.17822541931, -26005.517066182743, -14205.33826414803, 13120.518698754157, 29274.437341026944, 17751.576632449225, -13931.70820852616, -11027.99308633722, -21897.71347018641, -30467.17112865104, 2377.0409675885403, -14797.50303000248, -12193.435393981385, -11005.663693626368, 0.23600000000000002, 0.936, 0.23, 192.0, 0.0, 0.0, 0.0, 0.0, 0.0, 0.0, 0.0, 0.0, 0.0, 1.6626774521923294E9, 0.0, 2022-09-08 18:50:52.192
136.0, -3442.1686461172876, -8005.321980157135, -33176.895460712374, -25987.76978108523, -14179.074964413043, 13145.351486844003, 29253.806680894697, 17766.060562856266, -13938.167862673745, -11042.074685344063, -21891.879664883574, -30453.089529644196, 2382.360682768903, -14781.566236205845, -12188.74152764577, -10998.064100511563, 0.23600000000000002, 0.936, 0.23, 192.0, 0.0, 0.0, 0.0, 0.0, 0.0, 0.0, 0.0, 0.0, 0.0, 1.662677452192334E9, 0.0, 2022-09-08 18:50:52.192
138.0, -3440.3358030719523, -8001.388073133001, -33178.52713805761, -25988.842664819083, -14177.465638812262, 13147.206681633794, 29291.84934995763, 17767.401667523583, -13930.389455603297, -11015.230240253239, -21892.080830583673, -30439.70083471547, 2387.367473526892, -14782.616768195245, -12178.862056596525, -10986.329434672527, 0.23600000000000002, 0.936, 0.23, 192.0, 0.0, 0.0, 0.0, 0.0, 0.0, 0.0, 0.0, 0.0, 0.0, 1.6626774521923385E9, 0.0, 2022-09-08 18:50:52.192
140.0, -3431.3951052898296, -7998.527049842722, -33166.77012047412, -25983.746467083274, -14177.644452767903, 13154.403943348401, 29255.438358239935, 17767.31226054576, -13923.147490399777, -11024.953249091299, -21886.023507836286, -30436.146907347073, 2395.168232341794, -14756.599337649268, -12179.778478119193, -10989.011644007165, 0.23600000000000002, 0.936, 0.23, 192.0, 0.0, 0.0, 0.0, 0.0, 0.0, 0.0, 0.0, 0.0, 0.0, 1.662677452192343E9, 0.0, 2022-09-08 18:50:52.192
142.0, -3450.058811910011, -8013.458015138867, -33191.31233588605, -26004.37712721552, -14198.252761155696, 13141.104655397494, 29282.193396352937, 17749.22969928142, -13927.170804401732, -11019.052388555097, -21888.638661937555, -30431.855372411654, 2396.5763922424785, -14766.568215676334, -12180.024347308201, -10994.13019348743, 0.232, 0.918, 0.232, 192.0, 3.5, 32.0, 14.0, 88.0, 3.5, 32.0, 0.0, 0.0, 0.0, 1.6626774521923475E9, 0.0, 2022-09-08 18:50:52.192
144.0, -3445.186131618754, -8011.468709882344, -33181.723437514716, -25994.85528407756, -14189.624987795949, 13140.814082719575, 29229.443279438412, 17753.454178983473, -13926.276734623521, -11026.56257469208, -21893.980728862374, -30437.130384103108, 2387.7027496937217, -14769.831570366809, -12195.402347493453, -11001.282751713128, 0.232, 0.918, 0.232, 192.0, 0.0, 0.0, 0.0, 0.0, 0.0, 0.0, 0.0, 0.0, 0.0, 1.662677452192352E9, 0.0, 2022-09-08 18:50:52.192
146.0, -3444.023840907078, -8013.927401772428, -33188.96540271823, -26003.080726037115, -14187.121592416954, 13127.313629068569, 29287.267242344293, 17746.927469602524, -13931.462339337151, -11032.150510805906, -21890.315042771705, -30432.369462534127, 2391.56960148449, -14778.884026871208, -12181.879542097991, -10995.717167343757, 0.232, 0.918, 0.232, 192.0, 0.0, 0.0, 0.0, 0.0, 0.0, 0.0, 0.0, 0.0, 0.0, 1.6626774521923575E9, 0.0, 2022-09-08 18:50:52.192
148.0, -3421.58268947395, -7996.515392841744, -33172.13453914339, -25988.90972005245, -14174.559912033072, 13147.586661289533, 29246.140032546526, 17756.02462959583, -13922.588696788394, -11021.958115334286, -21881.62021417859, -30430.044881110774, 2402.432549289769, -14792.585646222311, -12187.892161356469, -10996.767699333155, 0.232, 0.918, 0.232, 192.0, 0.0, 0.0, 0.0, 0.0, 0.0, 0.0, 0.0, 0.0, 0.0, 1.6626774521923628E9, 0.0, 2022-09-08 18:50:52.192
150.0, -3429.651669222316, -7998.4152911204455, -33190.172396918824, -26004.220665004334, -14196.598732066004, 13139.718847241265, 29281.902823675016, 17750.682562671016, -13910.027016404512, -11024.930897346843, -21878.870949610588, -30425.0827938417, 2408.3110580815146, -14760.712058629044, -12184.114716543523, -10992.36440567546, 0.232, 0.918, 0.232, 192.0, 0.0, 0.0, 0.0, 0.0, 0.0, 0.0, 0.0, 0.0, 0.0, 1.6626774521923711E9, 0.0, 2022-09-08 18:50:52.192
152.0, -3432.9820791461566, -7998.862326009551, -33186.79728350607, -25995.34702245558, -14192.62012155296, 13137.796597218108, 29236.998169064307, 17754.683524928514, -13929.540089313996, -11033.46926372877, -21887.409315992514, -30428.614369465635, 2394.9000114083306, -14764.489503441991, -12199.403309750953, -10998.712301100768, 0.242, 0.906, 0.228, 192.0, 3.5, 72.0, 14.0, 40.0, 3.5, 16.0, 0.0, 0.0, 0.0, 1.662677452192377E9, 0.0, 2022-09-08 18:50:52.192
154.0, -3443.375640317874, -8014.307381428169, -33190.105341685456, -25997.962176556848, -14212.155546206897, 13133.192137860315, 29266.41306476749, 17745.27344051283, -13913.737405984093, -11033.603374195502, -21888.415144493003, -30425.529828730803, 2397.8504416764313, -14769.07161105533, -12197.525763216707, -10996.588885377514, 0.242, 0.906, 0.228, 192.0, 0.0, 0.0, 0.0, 0.0, 0.0, 0.0, 0.0, 0.0, 0.0, 1.662677452192383E9, 0.0, 2022-09-08 18:50:52.192
156.0, -3438.3017943265195, -8008.540631358699, -33181.365809603434, -25985.869882806528, -14192.553066319593, 13135.248498350204, 29228.79507884921, 17743.28413525631, -13922.923972955225, -11033.916298617876, -21885.62117643609, -30427.049747353765, 2403.259563834615, -14763.573081919323, -12196.408175993942, -10994.867801054455, 0.242, 0.906, 0.228, 192.0, 0.0, 0.0, 0.0, 0.0, 0.0, 0.0, 0.0, 0.0, 0.0, 1.6626774521923876E9, 0.0, 2022-09-08 18:50:52.192
158.0, -3441.5875007614495, -8013.2121459498585, -33188.31720212903, -25998.297452723677, -14195.928179732346, 13134.376780316446, 29276.359591050103, 17741.674809655527, -13919.75002524257, -11023.075702557053, -21884.28007176877, -30429.77666017731, 2407.752264470132, -14761.606128407257, -12195.156478304443, -10997.013568522165, 0.242, 0.906, 0.228, 192.0, 0.0, 0.0, 0.0, 0.0, 0.0, 0.0, 0.0, 0.0, 0.0, 1.6626774521923923E9, 0.0, 2022-09-08 18:50:52.192
160.0, -3446.7954572195363, -8016.430797151423, -33187.601946306466, -26002.365470214543, -14199.504458845195, 13131.60516400399, 29244.5530586902, 17734.45519619646, -13924.0862636669, -11017.219545509763, -21889.845656138143, -30446.048730140774, 2409.3839418153693, -14783.555541462369, -12191.691957913872, -11000.142812745908, 0.242, 0.906, 0.228, 192.0, 0.0, 0.0, 0.0, 0.0, 0.0, 0.0, 0.0, 0.0, 0.0, 1.6626774521923969E9, 0.0, 2022-09-08 18:50:52.192
162.0, -3443.867378695891, -8011.401654648978, -33185.970268961224, -26000.756144613762, -14193.313025631074, 13140.612917019478, 29277.03014338376, 17744.55818469026, -13911.725748983115, -11031.144682305418, -21884.95062410243, -30450.295561587285, 2424.1807966447827, -14755.012363792941, -12181.052527553145, -10994.353710931982, 0.252, 0.908, 0.23, 192.0, 3.5, 112.0, 14.0, 48.0, 3.5, 24.0, 0.0, 0.0, 0.0, 1.6626774521924014E9, 0.0, 2022-09-08 18:50:52.192
164.0, -3456.5631695465054, -8015.91670702895, -33191.58055681951, -26009.71919414034, -14207.551086849106, 13125.12315811195, 29228.16923000446, 17711.946989529966, -13920.577039787417, -11042.94640337782, -21896.484124241368, -30472.155567664573, 2412.33437208347, -14786.21539905255, -12192.429565480896, -11006.8483360825, 0.252, 0.908, 0.23, 192.0, 0.0, 0.0, 0.0, 0.0, 0.0, 0.0, 0.0, 0.0, 0.0, 1.6626774521924057E9, 0.0, 2022-09-08 18:50:52.192
166.0, -3441.5875007614495, -8006.77484354673, -33181.432864836795, -26000.845551591585, -14207.975769993756, 13139.31651584107, 29234.584180663132, 17732.55529791776, -13918.408920575253, -11028.149548548407, -21881.843731623143, -30467.640515284602, 2423.040857677562, -14788.316463031348, -12190.373204991009, -11009.351731461493, 0.252, 0.908, 0.23, 192.0, 0.0, 0.0, 0.0, 0.0, 0.0, 0.0, 0.0, 0.0, 0.0, 1.6626774521924105E9, 0.0, 2022-09-08 18:50:52.192
168.0, -3445.320242085486, -8011.312247671158, -33183.15394915986, -26001.180827758413, -14198.722147789258, 13136.634306506432, 29256.623000696065, 17746.61454518015, -13925.18149914521, -11025.355580491494, -21886.00115609183, -30471.216794397453, 2411.5520610275344, -14786.170695563638, -12191.60255093605, -11003.60733313648, 0.252, 0.908, 0.23, 192.0, 0.0, 0.0, 0.0, 0.0, 0.0, 0.0, 0.0, 0.0, 0.0, 1.6626774521924148E9, 0.0, 2022-09-08 18:50:52.192
170.0, -3449.835294465458, -8005.389035390501, -33180.56114680304, -25993.3353654546, -14198.990368722722, 13145.93263219984, 29284.339163820645, 17763.981850621924, -13921.85108922137, -11012.480975685237, -21882.469580467892, -30462.477262315428, 2416.603555274434, -14763.662488897144, -12185.522876444207, -10994.644283609901, 0.252, 0.908, 0.23, 192.0, 0.0, 0.0, 0.0, 0.0, 0.0, 0.0, 0.0, 0.0, 0.0, 1.6626774521924193E9, 0.0, 2022-09-08 18:50:52.192
172.0, -3463.469858583195, -8015.223802950836, -33187.26667013963, -25995.883464322505, -14196.822249510557, 13149.911242712886, 29263.32852403266, 17748.380332992117, -13923.438063077696, -11017.487766443226, -21894.919502129498, -30466.210003639462, 2418.4811018086793, -14762.388439463191, -12179.957292074836, -10993.929027787332, 0.258, 0.908, 0.226, 192.0, 4.0, 8.0, 14.0, 48.0, 3.5, 8.0, 0.0, 0.0, 0.0, 1.6626774521924238E9, 0.0, 2022-09-08 18:50:52.192
174.0, -3449.0529834095223, -8001.857459766563, -33178.03539967959, -25988.261519463245, -14187.613330794971, 13157.80140850561, 29263.17206182147, 17763.46776049945, -13932.691685282194, -11021.980467078742, -21892.170237561495, -30465.7406170059, 2415.463616307213, -14764.735372631, -12185.612283422028, -10995.761870832666, 0.258, 0.908, 0.226, 192.0, 0.0, 0.0, 0.0, 0.0, 0.0, 0.0, 0.0, 0.0, 0.0, 1.6626774521924284E9, 0.0, 2022-09-08 18:50:52.192
176.0, -3447.3318990864636, -7998.236477164803, -33176.44842582326, -25987.881539807506, -14201.739633290725, 13148.570138045567, 29270.481082258357, 17752.649516183083, -13931.171766659232, -11017.376007720948, -21887.90105437053, -30459.61623902515, 2413.8095872175204, -14769.652756411168, -12184.360585732531, -10991.760908575166, 0.258, 0.908, 0.226, 192.0, 0.0, 0.0, 0.0, 0.0, 0.0, 0.0, 0.0, 0.0, 0.0, 1.6626774521924329E9, 0.0, 2022-09-08 18:50:52.192
178.0, -3430.29986981152, -7986.993549703783, -33155.214268590724, -25973.50936812274, -14176.124534144943, 13170.877179011963, 29264.7590356778, 17772.967251892955, -13922.722807255126, -10987.201152706284, -21870.109065784105, -30445.78050920731, 2429.858139736431, -14771.865579112242, -12169.921358814403, -10981.88143752592, 0.258, 0.908, 0.226, 192.0, 0.0, 0.0, 0.0, 0.0, 0.0, 0.0, 0.0, 0.0, 0.0, 1.6626774521924374E9, 0.0, 2022-09-08 18:50:52.192
180.0, -3445.275538596575, -8001.052796966172, -33166.211326862736, -25982.651231604963, -14193.111859930976, 13144.882100210441, 29272.671553214976, 17758.99741160839, -13914.564420528939, -11009.575248906047, -21872.746571629832, -30446.69693072998, 2418.548157042045, -14734.381703660692, -12162.858207566525, -10980.406222391872, 0.258, 0.908, 0.226, 192.0, 0.0, 0.0, 0.0, 0.0, 0.0, 0.0, 0.0, 0.0, 0.0, 1.662677452192442E9, 0.0, 2022-09-08 18:50:52.192
182.0, -3456.9431492022454, -8009.904087770473, -33170.30169609805, -25988.95442354136, -14216.871764286967, 13135.293201839115, 29243.681340656443, 17751.0401905823, -13935.485653339107, -11012.995065807709, -21879.250929266327, -30456.397587823583, 2412.624944761389, -14769.96568083354, -12172.000071048746, -10989.190457962806, 0.255, 0.915, 0.23299999999999998, 192.0, 3.5, 112.0, 14.0, 104.0, 3.5, 64.0, 0.0, 0.0, 0.0, 1.6626774521924481E9, 0.0, 2022-09-08 18:50:52.192
184.0, -3457.63605328036, -8013.390959905501, -33172.492167054676, -25993.737696854794, -14216.424729397862, 13136.902527439897, 29261.74155017633, 17741.495995699883, -13954.529339615028, -11020.214679266774, -21896.975862619383, -30469.763931007856, 2401.337313811459, -14787.087117086307, -12178.370318218509, -11001.305103457584, 0.255, 0.915, 0.23299999999999998, 192.0, 0.0, 0.0, 0.0, 0.0, 0.0, 0.0, 0.0, 0.0, 0.0, 1.662677452192454E9, 0.0, 2022-09-08 18:50:52.192
186.0, -3444.8285037074693, -7997.945904486884, -33153.694349967765, -25980.14783622597, -14195.90582798789, 13146.781998489143, 29242.340235989122, 17759.287984286308, -13931.060007936956, -11010.335208217528, -21877.440437965448, -30456.55405003477, 2423.5996512889446, -14764.06482029734, -12170.971890803801, -10986.329434672527, 0.255, 0.915, 0.23299999999999998, 192.0, 0.0, 0.0, 0.0, 0.0, 0.0, 0.0, 0.0, 0.0, 0.0, 1.66267745219246E9, 0.0, 2022-09-08 18:50:52.192
188.0, -3469.3036638860303, -8022.197547220892, -33173.52034729962, -26003.438353948397, -14209.652150827904, 13128.475919780245, 29274.683210215953, 17741.205423021966, -13938.771359774037, -11009.485841928226, -21889.018641593295, -30466.9923146954, 2409.2498313486376, -14783.35437576227, -12178.303262985142, -10996.186553977317, 0.255, 0.915, 0.23299999999999998, 192.0, 0.0, 0.0, 0.0, 0.0, 0.0, 0.0, 0.0, 0.0, 0.0, 1.6626774521924665E9, 0.0, 2022-09-08 18:50:52.192
190.0, -3469.057794697022, -8030.333582202624, -33170.50286179815, -26001.605510903064, -14209.294522916618, 13129.057065136083, 29233.578352162644, 17713.623370364116, -13951.243633180098, -11023.835661868532, -21895.925330629987, -30479.442236357005, 2401.8067004450204, -14795.759593934965, -12181.231341508788, -11010.357559961982, 0.255, 0.915, 0.23299999999999998, 192.0, 0.0, 0.0, 0.0, 0.0, 0.0, 0.0, 0.0, 0.0, 0.0, 1.6626774521924713E9, 0.0, 2022-09-08 18:50:52.192
192.0, -3455.8479137239356, -8017.570736118643, -33156.354207557946, -25993.022441032226, -14201.449060612806, 13136.701361739799, 29280.114684118595, 17721.200611734464, -13951.400095391286, -11019.052388555097, -21884.43653397996, -30468.42282634054, 2408.1545958703277, -14785.656605441167, -12168.580254147084, -10995.292484199106, 0.2485, 0.9215, 0.2365, 192.0, 3.5, 72.0, 14.5, 0.0, 3.5, 64.0, 0.0, 0.0, 0.0, 1.6626774521924756E9, 0.0, 2022-09-08 18:50:52.192
194.0, -3462.531085316072, -8016.117872729048, -33157.65060873635, -25993.08949626559, -14207.90871476039, 13135.136739627927, 29218.557979888676, 17706.716681327427, -13957.815046049958, -11027.389589236927, -21887.118743314593, -30467.618163540148, 2402.4772527786795, -14788.517628731446, -12185.232303766288, -11004.456699425782, 0.2485, 0.9215, 0.2365, 192.0, 0.0, 0.0, 0.0, 0.0, 0.0, 0.0, 0.0, 0.0, 0.0, 1.66267745219248E9, 0.0, 2022-09-08 18:50:52.192
196.0, -3460.631187037371, -8015.447320395389, -33167.95476293025, -26005.740583627296, -14216.29061893113, 13127.626553490943, 29239.21099176538, 17702.02281499181, -13940.783016775014, -11012.458623940782, -21879.608557177613, -30456.151718634574, 2415.1059883959283, -14784.807239151865, -12187.467478211818, -10996.566533633058, 0.2485, 0.9215, 0.2365, 192.0, 0.0, 0.0, 0.0, 0.0, 0.0, 0.0, 0.0, 0.0, 0.0, 1.6626774521924849E9, 0.0, 2022-09-08 18:50:52.192
198.0, -3458.373660847385, -8015.87200354004, -33163.976152417206, -26002.365470214543, -14208.020473482666, 13131.560460515078, 29177.922508468928, 17697.105431211643, -13955.37870590433, -11024.282696757638, -21893.24312129535, -30474.61425955466, 2407.394636558847, -14802.778041693931, -12215.384807036497, -11015.364350719972, 0.2485, 0.9215, 0.2365, 192.0, 0.0, 0.0, 0.0, 0.0, 0.0, 0.0, 0.0, 0.0, 0.0, 1.6626774521924891E9, 0.0, 2022-09-08 18:50:52.192
200.0, -3438.9723466601786, -8001.097500455082, -33150.2745330661, -25985.08757175059, -14199.750328034203, 13143.205719376294, 29279.064152129195, 17717.55727738825, -13939.933650485713, -11002.288580213617, -21873.417123963492, -30446.629875496612, 2429.142883913861, -14770.233901767006, -12192.697786414361, -10991.917370786354, 0.2485, 0.9215, 0.2365, 192.0, 0.0, 0.0, 0.0, 0.0, 0.0, 0.0, 0.0, 0.0, 0.0, 1.662677452192494E9, 0.0, 2022-09-08 18:50:52.192
202.0, -3432.356230301408, -7991.463898594845, -33140.35035852795, -25971.251841932757, -14181.533656303127, 13152.504045069702, 29239.903895843494, 17712.371672674617, -13931.37293235933, -11001.774490091144, -21869.639679150543, -30440.907828916053, 2438.7988375185537, -14773.16198029065, -12183.287701998675, -10992.476164397736, 0.24225000000000002, 0.9197500000000001, 0.23625000000000002, 192.0, 3.5, 48.0, 14.0, 88.0, 3.5, 48.0, 0.0, 0.0, 0.0, 1.6626774521924984E9, 0.0, 2022-09-08 18:50:52.192
204.0, -3442.6603844953042, -8005.0537592236715, -33161.13748087138, -25992.821275332128, -14209.115708960977, 13135.740236728221, 29270.570489236175, 17707.476640638906, -13928.690723024694, -11000.858068568477, -21867.024525049274, -30436.12455560262, 2437.390677617869, -14775.106582058263, -12177.36448971802, -10988.162277717862, 0.24225000000000002, 0.9197500000000001, 0.23625000000000002, 192.0, 0.0, 0.0, 0.0, 0.0, 0.0, 0.0, 0.0, 0.0, 0.0, 1.662677452192503E9, 0.0, 2022-09-08 18:50:52.192
206.0, -3454.8867887123574, -8010.954619759873, -33164.98198091769, -26000.4879236803, -14210.81444153958, 13127.470091279756, 29213.10415424158, 17685.035489205777, -13944.42635112123, -11025.199118280307, -21885.934100858463, -30449.423843553526, 2423.018505933107, -14789.16582932065, -12192.451917225351, -11004.993141292709, 0.24225000000000002, 0.9197500000000001, 0.23625000000000002, 192.0, 0.0, 0.0, 0.0, 0.0, 0.0, 0.0, 0.0, 0.0, 0.0, 1.6626774521925075E9, 0.0, 2022-09-08 18:50:52.192
208.0, -3446.34842233043, -8005.791366790697, -33157.4270912918, -25991.61428113154, -14198.163354177876, 13138.288335596126, 29248.106986058592, 17713.93629478649, -13944.42635112123, -11006.825984338044, -21887.006984592317, -30450.139099376098, 2432.473293837702, -14767.976375577018, -12190.484963713285, -10998.645245867401, 0.24225000000000002, 0.9197500000000001, 0.23625000000000002, 192.0, 0.0, 0.0, 0.0, 0.0, 0.0, 0.0, 0.0, 0.0, 0.0, 1.662677452192512E9, 0.0, 2022-09-08 18:50:52.192
210.0, -3451.154047388321, -8016.63196285152, -33151.9732656447, -25996.911644567448, -14184.797010993601, 13139.428274563346, 29228.012767793272, 17707.40958540554, -13928.064874179945, -11021.891060100921, -21877.06045830971, -30451.636666254602, 2441.1010671974504, -14770.390363978191, -12188.585065434583, -10993.057309753574, 0.24225000000000002, 0.9197500000000001, 0.23625000000000002, 192.0, 0.0, 0.0, 0.0, 0.0, 0.0, 0.0, 0.0, 0.0, 0.0, 1.6626774521925166E9, 0.0, 2022-09-08 18:50:52.192
212.0, -3441.766314717092, -8011.692227326897, -33146.16181208632, -25995.861112578048, -14194.676482042847, 13143.831568221041, 29263.730855432852, 17724.55337340276, -13920.733501998604, -11019.342961233016, -21866.912766326997, -30451.8378319547, 2447.8959975118637, -14772.5361314459, -12182.058356053634, -10992.431460908827, 0.24012500000000003, 0.9208750000000001, 0.23412500000000003, 192.0, 3.5, 56.0, 14.0, 104.0, 3.5, 32.0, 0.0, 0.0, 0.0, 1.662677452192521E9, 0.0, 2022-09-08 18:50:52.192
214.0, -3445.4990560411284, -8007.4900993693, -33144.03839636307, -25985.109923495045, -14195.034109954133, 13140.814082719575, 29225.48702066982, 17715.99265527638, -13923.527470055518, -11022.226336267751, -21869.304402983715, -30450.228506353917, 2448.477142867702, -14774.793657635888, -12193.569504448118, -10993.012606264665, 0.24012500000000003, 0.9208750000000001, 0.23412500000000003, 192.0, 0.0, 0.0, 0.0, 0.0, 0.0, 0.0, 0.0, 0.0, 0.0, 1.662677452192527E9, 0.0, 2022-09-08 18:50:52.192
216.0, -3440.738134472148, -8000.6504655659755, -33140.46211725022, -25986.29456595118, -14187.814496495068, 13142.378704831446, 29256.488890229335, 17720.820632078725, -13913.670350750728, -11000.008702279176, -21856.22863247736, -30435.945741646978, 2470.292445456081, -14764.869483097731, -12176.828047851091, -10979.780373547123, 0.24012500000000003, 0.9208750000000001, 0.23412500000000003, 192.0, 0.0, 0.0, 0.0, 0.0, 0.0, 0.0, 0.0, 0.0, 0.0, 1.6626774521925316E9, 0.0, 2022-09-08 18:50:52.192
218.0, -3460.4076695928184, -8010.596991848588, -33161.56216401603, -26009.47332495133, -14200.644397812415, 13122.485652266223, 29209.371412917546, 17693.79737303226, -13940.850072008381, -11018.806519366088, -21880.614385678102, -30463.32662860473, 2443.6715178098107, -14778.101715815274, -12195.290588771175, -11004.79197559261, 0.24012500000000003, 0.9208750000000001, 0.23412500000000003, 192.0, 0.0, 0.0, 0.0, 0.0, 0.0, 0.0, 0.0, 0.0, 0.0, 1.662677452192536E9, 0.0, 2022-09-08 18:50:52.192
220.0, -3451.44462006624, -8011.915744771451, -33158.075291881, -26003.594816159584, -14201.985502479733, 13127.112463368472, 29229.666796882964, 17716.909076799046, -13942.079417953422, -11019.097092044007, -21877.172217031984, -30463.863070471656, 2442.263357909126, -14772.02204132343, -12202.42079525242, -11009.41878669486, 0.24012500000000003, 0.9208750000000001, 0.23412500000000003, 192.0, 0.0, 0.0, 0.0, 0.0, 0.0, 0.0, 0.0, 0.0, 0.0, 1.6626774521925404E9, 0.0, 2022-09-08 18:50:52.192
222.0, -3458.261902125109, -8020.9011460424845, -33165.94310592927, -26009.272159251235, -14208.869839771967, 13120.898678409896, 29238.40632896499, 17724.911001314045, -13942.66056330926, -11024.215641524273, -21885.263548524803, -30465.807672239265, 2432.6744595377995, -14779.621634438234, -12195.13412655999, -11007.429481438337, 0.24306250000000001, 0.9184375, 0.2300625, 192.0, 3.5, 88.0, 14.0, 80.0, 3.5, 8.0, 0.0, 0.0, 0.0, 1.662677452192545E9, 0.0, 2022-09-08 18:50:52.192
224.0, -3449.611777020905, -8005.120814457037, -33155.907172668834, -26001.00201380277, -14211.484993873239, 13127.313629068569, 29236.21585800837, 17749.69908591498, -13939.106635940867, -11027.903679359399, -21880.90495835602, -30461.560840792758, 2437.882415995886, -14776.425334981124, -12191.870771869513, -11003.853202325488, 0.24306250000000001, 0.9184375, 0.2300625, 192.0, 0.0, 0.0, 0.0, 0.0, 0.0, 0.0, 0.0, 0.0, 0.0, 1.6626774521925497E9, 0.0, 2022-09-08 18:50:52.192
226.0, -3460.6982422707374, -8018.218936707847, -33166.971286174215, -26010.47915345182, -14218.86106954349, 13118.64115221991, 29229.666796882964, 17738.344399731686, -13939.799540018981, -11023.500385701704, -21877.79806587673, -30462.87959371562, 2441.5481020865564, -14785.857771141264, -12187.378071233998, -10998.578190634036, 0.24306250000000001, 0.9184375, 0.2300625, 192.0, 0.0, 0.0, 0.0, 0.0, 0.0, 0.0, 0.0, 0.0, 0.0, 1.6626774521925542E9, 0.0, 2022-09-08 18:50:52.192
228.0, -3461.7487742601365, -8023.2480792102915, -33168.87118445292, -26011.99907207478, -14203.080737958044, 13125.458434278778, 29198.843741279095, 17742.8371003672, -13945.901566255281, -11023.99212407972, -21884.36947874659, -30475.50832933287, 2443.492703854168, -14780.40394549417, -12205.46063249834, -11008.390606449915, 0.24306250000000001, 0.9184375, 0.2300625, 192.0, 0.0, 0.0, 0.0, 0.0, 0.0, 0.0, 0.0, 0.0, 0.0, 1.6626774521925588E9, 0.0, 2022-09-08 18:50:52.192
230.0, -3487.4532803837396, -8049.064344056171, -33191.84877775297, -26032.62973220703, -14222.660866100892, 13107.062948592062, 29223.83299158013, 17723.59224839118, -13957.837397794414, -11046.366220279482, -21905.33541504567, -30490.75221905139, 2428.1817589022826, -14786.885951386208, -12207.539344732684, -11019.901754844399, 0.24306250000000001, 0.9184375, 0.2300625, 192.0, 0.0, 0.0, 0.0, 0.0, 0.0, 0.0, 0.0, 0.0, 0.0, 1.6626774521925633E9, 0.0, 2022-09-08 18:50:52.192
232.0, -3456.674928268782, -8014.240326194803, -33164.736111728686, -26006.835819105607, -14206.321740904063, 13113.16497482836, 29192.58525283161, 17740.80309162177, -13950.796598290992, -11037.224356797262, -21894.67363294049, -30481.65505905808, 2435.6025380614446, -14784.740183918499, -12207.740510432783, -11021.488728700726, 0.24653125, 0.9142187500000001, 0.22803125000000002, 192.0, 3.5, 104.0, 14.0, 56.0, 3.5, 8.0, 0.0, 0.0, 0.0, 1.662677452192568E9, 0.0, 2022-09-08 18:50:52.192
234.0, -3449.0529834095223, -8009.747625559286, -33164.51259428413, -26001.024365547226, -14205.76294729268, 13112.002684116684, 29217.86507581056, 17738.70202764297, -13943.353467387375, -11016.347827476005, -21880.32381300018, -30462.969000693443, 2443.582110831989, -14772.200855279072, -12190.283798013186, -11006.401301193393, 0.24653125, 0.9142187500000001, 0.22803125000000002, 192.0, 0.0, 0.0, 0.0, 0.0, 0.0, 0.0, 0.0, 0.0, 0.0, 1.6626774521925724E9, 0.0, 2022-09-08 18:50:52.192
236.0, -3440.648727494327, -7999.957561487861, -33153.15790810083, -25990.63080437551, -14193.313025631074, 13132.923916926851, 29201.972985502838, 17748.89442311459, -13934.792749260992, -11009.239972739217, -21868.65620239451, -30457.49282330189, 2453.8639132814305, -14773.16198029065, -12185.724042144304, -10999.360501689971, 0.24653125, 0.9142187500000001, 0.22803125000000002, 192.0, 0.0, 0.0, 0.0, 0.0, 0.0, 0.0, 0.0, 0.0, 0.0, 1.662677452192577E9, 0.0, 2022-09-08 18:50:52.192
238.0, -3448.8518177094243, -8010.239363937303, -33174.6826380113, -26008.91453133995, -14209.629799083448, 13122.150376099395, 29232.796041106707, 17745.452254468473, -13945.543938343995, -11007.228315738239, -21878.64743216603, -30470.07685543023, 2444.565587588023, -14768.915148844142, -12188.562713690128, -11004.568458148058, 0.24653125, 0.9142187500000001, 0.22803125000000002, 192.0, 0.0, 0.0, 0.0, 0.0, 0.0, 0.0, 0.0, 0.0, 0.0, 1.662677452192582E9, 0.0, 2022-09-08 18:50:52.192
0.0, -1741.625576213071, -4020.6317926206343, -16575.114914788595, -13016.270162614604, -7122.472777661416, 6537.751142710584, 14585.116754188151, 8874.961301679767, -6971.263226421264, -5496.22690632664, -10934.674553236313, -15231.685666046818, 1230.4188287757431, -7381.529495898426, -6090.380977437613, -5500.719606962158, 0.254, 0.906, 0.23600000000000002, 192.0, 3.5, 120.0, 14.0, 40.0, 3.5, 48.0, 0.0, 0.0, 0.0, 1.66267745276346E9, 0.0, 2022-09-08 18:50:52.763
2.0, -3477.0150157231114, -8036.4579601833775, -33159.70696922624, -26035.513107241764, -14246.197253012331, 13074.585863898501, 29209.282005939724, 17748.46973996994, -14042.72932323567, -11054.368144794482, -21897.467600997403, -30469.36159960766, 2445.0349742215844, -14798.888838158708, -12205.438280753886, -11024.595621180013, 0.254, 0.906, 0.23600000000000002, 192.0, 0.0, 0.0, 0.0, 0.0, 0.0, 0.0, 0.0, 0.0, 0.0, 1.6626774527635088E9, 0.0, 2022-09-08 18:50:52.763
4.0, -3467.1802481627765, -8022.644582109998, -33156.84594593596, -26033.836726407615, -14237.614183141493, 13077.893922077887, 29154.6319907465, 17742.770045133835, -14040.315334834497, -11046.679144701857, -21899.5686649762, -30463.68425651601, 2443.0680207095174, -14792.004500866475, -12211.428548267908, -11034.340981762527, 0.254, 0.906, 0.23600000000000002, 192.0, 0.0, 0.0, 0.0, 0.0, 0.0, 0.0, 0.0, 0.0, 0.0, 1.662677452763625E9, 0.0, 2022-09-08 18:50:52.763
6.0, -3464.0510039390333, -8026.891413556506, -33161.36099831593, -26041.10104335559, -14231.534508649649, 13081.82782910202, 29191.78059003122, 17748.67090567004, -14027.463081772696, -11040.845339399022, -21891.164409061006, -30454.63180001161, 2456.00968074914, -14790.573989221335, -12207.025254610213, -11041.135912076941, 0.254, 0.906, 0.23600000000000002, 192.0, 0.0, 0.0, 0.0, 0.0, 0.0, 0.0, 0.0, 0.0, 0.0, 1.662677452763634E9, 0.0, 2022-09-08 18:50:52.763
8.0, -3472.030576709578, -8037.642602639509, -33161.718626227215, -26040.989284633313, -14238.754122108714, 13070.294328963082, 29140.930371395396, 17734.857527596658, -14041.92466043528, -11050.970679637276, -21901.692080699457, -30466.96996295094, 2440.676384052799, -14812.724567976544, -12223.90082167397, -11054.256386072206, 0.264, 0.882, 0.23, 192.0, 4.0, 32.0, 13.5, 72.0, 3.5, 24.0, 0.0, 0.0, 0.0, 1.6626774527636385E9, 0.0, 2022-09-08 18:50:52.763
10.0, -3465.7273847731813, -8031.562928147666, -33157.6282569919, -26030.618075206054, -14237.591831397038, 13076.217541243737, 29193.412267376458, 17747.150987047076, -14019.34939853542, -11038.833682398044, -21883.408353735012, -30455.436462812006, 2459.6306633509, -14771.463247712047, -12206.734681932294, -11034.676257929357, 0.264, 0.882, 0.23, 192.0, 0.0, 0.0, 0.0, 0.0, 0.0, 0.0, 0.0, 0.0, 0.0, 1.6626774527636433E9, 0.0, 2022-09-08 18:50:52.763
12.0, -3471.1141551869105, -8032.032314781227, -33151.70504471124, -26023.934903613914, -14240.743427365236, 13071.054288274561, 29153.067368634627, 17723.32402745772, -14029.273573073575, -11050.724810448268, -21894.584225962666, -30472.110864175662, 2449.460619623735, -14789.903436887675, -12221.486833272797, -11036.397342252416, 0.264, 0.882, 0.23, 192.0, 0.0, 0.0, 0.0, 0.0, 0.0, 0.0, 0.0, 0.0, 0.0, 1.6626774527636476E9, 0.0, 2022-09-08 18:50:52.763
14.0, -3460.027689937078, -8021.72816058733, -33131.23084679018, -26008.936883084403, -14236.38483719645, 13090.92498909533, 29183.510444582756, 17755.0411528398, -14026.971343394678, -11030.340019505027, -21876.769885631787, -30469.60746879667, 2462.5810936190005, -14783.756707162465, -12201.146745818467, -11011.229277995739, 0.264, 0.882, 0.23, 192.0, 0.0, 0.0, 0.0, 0.0, 0.0, 0.0, 0.0, 0.0, 0.0, 1.662677452763652E9, 0.0, 2022-09-08 18:50:52.763
16.0, -3469.773050519592, -8022.041085009705, -33137.44463174875, -26016.201200032378, -14242.196290754831, 13079.30208197857, 29182.951650971372, 17759.064466841755, -14035.465006287695, -11033.424560239859, -21880.99436533384, -30486.170111438052, 2458.893055783875, -14788.16000082016, -12190.999053835756, -11008.345902961006, 0.264, 0.882, 0.23, 192.0, 0.0, 0.0, 0.0, 0.0, 0.0, 0.0, 0.0, 0.0, 0.0, 1.6626774527636566E9, 0.0, 2022-09-08 18:50:52.763
18.0, -3462.3746231048854, -8015.447320395389, -33138.2716462936, -26018.95046460038, -14244.364409966996, 13087.549875682578, 29195.647441821988, 17768.340440790707, -14029.407683540307, -11015.252591997694, -21874.065324552696, -30492.22743418544, 2464.816268064531, -14771.440895967591, -12181.141934530966, -11007.854164582988, 0.272, 0.906, 0.234, 192.0, 4.0, 64.0, 14.0, 40.0, 3.5, 40.0, 0.0, 0.0, 0.0, 1.6626774527636611E9, 0.0, 2022-09-08 18:50:52.763
20.0, -3467.7837452630697, -8021.102311742582, -33138.20459106023, -26027.086499582114, -14239.737598864747, 13090.634416417412, 29162.72332223932, 17757.56689996325, -14031.06171263, -11027.076664814553, -21884.8165136357, -30504.74441108041, 2464.749212831165, -14781.812105394854, -12182.237170009277, -11020.237031011227, 0.272, 0.906, 0.234, 192.0, 0.0, 0.0, 0.0, 0.0, 0.0, 0.0, 0.0, 0.0, 0.0, 1.6626774527636657E9, 0.0, 2022-09-08 18:50:52.763
22.0, -3474.0645854550107, -8028.143111246003, -33140.84209690596, -26038.597647976596, -14246.331363479063, 13090.813230373053, 29158.945877426373, 17746.61454518015, -14039.533023778562, -11020.952286833797, -21883.38600199056, -30506.241977958918, 2466.850276809964, -14795.469021257046, -12178.370318218509, -11030.295316016116, 0.272, 0.906, 0.234, 192.0, 0.0, 0.0, 0.0, 0.0, 0.0, 0.0, 0.0, 0.0, 0.0, 1.6626774527636702E9, 0.0, 2022-09-08 18:50:52.763
24.0, -3478.512582601617, -8031.786445592219, -33155.1248616129, -26042.799775934196, -14252.969831582288, 13081.380794212913, 29135.744766681764, 17743.08296955621, -14044.562166281006, -11042.61112721099, -21894.584225962666, -30516.27791121935, 2457.4401923942796, -14788.428221753626, -12192.608379436539, -11040.934746376843, 0.272, 0.906, 0.234, 192.0, 0.0, 0.0, 0.0, 0.0, 0.0, 0.0, 0.0, 0.0, 0.0, 1.6626774527636747E9, 0.0, 2022-09-08 18:50:52.763
26.0, -3449.0306316650667, -8001.857459766563, -33128.01219558861, -26016.2906070102, -14238.418845941884, 13111.198021316293, 29132.928446880396, 17770.441504769507, -14044.428055814275, -11026.428464225348, -21881.776676389778, -30500.408172656083, 2461.6646720963327, -14791.35630027727, -12204.790080164681, -11040.487711487736, 0.272, 0.906, 0.234, 192.0, 0.0, 0.0, 0.0, 0.0, 0.0, 0.0, 0.0, 0.0, 0.0, 1.6626774527636793E9, 0.0, 2022-09-08 18:50:52.763
28.0, -3478.132602945877, -8036.21209099437, -33154.94604765726, -26046.44311028041, -14270.761820168713, 13087.348709982482, 29082.748780578233, 17745.31814400174, -14027.0607503725, -11007.921219816353, -21865.03521979275, -30480.26925090185, 2481.9377043172963, -14774.346622746782, -12183.086536298579, -11008.055330283087, 0.266, 0.908, 0.23600000000000002, 192.0, 4.0, 40.0, 14.0, 48.0, 3.5, 48.0, 0.0, 0.0, 0.0, 1.6626774527636836E9, 0.0, 2022-09-08 18:50:52.763
30.0, -3464.4309835947734, -8018.107177985571, -33146.273570808604, -26034.261409552266, -14251.606375170515, 13094.076585063529, 29180.738828270296, 17770.24033906941, -14069.30554739303, -11042.678182444357, -21905.491877256856, -30518.110754264686, 2451.0922969689723, -14812.992788910007, -12228.728798476315, -11047.014420868687, 0.266, 0.908, 0.23600000000000002, 192.0, 0.0, 0.0, 0.0, 0.0, 0.0, 0.0, 0.0, 0.0, 0.0, 1.662677452763688E9, 0.0, 2022-09-08 18:50:52.763
32.0, -3457.5689980469942, -8006.148994701982, -33149.40281503234, -26033.3449880296, -14248.991221069244, 13091.68494840681, 29241.91555284447, 17769.9944698804, -14045.120959892389, -11015.341998975517, -21879.65326066652, -30482.057390458274, 2473.913428057841, -14791.535114232913, -12176.872751340003, -11017.018379809664, 0.266, 0.908, 0.23600000000000002, 192.0, 0.0, 0.0, 0.0, 0.0, 0.0, 0.0, 0.0, 0.0, 0.0, 1.6626774527636926E9, 0.0, 2022-09-08 18:50:52.763
34.0, -3448.0024514201227, -8003.4667853673445, -33140.529172483584, -26020.62684543453, -14227.310028947597, 13094.25539901917, 29212.992395519304, 17765.188844822507, -14041.701142990727, -11007.18361224933, -21873.14890303003, -30461.113805903653, 2476.3721199479246, -14780.292186771892, -12187.579236934094, -11023.656847912891, 0.266, 0.908, 0.23600000000000002, 192.0, 0.0, 0.0, 0.0, 0.0, 0.0, 0.0, 0.0, 0.0, 0.0, 1.6626774527636971E9, 0.0, 2022-09-08 18:50:52.763
36.0, -3464.6321492948714, -8019.001247763783, -33153.24731507865, -26031.71331068436, -14226.304200447108, 13059.856064302454, 29214.869942053552, 17731.75063511737, -14041.589384268449, -11024.282696757638, -21876.27814725377, -30444.17118360653, 2476.5732856480226, -14770.189198278094, -12175.59870190605, -11032.105807316997, 0.266, 0.908, 0.23600000000000002, 192.0, 0.0, 0.0, 0.0, 0.0, 0.0, 0.0, 0.0, 0.0, 0.0, 1.6626774527637017E9, 0.0, 2022-09-08 18:50:52.763
38.0, -3472.8575912544243, -8024.410369921968, -33150.9227336553, -26024.359586758565, -14233.367351694984, 13064.05819226005, 29138.09169984957, 17717.736091343893, -14057.012087942612, -11029.222432282262, -21891.454981738923, -30437.286846314295, 2471.611198378944, -14793.814992167354, -12191.580199191594, -11052.512950004691, 0.28400000000000003, 0.876, 0.244, 192.0, 4.0, 112.0, 13.5, 48.0, 3.5, 80.0, 0.0, 0.0, 0.0, 1.662677452763708E9, 0.0, 2022-09-08 18:50:52.763
40.0, -3488.056777484033, -8039.520149173755, -33161.584515760485, -26027.600589704587, -14249.684125147358, 13067.790933584087, 29178.727171269322, 17714.897419798068, -14060.16368391081, -11038.006667853197, -21901.401508021536, -30428.815535165733, 2471.3429774454808, -14789.277588042927, -12186.282835755686, -11048.422580769371, 0.28400000000000003, 0.876, 0.244, 192.0, 0.0, 0.0, 0.0, 0.0, 0.0, 0.0, 0.0, 0.0, 0.0, 1.6626774527637126E9, 0.0, 2022-09-08 18:50:52.763
42.0, -3469.63894005286, -8019.738855330808, -33140.90915213933, -26006.455839449864, -14216.648246842415, 13102.123213067438, 29131.073252090606, 17737.27151599783, -14065.863378746913, -11021.287563000627, -21893.176066061984, -30421.64062519558, 2474.3381112024917, -14775.084230313807, -12180.829010108591, -11041.47118824377, 0.28400000000000003, 0.876, 0.244, 192.0, 0.0, 0.0, 0.0, 0.0, 0.0, 0.0, 0.0, 0.0, 0.0, 1.6626774527637172E9, 0.0, 2022-09-08 18:50:52.763
44.0, -3485.575733849494, -8034.602765393587, -33149.000483632146, -26029.05345309418, -14257.283718262162, 13082.677195391321, 29171.01581943224, 17721.714701856938, -14067.83033225898, -11016.727807131745, -21892.818438150698, -30430.35780553315, 2473.578151891011, -14792.853867155776, -12176.448068195352, -11032.03875208363, 0.28400000000000003, 0.876, 0.244, 192.0, 0.0, 0.0, 0.0, 0.0, 0.0, 0.0, 0.0, 0.0, 0.0, 1.6626774527637217E9, 0.0, 2022-09-08 18:50:52.763
46.0, -3465.213294650709, -8020.454111153378, -33114.13176228187, -26006.344080727587, -14239.514081420193, 13097.831678132019, 29113.147153037447, 17726.587382148195, -14090.78557381458, -11028.954211348799, -21893.265473039803, -30450.340265076193, 2460.01064300664, -14788.696442687089, -12195.894085871469, -11041.627650454957, 0.28400000000000003, 0.876, 0.244, 192.0, 0.0, 0.0, 0.0, 0.0, 0.0, 0.0, 0.0, 0.0, 0.0, 1.662677452763726E9, 0.0, 2022-09-08 18:50:52.763
48.0, -3462.7322510161703, -8016.386093662512, -33110.15315176883, -26008.936883084403, -14239.58113665356, 13099.820983388541, 29135.543600981666, 17738.56791717624, -14082.31426266602, -11020.505251944693, -21875.317022242194, -30446.518116774336, 2473.198172235271, -14783.555541462369, -12190.216742779821, -11024.126234546451, 0.26, 0.904, 0.268, 192.0, 4.0, 16.0, 14.0, 32.0, 4.0, 48.0, 0.0, 0.0, 0.0, 1.6626774527637305E9, 0.0, 2022-09-08 18:50:52.763
50.0, -3469.9518644752343, -8024.097445499593, -33115.025832060084, -26019.710423911863, -14245.705514634314, 13079.235026745204, 29099.601995897534, 17713.042225008277, -14063.672907790293, -11020.393493222415, -21878.22274902138, -30453.469509299935, 2471.007701278651, -14803.31448356086, -12197.123431816512, -11026.89785085891, 0.26, 0.904, 0.268, 192.0, 0.0, 0.0, 0.0, 0.0, 0.0, 0.0, 0.0, 0.0, 0.0, 1.662677452763735E9, 0.0, 2022-09-08 18:50:52.763
52.0, -3459.960634703712, -8019.448282652889, -33109.2143785017, -26018.391670989, -14240.832834343057, 13085.11353553695, 29195.178055188426, 17721.468832667928, -14054.59809954144, -11007.250667482695, -21886.179970047473, -30455.88349770111, 2469.040747766584, -14814.445652299602, -12211.585010479095, -11031.926993361354, 0.26, 0.904, 0.268, 192.0, 0.0, 0.0, 0.0, 0.0, 0.0, 0.0, 0.0, 0.0, 0.0, 1.6626774527637396E9, 0.0, 2022-09-08 18:50:52.763
54.0, -3465.190942906254, -8024.63388736652, -33114.86936984889, -26026.728871670828, -14242.598622155027, 13075.882265076909, 29163.282115850703, 17723.346379202172, -14060.320146121998, -11016.37017922046, -21887.185798547962, -30454.184765122507, 2476.193305992282, -14811.092890631306, -12198.732757417292, -11026.227298525251, 0.26, 0.904, 0.268, 192.0, 0.0, 0.0, 0.0, 0.0, 0.0, 0.0, 0.0, 0.0, 0.0, 1.662677452763744E9, 0.0, 2022-09-08 18:50:52.763
56.0, -3453.456277067218, -8006.260753424258, -33104.051125532525, -26008.378089473023, -14218.72695907676, 13107.107652080973, 29187.980793473816, 17735.84100435269, -14067.226835158686, -11019.097092044007, -21890.940891616454, -30450.764948220844, 2479.4790124272126, -14818.60307676829, -12200.31973127362, -11024.260345013183, 0.26, 0.904, 0.268, 192.0, 0.0, 0.0, 0.0, 0.0, 0.0, 0.0, 0.0, 0.0, 0.0, 1.6626774527637484E9, 0.0, 2022-09-08 18:50:52.763
58.0, -3460.966463204201, -8013.390959905501, -33107.24742498963, -26007.215798761346, -14227.064159758587, 13103.978407857228, 29164.19853737337, 17740.937202088502, -14055.760390253114, -11001.349806946493, -21880.927310100476, -30430.20134332196, 2497.5392219471005, -14807.427204540636, -12175.732812372782, -11002.690911613812, 0.25, 0.9, 0.268, 192.0, 3.5, 64.0, 14.0, 0.0, 4.0, 48.0, 0.0, 0.0, 0.0, 1.662677452763753E9, 0.0, 2022-09-08 18:50:52.763
60.0, -3459.580655047972, -8014.642657594998, -33112.70125063673, -26017.743470399797, -14233.479110417262, 13104.35838751297, 29203.850532037086, 17745.7875306353, -14043.15400638032, -10996.767699333155, -21873.70769664141, -30420.947721117467, 2506.882251129419, -14779.509875715958, -12176.246902495253, -10996.70064409979, 0.25, 0.9, 0.268, 192.0, 0.0, 0.0, 0.0, 0.0, 0.0, 0.0, 0.0, 0.0, 0.0, 1.6626774527637577E9, 0.0, 2022-09-08 18:50:52.763
62.0, -3460.4300213372735, -8021.012904764761, -33116.61280591641, -26025.186601303412, -14246.018439056688, 13091.729651895721, 29151.458043033846, 17717.42316692152, -14055.849797230936, -11015.833737353532, -21891.05265033873, -30435.632817224603, 2490.565477677045, -14806.734300462522, -12189.36737649052, -11021.220507767262, 0.25, 0.9, 0.268, 192.0, 0.0, 0.0, 0.0, 0.0, 0.0, 0.0, 0.0, 0.0, 0.0, 1.662677452763762E9, 0.0, 2022-09-08 18:50:52.763
64.0, -3451.44462006624, -8012.362779660557, -33107.314480223, -26020.269217523244, -14236.138968007443, 13103.441965990301, 29151.569801756123, 17733.22585025142, -14042.505805791117, -11007.138908760418, -21875.80876062021, -30421.573569962213, 2508.625687196933, -14792.16096307766, -12194.1282980595, -11020.482900200237, 0.25, 0.9, 0.268, 192.0, 0.0, 0.0, 0.0, 0.0, 0.0, 0.0, 0.0, 0.0, 0.0, 1.6626774527637663E9, 0.0, 2022-09-08 18:50:52.763
66.0, -3452.2269311221758, -8011.558116860166, -33104.58756739945, -26018.212857033355, -14232.696799361325, 13095.149468797383, 29135.05186260365, 17726.90030657057, -14059.046096688046, -11005.529583159636, -21879.005060077317, -30427.094450842676, 2503.0377510831063, -14799.626445725733, -12200.230324295799, -11024.282696757638, 0.25, 0.9, 0.268, 192.0, 0.0, 0.0, 0.0, 0.0, 0.0, 0.0, 0.0, 0.0, 0.0, 1.6626774527637708E9, 0.0, 2022-09-08 18:50:52.763
68.0, -3457.993681191645, -8015.112044228559, -33115.04818380454, -26018.257560522266, -14235.490767418238, 13090.723823395232, 29104.13940002196, 17720.574762889715, -14051.848834973436, -10997.594713878003, -21875.272318753283, -30420.97007286192, 2509.743274419698, -14791.758631677465, -12200.543248718173, -11020.594658922513, 0.243, 0.904, 0.271, 192.0, 3.5, 48.0, 14.0, 48.0, 4.0, 72.0, 0.0, 0.0, 0.0, 1.662677452763776E9, 0.0, 2022-09-08 18:50:52.763
70.0, -3458.1277916583767, -8005.076110968127, -33106.08513427796, -26009.38391797351, -14229.76872083768, 13101.16208805586, 29138.896362649964, 17725.335684458696, -14058.017916443101, -11006.915391315866, -21879.85442636662, -30431.989482878387, 2505.6976086732875, -14802.487469016012, -12205.572391220618, -11023.99212407972, 0.243, 0.904, 0.271, 192.0, 0.0, 0.0, 0.0, 0.0, 0.0, 0.0, 0.0, 0.0, 0.0, 1.6626774527637815E9, 0.0, 2022-09-08 18:50:52.763
72.0, -3452.2045793777206, -8003.064453967149, -33105.526340666576, -26008.2886824952, -14214.413072396885, 13101.765585156154, 29146.250086575757, 17734.768120618835, -14060.9683467112, -10985.502420127681, -21870.489045439845, -30429.419032266025, 2510.033847097617, -14784.382556007215, -12205.304170287154, -11022.651019412402, 0.243, 0.904, 0.271, 192.0, 0.0, 0.0, 0.0, 0.0, 0.0, 0.0, 0.0, 0.0, 0.0, 1.662677452763786E9, 0.0, 2022-09-08 18:50:52.763
74.0, -3461.413498093307, -8018.196584963392, -33114.332927981966, -26014.43541222041, -14243.58209891106, 13092.40020422938, 29110.017908813705, 17716.46204190994, -14069.841989259958, -11005.887211070922, -21874.95939433091, -30433.86702941263, 2500.2214312817373, -14789.948140376586, -12206.533516232195, -11024.886193857932, 0.243, 0.904, 0.271, 192.0, 0.0, 0.0, 0.0, 0.0, 0.0, 0.0, 0.0, 0.0, 0.0, 1.6626774527637904E9, 0.0, 2022-09-08 18:50:52.763
76.0, -3451.154047388321, -8008.026541236227, -33108.521474423585, -26010.43444996291, -14246.040790801144, 13094.903599608375, 29079.865405543496, 17732.80116710677, -14056.475646075683, -10994.733690587724, -21870.310231484204, -30426.93798863149, 2507.4410447408018, -14795.983111379519, -12224.280801329709, -11025.512042702681, 0.243, 0.904, 0.271, 192.0, 0.0, 0.0, 0.0, 0.0, 0.0, 0.0, 0.0, 0.0, 0.0, 1.662677452763795E9, 0.0, 2022-09-08 18:50:52.763
78.0, -3448.449486309229, -8008.384169147512, -33101.950061553725, -26005.20414176037, -14235.24489822923, 13102.771413656643, 29215.16051473147, 17763.8924436441, -14062.041230445056, -11007.943571560809, -21874.892339097543, -30429.15081133256, 2508.0892453300057, -14802.912152160663, -12190.88729511348, -11014.291466986117, 0.2375, 0.904, 0.2725, 192.0, 3.5, 32.0, 14.0, 32.0, 4.0, 72.0, 0.0, 0.0, 0.0, 1.6626774527637997E9, 0.0, 2022-09-08 18:50:52.763
80.0, -3434.211425091198, -7994.526087585222, -33092.13764573785, -25994.52000791073, -14216.558839864594, 13106.146527069393, 29149.96047615534, 17759.198577308485, -14056.497997820139, -10996.208905721773, -21861.19071974644, -30417.0808693267, 2522.103789103483, -14783.756707162465, -12183.555922932139, -11007.094205271507, 0.2375, 0.904, 0.2725, 192.0, 0.0, 0.0, 0.0, 0.0, 0.0, 0.0, 0.0, 0.0, 0.0, 1.662677452763804E9, 0.0, 2022-09-08 18:50:52.763
82.0, -3445.1637798742986, -8008.1606517029595, -33111.65071864733, -26016.692938410397, -14230.953363293811, 13094.747137397188, 29160.443444304878, 17749.27440277033, -14051.044172173044, -10981.36734740345, -21862.62123139158, -30414.30925301424, 2525.7694751941535, -14778.057012326362, -12183.198295020855, -11004.546106403603, 0.2375, 0.904, 0.2725, 192.0, 0.0, 0.0, 0.0, 0.0, 0.0, 0.0, 0.0, 0.0, 0.0, 1.6626774527638085E9, 0.0, 2022-09-08 18:50:52.763
84.0, -3447.0636781529997, -8004.226744678825, -33120.03262281807, -26024.96308385886, -14218.48108988775, 13094.16599204135, 29106.10635353403, 17739.283172998807, -14060.87893973338, -11015.65492339789, -21878.356859488114, -30435.8339829247, 2520.9191466473517, -14804.767346950453, -12204.65596969795, -11024.70737990229, 0.2375, 0.904, 0.2725, 192.0, 0.0, 0.0, 0.0, 0.0, 0.0, 0.0, 0.0, 0.0, 0.0, 1.6626774527638128E9, 0.0, 2022-09-08 18:50:52.763
86.0, -3459.379489347874, -8014.933230272917, -33141.46794575071, -26045.884316669028, -14235.222546484774, 13089.628587916923, 29151.502746522758, 17722.876992568614, -14056.54270130905, -10996.946513288798, -21882.603690934622, -30436.59394223618, 2521.6344024699215, -14784.941349618597, -12199.000978350758, -11028.998914837708, 0.2375, 0.904, 0.2725, 192.0, 0.0, 0.0, 0.0, 0.0, 0.0, 0.0, 0.0, 0.0, 0.0, 1.6626774527638175E9, 0.0, 2022-09-08 18:50:52.763
88.0, -3451.6904892552484, -8002.4386051224, -33130.87321887889, -26031.646255450996, -14226.460662658295, 13090.50030595068, 29101.121914520492, 17722.94404780198, -14075.295814907053, -11011.341036718017, -21898.540484731257, -30452.910715688555, 2511.911393631863, -14798.441803269603, -12226.22540309732, -11052.445894771326, 0.23875, 0.903, 0.26825, 192.0, 3.5, 64.0, 14.0, 24.0, 4.0, 32.0, 0.0, 0.0, 0.0, 1.662677452763822E9, 0.0, 2022-09-08 18:50:52.763
90.0, -3447.1083816419105, -8001.700997555376, -33123.81006763101, -26025.052490836682, -14230.9086598049, 13088.421593716335, 29150.47456627781, 17731.258896739353, -14065.371640368896, -10984.69775732729, -21881.910786856508, -30432.324759045216, 2528.1164083619606, -14789.657567698667, -12206.265295298732, -11030.742350905222, 0.23875, 0.903, 0.26825, 192.0, 0.0, 0.0, 0.0, 0.0, 0.0, 0.0, 0.0, 0.0, 0.0, 1.6626774527638264E9, 0.0, 2022-09-08 18:50:52.763
92.0, -3452.15987588881, -8011.53576511571, -33117.328061738976, -26015.552999443174, -14231.601563883016, 13082.677195391321, 29086.637984113455, 17720.865335567636, -14067.539759581061, -11007.340074460517, -21882.80485663472, -30447.143965619085, 2517.0969983454943, -14777.49821871498, -12216.36828379253, -11037.269060286173, 0.23875, 0.903, 0.26825, 192.0, 0.0, 0.0, 0.0, 0.0, 0.0, 0.0, 0.0, 0.0, 0.0, 1.662677452763831E9, 0.0, 2022-09-08 18:50:52.763
94.0, -3452.3610415889075, -8005.9925324907945, -33122.93834959726, -26017.229380277324, -14248.030096057666, 13081.425497701824, 29121.61846418601, 17720.88768731209, -14056.766218753603, -10999.002873778687, -21874.646469908534, -30449.51325053135, 2521.746161192198, -14775.106582058263, -12206.555867976651, -11022.226336267751, 0.23875, 0.903, 0.26825, 192.0, 0.0, 0.0, 0.0, 0.0, 0.0, 0.0, 0.0, 0.0, 0.0, 1.6626774527638354E9, 0.0, 2022-09-08 18:50:52.763
96.0, -3446.0354979080557, -7995.397805618979, -33113.192989014744, -25999.99618530228, -14239.402322697917, 13099.418651988346, 29078.121969475982, 17719.166602989033, -14061.750657767137, -11002.847373825, -21871.740743129343, -30462.611372782158, 2516.8287774120304, -14788.83055315382, -12216.882373915003, -11026.070836314064, 0.23875, 0.903, 0.26825, 192.0, 0.0, 0.0, 0.0, 0.0, 0.0, 0.0, 0.0, 0.0, 0.0, 1.66267745276384E9, 0.0, 2022-09-08 18:50:52.763
98.0, -3436.6701169812823, -7989.385186360501, -33118.9150355953, -25997.559845156655, -14241.883366332457, 13096.982311842718, 29101.18896975386, 17727.682617626502, -14060.92364322229, -10991.55974287507, -21865.03521979275, -30464.73478850541, 2520.494463502701, -14765.696497642577, -12207.807565666148, -11016.03490305363, 0.249375, 0.9085000000000001, 0.264125, 192.0, 4.0, 16.0, 14.0, 72.0, 4.0, 16.0, 0.0, 0.0, 0.0, 1.6626774527638445E9, 0.0, 2022-09-08 18:50:52.763
100.0, -3433.2726518240756, -7987.3288258706125, -33116.52339893859, -25990.094362508582, -14219.173993965864, 13096.311759509059, 29060.151166933916, 17729.35899846065, -14052.027648929079, -10986.485896883714, -21861.503644168813, -30469.093378674195, 2526.596489739, -14762.723715630022, -12205.46063249834, -11016.70545538729, 0.249375, 0.9085000000000001, 0.264125, 192.0, 0.0, 0.0, 0.0, 0.0, 0.0, 0.0, 0.0, 0.0, 0.0, 1.6626774527638488E9, 0.0, 2022-09-08 18:50:52.763
102.0, -3446.7731054750807, -8001.209259177359, -33135.298864281045, -26004.33242372661, -14246.733694879258, 13085.649977403877, 29085.430989912868, 17728.621390893626, -14061.124808922388, -10992.006777764176, -21865.549309915223, -30480.045733457297, 2520.06978035805, -14765.651794153668, -12198.643350439472, -11019.722940888756, 0.249375, 0.9085000000000001, 0.264125, 192.0, 0.0, 0.0, 0.0, 0.0, 0.0, 0.0, 0.0, 0.0, 0.0, 1.6626774527638545E9, 0.0, 2022-09-08 18:50:52.763
104.0, -3438.1676838597878, -7985.5630380586435, -33121.95487284123, -25990.161417741947, -14232.428578427862, 13097.138774053905, 29060.978181478764, 17737.338571231197, -14065.68456479127, -10996.387719677416, -21866.823359349175, -30489.254652172884, 2523.8695769154524, -14765.383573220202, -12203.001940608257, -11016.727807131745, 0.249375, 0.9085000000000001, 0.264125, 192.0, 0.0, 0.0, 0.0, 0.0, 0.0, 0.0, 0.0, 0.0, 0.0, 1.6626774527638588E9, 0.0, 2022-09-08 18:50:52.763
106.0, -3434.569053002483, -7986.05477643666, -33127.02871883258, -25997.38103120101, -14231.66861911638, 13100.78210840012, 29113.974167582295, 17741.428940466518, -14048.83134947197, -10992.632626608924, -21862.04008603574, -30486.25951841587, 2528.3846292954245, -14759.706230128555, -12191.624902680505, -11017.063083298575, 0.249375, 0.9085000000000001, 0.264125, 192.0, 0.0, 0.0, 0.0, 0.0, 0.0, 0.0, 0.0, 0.0, 0.0, 1.662677452763863E9, 0.0, 2022-09-08 18:50:52.763
108.0, -3438.9499949157234, -7989.29577938268, -33139.210419560724, -26007.796944117184, -14224.940744035333, 13097.11642230945, 29092.5164929052, 17733.672885140524, -14052.49703556264, -11001.08158601303, -21862.397713947026, -30487.019477727354, 2525.657716471877, -14757.471055683025, -12181.208989764333, -11013.777376863645, 0.2596875, 0.91025, 0.2640625, 192.0, 4.0, 56.0, 14.0, 64.0, 4.0, 32.0, 0.0, 0.0, 0.0, 1.6626774527638676E9, 0.0, 2022-09-08 18:50:52.763
110.0, -3430.1210558558773, -7990.72629102782, -33148.32993129849, -26020.00099658978, -14230.43927317134, 13108.515811981657, 29099.065554030607, 17737.964420075943, -14059.359021110418, -11001.32745520204, -21865.973993059873, -30493.03209698583, 2524.07074261555, -14762.634308652201, -12194.530629459696, -11026.339057247527, 0.2596875, 0.91025, 0.2640625, 192.0, 0.0, 0.0, 0.0, 0.0, 0.0, 0.0, 0.0, 0.0, 0.0, 1.662677452763872E9, 0.0, 2022-09-08 18:50:52.763
112.0, -3428.645840721827, -7986.747680514775, -33150.45334702174, -26017.072918066136, -14223.24201145673, 13106.615913702955, 29075.193890952338, 17735.79630086378, -14056.16272165331, -10995.717167343757, -21872.813626863197, -30498.016535999363, 2519.0192483686506, -14780.091021071796, -12204.052472597656, -11034.966830607276, 0.2596875, 0.91025, 0.2640625, 192.0, 0.0, 0.0, 0.0, 0.0, 0.0, 0.0, 0.0, 0.0, 0.0, 1.6626774527638764E9, 0.0, 2022-09-08 18:50:52.763
114.0, -3417.3358580274416, -7972.0625844076385, -33153.113204611924, -26018.704595411375, -14214.994217752723, 13115.176631829338, 29085.922728290887, 17751.80014989378, -14046.506768048617, -10971.644338565391, -21851.914745797487, -30475.21775665495, 2539.4934462897118, -14728.078511724296, -12194.865905626524, -11020.952286833797, 0.2596875, 0.91025, 0.2640625, 192.0, 0.0, 0.0, 0.0, 0.0, 0.0, 0.0, 0.0, 0.0, 0.0, 1.6626774527638807E9, 0.0, 2022-09-08 18:50:52.763
116.0, -3417.358209771897, -7969.2462646062695, -33153.51553601212, -26021.43150823492, -14219.732787577248, 13107.934666625819, 29086.056838757617, 17744.066446312245, -14055.31335536401, -10972.828981021523, -21854.909879554496, -30483.242032914408, 2535.35837356548, -14749.11150325674, -12203.717196430827, -11028.238955526229, 0.2596875, 0.91025, 0.2640625, 192.0, 0.0, 0.0, 0.0, 0.0, 0.0, 0.0, 0.0, 0.0, 0.0, 1.6626774527638862E9, 0.0, 2022-09-08 18:50:52.763
118.0, -3421.739151685137, -7973.090764652582, -33163.73028322819, -26035.781328175228, -14222.43734865634, 13101.854992133975, 29072.601088595522, 17744.37937073462, -14056.520349564595, -10993.07966149803, -21848.405521918005, -30484.31491664826, 2539.5605015230776, -14753.961831803541, -12210.713292445338, -11029.37889449345, 0.2596875, 0.91025, 0.2640625, 192.0, 0.0, 0.0, 0.0, 0.0, 0.0, 0.0, 0.0, 0.0, 0.0, 1.6626774527638905E9, 0.0, 2022-09-08 18:50:52.763
120.0, -3424.8236924199696, -7974.208351875348, -33150.98978888867, -26045.459633524377, -14220.693912588826, 13106.884134636419, 29078.613707854, 17744.289963756797, -14049.323087849985, -10990.442155652305, -21856.02746677726, -30496.31780342076, 2538.2417486002146, -14759.885044084198, -12216.860022170547, -11036.397342252416, 0.268, 0.882, 0.248, 192.0, 4.0, 48.0, 13.5, 72.0, 3.5, 96.0, 0.0, 0.0, 0.0, 1.6626774532443109E9, 0.0, 2022-09-08 18:50:53.244
122.0, -3425.382486031352, -7975.303587353657, -33148.21817257621, -26063.430436066443, -14222.48205214525, 13108.672274192844, 29069.963582749795, 17746.927469602524, -14055.045134430544, -10982.641396837402, -21849.634867863046, -30499.782323811334, 2549.5293795501448, -14744.39528517667, -12213.015522124235, -11041.42648475486, 0.268, 0.882, 0.248, 192.0, 0.0, 0.0, 0.0, 0.0, 0.0, 0.0, 0.0, 0.0, 0.0, 1.6626774532444472E9, 0.0, 2022-09-08 18:50:53.244
124.0, -3424.8460441644247, -7974.2977588531685, -33144.239562063165, -26082.92115723147, -14215.485956130738, 13115.936591140819, 29088.716696347798, 17750.52610045983, -14052.005297184623, -10985.480068383225, -21856.675667366468, -30507.89600704861, 2550.199931883804, -14750.787884090887, -12213.395501779974, -11045.159226078895, 0.268, 0.882, 0.248, 192.0, 0.0, 0.0, 0.0, 0.0, 0.0, 0.0, 0.0, 0.0, 0.0, 1.6626774532444534E9, 0.0, 2022-09-08 18:50:53.244
126.0, -3415.8159394044806, -7968.866284950529, -33133.689538680264, -26099.819076039683, -14217.966999765278, 13144.03273392114, 29073.5622136071, 17751.80014989378, -14057.213253642709, -10964.335318128506, -21849.053722507208, -30507.828951815245, 2565.197952413315, -14739.58966011878, -12205.326522031608, -11050.56834823708, 0.268, 0.882, 0.248, 192.0, 0.0, 0.0, 0.0, 0.0, 0.0, 0.0, 0.0, 0.0, 0.0, 1.6626774532444575E9, 0.0, 2022-09-08 18:50:53.244
128.0, -3433.183244846254, -7987.909971226451, -33151.81680343352, -26126.730576363872, -14239.178805253365, 13116.562439985568, 29087.263832958204, 17733.203498506966, -14067.070372947499, -10976.338204901005, -21854.79812083222, -30514.26625421837, 2565.063841946583, -14742.003648519953, -12208.835745911092, -11056.04452562863, 0.268, 0.882, 0.248, 192.0, 0.0, 0.0, 0.0, 0.0, 0.0, 0.0, 0.0, 0.0, 0.0, 1.662677453244462E9, 0.0, 2022-09-08 18:50:53.244
130.0, -3422.1414830853323, -7974.275407108714, -33133.30955902452, -26097.87447427207, -14220.783319566646, 13126.307800568082, 29060.955829734306, 17747.307449258264, -14069.864341004413, -10994.756042332177, -21860.56487090169, -30526.85028634671, 2566.427298358357, -14750.698477113066, -12218.156423348955, -11063.957043165808, 0.258, 0.852, 0.212, 192.0, 4.0, 8.0, 13.0, 80.0, 3.0, 80.0, 0.0, 0.0, 0.0, 1.6626774532444663E9, 0.0, 2022-09-08 18:50:53.244
132.0, -3425.382486031352, -7973.247226863769, -33135.924713125794, -26098.25445392781, -14222.571459123072, 13123.379722044436, 29099.624347641988, 17754.41530399505, -14055.872148975392, -10991.917370786354, -21853.971106287376, -30518.222512986962, 2582.6323130884543, -14744.909375299141, -12209.260429055743, -11054.6587174724, 0.258, 0.852, 0.212, 192.0, 0.0, 0.0, 0.0, 0.0, 0.0, 0.0, 0.0, 0.0, 0.0, 1.6626774532444708E9, 0.0, 2022-09-08 18:50:53.244
134.0, -3432.9820791461566, -7989.049910193671, -33146.81001267553, -26113.49834364633, -14235.401360440417, 13109.767509671154, 29053.937381975342, 17741.31718174424, -14056.587404797961, -10989.011644007165, -21853.635830120544, -30525.687995635035, 2582.6323130884543, -14739.634363607689, -12224.169042607433, -11069.52262753518, 0.258, 0.852, 0.212, 192.0, 0.0, 0.0, 0.0, 0.0, 0.0, 0.0, 0.0, 0.0, 0.0, 1.6626774532444792E9, 0.0, 2022-09-08 18:50:53.244
136.0, -3448.896521198335, -8001.343369644091, -33164.04320765057, -26135.35834972362, -14255.473226961283, 13099.820983388541, 29083.933423034363, 17728.152004260064, -14053.458160574219, -11010.84929834, -21869.662030895, -30549.5596587133, 2576.3738246409685, -14767.127009287717, -12241.201071882377, -11092.723738279788, 0.258, 0.852, 0.212, 192.0, 0.0, 0.0, 0.0, 0.0, 0.0, 0.0, 0.0, 0.0, 0.0, 1.6626774532444837E9, 0.0, 2022-09-08 18:50:53.244
138.0, -3436.49130302564, -7985.495982825278, -33153.470832523206, -26120.606198383117, -14242.509215177204, 13110.326303282536, 29054.183251164348, 17734.924582830023, -14052.675849518282, -11001.662731368868, -21868.56679541669, -30549.492603479935, 2588.5108218802, -14756.845206838276, -12245.917289962446, -11099.451613360836, 0.258, 0.852, 0.212, 192.0, 0.0, 0.0, 0.0, 0.0, 0.0, 0.0, 0.0, 0.0, 0.0, 1.6626774532444885E9, 0.0, 2022-09-08 18:50:53.244
140.0, -3437.8771111818687, -7985.2724653807245, -33165.09373963997, -26126.395300197044, -14253.10394204902, 13104.514849724157, 29114.398850726946, 17739.484338698905, -14041.611736012905, -11010.13404251743, -21864.811702348197, -30541.736548153945, 2599.3961214299347, -14738.181500218094, -12237.200109624877, -11097.886991248964, 0.26, 0.85, 0.162, 192.0, 4.0, 16.0, 13.0, 72.0, 2.5, 8.0, 0.0, 0.0, 0.0, 1.662677453244493E9, 0.0, 2022-09-08 18:50:53.244
142.0, -3427.8858814103464, -7978.857514722052, -33160.265762837626, -26114.459468657908, -14242.017476799188, 13111.466242249757, 29123.026624086695, 17752.113074316156, -14034.034494642556, -11029.46830147127, -21867.717429127388, -30542.652969676612, 2606.414569188901, -14739.29908744086, -12237.155406135966, -11098.24461916025, 0.26, 0.85, 0.162, 192.0, 0.0, 0.0, 0.0, 0.0, 0.0, 0.0, 0.0, 0.0, 0.0, 1.6626774532444973E9, 0.0, 2022-09-08 18:50:53.244
144.0, -3455.2667683680975, -8012.809814549663, -33193.86043475395, -26154.04440808826, -14281.44595401835, 13081.403145957369, 29189.47836035232, 17729.582515905204, -14026.032570127556, -11023.343923490516, -21874.467655952893, -30554.588801215745, 2604.112339510005, -14743.389456676181, -12242.363362594053, -11100.39038662796, 0.26, 0.85, 0.162, 192.0, 0.0, 0.0, 0.0, 0.0, 0.0, 0.0, 0.0, 0.0, 0.0, 1.6626774532445016E9, 0.0, 2022-09-08 18:50:53.244
146.0, -3465.2356463951646, -8027.137282745515, -33210.22191169523, -26175.055047876245, -14298.522686782204, 13052.77056131012, 29172.133406655004, 17702.089870225176, -14057.906157720823, -11056.580967495558, -21907.995272635853, -30598.554682559334, 2572.7528420392086, -14787.35533801977, -12274.773392054247, -11136.15317775645, 0.26, 0.85, 0.162, 192.0, 0.0, 0.0, 0.0, 0.0, 0.0, 0.0, 0.0, 0.0, 0.0, 1.662677453244506E9, 0.0, 2022-09-08 18:50:53.244
148.0, -3475.7409662891587, -8032.077018270138, -33234.89823757389, -26199.261987121343, -14332.273820909719, 13034.017447712118, 29242.384939478034, 17699.0276812348, -14045.478587803673, -11067.466267045293, -21919.059386141227, -30614.379717633692, 2571.679958305354, -14793.993806122997, -12281.210694457377, -11139.81886384712, 0.26, 0.85, 0.162, 192.0, 0.0, 0.0, 0.0, 0.0, 0.0, 0.0, 0.0, 0.0, 0.0, 1.6626774532445104E9, 0.0, 2022-09-08 18:50:53.244
150.0, -3485.799251294047, -8042.962317819873, -33257.47349947375, -26225.81585953425, -14340.655725080458, 13013.05151141304, 29244.865983112573, 17678.79935250275, -14059.426076343785, -11098.445784860347, -21954.28573540279, -30652.690607630087, 2541.4156963128685, -14834.539870564924, -12309.731520382347, -11174.888750897499, 0.232, 0.844, 0.088, 192.0, 3.5, 32.0, 13.0, 48.0, 1.0, 96.0, 0.0, 0.0, 0.0, 1.6626774532445147E9, 0.0, 2022-09-08 18:50:53.244
152.0, -3511.324943462008, -8067.482181487344, -33307.29553786463, -26277.738961903928, -14390.500115215793, 12975.344118516938, 29317.71031829242, 17656.715828980905, -14077.59804458595, -11124.910250295432, -21977.95623278096, -30676.338753263804, 2522.5284722481338, -14842.295925890914, -12327.076474079666, -11201.912009943964, 0.232, 0.844, 0.088, 192.0, 0.0, 0.0, 0.0, 0.0, 0.0, 0.0, 0.0, 0.0, 0.0, 1.6626774532445192E9, 0.0, 2022-09-08 18:50:53.244
154.0, -3530.949775093767, -8076.825210669663, -33328.35088114153, -26301.83414242675, -14414.818813183167, 12943.001144290107, 29328.997949242348, 17637.649790960528, -14109.739853112682, -11161.321242013126, -22022.950294369497, -30722.338643352825, 2486.6762741418215, -14875.912949551697, -12366.01321292081, -11245.095580231617, 0.232, 0.844, 0.088, 192.0, 0.0, 0.0, 0.0, 0.0, 0.0, 0.0, 0.0, 0.0, 0.0, 1.6626774532445233E9, 0.0, 2022-09-08 18:50:53.244
156.0, -3564.700909221281, -8112.789167498251, -33377.61412592103, -26349.622172072195, -14456.035429958753, 12908.847678762399, 29394.712077940952, 17615.38745348304, -14114.41136770384, -11171.78185841821, -22045.704370224998, -30758.61552460379, 2478.719053115732, -14909.28410402347, -12385.88391374158, -11273.124667778573, 0.232, 0.844, 0.088, 192.0, 0.0, 0.0, 0.0, 0.0, 0.0, 0.0, 0.0, 0.0, 0.0, 1.6626774532445276E9, 0.0, 2022-09-08 18:50:53.244
158.0, -3594.6298950469372, -8143.500464379843, -33423.50225728777, -26389.65414639165, -14502.594113659157, 12854.622346713824, 29405.373860046133, 17576.026031497244, -14152.23051932222, -11232.109216703084, -22105.875266298684, -30826.497772514558, 2430.4839885811793, -14958.748514503064, -12449.65344067257, -11336.24599412036, 0.232, 0.844, 0.088, 192.0, 0.0, 0.0, 0.0, 0.0, 0.0, 0.0, 0.0, 0.0, 0.0, 1.662677453244532E9, 0.0, 2022-09-08 18:50:53.244
160.0, -3646.7765148611684, -8189.723871913418, -33483.67315336146, -26450.741463988004, -14569.537588302803, 12793.624436095291, 29442.16483141957, 17538.542156045696, -14167.56381601856, -11254.617423369578, -22136.653618413642, -30866.328581133916, 2395.302342808526, -14984.453020626668, -12498.313188351774, -11384.190485976993, 0.20400000000000001, 0.808, 0.002, 192.0, 3.0, 48.0, 12.5, 32.0, 0.0, 8.0, 0.0, 0.0, 0.0, 1.6626774532445364E9, 0.0, 2022-09-08 18:50:53.244
162.0, -3730.7296670353016, -8268.245550184913, -33561.256058365834, -26528.793755625935, -14644.527690950357, 12696.148478525696, 29471.333857933743, 17473.185655258378, -14227.891174303435, -11326.210060859927, -22216.82932577483, -30943.732672182643, 2317.0935889594066, -15069.4567047902, -12584.367404504706, -11474.446830087523, 0.20400000000000001, 0.808, 0.002, 192.0, 0.0, 0.0, 0.0, 0.0, 0.0, 0.0, 0.0, 0.0, 0.0, 1.6626774532445407E9, 0.0, 2022-09-08 18:50:53.244
164.0, -3765.17370524093, -8308.679855904562, -33606.87596879911, -26576.559433526927, -14707.000816702941, 12650.59562332578, 29567.066379435826, 17447.659963090417, -14245.481997189761, -11368.074878224717, -22260.728151885054, -30962.59754450292, 2264.3434720448818, -15129.314676441512, -12633.138910906186, -11527.979258057983, 0.20400000000000001, 0.808, 0.002, 192.0, 0.0, 0.0, 0.0, 0.0, 0.0, 0.0, 0.0, 0.0, 0.0, 1.6626774532445452E9, 0.0, 2022-09-08 18:50:53.244
166.0, -3843.918900956977, -8388.632045821196, -33683.83302495874, -26656.891603099302, -14796.161925335162, 12559.936947815055, 29655.266363056468, 17379.375383779454, -14305.988169430277, -11440.114550604172, -22344.05545521444, -31014.14066721686, 2188.414596130204, -15190.938435904794, -12697.578990170836, -11599.05780542586, 0.20400000000000001, 0.808, 0.002, 192.0, 0.0, 0.0, 0.0, 0.0, 0.0, 0.0, 0.0, 0.0, 0.0, 1.6626774532445505E9, 0.0, 2022-09-08 18:50:53.244
168.0, -3912.069369801208, -8462.43750601262, -33750.709444369015, -26737.402586627315, -14866.79343781393, 12485.438583545516, 29691.25267162951, 17313.95182775877, -14356.592518877093, -11499.011397243905, -22422.39831953029, -31074.15510107936, 2121.4711214865592, -15275.539788668131, -12759.649784523224, -11667.007108569993, 0.20400000000000001, 0.808, 0.002, 192.0, 0.0, 0.0, 0.0, 0.0, 0.0, 0.0, 0.0, 0.0, 0.0, 1.6626774532445548E9, 0.0, 2022-09-08 18:50:53.244
170.0, -3968.194600128484, -8529.693905078639, -33800.7773519489, -26798.042869334564, -14925.444415264657, 12422.004332781355, 29655.221659567556, 17249.467045005207, -14407.263923557273, -11565.105505598249, -22504.11629725889, -31128.6486540614, 2048.515027584437, -15359.358830375533, -12826.481500444592, -11737.213937904113, 0.194, 0.85, -0.098, 192.0, 3.0, 8.0, 13.0, 72.0, 126.0, 120.0, 0.0, 0.0, 0.0, 1.6626774532445593E9, 0.0, 2022-09-08 18:50:53.244
172.0, -4022.196414732506, -8568.116553797312, -33835.444907599085, -26839.795927977077, -14972.383078620802, 12383.961663718423, 29555.42112057461, 17199.46619265869, -14444.971316453377, -11614.748730033485, -22564.51071077713, -31139.55630535559, 2002.1575095841301, -15406.029272798214, -12888.708757008168, -11786.52188617252, 0.194, 0.85, -0.098, 192.0, 0.0, 0.0, 0.0, 0.0, 0.0, 0.0, 0.0, 0.0, 0.0, 1.6626774532445633E9, 0.0, 2022-09-08 18:50:53.244
174.0, -4074.1418688466397, -8599.587809990384, -33880.997762799, -26880.677268585834, -15017.26538148706, 12328.663447935993, 29459.666247328074, 17151.34288684641, -14478.655395347525, -11651.11501826227, -22625.2404004622, -31124.982967970725, 1954.9506252945216, -15454.554910010685, -12944.14108325733, -11831.158319849768, 0.194, 0.85, -0.098, 192.0, 0.0, 0.0, 0.0, 0.0, 0.0, 0.0, 0.0, 0.0, 0.0, 1.6626774532445676E9, 0.0, 2022-09-08 18:50:53.244
176.0, -4076.734671203455, -8600.705397213149, -33887.23389950203, -26873.189434193308, -15015.320779719446, 12307.25047674781, 29355.57417339971, 17139.652924496284, -14494.480430421881, -11682.87684713326, -22660.645563679405, -31107.459200317768, 1916.2821073868404, -15451.20214834239, -12998.768746706099, -11870.273872646556, 0.194, 0.85, -0.098, 192.0, 0.0, 0.0, 0.0, 0.0, 0.0, 0.0, 0.0, 0.0, 0.0, 1.662677453244572E9, 0.0, 2022-09-08 18:50:53.244
178.0, -4074.7900694358436, -8603.566420503428, -33888.932632080636, -26853.385788605905, -15012.593866895899, 12307.71986338137, 29318.60438807063, 17148.079532155934, -14470.519360365792, -11666.224797514058, -22665.451188737297, -31069.774159166118, 1917.846729498712, -15457.05830538968, -13002.277970585583, -11857.332212606932, 0.194, 0.85, -0.098, 192.0, 0.0, 0.0, 0.0, 0.0, 0.0, 0.0, 0.0, 0.0, 0.0, 1.6626774532445765E9, 0.0, 2022-09-08 18:50:53.244
180.0, -4068.1739530770724, -8611.389531062787, -33894.49821645, -26848.870736225934, -15009.844602327896, 12300.656712133494, 29243.435471467434, 17145.330267587935, -14473.603901100625, -11649.773913594952, -22681.54444474512, -31057.681865415798, 1901.5076043018823, -15461.3498403251, -13017.745377748655, -11859.008593441082, 0.214, 0.902, -0.192, 192.0, 3.0, 88.0, 14.0, 24.0, 125.0, 0.0, 0.0, 0.0, 0.0, 1.6626774532445807E9, 0.0, 2022-09-08 18:50:53.244
182.0, -4079.260418326905, -8632.578984806418, -33923.33196679735, -26876.765713306155, -15046.523814979055, 12278.506133378283, 29208.857322795073, 17129.169956346745, -14478.029546502776, -11632.943050020105, -22690.373383804963, -31054.552621192055, 1894.2879908428183, -15457.77356121225, -13038.018409969618, -11856.281680617534, 0.214, 0.902, -0.192, 192.0, 0.0, 0.0, 0.0, 0.0, 0.0, 0.0, 0.0, 0.0, 0.0, 1.662677453244585E9, 0.0, 2022-09-08 18:50:53.244
184.0, -4100.136947648161, -8642.771380278038, -33938.59820826032, -26890.26616695716, -15051.97764062615, 12259.149522679989, 29146.183031342392, 17108.785165403508, -14501.364767714116, -11649.818617083862, -22725.711491788807, -31091.097723376482, 1869.522257986338, -15472.615119530574, -13076.39635519938, -11898.146497982323, 0.214, 0.902, -0.192, 192.0, 0.0, 0.0, 0.0, 0.0, 0.0, 0.0, 0.0, 0.0, 0.0, 1.662677453244589E9, 0.0, 2022-09-08 18:50:53.244
186.0, -4110.351694864237, -8649.678069314727, -33950.86931596629, -26905.219483997764, -15068.942614667729, 12250.655859786972, 29188.137255685004, 17120.028092864526, -14486.411450673515, -11638.48628264502, -22728.84073601255, -31099.81490371405, 1874.976083633433, -15461.841578703115, -13075.792858099087, -11899.755823583106, 0.214, 0.902, -0.192, 192.0, 0.0, 0.0, 0.0, 0.0, 0.0, 0.0, 0.0, 0.0, 0.0, 1.6626774532445936E9, 0.0, 2022-09-08 18:50:53.244
188.0, -4144.125180736206, -8672.968587037158, -33981.04417098095, -26933.47208898927, -15105.08538545196, 12223.27497282922, 29200.16249420196, 17101.923179855727, -14505.075157293697, -11661.709745134085, -22753.718227591304, -31133.4989826082, 1842.7225163844248, -15499.727785554862, -13105.833602647019, -11931.338838498456, 0.214, 0.902, -0.192, 192.0, 0.0, 0.0, 0.0, 0.0, 0.0, 0.0, 0.0, 0.0, 0.0, 1.662677453244598E9, 0.0, 2022-09-08 18:50:53.244
190.0, -4176.512858451946, -8694.180392525244, -34010.36965970632, -26960.897679435933, -15135.126129999893, 12206.84644065457, 29289.79298946774, 17108.80751714796, -14515.73693939888, -11684.083841333848, -22783.89308260597, -31169.239421992235, 1801.5506030977492, -15513.228239205866, -13123.223259833248, -11950.561338730018, 0.214, 0.918, -0.234, 192.0, 3.0, 88.0, 14.5, 24.0, 123.5, 48.0, 0.0, 0.0, 0.0, 1.6626774532446024E9, 0.0, 2022-09-08 18:50:53.244
192.0, -4209.235812334516, -8727.39508478583, -34044.52312523402, -26989.57496757209, -15167.580862948998, 12165.942748301357, 29268.26825955728, 17077.492723166077, -14541.329686800205, -11702.233457831557, -22818.337120811597, -31212.400640535434, 1750.4098117840067, -15537.256364495322, -13151.297050869114, -11982.412574578831, 0.214, 0.918, -0.234, 192.0, 0.0, 0.0, 0.0, 0.0, 0.0, 0.0, 0.0, 0.0, 0.0, 1.6626774532446067E9, 0.0, 2022-09-08 18:50:53.244
194.0, -4234.560338802378, -8755.379468843874, -34081.13528265182, -27018.989863275274, -15191.988967894195, 12123.094454180535, 29133.889571891974, 17033.258620889024, -14579.93114947452, -11750.155597943736, -22857.407970119475, -31269.28583017419, 1688.786052320725, -15577.355394048143, -13197.855734569519, -12022.779825065116, 0.214, 0.918, -0.234, 192.0, 0.0, 0.0, 0.0, 0.0, 0.0, 0.0, 0.0, 0.0, 0.0, 1.6626774532446113E9, 0.0, 2022-09-08 18:50:53.244
196.0, -4233.93448995763, -8749.947994941234, -34078.02839017253, -27019.682767353388, -15175.962767119738, 12112.477375564264, 28956.30496219456, 17020.540478293955, -14585.966120477453, -11765.064211495426, -22873.121246471554, -31307.68612714841, 1640.7521534862703, -15583.949158662459, -13228.723493662297, -12050.741857378705, 0.214, 0.918, -0.234, 192.0, 0.0, 0.0, 0.0, 0.0, 0.0, 0.0, 0.0, 0.0, 0.0, 1.6626774532446153E9, 0.0, 2022-09-08 18:50:53.244
198.0, -4194.885992394208, -8714.811052657491, -34046.60183746837, -26986.95981347082, -15144.558566160033, 12141.646402078439, 28853.755158633612, 17052.972859498605, -14560.708649242957, -11745.75230428604, -22851.28359213872, -31299.885368333504, 1637.019412162234, -15560.613937451119, -13214.999522566739, -12044.081037531023, 0.214, 0.918, -0.234, 192.0, 0.0, 0.0, 0.0, 0.0, 0.0, 0.0, 0.0, 0.0, 0.0, 1.6626774532446208E9, 0.0, 2022-09-08 18:50:53.244
200.0, -4140.526549878901, -8673.393270181808, -33996.221005466105, -26933.069757589074, -15097.932827226261, 12180.829010108591, 28772.238346605107, 17103.264284523044, -14514.529945198292, -11686.453126246111, -22809.217609073832, -31259.09343470257, 1651.1233629135327, -15512.378872916564, -13184.377632662969, -12016.230763939711, 0.23199999999999998, 0.9510000000000001, -0.28500000000000003, 192.0, 3.5, 104.0, 15.0, 96.0, 122.5, 64.0, 0.0, 0.0, 0.0, 1.662677453244625E9, 0.0, 2022-09-08 18:50:53.244
202.0, -4080.310950316304, -8633.003667951069, -33943.62735076277, -26879.78319880762, -15052.447027259712, 12217.642333226482, 28726.05964256044, 17148.23599436712, -14457.86827300409, -11640.788512323918, -22753.94174503586, -31204.018736364695, 1670.502325356284, -15464.322622337655, -13142.289297853626, -11974.790629719571, 0.23199999999999998, 0.9510000000000001, -0.28500000000000003, 192.0, 0.0, 0.0, 0.0, 0.0, 0.0, 0.0, 0.0, 0.0, 0.0, 1.6626774532446294E9, 0.0, 2022-09-08 18:50:53.244
204.0, -4040.7483626304106, -8609.288467083987, -33903.23774853203, -26838.723044243223, -15013.130308762826, 12247.370153352042, 28691.190921210164, 17185.094020973924, -14400.670158942958, -11590.854715210762, -22702.130401388455, -31158.488232909232, 1699.984276292834, -15418.948581093382, -13099.93274211082, -11927.807262874516, 0.23199999999999998, 0.9510000000000001, -0.28500000000000003, 192.0, 0.0, 0.0, 0.0, 0.0, 0.0, 0.0, 0.0, 0.0, 0.0, 1.6626774532446337E9, 0.0, 2022-09-08 18:50:53.244
206.0, -4000.6269813331346, -8573.905655611235, -33859.04834974388, -26794.600700688447, -14970.572587319923, 12293.548857396705, 28677.422246625694, 17216.230001000167, -14371.434077195416, -11573.219188835525, -22664.49006372572, -31126.122906937948, 1716.3457532341188, -15383.454010898355, -13057.285613690092, -11897.252428204112, 0.23199999999999998, 0.9510000000000001, -0.28500000000000003, 192.0, 0.0, 0.0, 0.0, 0.0, 0.0, 0.0, 0.0, 0.0, 0.0, 1.662677453244638E9, 0.0, 2022-09-08 18:50:53.244
208.0, -3980.2421903898944, -8558.572358914895, -33826.92889296161, -26758.837909559956, -14935.010961891528, 12312.860764606092, 28666.045208697942, 17240.660457689817, -14336.274783167219, -11539.780979130386, -22628.034368519115, -31086.91794716334, 1743.3913640250403, -15345.500748813243, -13011.218668367705, -11856.281680617534, 0.23199999999999998, 0.9510000000000001, -0.28500000000000003, 192.0, 0.0, 0.0, 0.0, 0.0, 0.0, 0.0, 0.0, 0.0, 0.0, 1.6626774532446423E9, 0.0, 2022-09-08 18:50:53.244
210.0, -3927.804997897744, -8504.659951288695, -33773.01648533541, -26699.58343500894, -14888.742850869043, 12362.526340785784, 28680.596194338348, 17295.08695543849, -14310.726739254802, -11492.261170418404, -22590.818714001027, -31052.920943846817, 1775.5778760406824, -15305.26760879369, -12955.249900251616, -11802.95041834717, 0.253, 0.9795, -0.3215, 192.0, 4.0, 72.0, 15.5, 64.0, 122.0, 104.0, 0.0, 0.0, 0.0, 1.6626774532446465E9, 0.0, 2022-09-08 18:50:53.244
212.0, -3903.776872608289, -8481.950578922102, -33742.68516810956, -26667.240460782108, -14864.580615112856, 12389.9742829769, 28737.906067121756, 17323.00428426317, -14262.961061353812, -11455.447847300513, -22544.371789022898, -31016.152324217837, 1813.8887660370788, -15246.214299942769, -12892.12857390983, -11754.693002068163, 0.253, 0.9795, -0.3215, 192.0, 0.0, 0.0, 0.0, 0.0, 0.0, 0.0, 0.0, 0.0, 0.0, 1.6626774532446508E9, 0.0, 2022-09-08 18:50:53.244
214.0, -3867.7682122907895, -8448.95940410607, -33707.28000489235, -26630.874172553322, -14837.020914199462, 12422.808995581747, 28771.433683804713, 17354.542595689607, -14235.982505796255, -11419.662704427565, -22512.297035729534, -31008.016289236104, 1838.4086297045505, -15222.38734035341, -12855.002326369564, -11728.094426166348, 0.253, 0.9795, -0.3215, 192.0, 0.0, 0.0, 0.0, 0.0, 0.0, 0.0, 0.0, 0.0, 0.0, 1.6626774532446551E9, 0.0, 2022-09-08 18:50:53.244
216.0, -3832.4077525624934, -8420.058598525358, -33673.97590565395, -26606.84604726387, -14806.443727784603, 12449.206405783463, 28798.769867273557, 17382.929311147847, -14191.547237819104, -11386.984454033907, -22469.314631141977, -30989.28552738256, 1874.5961039776928, -15200.952017420772, -12804.599142622847, -11681.222818043569, 0.253, 0.9795, -0.3215, 192.0, 0.0, 0.0, 0.0, 0.0, 0.0, 0.0, 0.0, 0.0, 0.0, 1.6626774532446594E9, 0.0, 2022-09-08 18:50:53.244
218.0, -3795.594429444603, -8386.75449928695, -33639.8894953596, -26578.526387038994, -14769.228073266517, 12478.75541195338, 28817.344166915915, 17403.023529413167, -14168.591996263505, -11373.86398003864, -22442.87251745135, -30979.3613528444, 1898.3113048447735, -15174.174627563314, -12779.989871977554, -11657.284099731934, 0.253, 0.9795, -0.3215, 192.0, 0.0, 0.0, 0.0, 0.0, 0.0, 0.0, 0.0, 0.0, 0.0, 1.6626774532446637E9, 0.0, 2022-09-08 18:50:53.244
220.0, -3773.488554178304, -8364.805086231838, -33613.201512479965, -26557.78396818447, -14743.210642720538, 12500.414252330573, 28842.914562572787, 17420.77081451068, -14138.998286604678, -11324.28781083677, -22408.875514134827, -30948.78416642954, 1931.1236657051643, -15147.196072005758, -12739.935545913642, -11631.981925008527, 0.2575, 1.00275, -0.33275, 192.0, 4.0, 24.0, 16.0, 8.0, 122.5, 32.0, 0.0, 0.0, 0.0, 1.662677453244668E9, 0.0, 2022-09-08 18:50:53.244
222.0, -3736.3846583824943, -8329.735199181461, -33575.516471328316, -26529.687825404148, -14707.38079635868, 12529.76209280039, 28865.780397150567, 17447.3693904125, -14117.048873549567, -11315.056540376729, -22379.01358354254, -30941.765718670576, 1945.361726923195, -15130.096987497449, -12715.773310157456, -11617.229773668025, 0.2575, 1.00275, -0.33275, 192.0, 0.0, 0.0, 0.0, 0.0, 0.0, 0.0, 0.0, 0.0, 0.0, 1.6626774532446723E9, 0.0, 2022-09-08 18:50:53.244
224.0, -3701.6723992434027, -8295.872306331672, -33560.272581609795, -26520.09892703282, -14677.764734955399, 12548.023468020376, 28894.636499242366, 17461.048658019146, -14076.011070729623, -11282.512400449801, -22348.101120960848, -30940.98340761464, 1970.8203638577897, -15089.84149573344, -12693.287455235417, -11590.20651462156, 0.2575, 1.00275, -0.33275, 192.0, 0.0, 0.0, 0.0, 0.0, 0.0, 0.0, 0.0, 0.0, 0.0, 1.6626774532446768E9, 0.0, 2022-09-08 18:50:53.244
226.0, -3651.8503608525234, -8244.865625484661, -33519.12302006758, -26481.788037036426, -14625.46165292998, 12603.411090780628, 28908.181656382283, 17498.107850326043, -14043.511634291606, -11243.486254630836, -22310.75135597603, -30927.684119663732, 2006.2478788194514, -15067.623861744865, -12659.26810017444, -11561.797447418863, 0.2575, 1.00275, -0.33275, 192.0, 0.0, 0.0, 0.0, 0.0, 0.0, 0.0, 0.0, 0.0, 0.0, 1.6626774532446811E9, 0.0, 2022-09-08 18:50:53.244
228.0, -3609.471453365261, -8213.684941969508, -33492.457388932395, -26449.467414554052, -14594.83976302621, 12640.559690065347, 28950.29234293608, 17532.28366759821, -13994.226037767654, -11198.246323853295, -22256.146044271714, -30875.5374998495, 2057.768649788934, -15012.236238984615, -12604.573381492304, -11505.001664757929, 0.2575, 1.00275, -0.33275, 192.0, 0.0, 0.0, 0.0, 0.0, 0.0, 0.0, 0.0, 0.0, 0.0, 1.6626774532446856E9, 0.0, 2022-09-08 18:50:53.244
230.0, -3598.608505559982, -8201.592648219186, -33483.315525450176, -26436.302237069875, -14589.005957723375, 12650.908547748155, 28978.433189205312, 17542.543118303194, -13977.28341547053, -11180.789611433698, -22235.895363795207, -30860.315961875436, 2078.958103532565, -14990.711509074154, -12587.49664872845, -11481.5099813354, 0.25275000000000003, 1.000375, -0.329375, 192.0, 3.5, 96.0, 15.5, 24.0, 122.5, 104.0, 0.0, 0.0, 0.0, 1.662677453244691E9, 0.0, 2022-09-08 18:50:53.244
232.0, -3566.958435411267, -8179.777345630807, -33459.08623446062, -26412.296463524875, -14551.49973052737, 12684.950254553587, 29003.198922061794, 17569.879301772035, -13953.970546003646, -11157.767314644732, -22211.77783152793, -30843.39569132277, 2106.4731009570482, -14977.859256012352, -12563.781447861367, -11455.157274622594, 0.25275000000000003, 1.000375, -0.329375, 192.0, 0.0, 0.0, 0.0, 0.0, 0.0, 0.0, 0.0, 0.0, 0.0, 1.6626774532446952E9, 0.0, 2022-09-08 18:50:53.244
234.0, -3540.2033972982645, -8155.078668007693, -33435.214571382356, -26385.384963200686, -14516.452195221449, 12714.56631595687, 29023.4496025383, 17596.0531945292, -13923.303952610964, -11142.568128415123, -22173.086961875793, -30809.95748161763, 2147.8461799438214, -14947.930270186696, -12525.76113054289, -11415.639390425611, 0.25275000000000003, 1.000375, -0.329375, 192.0, 0.0, 0.0, 0.0, 0.0, 0.0, 0.0, 0.0, 0.0, 0.0, 1.6626774532446997E9, 0.0, 2022-09-08 18:50:53.244
236.0, -3513.2695452296193, -8122.6239350585865, -33411.14174260399, -26360.77569255539, -14500.358939213627, 12741.611926747792, 29033.060852654085, 17621.333017508154, -13903.030920390001, -11132.979230043797, -22158.312458790835, -30802.491998969555, 2168.6556540317124, -14925.824394920397, -12507.790328000823, -11405.894029843097, 0.25275000000000003, 1.000375, -0.329375, 192.0, 0.0, 0.0, 0.0, 0.0, 0.0, 0.0, 0.0, 0.0, 0.0, 1.662677453244704E9, 0.0, 2022-09-08 18:50:53.244
238.0, -3476.3891668783626, -8092.225562599369, -33377.547070687666, -26323.9623694375, -14467.09954346413, 12771.362098617805, 29041.107480657993, 17640.0637793617, -13869.123324051301, -11089.594494056046, -22118.839278082763, -30759.353132170814, 2206.0277707609857, -14894.308435238414, -12468.339499037207, -11377.082631240206, 0.25275000000000003, 1.000375, -0.329375, 192.0, 0.0, 0.0, 0.0, 0.0, 0.0, 0.0, 0.0, 0.0, 0.0, 1.6626774532447083E9, 0.0, 2022-09-08 18:50:53.244
240.0, -3463.492210327651, -8081.899056661017, -33364.94068681487, -26303.577578494263, -14430.755606979801, 12782.515619101003, 29034.401957321403, 17651.19494810044, -13851.107818020322, -11069.52262753518, -22097.202789450024, -30719.343509595816, 2233.2968989964606, -14855.505806864001, -12446.770065637835, -11362.509293855346, 0.256375, 0.9841875, -0.3106875, 192.0, 4.0, 16.0, 15.0, 32.0, 123.0, 112.0, 0.0, 0.0, 0.0, 1.6626774534149976E9, 0.0, 2022-09-08 18:50:53.414
242.0, -3457.121963157888, -8073.092469345626, -33348.78037557368, -26287.19374980852, -14422.99955165381, 12802.922761788699, 29006.663442452365, 17656.78288421427, -13836.981515524569, -11052.490598260236, -22083.836446265752, -30710.067535646864, 2250.887721882787, -14830.583611796334, -12434.431902698507, -11354.5297210848, 0.256375, 0.9841875, -0.3106875, 192.0, 0.0, 0.0, 0.0, 0.0, 0.0, 0.0, 0.0, 0.0, 0.0, 1.6626774534150095E9, 0.0, 2022-09-08 18:50:53.415
244.0, -3422.3426487854304, -8038.514320673266, -33318.60552055902, -26260.036380295325, -14402.033615354732, 12845.078151831407, 28998.616814448455, 17682.755611271336, -13806.136108176246, -11023.008647323686, -22058.198995375515, -30692.163788338163, 2286.7846234780104, -14807.74012896301, -12410.381425664596, -11331.820348718209, 0.256375, 0.9841875, -0.3106875, 192.0, 0.0, 0.0, 0.0, 0.0, 0.0, 0.0, 0.0, 0.0, 0.0, 1.6626774534150145E9, 0.0, 2022-09-08 18:50:53.415
246.0, -3404.4612532211845, -8018.956544274873, -33297.550177282115, -26242.043226008802, -14373.98217606332, 12871.11793412184, 29007.40105001939, 17702.536905114284, -13784.566674776874, -11006.356597704482, -22030.12520433965, -30669.744988649487, 2322.212138439672, -14785.187218807605, -12382.397041606551, -11300.840830903153, 0.256375, 0.9841875, -0.3106875, 192.0, 0.0, 0.0, 0.0, 0.0, 0.0, 0.0, 0.0, 0.0, 0.0, 1.6626774534150188E9, 0.0, 2022-09-08 18:50:53.415
248.0, -3394.0229885605563, -8010.77580580423, -33279.40056078441, -26226.888743268104, -14349.976402518321, 12893.98376869962, 28998.50505572618, 17723.279323968807, -13783.180866620645, -10984.474239882737, -22017.340006511215, -30656.803328609865, 2340.115885748373, -14756.889910327187, -12365.49912279834, -11285.574589440179, 0.256375, 0.9841875, -0.3106875, 192.0, 0.0, 0.0, 0.0, 0.0, 0.0, 0.0, 0.0, 0.0, 0.0, 1.662677453415023E9, 0.0, 2022-09-08 18:50:53.415
250.0, -3387.4739274351514, -8005.67960806842, -33257.071168073555, -26211.108411682657, -14342.421512892428, 12916.26845792156, 29005.478799996235, 17735.237507252397, -13767.177017590646, -10986.284731183618, -21995.703517878475, -30648.533183161402, 2356.8796940898533, -14749.983221290497, -12332.038561348745, -11260.89826356152, 0.2591875, 0.95209375, -0.28434375, 192.0, 4.0, 24.0, 14.0, 96.0, 123.5, 120.0, 0.0, 0.0, 0.0, 1.6626774534150271E9, 0.0, 2022-09-08 18:50:53.415
252.0, -3373.928770295235, -7994.749605029775, -33244.06245280057, -26199.016117932337, -14330.172756930919, 12912.692178808711, 28994.392334746404, 17740.624277666127, -13770.775648447949, -10973.164257188351, -21985.17584624003, -30648.421424439126, 2360.7688976250765, -14743.881195054199, -12329.646924692026, -11260.786504839243, 0.2591875, 0.95209375, -0.28434375, 192.0, 0.0, 0.0, 0.0, 0.0, 0.0, 0.0, 0.0, 0.0, 0.0, 1.6626774534150317E9, 0.0, 2022-09-08 18:50:53.415
254.0, -3361.836476544914, -7985.540686314188, -33229.69028111581, -26195.52924579731, -14300.713157738825, 12932.741693585122, 28989.050267821585, 17751.397818493584, -13743.215947534556, -10936.440341048283, -21953.92810749151, -30631.25528469745, 2378.694996678233, -14725.217488434017, -12300.991988300322, -11239.150016206506, 0.2591875, 0.95209375, -0.28434375, 192.0, 0.0, 0.0, 0.0, 0.0, 0.0, 0.0, 0.0, 0.0, 0.0, 1.6626774534150357E9, 0.0, 2022-09-08 18:50:53.415
0.0, -3359.37778465483, -7981.718538012331, -33229.57852239353, -26195.9315771975, -14309.54209679867, 12946.108036769396, 28965.31271521005, 17744.915812601546, -13755.352944773787, -10952.332431356006, -21959.00195348286, -30650.656598884656, 2372.9953018421297, -14744.998782276964, -12305.90937208049, -11244.827359298153, 0.2591875, 0.95209375, -0.28434375, 192.0, 0.0, 0.0, 0.0, 0.0, 0.0, 0.0, 0.0, 0.0, 0.0, 1.6626774534150403E9, 0.0, 2022-09-08 18:50:53.415
2.0, -3365.4351074022184, -7987.574695059621, -33226.91866480335, -26186.119161381623, -14329.211631919341, 12945.45983618019, 28935.696653806768, 17753.074199327733, -13750.77083716045, -10966.79401001859, -21955.045694714274, -30671.51077646146, 2381.5560199685124, -14708.118403925706, -12293.660616118983, -11235.283164415738, 0.2591875, 0.95209375, -0.28434375, 192.0, 0.0, 0.0, 0.0, 0.0, 0.0, 0.0, 0.0, 0.0, 0.0, 1.6626774534150448E9, 0.0, 2022-09-08 18:50:53.415
4.0, -3373.705252850682, -7992.335616628602, -33239.50269693169, -26190.477751550407, -14349.104684484564, 12942.665868123278, 28722.572770425413, 17734.209327007455, -13766.01472687897, -10952.108913911452, -21956.900889504064, -30686.50879699097, 2374.85049663192, -14720.903601754142, -12311.318494238674, -11244.22386219786, 0.2591875, 0.95209375, -0.28434375, 192.0, 0.0, 0.0, 0.0, 0.0, 0.0, 0.0, 0.0, 0.0, 0.0, 1.662677453415049E9, 0.0, 2022-09-08 18:50:53.415
6.0, -3373.8840668063244, -7993.341445129091, -33217.799153065585, -26174.004515886845, -14311.062015421632, 12935.08862675293, 28933.77440378361, 17744.75935039036, -13766.774686190449, -10959.619100048436, -21956.655020315055, -30680.049142843385, 2372.1235838083726, -14736.080436239296, -12304.14358426852, -11245.654373843, 0.258, 0.892, -0.21, 192.0, 4.0, 8.0, 13.5, 112.0, 124.5, 56.0, 0.0, 0.0, 0.0, 1.66267745341506E9, 0.0, 2022-09-08 18:50:53.415
8.0, -3366.485639391618, -7988.357006115557, -33214.80401930857, -26167.41075127253, -14290.856038434034, 12932.920507540764, 29083.03935325615, 17749.922603359533, -13761.589081476819, -10954.411143590349, -21945.568555065223, -30671.26490727245, 2377.6444646888335, -14734.784035060888, -12254.634470300016, -11246.347277921115, 0.258, 0.892, -0.21, 192.0, 0.0, 0.0, 0.0, 0.0, 0.0, 0.0, 0.0, 0.0, 0.0, 1.6626774534150643E9, 0.0, 2022-09-08 18:50:53.415
10.0, -3365.613921357861, -7984.0431194356825, -33220.61547286695, -26173.624536231106, -14306.792832230669, 12927.153757471295, 29028.5010967852, 17750.012010337356, -13760.96323263207, -10949.136131898897, -21944.406264353547, -30661.988933323497, 2378.47147923368, -14732.995895504464, -12258.23310115732, -11249.498873889313, 0.258, 0.892, -0.21, 192.0, 0.0, 0.0, 0.0, 0.0, 0.0, 0.0, 0.0, 0.0, 0.0, 1.6626774534150689E9, 0.0, 2022-09-08 18:50:53.415
12.0, -3354.1698281967438, -7977.583465288099, -33222.828295568026, -26162.068684347712, -14289.805506444634, 12941.235356478139, 29011.35730878798, 17746.972173091435, -13767.042907123912, -10948.59969003197, -21941.187613151982, -30647.63911338319, 2384.5064502366126, -14733.554689115846, -12260.132999436022, -11258.908958304997, 0.258, 0.892, -0.21, 192.0, 0.0, 0.0, 0.0, 0.0, 0.0, 0.0, 0.0, 0.0, 0.0, 1.662677453415073E9, 0.0, 2022-09-08 18:50:53.415
14.0, -3364.183409712721, -7984.356043858057, -33224.14704849089, -26159.855861646636, -14300.087308894075, 12951.22658624966, 28993.095933567995, 17770.03917336931, -13775.469514783565, -10951.63952727789, -21940.852336985154, -30635.077432999307, 2381.9583513687076, -14717.260267407926, -12259.261281402265, -11251.89051054603, 0.258, 0.892, -0.21, 192.0, 0.0, 0.0, 0.0, 0.0, 0.0, 0.0, 0.0, 0.0, 0.0, 1.6626774534150772E9, 0.0, 2022-09-08 18:50:53.415
16.0, -3360.875351533336, -7973.358985586046, -33215.02753675312, -26146.60127718464, -14277.467343505305, 12955.987507818641, 28996.56045395857, 17757.27632728533, -13784.92430268816, -10954.813474990544, -21944.227450397906, -30637.53612488939, 2383.724139180677, -14718.511965097425, -12254.679173788927, -11252.918690790975, 0.248, 0.856, -0.17200000000000001, 192.0, 3.5, 96.0, 13.0, 96.0, 125.0, 80.0, 0.0, 0.0, 0.0, 1.6626774534150815E9, 0.0, 2022-09-08 18:50:53.415
18.0, -3352.739316551604, -7962.518389525222, -33193.70397254276, -26132.564381666707, -14294.20880010233, 12964.749391645122, 28979.662535150357, 17750.839024882203, -13773.68137522714, -10929.712465967235, -21929.609409524135, -30615.72082230101, 2392.6648369627997, -14716.589715074268, -12241.111664904556, -11236.64662082751, 0.248, 0.856, -0.17200000000000001, 192.0, 0.0, 0.0, 0.0, 0.0, 0.0, 0.0, 0.0, 0.0, 0.0, 1.6626774534150858E9, 0.0, 2022-09-08 18:50:53.415
20.0, -3350.8841217618137, -7963.211293603336, -33178.66124852434, -26122.953131550927, -14280.417773773406, 12978.272197040582, 28938.803546286053, 17725.134518758598, -13767.467590268565, -10925.398579287361, -21916.757156462332, -30607.920063486108, 2410.747398227143, -14715.181555173584, -12222.716179217838, -11221.782710764732, 0.248, 0.856, -0.17200000000000001, 192.0, 0.0, 0.0, 0.0, 0.0, 0.0, 0.0, 0.0, 0.0, 0.0, 1.66267745341509E9, 0.0, 2022-09-08 18:50:53.415
22.0, -3332.5109878195512, -7948.369735285013, -33144.32896904099, -26090.051363712715, -14278.20495107233, 12983.18958082075, 28921.190371655273, 17753.834158639213, -13777.838799695826, -10931.880585179399, -21910.677481970488, -30597.235929636474, 2409.987438915663, -14708.967770215007, -12215.340103547585, -11209.019864680751, 0.248, 0.856, -0.17200000000000001, 192.0, 0.0, 0.0, 0.0, 0.0, 0.0, 0.0, 0.0, 0.0, 0.0, 1.6626774534150941E9, 0.0, 2022-09-08 18:50:53.415
24.0, -3319.234051613099, -7929.95189785384, -33117.37276522789, -26055.16029061798, -14257.931918851367, 13004.401386308837, 28886.031077627074, 17754.147083061587, -13736.644534664696, -10911.093462835965, -21867.449208193924, -30554.09706283773, 2443.1797794317936, -14679.351708811726, -12182.997129320756, -11160.20365479036, 0.248, 0.856, -0.17200000000000001, 192.0, 0.0, 0.0, 0.0, 0.0, 0.0, 0.0, 0.0, 0.0, 0.0, 1.6626774534150984E9, 0.0, 2022-09-08 18:50:53.415
26.0, -3314.316667832931, -7925.2803832626805, -33103.26881447659, -26037.658874709476, -14234.14966275092, 12999.372243806392, 28884.689972959757, 17645.83052943117, -13731.302467739877, -10895.290779506062, -21855.982763288353, -30532.66173990509, 2462.0223000076176, -14686.839543204254, -12176.895103084458, -11154.01222157624, 0.262, 0.926, -0.126, 192.0, 4.0, 24.0, 14.0, 120.0, 126.0, 8.0, 0.0, 0.0, 0.0, 1.6626774538855493E9, 0.0, 2022-09-08 18:50:53.885
28.0, -3307.4770340296072, -7922.754636139231, -33076.781997297054, -26002.253711492267, -14217.29644743162, 13034.844462256964, 28936.34485439597, 17836.334447423753, -13722.317066468844, -10871.285005961063, -21844.158690471493, -30520.725908365956, 2485.849259596975, -14664.733667937955, -12150.83296904957, -11138.92479406891, 0.262, 0.926, -0.126, 192.0, 0.0, 0.0, 0.0, 0.0, 0.0, 0.0, 0.0, 0.0, 0.0, 1.6626774538855553E9, 0.0, 2022-09-08 18:50:53.885
30.0, -3280.3420162608645, -7897.363054438002, -33045.48955505962, -25963.786359284684, -14183.791182493113, 13067.075677761517, 28999.39912550439, 17900.7745266884, -13703.273380192923, -10879.286930476062, -21814.833201746133, -30491.55688185178, 2513.1183878324496, -14642.94071709403, -12124.59202105904, -11088.923941722387, 0.262, 0.926, -0.126, 192.0, 0.0, 0.0, 0.0, 0.0, 0.0, 0.0, 0.0, 0.0, 0.0, 1.6626774538855596E9, 0.0, 2022-09-08 18:50:53.885
32.0, -3262.4159172077084, -7879.2581414292035, -33022.55666524848, -25924.313178576613, -14147.603708219971, 13083.750079125177, 29019.292178069616, 17871.985479829968, -13694.198571944067, -10841.244261413129, -21793.42023055795, -30442.94183766149, 2534.26313808717, -14631.474272188458, -12099.11103237999, -11076.652834016424, 0.262, 0.926, -0.126, 192.0, 0.0, 0.0, 0.0, 0.0, 0.0, 0.0, 0.0, 0.0, 0.0, 1.6626774538855639E9, 0.0, 2022-09-08 18:50:53.885
34.0, -3245.003908277024, -7861.5555598206, -32999.37790624832, -25901.246178298734, -14148.855405909468, 13099.575114199533, 28958.83070931801, 17871.940776341056, -13673.94789146756, -10816.053845411998, -21767.760427923255, -30403.982747075886, 2553.753859252198, -14609.36839692216, -12090.72912820925, -11057.564444251591, 0.262, 0.926, -0.126, 192.0, 0.0, 0.0, 0.0, 0.0, 0.0, 0.0, 0.0, 0.0, 0.0, 1.662677453885568E9, 0.0, 2022-09-08 18:50:53.885
36.0, -3234.1186087272895, -7856.437010340334, -32978.635487393796, -25880.92844258886, -14135.712580169748, 13119.065835364561, 29022.689643226822, 17872.63368041917, -13669.70106002105, -10812.321104087961, -21752.69535216038, -30380.401656675538, 2562.739260523231, -14615.246905713906, -12082.503686249696, -11040.130083576452, 0.262, 0.986, -0.068, 192.0, 4.0, 24.0, 15.0, 104.0, 126.5, 112.0, 0.0, 0.0, 0.0, 1.6626774538855724E9, 0.0, 2022-09-08 18:50:53.885
38.0, -3218.941774242136, -7841.014306666173, -32957.89306853927, -25856.520337643666, -14112.913800825334, 13144.949155443806, 29066.074379214573, 17889.375137016195, -13666.862388475227, -10802.352226060895, -21742.458253199846, -30347.656351048514, 2572.551676339111, -14605.12156547565, -12062.230654028734, -11005.149603503896, 0.262, 0.986, -0.068, 192.0, 0.0, 0.0, 0.0, 0.0, 0.0, 0.0, 0.0, 0.0, 0.0, 1.6626774538855824E9, 0.0, 2022-09-08 18:50:53.885
40.0, -3213.2197276615775, -7837.88506244243, -32935.45191710615, -25831.642846064908, -14078.089782963967, 13162.741144030231, 29071.215280439294, 17907.68121572509, -13668.203493142546, -10790.394042777305, -21723.280456457192, -30314.1063826211, 2594.366978927491, -14575.863131983655, -12038.448397928287, -10957.696850025279, 0.262, 0.986, -0.068, 192.0, 0.0, 0.0, 0.0, 0.0, 0.0, 0.0, 0.0, 0.0, 0.0, 1.6626774538855865E9, 0.0, 2022-09-08 18:50:53.885
42.0, -3199.9204397106696, -7830.3078210720805, -32914.173056384694, -25820.2434563927, -14077.396878885851, 13195.061766512605, 29072.914013017897, 17917.426576307604, -13664.515455307419, -10775.217208292152, -21711.031700495685, -30298.124885335554, 2608.381522700968, -14561.088628898697, -12018.935325018803, -10920.391788529372, 0.262, 0.986, -0.068, 192.0, 0.0, 0.0, 0.0, 0.0, 0.0, 0.0, 0.0, 0.0, 0.0, 1.6626774538855908E9, 0.0, 2022-09-08 18:50:53.885
44.0, -3200.68039902215, -7825.949230903296, -32904.56180626891, -25814.63316853442, -14073.64178581736, 13198.414528180901, 29073.092826973538, 17915.59373326227, -13664.291937862867, -10776.871237381845, -21706.561351604625, -30287.396047997005, 2611.8683948359962, -14570.968099947942, -12009.18996443629, -10901.124584808897, 0.262, 0.986, -0.068, 192.0, 0.0, 0.0, 0.0, 0.0, 0.0, 0.0, 0.0, 0.0, 0.0, 1.6626774538855948E9, 0.0, 2022-09-08 18:50:53.885
46.0, -3174.4394510316197, -7803.508079470168, -32892.022477629485, -25791.700278723274, -14042.796378469036, 13226.287153516669, 29074.27746942967, 17928.200117135064, -13655.79827496985, -10744.774132344024, -21688.456438595826, -30253.84607956959, 2628.252223521736, -14550.136274115595, -11995.309531129544, -10863.8642268019, 0.278, 1.068, -0.014, 192.0, 4.0, 88.0, 16.5, 48.0, 127.5, 72.0, 0.0, 0.0, 0.0, 1.662677453885599E9, 0.0, 2022-09-08 18:50:53.885
48.0, -3157.3850700122202, -7779.412898947347, -32876.06333208839, -25773.237737803192, -14023.283305559553, 13238.424150755902, 29088.493178903245, 17935.68795152759, -13665.387173341176, -10738.336829940896, -21681.013307692207, -30217.926826229912, 2637.394087003957, -14541.68731471149, -11989.140449659879, -10829.978982207655, 0.278, 1.068, -0.014, 192.0, 0.0, 0.0, 0.0, 0.0, 0.0, 0.0, 0.0, 0.0, 0.0, 1.6626774538856032E9, 0.0, 2022-09-08 18:50:53.885
50.0, -3134.876863345726, -7756.748230069666, -32865.91564010568, -25762.352438253456, -14024.736168949148, 13249.62237472801, 29075.886795030452, 17929.720035758022, -13674.75255426795, -10724.523451867515, -21669.658621508912, -30196.960889930833, 2651.5650929886215, -14504.561067171226, -11967.235740093678, -10809.862412197877, 0.278, 1.068, -0.014, 192.0, 0.0, 0.0, 0.0, 0.0, 0.0, 0.0, 0.0, 0.0, 0.0, 1.6626774538856075E9, 0.0, 2022-09-08 18:50:53.885
52.0, -3136.687354646606, -7763.878436550908, -32879.99723911253, -25772.924813380818, -14044.092779647444, 13240.458159501333, 29059.927649489364, 17914.431442550595, -13660.626251772197, -10698.841297488369, -21664.115388883994, -30186.477921781294, 2658.740002958775, -14501.789450858767, -11967.883940682881, -10804.475641784149, 0.278, 1.068, -0.014, 192.0, 0.0, 0.0, 0.0, 0.0, 0.0, 0.0, 0.0, 0.0, 0.0, 1.6626774538856115E9, 0.0, 2022-09-08 18:50:53.885
54.0, -3143.5940436832957, -7770.494552909679, -32907.08755339236, -25807.458258564267, -14066.265710147109, 13223.716702904308, 29050.852841240507, 17880.881474123176, -13689.415298630633, -10711.648847061258, -21689.506970585226, -30216.541018073684, 2634.443656735856, -14532.701913440456, -12000.249266654166, -10845.558148093003, 0.278, 1.068, -0.014, 192.0, 0.0, 0.0, 0.0, 0.0, 0.0, 0.0, 0.0, 0.0, 0.0, 1.6626774538856156E9, 0.0, 2022-09-08 18:50:53.885
56.0, -3156.3568897672762, -7778.898808824874, -32928.366414113814, -25835.487346111222, -14074.066468962012, 13216.09475804505, 29035.631303266444, 17867.090447794253, -13709.487165151497, -10717.057969219442, -21702.806258536133, -30236.389367149994, 2623.5360054416665, -14542.961364145443, -12018.935325018803, -10872.089668761453, 0.242, 1.008, 0.0, 192.0, 3.5, 72.0, 15.5, 64.0, 0.0, 0.0, 0.0, 0.0, 0.0, 1.66267745388562E9, 0.0, 2022-09-08 18:50:53.885
58.0, -3166.4375265166195, -7786.8113263620535, -32947.030120733994, -25864.20933773629, -14099.41334717433, 13193.072461256083, 29002.394259261404, 17831.260601432397, -13747.038095836413, -10741.89075730929, -21718.005444765742, -30260.350437206085, 2599.6643423633986, -14565.871902212133, -12039.610688639963, -10901.616323186914, 0.242, 1.008, 0.0, 192.0, 0.0, 0.0, 0.0, 0.0, 0.0, 0.0, 0.0, 0.0, 0.0, 1.662677453885624E9, 0.0, 2022-09-08 18:50:53.885
60.0, -3188.6104570162843, -7803.329265514525, -32978.076693782416, -25893.288957272645, -14120.289876495586, 13165.445705109323, 28969.40308444537, 17796.034252170833, -13760.180921576133, -10741.957812542656, -21727.549639648158, -30271.74982687829, 2588.8013945581192, -14581.898102986588, -12065.605767441484, -10924.459806020237, 0.242, 1.008, 0.0, 192.0, 0.0, 0.0, 0.0, 0.0, 0.0, 0.0, 0.0, 0.0, 0.0, 1.6626774538856282E9, 0.0, 2022-09-08 18:50:53.885
62.0, -3195.494794308519, -7809.766567917653, -32981.45180719517, -25896.03822184065, -14127.107158554454, 13159.075457939562, 28931.941560738276, 17784.500752031894, -13779.112849129779, -10762.767286630546, -21745.587497423592, -30288.223062541852, 2580.4418421318346, -14581.518123330847, -12085.208247328788, -10939.45782654975, 0.242, 1.008, 0.0, 192.0, 0.0, 0.0, 0.0, 0.0, 0.0, 0.0, 0.0, 0.0, 0.0, 1.6626774538856325E9, 0.0, 2022-09-08 18:50:53.885
64.0, -3208.4364543481415, -7827.983239648729, -32994.080542812415, -25902.587282966055, -14125.833109120502, 13161.332984129547, 28922.799697256054, 17786.110077632675, -13783.270273598466, -10763.773115131035, -21754.72936090581, -30299.778914425246, 2575.189182184837, -14597.544324105302, -12087.398718285409, -10939.614288760935, 0.242, 1.008, 0.0, 192.0, 0.0, 0.0, 0.0, 0.0, 0.0, 0.0, 0.0, 0.0, 0.0, 1.6626774538856366E9, 0.0, 2022-09-08 18:50:53.885
66.0, -3218.673553308672, -7848.435085825335, -33000.18256904872, -25906.431783012365, -14138.484196482206, 13160.707135284798, 28912.272025617604, 17785.126600876643, -13788.58998877883, -10776.401850748283, -21755.511671961747, -30319.20258035691, 2574.9209612513737, -14593.498658358892, -12089.924465408858, -10935.523919525614, 0.245, 0.993, 0.003, 192.0, 3.5, 96.0, 15.0, 72.0, 0.0, 24.0, 0.0, 0.0, 0.0, 1.6626774538856409E9, 0.0, 2022-09-08 18:50:53.885
68.0, -3232.241062193044, -7863.880141243952, -33015.761734934065, -25927.442422800355, -14160.098333370488, 13144.815044977075, 28911.690880261765, 17770.21798732495, -13793.842648725826, -10798.66418822577, -21761.658401686956, -30344.840031247146, 2569.1318594374493, -14620.432510427538, -12095.467698033775, -10947.325640598017, 0.245, 0.993, 0.003, 192.0, 0.0, 0.0, 0.0, 0.0, 0.0, 0.0, 0.0, 0.0, 0.0, 1.6626774538856459E9, 0.0, 2022-09-08 18:50:53.885
70.0, -3248.624890878784, -7879.124030962472, -33034.09016538742, -25947.782510254685, -14173.79995272159, 13115.780128929631, 28891.52960676308, 17762.394876765597, -13825.3139049189, -10819.630124524847, -21782.06554437465, -30381.742761342855, 2541.1921788683153, -14626.713350619479, -12119.853451234514, -10984.206018949273, 0.245, 0.993, 0.003, 192.0, 0.0, 0.0, 0.0, 0.0, 0.0, 0.0, 0.0, 0.0, 0.0, 1.662677453885651E9, 0.0, 2022-09-08 18:50:53.885
72.0, -3247.5073036560184, -7875.503048360712, -33036.079470643934, -25959.94185923837, -14182.695947014803, 13103.21844854575, 28892.423676541293, 17760.80790290927, -13834.433416656664, -10809.884763942333, -21783.40664904197, -30389.9234998135, 2538.621728255955, -14650.652068931113, -12125.284925137154, -10999.718129601257, 0.245, 0.993, 0.003, 192.0, 0.0, 0.0, 0.0, 0.0, 0.0, 0.0, 0.0, 0.0, 0.0, 1.6626774538856554E9, 0.0, 2022-09-08 18:50:53.885
74.0, -3248.3119664564097, -7876.821801283575, -33039.2981218455, -25974.93987976788, -14180.796048736102, 13098.055195576573, 28873.603507709922, 17755.21996679544, -13849.677306375183, -10811.89642094331, -21794.6942799919, -30408.38604073358, 2534.3525450649913, -14671.394487785637, -12143.233375934766, -11026.070836314064, 0.245, 0.993, 0.003, 192.0, 0.0, 0.0, 0.0, 0.0, 0.0, 0.0, 0.0, 0.0, 0.0, 1.6626774538856597E9, 0.0, 2022-09-08 18:50:53.885
76.0, -3245.2497774660324, -7875.883028016452, -33046.093052159915, -25997.850417834572, -14183.075926670543, 13090.097974550483, 28867.18855705125, 17745.966344590946, -13839.551966136929, -10834.046999698521, -21794.6942799919, -30418.041994338277, 2529.256347329181, -14660.844464402731, -12154.610413862518, -11032.463435228281, 0.23149999999999998, 0.9545, -0.0135, 192.0, 3.0, 104.0, 14.0, 80.0, 127.5, 8.0, 0.0, 0.0, 0.0, 1.6626774538856637E9, 0.0, 2022-09-08 18:50:53.885
78.0, -3249.854236823826, -7887.908266533407, -33055.033749942035, -26012.356699986067, -14196.196400665809, 13071.054288274561, 28846.66965564128, 17733.516422929337, -13852.381867454276, -10820.278325114052, -21803.925550451942, -30440.281980071308, 2525.523606005145, -14679.99990940093, -12165.227492478787, -11046.52268249067, 0.23149999999999998, 0.9545, -0.0135, 192.0, 0.0, 0.0, 0.0, 0.0, 0.0, 0.0, 0.0, 0.0, 0.0, 1.662677453885668E9, 0.0, 2022-09-08 18:50:53.885
80.0, -3238.7677715739933, -7881.381557152457, -33063.39330236832, -26008.646310406486, -14197.559857077582, 13066.96391903924, 28824.832001308445, 17733.65053339607, -13868.765696140015, -10832.325915375463, -21823.46097510588, -30488.449989372493, 2513.1407395769047, -14679.485819278458, -12190.708481157837, -11069.05324090162, 0.23149999999999998, 0.9545, -0.0135, 192.0, 0.0, 0.0, 0.0, 0.0, 0.0, 0.0, 0.0, 0.0, 0.0, 1.662677453885672E9, 0.0, 2022-09-08 18:50:53.885
82.0, -3256.045670037946, -7904.828537086075, -33086.080322990456, -26026.617112948552, -14198.319816389063, 13043.427532127802, 28817.03124249354, 17721.51353615684, -13865.837617616371, -10829.599002551915, -21830.971161242862, -30525.263312490384, 2515.912355889363, -14684.403203058626, -12198.241019039277, -11075.579950282568, 0.23149999999999998, 0.9545, -0.0135, 192.0, 0.0, 0.0, 0.0, 0.0, 0.0, 0.0, 0.0, 0.0, 0.0, 1.6626774538856764E9, 0.0, 2022-09-08 18:50:53.885
84.0, -3253.07288802539, -7908.605981899022, -33096.02684927307, -26041.279857311234, -14224.516060890683, 13027.446034842258, 28795.93119572773, 17710.382367418097, -13880.165085812223, -10843.188863180741, -21860.877795324064, -30565.00471413192, 2497.136890546905, -14703.692758523555, -12225.733664719304, -11102.53615409567, 0.23149999999999998, 0.9545, -0.0135, 192.0, 0.0, 0.0, 0.0, 0.0, 0.0, 0.0, 0.0, 0.0, 0.0, 1.6626774538856807E9, 0.0, 2022-09-08 18:50:53.885
86.0, -3263.6899666416607, -7923.939278595362, -33107.02390754508, -26054.847366195605, -14259.228320029775, 13008.938790433263, 28765.13049186832, 17688.231788662888, -13863.624794915295, -10873.207255984218, -21862.46476918039, -30572.269031079893, 2498.1874225363044, -14712.320531883304, -12226.158347863955, -11116.90832578043, 0.23275, 0.92225, -0.05275, 192.0, 3.5, 40.0, 13.5, 104.0, 126.5, 16.0, 0.0, 0.0, 0.0, 1.6626774538856847E9, 0.0, 2022-09-08 18:50:53.885
88.0, -3284.2088680516326, -7939.2502235472475, -33112.589491914456, -26061.217613365367, -14267.766686411702, 13002.210915352216, 28746.7350061816, 17684.275529894298, -13887.116478337823, -10896.900105106844, -21880.301461255727, -30595.134865657674, 2484.686968885299, -14730.336037914281, -12234.584955523605, -11133.694485866366, 0.23275, 0.92225, -0.05275, 192.0, 0.0, 0.0, 0.0, 0.0, 0.0, 0.0, 0.0, 0.0, 0.0, 1.6626774538856888E9, 0.0, 2022-09-08 18:50:53.885
90.0, -3297.5975629803615, -7953.24241557627, -33114.48939019315, -26058.87068019756, -14264.458628232316, 12998.321711816992, 28735.40267174276, 17684.275529894298, -13886.021242859513, -10901.079881319987, -21884.36947874659, -30609.86466525372, 2481.334207217003, -14733.644096093667, -12222.827937940114, -11131.146386998462, 0.23275, 0.92225, -0.05275, 192.0, 0.0, 0.0, 0.0, 0.0, 0.0, 0.0, 0.0, 0.0, 0.0, 1.6626774538856933E9, 0.0, 2022-09-08 18:50:53.885
92.0, -3294.8259466679033, -7961.669023235921, -33117.48452395017, -26052.388674305523, -14260.770590397191, 13007.888258443863, 28727.043119316473, 17696.83721027818, -13874.912425865225, -10897.01186382912, -21884.6153479356, -30618.04540372436, 2484.8434310964863, -14711.20294466054, -12221.710350717349, -11129.090026508573, 0.23275, 0.92225, -0.05275, 192.0, 0.0, 0.0, 0.0, 0.0, 0.0, 0.0, 0.0, 0.0, 0.0, 1.6626774538856971E9, 0.0, 2022-09-08 18:50:53.885
94.0, -3310.6733334867163, -7971.4814390518, -33127.74397465515, -26061.843462210116, -14267.833741645069, 12996.33240656047, 28744.32101778043, 17693.059765465234, -13867.044611816957, -10909.528840724093, -21888.012813092806, -30624.125078216206, 2486.497460186179, -14718.400206375147, -12218.46934777133, -11134.20857598884, 0.23275, 0.92225, -0.05275, 192.0, 0.0, 0.0, 0.0, 0.0, 0.0, 0.0, 0.0, 0.0, 0.0, 1.6626774538857017E9, 0.0, 2022-09-08 18:50:53.885
96.0, -3303.252554327554, -7973.381337330501, -33145.40185277484, -26079.277822885255, -14288.039718632666, 12976.104077828417, 28720.784630868988, 17675.40188734554, -13877.572283455407, -10918.961276884233, -21896.037089352263, -30641.715901102532, 2473.7122623577434, -14731.118348970218, -12240.977554437823, -11163.422305991926, 0.237375, 0.921125, -0.087375, 192.0, 3.5, 72.0, 14.0, 96.0, 126.0, 24.0, 0.0, 0.0, 0.0, 1.6626774538857057E9, 0.0, 2022-09-08 18:50:53.885
98.0, -3292.1437373332665, -7967.033441905194, -33120.50200945163, -26064.01158142228, -14260.01063108571, 12985.089479099452, 28733.0333868305, 17703.319216170217, -13867.335184494876, -10906.712520922723, -21887.72224041489, -30638.810174323342, 2478.8308118380087, -14732.034770492884, -12241.625755027027, -11166.037460093195, 0.237375, 0.921125, -0.087375, 192.0, 0.0, 0.0, 0.0, 0.0, 0.0, 0.0, 0.0, 0.0, 0.0, 1.6626774538857098E9, 0.0, 2022-09-08 18:50:53.885
100.0, -3288.4109960092305, -7967.167552371926, -33122.223093774686, -26081.49064558633, -14268.861921890011, 12988.71046170121, 28742.577581712914, 17699.69823356846, -13867.290481005964, -10909.573544213003, -21875.898167598032, -30638.87722955671, 2488.4420619537905, -14732.101825726251, -12228.080597887112, -11153.788704131688, 0.237375, 0.921125, -0.087375, 192.0, 0.0, 0.0, 0.0, 0.0, 0.0, 0.0, 0.0, 0.0, 0.0, 1.662677453885714E9, 0.0, 2022-09-08 18:50:53.885
102.0, -3295.6753129572053, -7980.444488578379, -33129.46505897821, -26110.25734070031, -14271.879407391478, 12976.461705739703, 28755.183965585707, 17692.79154453177, -13865.725858894093, -10913.038064603576, -21886.80581889222, -30660.625476911722, 2482.429442695313, -14752.10663701375, -12234.9872869238, -11163.914044369942, 0.237375, 0.921125, -0.087375, 192.0, 0.0, 0.0, 0.0, 0.0, 0.0, 0.0, 0.0, 0.0, 0.0, 1.6626774538857193E9, 0.0, 2022-09-08 18:50:53.885
104.0, -3285.058234340934, -7964.664156992932, -33121.84311411895, -26116.82875357017, -14279.702517950836, 12989.179848334772, 28753.619343473834, 17700.79346904677, -13864.295347248953, -10920.436492018282, -21892.23729279486, -30676.15993930816, 2474.941608302785, -14736.661581595134, -12242.743342249792, -11170.016070606242, 0.237375, 0.921125, -0.087375, 192.0, 0.0, 0.0, 0.0, 0.0, 0.0, 0.0, 0.0, 0.0, 0.0, 1.662677453885724E9, 0.0, 2022-09-08 18:50:53.885
106.0, -3275.1787632916885, -7948.637956218477, -33109.773172113084, -26100.713145817896, -14278.9202068949, 12985.782383177566, 28763.185890100707, 17716.864373310134, -13849.990230797557, -10921.397617029861, -21887.163446803504, -30668.895622360185, 2477.6014658929666, -14736.862747295232, -12229.75697872126, -11157.141465799985, 0.2416875, 0.9135625, -0.1176875, 192.0, 3.5, 88.0, 14.0, 40.0, 125.5, 48.0, 0.0, 0.0, 0.0, 1.6626774538857284E9, 0.0, 2022-09-08 18:50:53.885
108.0, -3256.000966549035, -7928.342572253057, -33088.7625323251, -26076.05917168369, -14255.160302538909, 12999.014615895107, 28785.247061878094, 17737.785606120302, -13833.248774200532, -10903.49386972116, -21872.65716465201, -30659.64200015569, 2484.306989229559, -14715.114499940217, -12218.46934777133, -11143.864529593531, 0.2416875, 0.9135625, -0.1176875, 192.0, 0.0, 0.0, 0.0, 0.0, 0.0, 0.0, 0.0, 0.0, 0.0, 1.6626774538857324E9, 0.0, 2022-09-08 18:50:53.885
110.0, -3249.5413124014513, -7916.786720369664, -33068.22127917067, -26051.67341848295, -14246.420770456883, 13020.807566739031, 28810.102201712394, 17747.687428914003, -13807.365454121287, -10879.644558387346, -21856.47450166637, -30634.786860321386, 2490.565477677045, -14691.041671161853, -12191.13316430249, -11119.121148481507, 0.2416875, 0.9135625, -0.1176875, 192.0, 0.0, 0.0, 0.0, 0.0, 0.0, 0.0, 0.0, 0.0, 0.0, 1.6626774538857367E9, 0.0, 2022-09-08 18:50:53.885
112.0, -3250.3459752018425, -7915.400912213435, -33050.563401050975, -26024.0913658251, -14242.397456454928, 13023.087444673472, 28803.55314058699, 17737.472681697927, -13807.343102376832, -10877.901122319832, -21856.318039455182, -30623.923912516108, 2483.077643284517, -14682.816229202299, -12187.042795067167, -11106.33595065307, 0.2416875, 0.9135625, -0.1176875, 192.0, 0.0, 0.0, 0.0, 0.0, 0.0, 0.0, 0.0, 0.0, 0.0, 1.6626774538857408E9, 0.0, 2022-09-08 18:50:53.885
114.0, -3243.2381204650546, -7903.107452763016, -33024.836543182915, -25992.84362707658, -14222.884383545446, 13038.666610558821, 28836.723129358666, 17723.79341409128, -13784.499619543509, -10853.917700519289, -21833.295742666214, -30598.73349651498, 2503.238916783204, -14669.449886018025, -12165.02632677869, -11088.543962066648, 0.2416875, 0.9135625, -0.1176875, 192.0, 0.0, 0.0, 0.0, 0.0, 0.0, 0.0, 0.0, 0.0, 0.0, 1.662677453885745E9, 0.0, 2022-09-08 18:50:53.885
116.0, -3262.639434652261, -7919.446577959845, -33032.90552293128, -25999.884426580003, -14234.976677295766, 13013.118566646406, 28834.242085724127, 17689.751707285846, -13786.555980033396, -10865.831180313968, -21825.04794896221, -30587.04353416485, 2503.462434227757, -14647.880452618654, -12153.805751062126, -11086.934636465865, 0.27484375, 0.96578125, -0.11684375, 192.0, 4.5, 80.0, 15.5, 104.0, 126.0, 48.0, 0.0, 0.0, 0.0, 1.66267745388575E9, 0.0, 2022-09-08 18:50:53.885
118.0, -3250.837713579859, -7905.18616499736, -33017.1922465792, -25975.029286745703, -14223.890212045933, 13051.608270598445, 28858.963115091698, 17817.871906503668, -13774.553093260896, -10858.075124987976, -21812.21804764486, -30538.070862063276, 2505.563498206556, -14656.843502145231, -12131.789282773649, -11050.903624403909, 0.27484375, 0.96578125, -0.11684375, 192.0, 0.0, 0.0, 0.0, 0.0, 0.0, 0.0, 0.0, 0.0, 0.0, 1.662677453885754E9, 0.0, 2022-09-08 18:50:53.885
120.0, -3238.3654401737977, -7904.448557430334, -33014.01829886655, -25969.016667487227, -14206.880534515445, 13059.699602091267, 28869.647248941335, 17804.639673786125, -13766.461761768076, -10854.923529019778, -21804.819620230155, -30519.451858932003, 2508.9386116193073, -14646.76286539589, -12116.455986077308, -11028.887156115432, 0.27484375, 0.96578125, -0.11684375, 192.0, 0.0, 0.0, 0.0, 0.0, 0.0, 0.0, 0.0, 0.0, 0.0, 1.6626774538857584E9, 0.0, 2022-09-08 18:50:53.885
122.0, -3233.2468906935324, -7903.532135907667, -33025.462392027664, -25981.131312982, -14200.33147339004, 13064.929910293808, 28888.735638706166, 17788.9487491785, -13768.741639702517, -10855.683488331259, -21805.020785930254, -30517.015518786375, 2505.11646331745, -14650.674420675567, -12119.339361112043, -11033.581022451046, 0.27484375, 0.96578125, -0.11684375, 192.0, 0.0, 0.0, 0.0, 0.0, 0.0, 0.0, 0.0, 0.0, 0.0, 1.6626774538857625E9, 0.0, 2022-09-08 18:50:53.885
124.0, -3220.551099842918, -7889.718757834287, -33023.47308677114, -25988.842664819083, -14195.324682632052, 13066.092201005484, 28917.457630331235, 17777.325842061742, -13777.369413062264, -10839.791398023533, -21799.186980627415, -30499.71526857797, 2514.034809355117, -14650.406199742103, -12113.30439010911, -11041.51589173268, 0.27484375, 0.96578125, -0.11684375, 192.0, 0.0, 0.0, 0.0, 0.0, 0.0, 0.0, 0.0, 0.0, 0.0, 1.6626774538857667E9, 0.0, 2022-09-08 18:50:53.885
126.0, -3211.453939849608, -7880.331025163058, -33029.306892073975, -26002.499580681277, -14193.938874475823, 13063.320584693025, 28926.62184555791, 17770.62031872515, -13785.147820132712, -10825.374522849861, -21804.327881852136, -30486.03600097132, 2517.9910681237066, -14635.430530957048, -12121.149852412922, -11051.350659293015, 0.28142187500000004, 0.956890625, -0.119421875, 192.0, 4.5, 0.0, 14.5, 80.0, 126.0, 24.0, 0.0, 0.0, 0.0, 1.6626774538857708E9, 0.0, 2022-09-08 18:50:53.885
128.0, -3205.933058969147, -7875.391289638435, -33032.793764209004, -26011.686147652406, -14205.628836825948, 13044.902747261853, 28907.66756625981, 17745.027571323822, -13787.986491678535, -10826.179185650253, -21810.876942977542, -30477.855262500678, 2522.841396670508, -14642.292516504827, -12138.941840999347, -11072.696575247834, 0.28142187500000004, 0.956890625, -0.119421875, 192.0, 0.0, 0.0, 0.0, 0.0, 0.0, 0.0, 0.0, 0.0, 0.0, 1.662677453885775E9, 0.0, 2022-09-08 18:50:53.885
130.0, -3196.746491998016, -7865.780039522653, -33029.530409518535, -26006.500542938775, -14200.28676990113, 13056.34684042297, 28900.492656289658, 17741.45129221097, -13783.627901509752, -10828.257897884596, -21813.51444882327, -30466.92525946203, 2528.9881263957177, -14628.680304131545, -12149.201291704332, -11076.04933691613, 0.28142187500000004, 0.956890625, -0.119421875, 192.0, 0.0, 0.0, 0.0, 0.0, 0.0, 0.0, 0.0, 0.0, 0.0, 1.6626774538857791E9, 0.0, 2022-09-08 18:50:53.885
132.0, -3206.268335135977, -7866.808219767598, -33021.483781514624, -25992.4859991653, -14215.57536310856, 13049.462503130735, 28878.632650212367, 17735.93041133051, -13783.985529421036, -10830.761293263591, -21818.78946051472, -30462.87959371562, 2522.014382125662, -14635.452882701504, -12144.775646302181, -11071.131953135962, 0.28142187500000004, 0.956890625, -0.119421875, 192.0, 0.0, 0.0, 0.0, 0.0, 0.0, 0.0, 0.0, 0.0, 0.0, 1.6626774538857834E9, 0.0, 2022-09-08 18:50:53.885
