%OpenBCI Raw EEG Data
%Number of channels = 16
%Sample Rate = 125 Hz
%Board = OpenBCI_GUI$BoardCytonSerialDaisy
Sample Index, EXG Channel 0, EXG Channel 1, EXG Channel 2, EXG Channel 3, EXG Channel 4, EXG Channel 5, EXG Channel 6, EXG Channel 7, EXG Channel 8, EXG Channel 9, EXG Channel 10, EXG Channel 11, EXG Channel 12, EXG Channel 13, EXG Channel 14, EXG Channel 15, Accel Channel 0, Accel Channel 1, Accel Channel 2, Other, Other, Other, Other, Other, Other, Other, Analog Channel 0, Analog Channel 1, Analog Channel 2, Timestamp, Other, Timestamp (Formatted)
0.0, -8627.438083581697, -2145.700412476112, -33481.5050341493, -21701.219284679806, 1442.8721598234367, 2720.073189744138, -128063.78341481488, 18433.774224969653, 0.0, 0.0, 0.0, 0.0, 0.0, 0.0, 0.0, 0.0, 0.0, 0.0, 0.0, 192.0, 0.0, 0.0, 0.0, 0.0, 0.0, 0.0, 0.0, 0.0, 0.0, 1.6625065560675151E9, 0.0, 2022-09-06 19:22:36.067
130.0, -8381.390080617677, -2013.7357132119791, -33020.1426768473, -21726.409700680935, 1492.9624191477799, 2846.762877316818, -132999.11564578005, 19317.852773410414, -13826.163271208201, 7432.782045934445, -7454.172665378173, -9890.088127861993, 16185.144029276853, -8691.855811101892, -18180.193684124195, -1677.9231045154459, 0.234, 0.912, -0.068, 192.0, 3.5, 40.0, 14.0, 64.0, 126.5, 112.0, 0.0, 0.0, 0.0, 1.6625065560675254E9, 0.0, 2022-09-06 19:22:36.067
132.0, -8762.152047413832, -2287.5445827894905, -33600.30455592925, -21845.74566432782, 1267.7015385271955, 2589.5390021251446, -125973.29181114338, 18373.759791107153, -14557.042963152286, 6432.183853648169, -8475.043889885414, -10673.852047187334, 15421.139052050003, -9819.724836316685, -19104.01363420649, -2315.976001736641, 0.234, 0.912, -0.068, 192.0, 0.0, 0.0, 0.0, 0.0, 0.0, 0.0, 0.0, 0.0, 0.0, 1.6625065560675333E9, 0.0, 2022-09-06 19:22:36.067
134.0, -8282.081280002747, -1895.0926536432094, -32958.071882494914, -21589.50526589218, 1617.729856697304, 2994.373797699666, -133972.35530285304, 19346.463006313206, -13925.919106712236, 7390.894876825199, -7514.991762041064, -9979.852733594505, 16087.243388562607, -8731.328991809964, -18262.492807208637, -1806.4456351334616, 0.234, 0.912, -0.068, 192.0, 0.0, 0.0, 0.0, 0.0, 0.0, 0.0, 0.0, 0.0, 0.0, 1.6625065560675411E9, 0.0, 2022-09-06 19:22:36.067
136.0, -8883.745537250703, -2418.235232619671, -33700.06039143329, -21993.557750410768, 1174.4053571707436, 2507.9998383521843, -124153.5021845701, 18350.424569895815, -14473.983880756365, 6487.169145008224, -8439.437560968108, -10585.696767055604, 15482.695756279918, -9811.387635634856, -19061.701781952594, -2224.0656285364184, 0.234, 0.912, -0.068, 192.0, 0.0, 0.0, 0.0, 0.0, 0.0, 0.0, 0.0, 0.0, 0.0, 1.662506556067549E9, 0.0, 2022-09-06 19:22:36.067
138.0, -8188.650988179564, -1782.7751377552913, -32895.308184064415, -21451.14796771383, 1749.0240036277776, 3106.110168231746, -134618.5218833115, 19296.842133622424, -14022.277477059064, 7316.865899189223, -7596.083890924918, -10089.242170958778, 16007.894695746267, -8785.375509902897, -18310.48200255418, -1944.9817472674547, 0.234, 0.912, -0.068, 192.0, 0.0, 0.0, 0.0, 0.0, 0.0, 0.0, 0.0, 0.0, 0.0, 1.6625065560675788E9, 0.0, 2022-09-06 19:22:36.067
140.0, -9000.198125862853, -2541.035716657128, -33766.80270037684, -22110.435022167567, 1052.4765911670436, 2365.9768540831633, -122696.83899841775, 18460.730428782754, -14363.365097447051, 6568.887122736826, -8365.855618221238, -10477.916655292112, 15599.975359436914, -9718.605544400876, -18979.46971410152, -2098.828804353333, 0.242, 0.906, -0.044, 192.0, 3.5, 72.0, 14.0, 40.0, 127.0, 80.0, 0.0, 0.0, 0.0, 1.662506556067587E9, 0.0, 2022-09-06 19:22:36.067
142.0, -8114.040865187749, -1688.629590109538, -32813.12081970225, -21316.769280048524, 1893.7962524648015, 3209.107006681801, -134973.1546608394, 19269.170673986755, -14133.991495846689, 7214.6737235395585, -7693.582200238968, -10207.21467819389, 15903.57910437335, -8869.641586499403, -18389.16014303686, -2067.223437693529, 0.242, 0.906, -0.044, 192.0, 0.0, 0.0, 0.0, 0.0, 0.0, 0.0, 0.0, 0.0, 0.0, 1.6625065560675948E9, 0.0, 2022-09-06 19:22:36.067
144.0, -9082.117269291553, -2641.260938794725, -33782.247755795455, -22235.403625417188, 937.8344938557738, 2278.0003879070746, -121698.36422185472, 18441.463225062278, -14231.020418527178, 6672.979196665192, -8252.308756388278, -10349.796456074293, 15723.893430697135, -9627.008095623029, -18842.073540934747, -1970.2839219908622, 0.242, 0.906, -0.044, 192.0, 0.0, 0.0, 0.0, 0.0, 0.0, 0.0, 0.0, 0.0, 0.0, 1.6625065560676026E9, 0.0, 2022-09-06 19:22:36.067
146.0, -8086.682329974453, -1641.7803337312143, -32783.236537365505, -21227.652874905216, 1921.9818022229438, 3278.8891528712697, -134884.26177314066, 19245.299010908486, -14263.72102066529, 7073.58951253766, -7829.413751293869, -10345.460217649963, 15748.547404831339, -9019.800605750157, -18527.405682492936, -2208.9782010290864, 0.242, 0.906, -0.044, 192.0, 0.0, 0.0, 0.0, 0.0, 0.0, 0.0, 0.0, 0.0, 0.0, 1.6625065560676105E9, 0.0, 2022-09-06 19:22:36.067
148.0, -9103.977275368843, -2674.9673694333283, -33735.84553430624, -22271.904024112704, 933.5429589203547, 2287.5892862784012, -121215.05245149761, 18582.30156687517, -14096.775841328603, 6809.213079120288, -8115.270211132791, -10205.046558981725, 15859.769685240948, -9496.49625974849, -18695.446097307933, -1822.8518155636568, 0.242, 0.906, -0.044, 192.0, 0.0, 0.0, 0.0, 0.0, 0.0, 0.0, 0.0, 0.0, 0.0, 1.662506556067619E9, 0.0, 2022-09-06 19:22:36.067
150.0, -8094.639551000542, -1621.2614323212424, -32819.20049419409, -21165.87265323075, 1970.6415499021473, 3296.7034932021493, -134383.62740083068, 19144.760864348515, -14376.46321969786, 6947.615080787549, -7962.00429940275, -10459.16354169411, 15632.407740641564, -9136.208490873396, -18631.944791310405, -2320.558109349979, 0.253, 0.913, -0.033, 192.0, 4.0, 32.0, 14.0, 96.0, 127.5, 40.0, 0.0, 0.0, 0.0, 1.6625065560676296E9, 0.0, 2022-09-06 19:22:36.067
152.0, -9119.578792998647, -2698.8166807671405, -33723.999109744924, -22308.627940252776, 875.1602024030927, 2218.1424162557623, -121153.47339552325, 18674.971899386874, -13989.733337132138, 6930.136016623499, -8000.672817310431, -10090.605627370553, 15949.646049695737, -9336.636583404133, -18600.182962439416, -1709.9084508309902, 0.253, 0.913, -0.033, 192.0, 0.0, 0.0, 0.0, 0.0, 0.0, 0.0, 0.0, 0.0, 0.0, 1.6625065560676563E9, 0.0, 2022-09-06 19:22:36.067
154.0, -8121.662810047008, -1628.1234178690218, -32858.248991757515, -21161.37995259523, 1979.425785473083, 3300.682103715194, -133463.54019207243, 18970.59607155276, -14492.066442020709, 6787.509535254185, -8114.264382632302, -10591.441165380618, 15512.73650082785, -9308.339274923715, -18776.56057793624, -2450.19822719076, 0.253, 0.913, -0.033, 192.0, 0.0, 0.0, 0.0, 0.0, 0.0, 0.0, 0.0, 0.0, 0.0, 1.6625065560676668E9, 0.0, 2022-09-06 19:22:36.067
156.0, -9098.836374144123, -2692.714654530842, -33653.94874262199, -22308.89616118624, 910.8559382982181, 2266.0645563679404, -121518.56678945624, 18774.90654884655, -13876.678213677194, 7054.121143117088, -7860.706193531299, -9978.332814971545, 16078.61561520286, -9203.554296917237, -18440.7032657508, -1621.954336399357, 0.253, 0.913, -0.033, 192.0, 0.0, 0.0, 0.0, 0.0, 0.0, 0.0, 0.0, 0.0, 0.0, 1.6625065560676768E9, 0.0, 2022-09-06 19:22:36.067
158.0, -8202.95610463096, -1687.3778924200408, -32945.86783002232, -21180.937728993624, 1954.5929973832367, 3259.8678183398033, -132062.0187594913, 18944.93626891807, -14593.36454789216, 6637.842254381449, -8259.461314613976, -10697.723710265602, 15409.650255399974, -9443.746142833967, -18866.83927379123, -2520.516815247156, 0.253, 0.913, -0.033, 192.0, 0.0, 0.0, 0.0, 0.0, 0.0, 0.0, 0.0, 0.0, 0.0, 1.6625065560676873E9, 0.0, 2022-09-06 19:22:36.067
160.0, -9033.144597189976, -2625.0559240646276, -33554.058796651225, -22257.822425105864, 970.3786337827008, 2344.9662142951747, -122192.76245746166, 18935.28031531338, -13815.166212936188, 7163.264711292352, -7756.837637047486, -9901.91220067885, 16122.939124457733, -9051.093047987586, -18343.361418647935, -1554.764992566704, 0.2685, 0.9275, -0.0125, 192.0, 4.0, 112.0, 14.5, 56.0, 0.0, 32.0, 0.0, 0.0, 0.0, 1.6625065560677009E9, 0.0, 2022-09-06 19:22:36.067
162.0, -8313.485480962454, -1787.0666726907102, -33041.98033118014, -21260.57699448788, 1901.7087700019802, 3189.2139541165775, -130346.65648301323, 18798.62174971363, -14654.56362421079, 6532.610241485863, -8375.355109614744, -10765.851827365379, 15317.404606032922, -9577.096650254327, -18962.348277848756, -2564.8850279909407, 0.2685, 0.9275, -0.0125, 192.0, 0.0, 0.0, 0.0, 0.0, 0.0, 0.0, 0.0, 0.0, 0.0, 1.6625065560677109E9, 0.0, 2022-09-06 19:22:36.067
164.0, -8970.358547015017, -2561.2863971336365, -33452.80539426868, -22188.91199695015, 1018.2337186615132, 2404.913592924308, -123114.39193658733, 19031.415168215655, -13776.810619450882, 7243.149845975619, -7673.778554651565, -9863.780124638097, 16185.032270554577, -8956.567520686092, -18254.26736524908, -1549.534684364162, 0.2685, 0.9275, -0.0125, 192.0, 0.0, 0.0, 0.0, 0.0, 0.0, 0.0, 0.0, 0.0, 0.0, 1.6625065560677211E9, 0.0, 2022-09-06 19:22:36.067
166.0, -8420.975020048025, -1879.3346738022178, -33159.70696922624, -21338.852803570368, 1757.5623700097049, 3092.989694236481, -128298.36497287333, 18644.3500094831, -14693.545066540846, 6436.028353694482, -8476.072070130358, -10812.544621532516, 15271.44941943281, -9678.238293914592, -19060.785360429927, -2590.164850969893, 0.2685, 0.9275, -0.0125, 192.0, 0.0, 0.0, 0.0, 0.0, 0.0, 0.0, 0.0, 0.0, 0.0, 1.6625065560677288E9, 0.0, 2022-09-06 19:22:36.067
168.0, -8857.303423560075, -2445.549064344056, -33329.17789568638, -22078.60613806321, 1160.4131651417215, 2515.1076930889717, -124236.20363905474, 19100.415003349186, -13738.499729454486, 7334.8814052202, -7585.355053586371, -9818.361379904913, 16189.72613689019, -8840.919594874335, -18202.567780323956, -1552.64157684345, 0.2685, 0.9275, -0.0125, 192.0, 0.0, 0.0, 0.0, 0.0, 0.0, 0.0, 0.0, 0.0, 0.0, 1.6625065560677388E9, 0.0, 2022-09-06 19:22:36.067
170.0, -8564.853199106838, -2021.3353063267837, -33278.86411891748, -21464.402552175827, 1638.6734412519268, 2957.8063437707838, -126096.78519925896, 18564.755447477753, -14692.360424084714, 6371.632977918742, -8541.227405217578, -10818.311371601983, 15266.26381471918, -9783.179734132258, -19087.92037819867, -2583.1687549553817, 0.28125, 0.93875, 0.01375, 192.0, 4.5, 24.0, 14.5, 88.0, 0.5, 32.0, 0.0, 0.0, 0.0, 1.6625065560677493E9, 0.0, 2022-09-06 19:22:36.067
172.0, -8725.316372551486, -2309.2704784000493, -33182.52810031511, -21940.002970695852, 1283.8618497683824, 2628.0510578216386, -125451.64679904543, 19154.908556331226, -13755.576462218341, 7357.613129331247, -7550.575739213913, -9833.158234734325, 16195.671700915302, -8772.9702917302, -18145.950811618666, -1608.6550484484494, 0.28125, 0.93875, 0.01375, 192.0, 0.0, 0.0, 0.0, 0.0, 0.0, 0.0, 0.0, 0.0, 0.0, 1.6625065560677593E9, 0.0, 2022-09-06 19:22:36.067
174.0, -8699.053072816501, -2151.0648311453856, -33401.306975043655, -21596.47901016224, 1519.6727537718718, 2834.692935310952, -123890.42215233114, 18522.04126382366, -14659.458656246503, 6350.130599752736, -8567.825981119393, -10781.766269417558, 15271.762343855185, -9824.083426485471, -19100.30324462691, -2522.170844336849, 0.28125, 0.93875, 0.01375, 192.0, 0.0, 0.0, 0.0, 0.0, 0.0, 0.0, 0.0, 0.0, 0.0, 1.66250655606777E9, 0.0, 2022-09-06 19:22:36.067
176.0, -8579.739460914072, -2162.195999884129, -33061.35929362289, -21778.824541428632, 1424.677839836817, 2804.093397151637, -126635.81986854314, 19348.65347726983, -13798.514163316986, 7371.515914382448, -7542.6855734211895, -9862.975461837705, 16156.9137760298, -8723.885860906346, -18137.59125919238, -1657.7841827612142, 0.28125, 0.93875, 0.01375, 192.0, 0.0, 0.0, 0.0, 0.0, 0.0, 0.0, 0.0, 0.0, 0.0, 1.6625065560677805E9, 0.0, 2022-09-06 19:22:36.067
178.0, -8796.417271663819, -2273.150059360273, -33510.89757810802, -21718.92186628841, 1391.999589443158, 2726.912823547462, -121747.44865267858, 18460.372800871468, -14587.642501311602, 6363.742812126018, -8559.578187415384, -10713.526393595504, 15348.629993036986, -9837.002734780639, -19053.521043481953, -2408.445168548247, 0.28125, 0.93875, 0.01375, 192.0, 0.0, 0.0, 0.0, 0.0, 0.0, 0.0, 0.0, 0.0, 0.0, 1.6625065560677905E9, 0.0, 2022-09-06 19:22:36.067
180.0, -8456.938976876614, -2039.2614053799398, -32984.20107176317, -21627.45852797729, 1562.0963647480446, 2919.048418885281, -127678.05936074966, 19319.21622982219, -13855.019373300001, 7346.325498381317, -7576.794335459988, -9934.97043072825, 16093.725394454646, -8705.91505836428, -18160.568852492437, -1761.719794478392, 0.291625, 0.940375, 0.039875, 192.0, 4.5, 56.0, 14.5, 56.0, 1.0, 8.0, 0.0, 0.0, 0.0, 1.6625065560678003E9, 0.0, 2022-09-06 19:22:36.067
182.0, -8913.540412609627, -2400.33148531097, -33610.966338034435, -21852.630001620055, 1256.0562796659804, 2562.8957227344185, -119788.31825117092, 18421.301951563593, -14503.175259014995, 6406.211126591102, -8537.1146842378, -10632.210747267098, 15420.513203205253, -9788.566504545988, -19003.609598113253, -2296.4852805716137, 0.291625, 0.940375, 0.039875, 192.0, 0.0, 0.0, 0.0, 0.0, 0.0, 0.0, 0.0, 0.0, 0.0, 1.662506556067808E9, 0.0, 2022-09-06 19:22:36.067
184.0, -8351.192873858556, -1915.388037608628, -32911.0661639054, -21485.34613673045, 1671.530505601228, 3055.7740397183943, -128506.77263817462, 19310.901380884814, -13938.816063262948, 7291.608427954725, -7637.769894334066, -10029.831234196572, 16025.753739566058, -8749.299794352031, -18217.342283408914, -1871.9809498764218, 0.291625, 0.940375, 0.039875, 192.0, 0.0, 0.0, 0.0, 0.0, 0.0, 0.0, 0.0, 0.0, 0.0, 1.6625065560678165E9, 0.0, 2022-09-06 19:22:36.067
186.0, -9028.830710510101, -2524.4060187823798, -33711.75035378341, -21988.126276508126, 1149.8407900143611, 2448.477142867702, -118103.48845761878, 18396.11153556246, -14415.399958539005, 6461.665804584719, -8497.417986085175, -10556.751257985981, 15492.3070063957, -9754.144818084815, -18954.458112056032, -2185.0394827174523, 0.291625, 0.940375, 0.039875, 192.0, 0.0, 0.0, 0.0, 0.0, 0.0, 0.0, 0.0, 0.0, 0.0, 1.6625065560678241E9, 0.0, 2022-09-06 19:22:36.067
188.0, -8265.965672250471, -1812.6370683475816, -32864.21690752708, -21355.214280511653, 1818.2250044614084, 3165.275235804944, -128986.48577767442, 19314.47765999766, -14052.474683818184, 7201.597953033203, -7735.96110772623, -10166.310985840677, 15914.374996945262, -8795.187925718776, -18277.155551571315, -2010.1817858435854, 0.291625, 0.940375, 0.039875, 192.0, 0.0, 0.0, 0.0, 0.0, 0.0, 0.0, 0.0, 0.0, 0.0, 1.662506556067832E9, 0.0, 2022-09-06 19:22:36.067
190.0, -9118.684723220435, -2627.6934299103536, -33787.63452620918, -22116.648807126145, 1001.3805033422117, 2375.4539937322133, -116775.52661604008, 18495.308577455115, -14303.954160684843, 6550.983375428125, -8409.799147820371, -10454.492027102951, 15600.131821648101, -9651.5279592905, -18858.993811487417, -2045.2740246384174, 0.30281250000000004, 0.9311875000000001, 0.059937500000000005, 192.0, 4.5, 104.0, 14.0, 104.0, 1.0, 64.0, 0.0, 0.0, 0.0, 1.66250655606784E9, 0.0, 2022-09-06 19:22:36.067
192.0, -8211.807395435262, -1737.9598901224006, -32844.16739275067, -21261.962802644113, 1907.0284851823433, 3267.26624575451, -129047.2601708484, 19231.28446713501, -14181.71247025877, 7068.158038635021, -7857.465190585279, -10309.965647454936, 15791.038071040879, -8934.171072741876, -18396.40210824038, -2145.5886537538354, 0.30281250000000004, 0.9311875000000001, 0.059937500000000005, 192.0, 0.0, 0.0, 0.0, 0.0, 0.0, 0.0, 0.0, 0.0, 0.0, 1.66250655606785E9, 0.0, 2022-09-06 19:22:36.067
194.0, -9167.836209277655, -2695.039235954194, -33793.714200701026, -22192.600034785275, 946.3058050043351, 2301.9391062187083, -115853.20423283629, 18475.48258012326, -14182.695947014803, 6650.918024887804, -8291.156088251602, -10337.033609990312, 15740.478425082974, -9534.293059622414, -18737.154452461535, -1925.1557499355972, 0.30281250000000004, 0.9311875000000001, 0.059937500000000005, 192.0, 0.0, 0.0, 0.0, 0.0, 0.0, 0.0, 0.0, 0.0, 0.0, 1.6625065560678577E9, 0.0, 2022-09-06 19:22:36.067
196.0, -8195.356511516156, -1704.0969972726105, -32845.3520352068, -21181.921205749655, 1969.3898522126499, 3317.0882841453895, -128695.71193405533, 19197.17570509621, -14299.461460049328, 6951.571339556139, -7973.247226863769, -10435.604803038217, 15666.58355791373, -9030.238870410785, -18519.649627166942, -2251.401812005259, 0.30281250000000004, 0.9311875000000001, 0.059937500000000005, 192.0, 0.0, 0.0, 0.0, 0.0, 0.0, 0.0, 0.0, 0.0, 0.0, 1.6625065560678668E9, 0.0, 2022-09-06 19:22:36.067
198.0, -9198.39104394806, -2738.06634403066, -33760.968895074, -22249.284058723933, 909.0677987417936, 2281.6884257422003, -115350.84877620326, 18616.812660314165, -14077.93332075278, 6772.869142635959, -8163.5946826451645, -10226.995972036835, 15839.474301275528, -9423.316648401815, -18596.852552515575, -1785.9714372124001, 0.30281250000000004, 0.9311875000000001, 0.059937500000000005, 192.0, 0.0, 0.0, 0.0, 0.0, 0.0, 0.0, 0.0, 0.0, 0.0, 1.662506556067877E9, 0.0, 2022-09-06 19:22:36.067
200.0, -8194.328331271212, -1685.209773207876, -32843.4521369281, -21145.37610356523, 2008.840681176267, 3316.909470189747, -127877.34751431317, 19025.022569301436, -14420.943191163922, 6815.337457101043, -8102.3732545820785, -10577.828953007336, 15536.74227437285, -9180.844924550644, -18625.55219239619, -2379.3879007563473, 0.30640625, 0.9345937500000001, 0.08096875, 192.0, 4.5, 88.0, 14.5, 40.0, 1.5, 24.0, 0.0, 0.0, 0.0, 1.6625065560678892E9, 0.0, 2022-09-06 19:22:36.067
202.0, -9163.8128952757, -2716.3404484201014, -33670.75725445238, -22247.920602312162, 917.18148197907, 2293.9371817037086, -115297.69632788854, 18749.492615400864, -13951.08717096891, 6919.250717073765, -8011.558116860166, -10117.226555016823, 15957.066828854899, -9261.869998201133, -18451.4544548338, -1683.0640057401665, 0.30640625, 0.9345937500000001, 0.08096875, 192.0, 0.0, 0.0, 0.0, 0.0, 0.0, 0.0, 0.0, 0.0, 0.0, 1.6625065560679004E9, 0.0, 2022-09-06 19:22:36.067
204.0, -8217.261221082357, -1689.3448459321078, -32882.90296589172, -21130.9368766471, 2000.2129078165185, 3316.1495108782665, -126634.4340603869, 19000.48035388951, -14503.48818343737, 6705.478633103208, -8217.730607715917, -10698.148393410254, 15439.2439650588, -9321.169176241061, -18711.56170506021, -2456.4567156382464, 0.30640625, 0.9345937500000001, 0.08096875, 192.0, 0.0, 0.0, 0.0, 0.0, 0.0, 0.0, 0.0, 0.0, 0.0, 1.66250655606791E9, 0.0, 2022-09-06 19:22:36.067
206.0, -9106.99476087031, -2675.168535133426, -33608.46294265544, -22231.559125370877, 949.1221248057038, 2344.8321038284425, -115593.90164541027, 18842.811148501773, -13851.621908142795, 7056.781000707269, -7875.860676271996, -10035.441522054854, 16061.248309761086, -9130.508796037293, -18325.412967850323, -1606.0398943471785, 0.30640625, 0.9345937500000001, 0.08096875, 192.0, 0.0, 0.0, 0.0, 0.0, 0.0, 0.0, 0.0, 0.0, 0.0, 1.6625065560679195E9, 0.0, 2022-09-06 19:22:36.067
208.0, -8288.272713216867, -1748.5993204831268, -33031.2961973305, -21200.696671092115, 1934.007040739899, 3264.9640160756135, -125003.78489539443, 18805.126107350126, -14577.763030262357, 6588.936637513237, -8332.4174085161, -10784.671996196746, 15362.979812977293, -9460.755820364455, -18837.670247277052, -2540.946309679307, 0.30640625, 0.9345937500000001, 0.08096875, 192.0, 0.0, 0.0, 0.0, 0.0, 0.0, 0.0, 0.0, 0.0, 0.0, 1.6625065560679295E9, 0.0, 2022-09-06 19:22:36.067
210.0, -9044.387524650994, -2615.0423425486497, -33577.70694228494, -22219.712700809563, 983.6332182446979, 2362.5793889259567, -116228.87000189663, 18873.54479712782, -13777.3023578289, 7171.6466154630925, -7761.330337683004, -9951.06368673607, 16150.588232348948, -8974.44891625034, -18241.638629631834, -1566.7678793392038, 0.30640625, 0.9345937500000001, 0.08096875, 192.0, 0.0, 0.0, 0.0, 0.0, 0.0, 0.0, 0.0, 0.0, 0.0, 1.6625065560679393E9, 0.0, 2022-09-06 19:22:36.067
212.0, -8373.924597969604, -1825.1316934980982, -33164.75846347314, -21271.283480081973, 1813.5087863813385, 3151.461857731564, -123073.08591283392, 18671.820303418674, -14641.487853704437, 6483.883438573294, -8446.634822682718, -10849.872034772878, 15300.350225013523, -9577.253112465514, -18948.914879431115, -2582.386443899446, 0.312, 0.926, 0.106, 192.0, 4.5, 96.0, 14.0, 120.0, 1.5, 40.0, 0.0, 0.0, 0.0, 1.662506556067947E9, 0.0, 2022-09-06 19:22:36.067
214.0, -8919.910659779389, -2498.7015126587767, -33452.33600763512, -22103.66244359761, 1070.4250419646553, 2470.337148944992, -117115.60840792758, 18990.55617935135, -13724.596944403285, 7278.10797430372, -7651.85149334091, -9899.431157044311, 16199.113869561419, -8868.501647532183, -18168.280204329516, -1540.3034139041204, 0.312, 0.926, 0.106, 192.0, 0.0, 0.0, 0.0, 0.0, 0.0, 0.0, 0.0, 0.0, 0.0, 1.6625065560679548E9, 0.0, 2022-09-06 19:22:36.067
216.0, -8500.569582053373, -1945.9652240234882, -33276.98657238323, -21368.066533573456, 1711.8977560875126, 3046.945100658548, -120907.44774430367, 18582.838008742096, -14641.443150215526, 6432.3403158593555, -8497.708558763094, -10858.902139532822, 15306.496954738732, -9679.489991604089, -18990.71264156254, -2555.877274975452, 0.312, 0.926, 0.106, 192.0, 0.0, 0.0, 0.0, 0.0, 0.0, 0.0, 0.0, 0.0, 0.0, 1.662506556067963E9, 0.0, 2022-09-06 19:22:36.067
218.0, -8847.043972855088, -2421.0068489321293, -33345.78524181667, -21996.82110510124, 1157.8650662738164, 2575.770327540675, -118131.15991725445, 19063.73579069803, -13746.680467925129, 7319.190480612574, -7618.03330398003, -9914.071549662536, 16235.435454301294, -8784.88377152488, -18126.34833173136, -1575.0603765321227, 0.312, 0.926, 0.106, 192.0, 0.0, 0.0, 0.0, 0.0, 0.0, 0.0, 0.0, 0.0, 0.0, 1.6625065560679705E9, 0.0, 2022-09-06 19:22:36.067
220.0, -8631.237880139099, -2075.962969775554, -33406.961966390845, -21495.91851185781, 1566.8349345725699, 2866.2983019707567, -118610.22485616505, 18382.92400633383, -14652.820188143276, 6384.105251324803, -8563.176818272688, -10862.992508768142, 15315.728225198774, -9778.619978263376, -19044.915621866658, -2546.7130597487762, 0.312, 0.926, 0.106, 192.0, 0.0, 0.0, 0.0, 0.0, 0.0, 0.0, 0.0, 0.0, 0.0, 1.6625065560679784E9, 0.0, 2022-09-06 19:22:36.067
222.0, -8721.29305854953, -2304.4201498532475, -33229.176190993334, -21874.445304208435, 1262.8512099803938, 2701.163613934948, -119126.617208316, 19157.680172643682, -13769.121619358257, 7350.192350172085, -7583.209286118661, -9941.005401731181, 16214.089538346476, -8774.579617330983, -18113.8760583253, -1667.7530607882811, 0.31, 0.928, 0.114, 192.0, 4.5, 88.0, 14.5, 0.0, 1.5, 72.0, 0.0, 0.0, 0.0, 1.6625065560679862E9, 0.0, 2022-09-06 19:22:36.067
224.0, -8791.701053583749, -2252.3852887612925, -33527.99666261634, -21651.19608058883, 1382.164821882823, 2745.73299237883, -116322.21088674199, 18365.66845961433, -14626.445129686015, 6340.094666492304, -8590.46829825262, -10844.977002737165, 15339.912812699416, -9846.815150596518, -19060.0477528629, -2507.709265674265, 0.31, 0.928, 0.114, 192.0, 0.0, 0.0, 0.0, 0.0, 0.0, 0.0, 0.0, 0.0, 0.0, 1.662506556067996E9, 0.0, 2022-09-06 19:22:36.067
226.0, -8589.350711029854, -2167.2921976199386, -33108.61088140141, -21727.303770459148, 1357.3990890263426, 2784.5579724976988, -120142.54869729863, 19144.246774226045, -13838.590841125351, 7323.414960314627, -7600.151908415784, -9998.494088470232, 16141.91575550029, -8754.77597174358, -18153.97508787812, -1770.884009705068, 0.31, 0.928, 0.114, 192.0, 0.0, 0.0, 0.0, 0.0, 0.0, 0.0, 0.0, 0.0, 0.0, 1.6625065560680041E9, 0.0, 2022-09-06 19:22:36.068
228.0, -8886.517153563162, -2360.523028436068, -33594.60486109315, -21766.553433722667, 1304.2466407116224, 2630.800322389641, -114182.03135514633, 18353.754979819656, -14528.522137227314, 6392.174231073169, -8535.550062125929, -10733.754722327558, 15418.121566548536, -9827.65970559832, -19012.28207496191, -2395.1235288528837, 0.31, 0.928, 0.114, 192.0, 0.0, 0.0, 0.0, 0.0, 0.0, 0.0, 0.0, 0.0, 0.0, 1.6625065560680125E9, 0.0, 2022-09-06 19:22:36.068
230.0, -8452.736848919016, -2022.2964313383618, -32978.81430134944, -21566.79589352559, 1547.8359517855588, 2940.573148795742, -120995.67007966878, 19167.492588459565, -13877.594635199863, 7309.109843863231, -7595.390986846804, -10041.61060352452, 16149.403589892816, -8753.63603277636, -18123.9790468191, -1857.6087781916594, 0.31, 0.928, 0.114, 192.0, 0.0, 0.0, 0.0, 0.0, 0.0, 0.0, 0.0, 0.0, 0.0, 1.6625065560680203E9, 0.0, 2022-09-06 19:22:36.068
232.0, -9066.60515863957, -2555.8549232309965, -33722.188618444045, -21961.90768026205, 1146.9797667240819, 2452.6122155919334, -112301.73555633254, 18296.84743843644, -14484.846828561644, 6380.238399534035, -8530.744437068039, -10687.486611305072, 15549.683934412473, -9826.743284075652, -18951.08299864328, -2320.6698680722557, 0.308, 0.932, 0.128, 192.0, 4.5, 80.0, 14.5, 16.0, 2.0, 0.0, 0.0, 0.0, 0.0, 1.6625065560680282E9, 0.0, 2022-09-06 19:22:36.068
234.0, -8407.385159419198, -1967.7581748674127, -32944.57142884391, -21475.15374125883, 1620.8143974321363, 3057.629234508185, -121567.80768249127, 19228.71401652265, -14019.215288068688, 7169.344385784196, -7716.246869116649, -10192.73074778685, 16058.096713792887, -8887.701796019292, -18227.959362025187, -2010.1370823546747, 0.308, 0.932, 0.128, 192.0, 0.0, 0.0, 0.0, 0.0, 0.0, 0.0, 0.0, 0.0, 0.0, 1.662506556068036E9, 0.0, 2022-09-06 19:22:36.068
236.0, -9147.674935778969, -2656.0801453685935, -33767.16032828812, -22068.905480969606, 1020.6030035737758, 2363.18288602625, -110678.52952224368, 18311.398424076848, -14401.273656043251, 6410.614420248798, -8486.331520835343, -10599.823069551358, 15662.850816589693, -9785.303149855514, -18878.68569835254, -2192.214392687606, 0.308, 0.932, 0.128, 192.0, 0.0, 0.0, 0.0, 0.0, 0.0, 0.0, 0.0, 0.0, 0.0, 1.6625065560680459E9, 0.0, 2022-09-06 19:22:36.068
238.0, -8372.114106668723, -1923.0099824678878, -32909.12156213779, -21391.401754784794, 1707.181538007443, 3116.816653825838, -121791.03455436643, 19151.175815007187, -14133.835033635502, 7046.230977324364, -7823.043504124106, -10311.79849050027, 15986.548779791448, -8972.906645882922, -18306.86101995242, -2145.6557089872017, 0.308, 0.932, 0.128, 192.0, 0.0, 0.0, 0.0, 0.0, 0.0, 0.0, 0.0, 0.0, 0.0, 1.6625065560680566E9, 0.0, 2022-09-06 19:22:36.068
240.0, -9291.016672970853, -2825.9757549733827, -33838.79766926738, -22240.097491752804, 892.0804729557602, 2248.0266985925077, -109415.14187039637, 18309.319711842505, -14340.365152402539, 6428.22759487958, -8448.601776194784, -10541.507368267461, 15798.324739733309, -9760.895044910318, -18808.367110296145, -2108.4400544691152, 0.308, 0.932, 0.128, 192.0, 0.0, 0.0, 0.0, 0.0, 0.0, 0.0, 0.0, 0.0, 0.0, 1.6625065560680668E9, 0.0, 2022-09-06 19:22:36.068
242.0, -8367.330833355289, -1904.7262555034467, -32905.165303369206, -21330.26973369953, 1819.9684405289222, 3178.842744689315, -121623.03884304034, 19028.308275736366, -14311.039663677177, 6829.642573552439, -8003.4667853673445, -10498.949646824556, 15868.62097604525, -9135.359124584094, -18451.543861811624, -2314.053751713485, 0.292, 0.926, 0.132, 192.0, 4.5, 16.0, 14.0, 120.0, 2.0, 16.0, 0.0, 0.0, 0.0, 1.6625065560680773E9, 0.0, 2022-09-06 19:22:36.068
244.0, -9344.772618385867, -2899.088311086692, -33844.43030887012, -22313.41121356621, 791.7211403514315, 2207.346523683849, -108503.59302802004, 18428.16393711137, -14225.276020202164, 6503.396511482777, -8333.60205097223, -10412.068416126778, 15901.835668305835, -9646.38705806578, -18669.987460373337, -1960.8514858307226, 0.292, 0.926, 0.132, 192.0, 0.0, 0.0, 0.0, 0.0, 0.0, 0.0, 0.0, 0.0, 0.0, 1.662506556068087E9, 0.0, 2022-09-06 19:22:36.068
246.0, -8370.594188045763, -1889.839993696212, -32921.593835543856, -21273.78687546097, 1843.4154204625395, 3220.0817132093566, -120931.31940738195, 18970.216091897022, -14466.428991130471, 6657.310623802022, -8168.065031536225, -10642.559604949905, 15715.332712570753, -9298.12452770764, -18582.860360486553, -2432.272128137604, 0.292, 0.926, 0.132, 192.0, 0.0, 0.0, 0.0, 0.0, 0.0, 0.0, 0.0, 0.0, 0.0, 1.662506556068096E9, 0.0, 2022-09-06 19:22:36.068
248.0, -9332.210938001983, -2893.3886162505887, -33784.66174419662, -22328.744510262553, 797.7561113543644, 2212.107445252829, -108031.79240605742, 18500.069499024095, -14120.803966618058, 6624.9900013196475, -8217.775311204829, -10291.257237345844, 16023.31739942043, -9522.916021694664, -18529.462042982825, -1842.521350684327, 0.292, 0.926, 0.132, 192.0, 0.0, 0.0, 0.0, 0.0, 0.0, 0.0, 0.0, 0.0, 0.0, 1.6625065560681055E9, 0.0, 2022-09-06 19:22:36.068
0.0, -2219.7740936009995, -1478.187916062822, -16274.953338498277, -10260.79180965326, 1294.7918528070275, 4116.744293778454, 34917.53756016941, 24007.69579502294, -6841.399591135931, 3591.634761289926, -3822.5059297687926, -4918.948402279425, 8226.067808397747, -4444.152646559793, -8998.477041539794, -732.8466454561527, 0.264, 0.924, 0.116, 192.0, 4.0, 32.0, 14.0, 112.0, 1.5, 80.0, 0.0, 0.0, 0.0, 1.6625065566388276E9, 0.0, 2022-09-06 19:22:36.638
2.0, -5053.014165522357, -3464.2745213835865, -33231.992510794706, -20952.413493682565, 2183.2960466499385, 7664.882560358354, 78314.32113818183, 49900.33655170639, -13871.425553730198, 5379.506096781028, -11430.749169677398, -12244.889109717502, 16828.941324823063, -9448.261195213938, -20019.742252795968, 21049.64358206315, 0.264, 0.924, 0.116, 192.0, 0.0, 0.0, 0.0, 0.0, 0.0, 0.0, 0.0, 0.0, 0.0, 1.6625065566389377E9, 0.0, 2022-09-06 19:22:36.638
4.0, -4209.906364668174, -2602.905345309418, -32411.392916607016, -20111.898495185196, 3033.4222952630876, 8512.572468825874, 67207.0687660061, 45524.73670539102, -13645.248251586945, 5608.745587914656, -11153.92281459842, -12233.42266481193, 17119.514002742053, -8931.220642473774, -19532.541278903638, 20748.900860416994, 0.264, 0.924, 0.116, 192.0, 0.0, 0.0, 0.0, 0.0, 0.0, 0.0, 0.0, 0.0, 0.0, 1.6625065566390407E9, 0.0, 2022-09-06 19:22:36.639
6.0, -5082.764337392371, -3510.766149850625, -33262.390883253924, -21049.911802996612, 2098.3147142308612, 7615.798129534499, 78677.49228209165, 50285.05477727113, -13758.124561086246, 5491.309522546473, -11310.42972927448, -12135.253803164222, 16929.52417487194, -9351.545196955823, -19935.05149305481, 21085.853408080748, 0.264, 0.924, 0.116, 192.0, 0.0, 0.0, 0.0, 0.0, 0.0, 0.0, 0.0, 0.0, 0.0, 1.6625065566390755E9, 0.0, 2022-09-06 19:22:36.639
8.0, -4194.863640649753, -2557.3971935984127, -32415.036250953228, -20063.328154483814, 3093.7720052924165, 8563.333280483876, 67077.20513072076, 45134.72111639036, -13766.953500146092, 5497.411548782772, -11275.963339324397, -12353.16095985901, 16977.44631498412, -9061.643071370492, -19664.46127467886, 20568.36582045148, 0.24, 0.93, 0.108, 192.0, 3.5, 64.0, 14.5, 8.0, 1.5, 48.0, 0.0, 0.0, 0.0, 1.662506556639084E9, 0.0, 2022-09-06 19:22:36.639
10.0, -5080.819735624759, -3522.545519178572, -33228.17036249285, -21079.281995210888, 2052.9853764754985, 7640.854435068898, 78579.85986231087, 50502.80547175473, -13626.293972288844, 5623.609497977436, -11189.775012704733, -12019.024731996624, 17051.922327509204, -9205.789471362767, -19804.204381013442, 21146.203118110076, 0.24, 0.93, 0.108, 192.0, 0.0, 0.0, 0.0, 0.0, 0.0, 0.0, 0.0, 0.0, 0.0, 1.6625065566390955E9, 0.0, 2022-09-06 19:22:36.639
12.0, -4230.782893989432, -2565.3097111355914, -32436.963312263884, -20046.385532186694, 3120.7952643388826, 8575.090298067367, 67335.01015126826, 45022.470655735815, -13884.70248993665, 5400.270867380008, -11381.240055708893, -12444.51253944785, 16850.778979155897, -9164.550502842725, -19777.806970811722, 20467.917080869327, 0.24, 0.93, 0.108, 192.0, 0.0, 0.0, 0.0, 0.0, 0.0, 0.0, 0.0, 0.0, 0.0, 1.6625065566391044E9, 0.0, 2022-09-06 19:22:36.639
14.0, -5071.811982609271, -3527.1499785363653, -33179.46591132473, -21101.164353032633, 2023.9728121725097, 7663.049717313018, 78093.37414424111, 50549.65472813306, -13534.562413044265, 5718.202080512296, -11082.553694552624, -11929.17071928629, 17145.866709454862, -9086.006472826777, -19696.938359372423, 21178.300223147897, 0.24, 0.93, 0.108, 192.0, 0.0, 0.0, 0.0, 0.0, 0.0, 0.0, 0.0, 0.0, 0.0, 1.662506556639114E9, 0.0, 2022-09-06 19:22:36.639
16.0, -4262.187094949138, -2573.6916153063316, -32464.254792243817, -20045.133834497195, 3115.0285142694133, 8569.88234160928, 67988.48575216363, 45003.76224562672, -13989.800392365503, 5307.175851723654, -11473.955091709506, -12505.242229132919, 16732.40414052059, -9281.159553666062, -19913.683225355533, 20353.74437019162, 0.24, 0.93, 0.108, 192.0, 0.0, 0.0, 0.0, 0.0, 0.0, 0.0, 0.0, 0.0, 0.0, 1.6625065566391237E9, 0.0, 2022-09-06 19:22:36.639
18.0, -5017.385484860598, -3487.296818172553, -33101.16775049779, -21077.44915216555, 2050.7502020299676, 7714.928116193786, 77311.46541970556, 50387.246952920796, -13423.630705312575, 5824.037590508175, -10957.607443047458, -11810.751177162074, 17244.817882158506, -8943.558805413104, -19562.850244385034, 21194.728755322547, 0.23, 0.922, 0.10400000000000001, 192.0, 3.5, 24.0, 14.0, 104.0, 1.5, 32.0, 0.0, 0.0, 0.0, 1.6625065566391335E9, 0.0, 2022-09-06 19:22:36.639
20.0, -4350.722354736609, -2640.8139039056186, -32562.177784702515, -20102.68957646961, 3035.992745875448, 8481.995282411013, 69074.37820129136, 45199.831747988675, -14090.092669736467, 5188.130460754688, -11571.118124856726, -12560.607500148715, 16616.66680773101, -9414.934744231075, -20041.892831551177, 20246.411293317236, 0.23, 0.922, 0.10400000000000001, 192.0, 0.0, 0.0, 0.0, 0.0, 0.0, 0.0, 0.0, 0.0, 0.0, 1.6625065566391432E9, 0.0, 2022-09-06 19:22:36.639
22.0, -4949.637347416562, -3416.307677782497, -33024.769487949554, -21012.338520567242, 2093.50908917297, 7793.203925276271, 76224.88006649973, 50032.21184399269, -13375.46269601139, 5883.292065059193, -10881.544456666048, -11740.94667922815, 17292.605911803952, -8833.185891292798, -19491.9505109728, 21153.601545524783, 0.23, 0.922, 0.10400000000000001, 192.0, 0.0, 0.0, 0.0, 0.0, 0.0, 0.0, 0.0, 0.0, 0.0, 1.6625065566391523E9, 0.0, 2022-09-06 19:22:36.639
24.0, -4453.361565275379, -2730.3326404491236, -32659.65374227211, -20178.394934939737, 2950.564378567264, 8403.719473328529, 70444.67424686841, 45562.33233956484, -14167.988499163212, 5113.0285993848565, -11651.629108384743, -12600.840640168268, 16518.78851876122, -9522.089007149818, -20164.67096384418, 20199.38322298327, 0.23, 0.922, 0.10400000000000001, 192.0, 0.0, 0.0, 0.0, 0.0, 0.0, 0.0, 0.0, 0.0, 0.0, 1.662506556639162E9, 0.0, 2022-09-06 19:22:36.639
26.0, -4866.757078976283, -3335.7072872766603, -32910.35090808284, -20929.324141660232, 2178.736290781056, 7876.665339072388, 74909.90458844956, 49553.25866380437, -13305.389977144001, 5951.531940881246, -10800.228810337641, -11696.511411250998, 17357.358915490975, -8722.567107983483, -19367.384239123374, 21144.258516342463, 0.23, 0.922, 0.10400000000000001, 192.0, 0.0, 0.0, 0.0, 0.0, 0.0, 0.0, 0.0, 0.0, 0.0, 1.662506556639172E9, 0.0, 2022-09-06 19:22:36.639
28.0, -4602.760625214652, -2871.6180171511196, -32780.084941397305, -20319.121518030348, 2825.4169613619997, 8279.153201479103, 72033.03391135143, 46031.24958649273, -14226.505366147205, 5030.081275711212, -11728.541461055454, -12654.037791971898, 16433.136634008486, -9643.458979542134, -20259.084732423395, 20130.606905294288, 0.214, 0.926, 0.10400000000000001, 192.0, 3.0, 88.0, 14.0, 120.0, 1.5, 32.0, 0.0, 0.0, 0.0, 1.6625065566391816E9, 0.0, 2022-09-06 19:22:36.639
30.0, -4772.119792952513, -3230.944661014636, -32793.853615981774, -20828.026035788782, 2293.467795070147, 8019.425930908434, 73446.44647198278, 48975.622531845875, -13307.468689378346, 5975.001272559318, -10771.819743134945, -11699.4618415191, 17364.91380511687, -8649.655717570271, -19312.466002996684, 21045.374398872187, 0.214, 0.926, 0.10400000000000001, 192.0, 0.0, 0.0, 0.0, 0.0, 0.0, 0.0, 0.0, 0.0, 0.0, 1.6625065566391935E9, 0.0, 2022-09-06 19:22:36.639
32.0, -4732.199577355334, -2997.145414012124, -32889.78730318395, -20461.390371488378, 2703.2870296582023, 8196.116470827636, 73711.49345773381, 46702.740693419066, -14228.29350570363, 5016.066731937734, -11743.60653681833, -12631.68604751659, 16414.338816921572, -9681.792221282985, -20316.77458486254, 20122.202649379095, 0.214, 0.926, 0.10400000000000001, 192.0, 0.0, 0.0, 0.0, 0.0, 0.0, 0.0, 0.0, 0.0, 0.0, 1.6625065566392024E9, 0.0, 2022-09-06 19:22:36.639
34.0, -4667.915960301872, -3108.144176977179, -32688.107512963717, -20724.559810705163, 2426.52772981259, 8153.067011006715, 71908.44528775755, 48264.7923546782, -13328.30051521069, 5966.284092221748, -10761.917920341244, -11724.65225752023, 17350.47457819874, -8610.249592095566, -19292.796467876015, 20920.495202600385, 0.214, 0.926, 0.10400000000000001, 192.0, 0.0, 0.0, 0.0, 0.0, 0.0, 0.0, 0.0, 0.0, 0.0, 1.662506556639212E9, 0.0, 2022-09-06 19:22:36.639
36.0, -4874.960169191381, -3148.399668741187, -33031.72088047515, -20650.41907434691, 2529.0328298846284, 8044.459884698378, 75383.11337031286, 47323.0686572872, -14215.262438686186, 4993.312656082232, -11755.22944393509, -12608.082605371786, 16399.094927203052, -9730.429617217735, -20389.730678764663, 20102.242541580505, 0.214, 0.926, 0.10400000000000001, 192.0, 0.0, 0.0, 0.0, 0.0, 0.0, 0.0, 0.0, 0.0, 0.0, 1.6625065566392212E9, 0.0, 2022-09-06 19:22:36.639
38.0, -4537.292365705057, -2963.5283903513423, -32592.93378507302, -20611.482335505767, 2572.3058071501027, 8287.557457394298, 70478.26891878473, 47510.800958967324, -13370.433553508945, 5951.889568792531, -10788.225923565142, -11760.28093818199, 17296.919798483825, -8593.239914565076, -19315.572895475972, 20784.127209678558, 0.198, 0.918, 0.098, 192.0, 3.0, 24.0, 14.0, 88.0, 1.5, 8.0, 0.0, 0.0, 0.0, 1.662506556639232E9, 0.0, 2022-09-06 19:22:36.639
40.0, -5001.001656174857, -3285.3041035299425, -33137.77990791558, -20810.949303024925, 2373.017653586585, 7947.296851551158, 76906.92119680897, 48023.37116281643, -14143.714504684747, 5040.3630781606535, -11730.217841889602, -12546.794122075335, 16430.72264560731, -9712.794090842497, -20386.020289185082, 20147.303658402405, 0.198, 0.918, 0.098, 192.0, 0.0, 0.0, 0.0, 0.0, 0.0, 0.0, 0.0, 0.0, 0.0, 1.6625065566392417E9, 0.0, 2022-09-06 19:22:36.639
42.0, -4436.68716391172, -2833.0165544768042, -32482.650277930534, -20450.840348105474, 2732.768980594752, 8438.85641561227, 69186.53925496808, 46785.93388628172, -13438.204042697436, 5900.771129223243, -10843.568842836481, -11843.764703722562, 17222.51084119211, -8612.12713862981, -19322.34547404593, 20651.290792380667, 0.198, 0.918, 0.098, 192.0, 0.0, 0.0, 0.0, 0.0, 0.0, 0.0, 0.0, 0.0, 0.0, 1.662506556639251E9, 0.0, 2022-09-06 19:22:36.639
44.0, -5147.092657934744, -3448.6506520093267, -33266.101272833504, -20975.234624771434, 2196.9306107676757, 7798.59069569, 78135.93186568402, 48608.09279776726, -14064.388163612863, 5088.7322531619375, -11679.92641686516, -12499.386072085628, 16473.30271879467, -9684.563837595444, -20350.302201545503, 20193.37060372479, 0.198, 0.918, 0.098, 192.0, 0.0, 0.0, 0.0, 0.0, 0.0, 0.0, 0.0, 0.0, 0.0, 1.6625065566392603E9, 0.0, 2022-09-06 19:22:36.639
46.0, -4342.698078477154, -2711.0430849841937, -32402.496922313803, -20279.246005922083, 2874.434336952488, 8577.101955068345, 68196.17816164234, 46164.62244565755, -13552.197939419502, 5784.027967933174, -10951.058381922054, -12006.463051612742, 17100.71618565514, -8708.016122343079, -19393.1781522248, 20493.86745618194, 0.198, 0.918, 0.098, 192.0, 0.0, 0.0, 0.0, 0.0, 0.0, 0.0, 0.0, 0.0, 0.0, 1.6625065566392708E9, 0.0, 2022-09-06 19:22:36.639
48.0, -5239.7629904464475, -3560.252912074675, -33327.27799740768, -21077.31504169882, 2074.2418854524954, 7729.9931919566625, 79119.76624962881, 49205.2643543797, -13934.166900416245, 5176.887533293669, -11567.988880632984, -12399.943161003966, 16577.819475867687, -9597.906124342218, -20214.649464446244, 20349.005800367093, 0.202, 0.962, 0.11800000000000001, 192.0, 3.0, 40.0, 15.0, 8.0, 1.5, 88.0, 0.0, 0.0, 0.0, 1.66250655663928E9, 0.0, 2022-09-06 19:22:36.639
50.0, -4294.70888313161, -2626.5981944320433, -32358.6875031814, -20164.46979814408, 2992.2056784875012, 8666.017194511556, 67520.17200233602, 45598.13983418224, -13666.08007741929, 5641.781466219601, -11066.728659478267, -12148.374277159486, 16974.585291693842, -8810.70003637076, -19496.152638930398, 20351.553899235, 0.202, 0.962, 0.11800000000000001, 192.0, 0.0, 0.0, 0.0, 0.0, 0.0, 0.0, 0.0, 0.0, 0.0, 1.66250655663929E9, 0.0, 2022-09-06 19:22:36.639
52.0, -5321.078636774854, -3660.187561534353, -33372.09324504057, -21191.75597330999, 1963.4666399319935, 7635.288850699527, 79729.14185871385, 49630.34983043073, -13805.040872697935, 5268.663796027159, -11449.725800719954, -12268.872531518047, 16682.49269515189, -9472.78105888141, -20115.586533020323, 20436.222307231703, 0.202, 0.962, 0.11800000000000001, 192.0, 0.0, 0.0, 0.0, 0.0, 0.0, 0.0, 0.0, 0.0, 0.0, 1.6625065566392992E9, 0.0, 2022-09-06 19:22:36.639
54.0, -4262.74588856052, -2570.718833293776, -32350.327950755116, -20089.725564685534, 3073.946007960559, 8721.248355060621, 67265.36211554553, 45166.88527666155, -13792.143916147223, 5473.249313026585, -11196.279370341226, -12270.370098396552, 16821.90052531964, -8951.426619461372, -19645.931678525412, 20166.816731311887, 0.202, 0.962, 0.11800000000000001, 192.0, 0.0, 0.0, 0.0, 0.0, 0.0, 0.0, 0.0, 0.0, 0.0, 1.6625065566393065E9, 0.0, 2022-09-06 19:22:36.639
56.0, -5350.001794100022, -3722.1913006533746, -33391.91924237242, -21283.152256387744, 1878.1723830905419, 7571.318158068438, 79879.0997122645, 49928.96913635363, -13672.450324589054, 5360.618872716293, -11308.90981065152, -12130.291715895142, 16798.744118063943, -9342.984478829441, -20009.505153835435, 20515.86157272596, 0.202, 0.962, 0.11800000000000001, 192.0, 0.0, 0.0, 0.0, 0.0, 0.0, 0.0, 0.0, 0.0, 0.0, 1.662506556639314E9, 0.0, 2022-09-06 19:22:36.639
58.0, -4245.333879629837, -2533.525530520145, -32364.677770695424, -20049.805349088354, 3124.192729496089, 8736.022858145578, 67350.54461366471, 44893.79166290661, -13922.812214232948, 5296.424662640651, -11326.90296493804, -12396.255123168841, 16693.44504993499, -9116.516604008271, -19816.00610208584, 19994.037746672362, 0.21700000000000003, 0.948, 0.10700000000000001, 192.0, 3.5, 32.0, 14.5, 24.0, 1.5, 0.0, 0.0, 0.0, 0.0, 1.6625065566393213E9, 0.0, 2022-09-06 19:22:36.639
60.0, -5327.404180455706, -3720.2466988857627, -33358.21281173382, -21309.32614914491, 1835.45819943645, 7588.8195739769435, 79554.88765894028, 50114.53331882159, -13533.668343266052, 5495.154022592786, -11143.305735982149, -11975.03649890858, 16950.847739082306, -9180.800221061734, -19864.285870109306, 20589.801143384117, 0.21700000000000003, 0.948, 0.10700000000000001, 192.0, 0.0, 0.0, 0.0, 0.0, 0.0, 0.0, 0.0, 0.0, 0.0, 1.6625065566393292E9, 0.0, 2022-09-06 19:22:36.639
62.0, -4285.432909182658, -2544.0979056475053, -32410.18592240643, -20038.607125116247, 3110.6699241006286, 8724.444654517729, 67835.0633782224, 44761.424632242284, -14053.324050107485, 5165.175219199088, -11463.963861937984, -12508.147955912109, 16552.629059866555, -9267.50263780387, -19973.384734795658, 19814.419128229514, 0.21700000000000003, 0.948, 0.10700000000000001, 192.0, 0.0, 0.0, 0.0, 0.0, 0.0, 0.0, 0.0, 0.0, 0.0, 1.6625065566393363E9, 0.0, 2022-09-06 19:22:36.639
64.0, -5270.85426698378, -3672.861000640512, -33267.33061877854, -21268.8694916808, 1857.5417229582933, 7647.135275260839, 78767.34629480199, 50090.7734144656, -13426.335266391668, 5635.165349860829, -11004.054368025585, -11843.272965344546, 17065.936871282684, -9011.284591112684, -19709.053004867197, 20645.009952188728, 0.21700000000000003, 0.948, 0.10700000000000001, 192.0, 0.0, 0.0, 0.0, 0.0, 0.0, 0.0, 0.0, 0.0, 0.0, 1.662506556639346E9, 0.0, 2022-09-06 19:22:36.639
66.0, -4329.421142270701, -2558.1571529098933, -32457.593972396135, -20043.993895529973, 3082.2832086423887, 8700.058901316988, 68635.90403031159, 44819.33800212598, -14143.98272561821, 5087.480555472441, -11556.164807816125, -12576.231369522975, 16434.58949739808, -9382.390604304148, -20088.943253629597, 19711.66815896847, 0.21700000000000003, 0.948, 0.10700000000000001, 192.0, 0.0, 0.0, 0.0, 0.0, 0.0, 0.0, 0.0, 0.0, 0.0, 1.6625065566393557E9, 0.0, 2022-09-06 19:22:36.639
68.0, -5167.052765733334, -3577.240237860708, -33137.06465209302, -21174.120446934754, 1928.419104626072, 7752.859026534442, 77557.53577441403, 49875.280246171984, -13325.64065762051, 5788.654779035423, -10856.063467986998, -11729.212013389113, 17169.2019306662, -8848.049801355577, -19545.10295928752, 20710.14293553149, 0.22650000000000003, 0.946, 0.10750000000000001, 192.0, 3.5, 48.0, 14.5, 64.0, 1.5, 48.0, 0.0, 0.0, 0.0, 1.6625065566393657E9, 0.0, 2022-09-06 19:22:36.639
70.0, -4411.4073409327675, -2625.681772909376, -32525.207999373437, -20082.8412273933, 3031.6118039622074, 8629.472092327129, 69696.96369134948, 45077.32183662913, -14202.454889113294, 4997.693597995472, -11640.45323615709, -12651.959079737555, 16361.85692094051, -9501.950085395585, -20177.903196561718, 19683.70612665488, 0.22650000000000003, 0.946, 0.10750000000000001, 192.0, 0.0, 0.0, 0.0, 0.0, 0.0, 0.0, 0.0, 0.0, 0.0, 1.662506556639378E9, 0.0, 2022-09-06 19:22:36.639
72.0, -5033.098761212678, -3455.222064879187, -33007.37983076332, -21070.363649173218, 2028.1525883856523, 7856.526417318156, 76016.45004945398, 49489.55619210675, -13231.159833807926, 5884.87903891552, -10741.331963697907, -11671.611567927786, 17272.064658649524, -8696.974360582157, -19396.93324529329, 20756.992191909816, 0.22650000000000003, 0.946, 0.10750000000000001, 192.0, 0.0, 0.0, 0.0, 0.0, 0.0, 0.0, 0.0, 0.0, 0.0, 1.6625065566393867E9, 0.0, 2022-09-06 19:22:36.639
74.0, -4521.221461441692, -2738.088695775115, -32661.46423357299, -20210.872019633298, 2912.544061248787, 8505.196393155622, 70985.58646268684, 45471.53955358738, -14224.76193007969, 4913.986315010347, -11704.848611932828, -12718.544926469915, 16295.114611996964, -9619.967296119607, -20305.084622512415, 19639.40496914446, 0.22650000000000003, 0.946, 0.10750000000000001, 192.0, 0.0, 0.0, 0.0, 0.0, 0.0, 0.0, 0.0, 0.0, 0.0, 1.662506556639397E9, 0.0, 2022-09-06 19:22:36.639
76.0, -4909.068931230179, -3331.5945662968834, -32891.57544274037, -20960.795397853304, 2152.09301139033, 8008.093596469593, 74347.69116016521, 49004.45628219322, -13188.020967009184, 5935.103408706595, -10663.838465671357, -11640.810864068373, 17308.60976083395, -8589.46246975213, -19319.663264711293, 20727.130261317525, 0.22650000000000003, 0.946, 0.10750000000000001, 192.0, 0.0, 0.0, 0.0, 0.0, 0.0, 0.0, 0.0, 0.0, 0.0, 1.6625065566394045E9, 0.0, 2022-09-06 19:22:36.639
78.0, -4657.097715985503, -2871.3721479621113, -32809.32102314485, -20355.107826603395, 2773.0021206143047, 8393.482374367997, 72500.43123965636, 45990.0553214616, -14245.549052423126, 4847.869854911549, -11759.878606781795, -12729.497281253014, 16242.588012526992, -9698.53367788001, -20403.007614971117, 19593.2262650998, 0.23225, 0.938, 0.11075000000000002, 192.0, 3.5, 56.0, 14.5, 8.0, 1.5, 72.0, 0.0, 0.0, 0.0, 1.662506556639412E9, 0.0, 2022-09-06 19:22:36.639
80.0, -4744.940071694859, -3156.1557240671787, -32751.139432327684, -20798.655843574506, 2313.673772057745, 8179.754993886351, 72652.28899148572, 48428.943565957976, -13180.46607738329, 5975.4930109373345, -10613.703502858103, -11607.14913691868, 17335.610668135963, -8488.142012136223, -19246.349542897886, 20649.346190613054, 0.23225, 0.938, 0.11075000000000002, 192.0, 0.0, 0.0, 0.0, 0.0, 0.0, 0.0, 0.0, 0.0, 0.0, 1.6625065566394193E9, 0.0, 2022-09-06 19:22:36.639
82.0, -4809.469557937331, -3026.2250335484787, -32950.49464112457, -20524.98108446373, 2604.84994707703, 8259.081334958237, 74107.5440177374, 46612.551404541904, -14212.155546206897, 4855.447096281898, -11754.178911945692, -12678.445896917094, 16240.241079359184, -9709.910715807762, -20444.514804424623, 19587.750087708246, 0.23225, 0.938, 0.11075000000000002, 192.0, 0.0, 0.0, 0.0, 0.0, 0.0, 0.0, 0.0, 0.0, 0.0, 1.6625065566394267E9, 0.0, 2022-09-06 19:22:36.639
84.0, -4629.158035416369, -3023.341658513744, -32618.861808641173, -20652.98952495927, 2460.4129744068355, 8336.328963795777, 70992.33668951233, 47775.46796506262, -13236.5242524772, 5936.131588951539, -10637.39635198073, -11657.194692754114, 17287.017975690123, -8463.15276183519, -19235.978333470623, 20517.761471004662, 0.23225, 0.938, 0.11075000000000002, 192.0, 0.0, 0.0, 0.0, 0.0, 0.0, 0.0, 0.0, 0.0, 0.0, 1.662506556639434E9, 0.0, 2022-09-06 19:22:36.639
86.0, -4953.5489026962405, -3181.592009257318, -33065.27084890257, -20679.968080516825, 2430.685154281277, 8115.5831355551645, 75631.97769307825, 47304.82963381167, -14165.328641573029, 4863.829000452638, -11732.60947854632, -12614.989294408477, 16270.281823907117, -9705.663884361255, -20445.14065326937, 19641.55073661217, 0.23225, 0.938, 0.11075000000000002, 192.0, 0.0, 0.0, 0.0, 0.0, 0.0, 0.0, 0.0, 0.0, 0.0, 1.6625065566394415E9, 0.0, 2022-09-06 19:22:36.639
88.0, -4498.4003303528225, -2871.9756450624045, -32489.75813266732, -20476.947185629273, 2622.1725490298927, 8490.019558670469, 69447.11589182806, 47051.96434878878, -13308.183945200915, 5886.30955056066, -10675.707241977125, -11710.727120724574, 17230.333951751465, -8460.604662967286, -19246.729522553625, 20391.11648692089, 0.238125, 0.9339999999999999, 0.110375, 192.0, 3.5, 80.0, 14.5, 8.0, 1.5, 56.0, 0.0, 0.0, 0.0, 1.662506556639449E9, 0.0, 2022-09-06 19:22:36.639
90.0, -5092.86732588617, -3350.906473506269, -33174.12384439991, -20842.062931306715, 2257.213265563639, 7983.171401401926, 76943.37689201557, 47917.60270805391, -14083.856533033435, 4913.718094076883, -11671.611567927786, -12521.268429907374, 16329.893926369421, -9666.905959475751, -20408.32733015148, 19708.293045555718, 0.238125, 0.9339999999999999, 0.110375, 192.0, 0.0, 0.0, 0.0, 0.0, 0.0, 0.0, 0.0, 0.0, 0.0, 1.6625065566394565E9, 0.0, 2022-09-06 19:22:36.639
92.0, -4341.960470910129, -2701.4988901017773, -32341.521363439726, -20275.759133787054, 2807.356751842112, 8689.084194789433, 68111.37564317891, 46365.207000399474, -13402.329492846668, 5797.506069839725, -10746.629327133815, -11799.62000842333, 17141.1951948637, -8511.454881603107, -19300.77604064656, 20240.264563592027, 0.238125, 0.9339999999999999, 0.110375, 192.0, 0.0, 0.0, 0.0, 0.0, 0.0, 0.0, 0.0, 0.0, 0.0, 1.6625065566394637E9, 0.0, 2022-09-06 19:22:36.639
94.0, -5198.255800992943, -3475.7409662891587, -33249.113947047466, -20989.405630756097, 2108.7529788914894, 7873.357280893002, 78014.51718980279, 48529.16878809557, -13953.121179714344, 5029.097798955178, -11544.787769888375, -12371.735259501369, 16458.550567454167, -9558.209426189593, -20305.486953912612, 19836.815576173733, 0.238125, 0.9339999999999999, 0.110375, 192.0, 0.0, 0.0, 0.0, 0.0, 0.0, 0.0, 0.0, 0.0, 0.0, 1.662506556639471E9, 0.0, 2022-09-06 19:22:36.639
96.0, -4283.980045793062, -2610.348476213035, -32298.82953153009, -20183.401725697724, 2920.5459857637866, 8766.622396304894, 67162.11940790647, 45747.20361795469, -13535.05415142228, 5675.532600347114, -10859.975023266677, -11933.037571077059, 17037.438397102167, -8625.962868447647, -19408.60085589896, 20056.622631147224, 0.238125, 0.9339999999999999, 0.110375, 192.0, 0.0, 0.0, 0.0, 0.0, 0.0, 0.0, 0.0, 0.0, 0.0, 1.6625065566394787E9, 0.0, 2022-09-06 19:22:36.639
98.0, -5279.862019999268, -3580.078909406532, -33319.81251475961, -21121.996178864978, 1963.265474231896, 7780.5304861701115, 78794.10133291499, 49037.89449189836, -13855.175835511189, 5124.740913479437, -11454.017335655373, -12271.241816430309, 16578.020641567786, -9483.73341366451, -20242.00799965954, 19908.028234008343, 0.24406250000000002, 0.9390000000000001, 0.1131875, 192.0, 3.5, 104.0, 14.5, 64.0, 1.5, 80.0, 0.0, 0.0, 0.0, 1.6625065566394863E9, 0.0, 2022-09-06 19:22:36.639
100.0, -4207.73824545601, -2507.7316174187204, -32237.89867614492, -20051.14645375567, 3040.9995366334365, 8881.175086638343, 66582.38221196916, 45245.898693311065, -13652.043181901357, 5580.716500367702, -10971.912559498855, -12052.306479490577, 16956.07804728485, -8733.027724388567, -19521.76773807618, 19895.31009141327, 0.24406250000000002, 0.9390000000000001, 0.1131875, 192.0, 0.0, 0.0, 0.0, 0.0, 0.0, 0.0, 0.0, 0.0, 0.0, 1.6625065566394937E9, 0.0, 2022-09-06 19:22:36.639
102.0, -5325.10195077681, -3649.794000362635, -33331.21190443181, -21197.701537335102, 1884.2073540934748, 7748.366325898925, 79180.40653233607, 49439.57769150468, -13697.57368535682, 5301.073825487355, -11286.692176662944, -12101.234448103243, 16763.741286246932, -9337.821225860265, -20077.096829068283, 20023.698511564555, 0.24406250000000002, 0.9390000000000001, 0.1131875, 192.0, 0.0, 0.0, 0.0, 0.0, 0.0, 0.0, 0.0, 0.0, 0.0, 1.6625065566395028E9, 0.0, 2022-09-06 19:22:36.639
104.0, -4197.188222073105, -2469.621893122422, -32248.269885572183, -19994.90946470612, 3099.7399210619833, 8910.701741063804, 66450.6857336385, 44806.82102523101, -13789.998148679513, 5455.189103506697, -11111.499203622247, -12180.381975219487, 16840.228955772993, -8891.389833854417, -19672.284385238218, 19683.90729235498, 0.24406250000000002, 0.9390000000000001, 0.1131875, 192.0, 0.0, 0.0, 0.0, 0.0, 0.0, 0.0, 0.0, 0.0, 0.0, 1.6625065566395123E9, 0.0, 2022-09-06 19:22:36.639
106.0, -5332.299212491419, -3679.141840832453, -33309.374250098976, -21242.025046589977, 1847.975176331422, 7746.1311514533945, 79140.39690976107, 49694.298171317365, -13568.380602405145, 5466.32027224544, -11142.903404581954, -11945.755713672128, 16927.378407404234, -9193.898343312543, -19944.52863270386, 20096.565198488857, 0.24406250000000002, 0.9390000000000001, 0.1131875, 192.0, 0.0, 0.0, 0.0, 0.0, 0.0, 0.0, 0.0, 0.0, 0.0, 1.6625065566395216E9, 0.0, 2022-09-06 19:22:36.639
108.0, -4210.68867572411, -2455.4508871377575, -32271.67216201689, -19951.14474906263, 3153.2499972879887, 8935.087494264542, 66747.06986511587, 44618.90990959524, -13926.343789856886, 5350.538235966949, -11255.444437914424, -12292.274807962753, 16730.88422189763, -9049.304908431162, -19812.09454680616, 19518.347921174518, 0.25003125000000004, 0.9395, 0.11959375, 192.0, 4.0, 0.0, 14.5, 48.0, 1.5, 120.0, 0.0, 0.0, 0.0, 1.6625065566395316E9, 0.0, 2022-09-06 19:22:36.639
110.0, -5321.928003064157, -3690.697692715847, -33296.074962148065, -21269.49534052555, 1822.5388911412826, 7752.300232923059, 78688.73520955267, 49776.59729440181, -13444.551938122742, 5639.948623174265, -10994.867801054455, -11794.769679876528, 17080.75607785655, -9028.316620387628, -19778.544578378747, 20154.925603261665, 0.25003125000000004, 0.9395, 0.11959375, 192.0, 0.0, 0.0, 0.0, 0.0, 0.0, 0.0, 0.0, 0.0, 0.0, 1.6625065566395416E9, 0.0, 2022-09-06 19:22:36.639
112.0, -4278.928551546162, -2489.9619805767516, -32379.876956925033, -19972.110685361706, 3118.6047933822624, 8928.247860461219, 67469.99233603387, 44596.04407501747, -14071.227797416186, 5211.286868010387, -11418.723931160443, -12419.41153042454, 16570.063420541694, -9237.618355467124, -20002.10672642073, 19323.0607298685, 0.25003125000000004, 0.9395, 0.11959375, 192.0, 0.0, 0.0, 0.0, 0.0, 0.0, 0.0, 0.0, 0.0, 0.0, 1.6625065566395516E9, 0.0, 2022-09-06 19:22:36.639
114.0, -5245.775609704925, -3612.4442353778168, -33207.24912968268, -21205.30113044991, 1859.8216008927348, 7867.210551167793, 77852.86937390201, 49731.46912234654, -13336.92828857044, 5813.95695375883, -10843.390028880838, -11639.335648934324, 17190.525494876565, -8838.595013450982, -19618.774309012213, 20223.09842385035, 0.25003125000000004, 0.9395, 0.11959375, 192.0, 0.0, 0.0, 0.0, 0.0, 0.0, 0.0, 0.0, 0.0, 0.0, 1.6625065566395617E9, 0.0, 2022-09-06 19:22:36.639
116.0, -4362.702889764654, -2553.8656179744744, -32469.261583001804, -20032.43804364658, 3063.284225855378, 8842.0371820971, 68513.08119452967, 44695.643448310315, -14153.482217011717, 5122.639849500639, -11513.42827241758, -12478.330728808729, 16466.46308499135, -9365.917368640587, -20134.809033251888, 19206.36227206734, 0.25003125000000004, 0.9395, 0.11959375, 192.0, 0.0, 0.0, 0.0, 0.0, 0.0, 0.0, 0.0, 0.0, 0.0, 1.6625065566395717E9, 0.0, 2022-09-06 19:22:36.639
118.0, -5161.822457530792, -3539.756362409158, -33103.134704009855, -21147.834795455314, 1939.2597006868962, 7945.776932928197, 76677.45818823078, 49472.41240410953, -13262.608738256544, 5896.569001265646, -10729.060855991944, -11562.646813708165, 17280.915949453825, -8727.77506444157, -19502.52288610016, 20230.80977568743, 0.258015625, 0.9437500000000001, 0.127796875, 192.0, 4.0, 40.0, 14.5, 80.0, 2.0, 32.0, 0.0, 0.0, 0.0, 1.66250655663958E9, 0.0, 2022-09-06 19:22:36.639
120.0, -4492.432414583256, -2669.0441571526717, -32577.332267443213, -20129.109338415783, 2969.6080648431857, 8754.463047321207, 69860.53375727341, 44990.35119895353, -14219.844546299524, 5013.339819114187, -11606.590343307298, -12552.717334355992, 16386.063860185608, -9503.514707507456, -20260.604651046357, 19145.654934126727, 0.258015625, 0.9437500000000001, 0.127796875, 192.0, 0.0, 0.0, 0.0, 0.0, 0.0, 0.0, 0.0, 0.0, 0.0, 1.6625065571181772E9, 0.0, 2022-09-06 19:22:37.118
122.0, -5062.692470871505, -3444.023840907078, -32980.24481299458, -21054.806835032326, 2025.4703790510155, 8055.032259825738, 75270.8182061694, 49034.832302907984, -13221.056845314128, 5954.951757782907, -10654.942471378145, -11517.675103864087, 17349.11112178697, -8608.796728705971, -19391.524123135106, 20233.33552281088, 0.258015625, 0.9437500000000001, 0.127796875, 192.0, 0.0, 0.0, 0.0, 0.0, 0.0, 0.0, 0.0, 0.0, 0.0, 1.6625065571183984E9, 0.0, 2022-09-06 19:22:37.118
124.0, -4619.345619600489, -2796.873783692573, -32708.29113820686, -20256.827206233407, 2839.1632842020135, 8631.416694094742, 71400.34543279951, 45350.1025259617, -14259.9659275968, 4925.788036082749, -11686.140201823737, -12587.720166173001, 16324.261286766683, -9615.116967572805, -20388.27781537507, 19091.384898589244, 0.258015625, 0.9437500000000001, 0.127796875, 192.0, 0.0, 0.0, 0.0, 0.0, 0.0, 0.0, 0.0, 0.0, 0.0, 1.662506557118451E9, 0.0, 2022-09-06 19:22:37.118
126.0, -4917.942573778936, -3296.3458652908644, -32839.585285137335, -20913.141478674588, 2171.986063955553, 8189.746223657874, 73671.41677992545, 48436.07377243922, -13182.723603573277, 6000.772833916287, -10579.348871630296, -11474.782106254353, 17404.275227102666, -8510.761977524993, -19326.83817468145, 20191.358946723813, 0.258015625, 0.9437500000000001, 0.127796875, 192.0, 0.0, 0.0, 0.0, 0.0, 0.0, 0.0, 0.0, 0.0, 0.0, 1.6625065571184602E9, 0.0, 2022-09-06 19:22:37.118
128.0, -4779.7417378117725, -2954.3641751246664, -32856.907887090194, -20411.836554030964, 2674.9673694333283, 8473.859247429282, 73030.34639720278, 45835.13538064187, -14257.14960779543, 4879.318759360166, -11712.425853303177, -12587.898980128644, 16311.632551149434, -9685.837887029396, -20486.044345622584, 19059.667773207162, 0.258015625, 0.9437500000000001, 0.127796875, 192.0, 0.0, 0.0, 0.0, 0.0, 0.0, 0.0, 0.0, 0.0, 0.0, 1.662506557118469E9, 0.0, 2022-09-06 19:22:37.118
130.0, -4780.434641889888, -3145.5162937064524, -32698.299908435336, -20741.3459707911, 2323.2850221735266, 8385.793374275372, 72043.22630682305, 47868.85355339689, -13206.774080607187, 5997.397720503535, -10559.94755744309, -11496.619760587188, 17406.532753292653, -8448.266500027956, -19291.589473675427, 20121.30857960088, 0.302, 0.9500000000000001, 0.146, 192.0, 4.5, 56.0, 14.5, 88.0, 2.0, 72.0, 0.0, 0.0, 0.0, 1.6625065571184788E9, 0.0, 2022-09-06 19:22:37.118
132.0, -4932.3594489526095, -3113.687409602095, -32994.30406025697, -20570.39982919691, 2499.550878948078, 8355.976147171992, 74647.24923935524, 46459.71017595651, -14221.0068370112, 4867.561741776674, -11703.038120631949, -12548.761075587401, 16328.441062979826, -9703.674579104732, -20503.43400280881, 19106.762898774494, 0.302, 0.9500000000000001, 0.146, 192.0, 0.0, 0.0, 0.0, 0.0, 0.0, 0.0, 0.0, 0.0, 0.0, 1.6625065571184883E9, 0.0, 2022-09-06 19:22:37.118
134.0, -4641.652660566886, -2980.269846948367, -32567.363389416147, -20568.187006495835, 2476.550933903567, 8539.618079616796, 70457.34768597457, 47135.403410840445, -13261.334688822591, 5959.600920629611, -10584.512124599472, -11550.755685657941, 17365.15967430588, -8439.929299346126, -19293.690537654227, 19979.307947076315, 0.302, 0.9500000000000001, 0.146, 192.0, 0.0, 0.0, 0.0, 0.0, 0.0, 0.0, 0.0, 0.0, 0.0, 1.6625065571185043E9, 0.0, 2022-09-06 19:22:37.118
136.0, -5078.025767567846, -3259.934873573169, -33118.19977977274, -20734.349874776588, 2310.9021557452866, 8208.946372144983, 76181.1824060896, 47063.63195939445, -14155.60563273497, 4925.966850038391, -11655.36184970878, -12471.424039772039, 16371.177598378374, -9677.947721236673, -20486.603139233965, 19128.600553107328, 0.302, 0.9500000000000001, 0.146, 192.0, 0.0, 0.0, 0.0, 0.0, 0.0, 0.0, 0.0, 0.0, 0.0, 1.662506557118514E9, 0.0, 2022-09-06 19:22:37.118
138.0, -4523.769560309596, -2828.903833497028, -32448.385053680548, -20418.251504689637, 2638.623432948999, 8702.62935192935, 69084.4588380407, 46432.0610680653, -13350.4510939659, 5912.595202040101, -10627.136901275742, -11622.549488848388, 17285.81098148954, -8468.852456671293, -19311.19195356273, 19800.00225305584, 0.302, 0.9500000000000001, 0.146, 192.0, 0.0, 0.0, 0.0, 0.0, 0.0, 0.0, 0.0, 0.0, 0.0, 1.662506557118523E9, 0.0, 2022-09-06 19:22:37.118
140.0, -5228.944746130079, -3420.7556749291034, -33226.53868514761, -20924.183240435512, 2138.3690402947714, 8074.411222268489, 77492.76041898257, 47677.120289459264, -14068.187960170266, 4994.5196502828185, -11574.001499891461, -12370.617672278604, 16433.29309621967, -9645.96237492113, -20439.887993322372, 19153.589803408362, 0.28400000000000003, 0.924, 0.166, 192.0, 4.0, 112.0, 14.0, 112.0, 2.5, 24.0, 0.0, 0.0, 0.0, 1.6625065571185312E9, 0.0, 2022-09-06 19:22:37.118
142.0, -4419.029285792028, -2689.384244607001, -32336.69338663738, -20266.751380771566, 2796.538507525743, 8863.763077707657, 67932.69579800317, 45754.04325175801, -13463.99795579886, 5818.181433460883, -10713.526393595504, -11727.557984299421, 17163.144607918814, -8564.294405495453, -19369.59706182445, 19584.620843484503, 0.28400000000000003, 0.924, 0.166, 192.0, 0.0, 0.0, 0.0, 0.0, 0.0, 0.0, 0.0, 0.0, 0.0, 1.6625065571185396E9, 0.0, 2022-09-06 19:22:37.118
144.0, -5329.125264778765, -3529.541615193083, -33277.74653169471, -21038.22184064649, 2012.1040358667417, 7991.352139872568, 78487.05541933244, 48259.13736333101, -13944.560461587962, 5118.191852354033, -11452.385658310135, -12225.04076064119, 16520.375492617546, -9545.871263250263, -20298.64732010929, 19266.287298952022, 0.28400000000000003, 0.924, 0.166, 192.0, 0.0, 0.0, 0.0, 0.0, 0.0, 0.0, 0.0, 0.0, 0.0, 1.6625065571185484E9, 0.0, 2022-09-06 19:22:37.118
146.0, -4357.00319492855, -2579.8606967759965, -32275.13668240746, -20125.55541104739, 2916.9697066509375, 8966.178770801875, 67131.40811102488, 45162.72785219287, -13601.505887687908, 5714.201118254795, -10827.52029031757, -11838.959078664671, 17007.822335698886, -8652.874368771836, -19427.398672985873, 19450.286859308108, 0.28400000000000003, 0.924, 0.166, 192.0, 0.0, 0.0, 0.0, 0.0, 0.0, 0.0, 0.0, 0.0, 0.0, 1.6625065571185572E9, 0.0, 2022-09-06 19:22:37.118
148.0, -5407.177556416697, -3616.4899011242273, -33332.03891897666, -21155.38968508121, 1890.3987873075948, 7924.967458840306, 79084.49519687834, 48740.68334587614, -13824.35277990732, 5250.760048718459, -11323.10316838064, -12078.122744336457, 16606.697929703943, -9417.505194843436, -20142.207460666592, 19393.334614435986, 0.28400000000000003, 0.924, 0.166, 192.0, 0.0, 0.0, 0.0, 0.0, 0.0, 0.0, 0.0, 0.0, 0.0, 1.662506557118566E9, 0.0, 2022-09-06 19:22:37.118
150.0, -4317.977049109584, -2502.7248266607317, -32255.221278097782, -20037.757758826945, 3014.132739798157, 9049.818998553634, 66722.52764970394, 44674.811622477966, -13742.500691711986, 5556.755430311612, -10969.945605986788, -11989.363967104431, 16831.33296147978, -8817.450263196262, -19551.182633779365, 19233.027903202525, 0.254, 0.932, 0.186, 192.0, 3.5, 120.0, 14.5, 16.0, 2.5, 104.0, 0.0, 0.0, 0.0, 1.6625065571185749E9, 0.0, 2022-09-06 19:22:37.118
152.0, -5434.1114084853425, -3661.2604452682076, -33323.54525608364, -21222.57902891386, 1822.717705096925, 7927.448502474846, 79262.83976588724, 49095.785510037604, -13678.574702569807, 5402.9754284591, -11169.412573505948, -11923.940411083748, 16724.916306128063, -9265.625091269623, -19982.10191513323, 19459.51812976815, 0.254, 0.932, 0.186, 192.0, 0.0, 0.0, 0.0, 0.0, 0.0, 0.0, 0.0, 0.0, 0.0, 1.6625065571185837E9, 0.0, 2022-09-06 19:22:37.118
154.0, -4323.609688712321, -2473.891076313386, -32270.934554449865, -19994.10480190573, 3054.7682112179054, 9096.958827609877, 66836.32038072591, 44329.67833634357, -13878.734574167083, 5427.69645782667, -11114.114357723518, -12102.463794048286, 16657.704610550954, -8955.740506141246, -19697.631263450538, 19031.035188559912, 0.254, 0.932, 0.186, 192.0, 0.0, 0.0, 0.0, 0.0, 0.0, 0.0, 0.0, 0.0, 0.0, 1.6625065571185932E9, 0.0, 2022-09-06 19:22:37.118
156.0, -5401.1202336693095, -3672.1904483068524, -33250.18683078132, -21263.326259055884, 1766.3913090695512, 7936.858586890529, 78870.63370592997, 49322.789826725704, -13531.3437618427, 5563.14802922583, -10992.65497835338, -11758.51515037002, 16869.442685776077, -9057.351536435073, -19786.546502893747, 19555.317706503596, 0.254, 0.932, 0.186, 192.0, 0.0, 0.0, 0.0, 0.0, 0.0, 0.0, 0.0, 0.0, 0.0, 1.6625065571186018E9, 0.0, 2022-09-06 19:22:37.118
158.0, -5094.007264853391, -3268.875571355292, -33014.39827852229, -20796.174799939967, 2231.5311111844912, 8325.264850290401, 76312.14127685325, 46493.841289739765, -14211.932028762345, 4975.051280862246, -11595.369767590735, -12466.953690880979, 16210.625017955903, -9540.015106202973, -20276.027354720518, 18685.99130940334, 0.254, 0.932, 0.186, 192.0, 0.0, 0.0, 0.0, 0.0, 0.0, 0.0, 0.0, 0.0, 0.0, 1.6625065571186109E9, 0.0, 2022-09-06 19:22:37.118
160.0, -5166.315158166309, -3354.460400874663, -33025.84237168341, -20884.911225427535, 2145.275729331461, 8272.87236128716, 77172.32581047127, 47237.90851091248, -13942.392342375797, 5241.908757914157, -11278.80201087022, -12147.681373081372, 16527.237478165327, -9239.898233401565, -19969.42847602707, 19077.459761793587, 0.24, 0.9400000000000001, 0.188, 192.0, 3.5, 64.0, 14.5, 48.0, 2.5, 112.0, 0.0, 0.0, 0.0, 1.6625065571186197E9, 0.0, 2022-09-06 19:22:37.118
162.0, -4900.262343914788, -3075.4435748390647, -32836.67955835814, -20610.767079683195, 2406.7687877140984, 8508.124471679268, 74325.76409885456, 45964.7978502271, -13917.80542347496, 5256.593854021294, -11279.874894604076, -12162.187655232867, 16503.097594153594, -9235.092608343675, -19986.8181332133, 18957.140321390667, 0.24, 0.9400000000000001, 0.188, 192.0, 0.0, 0.0, 0.0, 0.0, 0.0, 0.0, 0.0, 0.0, 0.0, 1.6625065571186275E9, 0.0, 2022-09-06 19:22:37.118
164.0, -5010.903478968558, -3200.456881577597, -32888.33443979436, -20732.96406662036, 2283.074233898429, 8412.14608098818, 75230.42860393865, 46988.41833930235, -13752.33545927232, 5400.852012735845, -11090.868543489998, -11974.723574486206, 16693.847381335185, -9064.392335938493, -19827.606657458145, 19203.814173199436, 0.24, 0.9400000000000001, 0.188, 192.0, 0.0, 0.0, 0.0, 0.0, 0.0, 0.0, 0.0, 0.0, 0.0, 1.6625065571186364E9, 0.0, 2022-09-06 19:22:37.118
166.0, -4857.145828860501, -3038.1608650876124, -32831.51630538896, -20584.056745059104, 2426.885357723875, 8534.141902225245, 73603.4227732924, 46082.52448827321, -13836.109797490812, 5298.369264408263, -11201.710844243866, -12094.3054073221, 16581.552217191722, -9172.19479944644, -19970.18843533855, 19012.885572062205, 0.24, 0.9400000000000001, 0.188, 192.0, 0.0, 0.0, 0.0, 0.0, 0.0, 0.0, 0.0, 0.0, 0.0, 1.6625065571186469E9, 0.0, 2022-09-06 19:22:37.118
168.0, -4940.093152534146, -3133.4687034450417, -32853.555125421895, -20667.18288268839, 2335.2879089460266, 8501.329541364854, 74130.49925929299, 46948.185199282794, -13696.813726045339, 5438.604109120859, -11032.977525350754, -11928.902498352827, 16747.111588372183, -9000.041663651666, -19831.518212737825, 19227.93170546671, 0.24, 0.9400000000000001, 0.188, 192.0, 0.0, 0.0, 0.0, 0.0, 0.0, 0.0, 0.0, 0.0, 0.0, 1.6625065571186552E9, 0.0, 2022-09-06 19:22:37.118
170.0, -4826.032200578714, -3018.2901642668444, -32828.54352337641, -20573.819646098575, 2417.631735519378, 8569.390603231264, 73358.42530231777, 46264.31122592822, -13806.672550043173, 5314.216651227075, -11151.330012241604, -12051.457113201275, 16631.463662560425, -9126.574889013158, -19978.279766831372, 19048.268383534956, 0.28400000000000003, 0.904, 0.16, 192.0, 4.0, 112.0, 14.0, 32.0, 2.5, 0.0, 0.0, 0.0, 0.0, 1.662506557118664E9, 0.0, 2022-09-06 19:22:37.118
172.0, -4897.177803179956, -3084.3842726211874, -32819.31225291637, -20628.89434443645, 2361.3947464698253, 8545.74245759755, 73424.16178276084, 46799.411988188265, -13675.244292645966, 5456.865484340845, -11005.462527926271, -11902.348625939921, 16774.85010324122, -8954.645270662937, -19840.30244830876, 19180.344841521364, 0.28400000000000003, 0.904, 0.16, 192.0, 0.0, 0.0, 0.0, 0.0, 0.0, 0.0, 0.0, 0.0, 0.0, 1.662506557118672E9, 0.0, 2022-09-06 19:22:37.118
174.0, -4823.461749966354, -3016.8373008772496, -32829.05761349888, -20578.357050223, 2389.4461857612355, 8555.800742602438, 73360.34755234093, 46382.73076805243, -13772.764953704473, 5345.576148697871, -11117.467119391815, -12001.836240510493, 16692.483924923414, -9057.08331550161, -19947.791987394332, 19058.036095861924, 0.28400000000000003, 0.904, 0.16, 192.0, 0.0, 0.0, 0.0, 0.0, 0.0, 0.0, 0.0, 0.0, 0.0, 1.6625065571186802E9, 0.0, 2022-09-06 19:22:37.118
176.0, -4886.15839316349, -3079.3774818631987, -32825.63779659722, -20637.075082907093, 2341.5463973935125, 8542.747323840538, 73070.6465924557, 46662.79812607743, -13649.092751633258, 5459.547693675482, -11007.65299888289, -11896.268951448077, 16805.13671697816, -8936.763875098692, -19850.763064713843, 19112.30613139941, 0.28400000000000003, 0.904, 0.16, 192.0, 0.0, 0.0, 0.0, 0.0, 0.0, 0.0, 0.0, 0.0, 0.0, 1.6625065571186883E9, 0.0, 2022-09-06 19:22:37.118
178.0, -4889.891134487526, -3089.1228424457126, -32882.165358324695, -20669.686278067384, 2323.9108710182754, 8509.107948435301, 73619.85130546705, 46494.757711262435, -13800.771689506972, 5294.815337039869, -11151.195901774872, -12035.274450215633, 16678.804657316763, -9106.324208536651, -20000.519752564403, 18982.554254836352, 0.28400000000000003, 0.904, 0.16, 192.0, 0.0, 0.0, 0.0, 0.0, 0.0, 0.0, 0.0, 0.0, 0.0, 1.6625065571186972E9, 0.0, 2022-09-06 19:22:37.118
180.0, -4914.209832454901, -3108.6806188441064, -32816.60769183728, -20675.251862436755, 2311.460949356669, 8542.836730818359, 73251.7404260326, 46615.94886969911, -13693.66213007714, 5412.474919852605, -11059.66550823039, -11953.489417253664, 16760.768504234376, -8993.179678103887, -19886.481152353426, 19027.436557702607, 0.334, 0.892, 0.134, 192.0, 5.0, 56.0, 13.5, 112.0, 2.0, 24.0, 0.0, 0.0, 0.0, 1.6625065571187065E9, 0.0, 2022-09-06 19:22:37.118
182.0, -4910.410035897498, -3105.5513746203633, -32858.04782605742, -20698.47532492582, 2304.911888231264, 8525.648239332228, 73937.55900115479, 46482.6207140232, -13841.78714058246, 5268.8202582383465, -11170.284291539705, -12094.417166044375, 16659.760971040843, -9119.489386020827, -19977.452752286525, 18945.204489851534, 0.334, 0.892, 0.134, 192.0, 0.0, 0.0, 0.0, 0.0, 0.0, 0.0, 0.0, 0.0, 0.0, 1.6625065571187153E9, 0.0, 2022-09-06 19:22:37.118
184.0, -4908.286620174244, -3095.224868682011, -32789.89735721319, -20665.66296406543, 2330.214062954672, 8595.206868077144, 72994.20362641854, 46480.96668493351, -13709.867144807238, 5404.9423819711665, -11069.008537412708, -12017.61657209594, 16738.953201645996, -9008.267105611218, -19853.02059090383, 18968.785580251882, 0.334, 0.892, 0.134, 192.0, 0.0, 0.0, 0.0, 0.0, 0.0, 0.0, 0.0, 0.0, 0.0, 1.6625065571187239E9, 0.0, 2022-09-06 19:22:37.118
186.0, -4901.357579393099, -3085.6806737995953, -32817.769982548954, -20678.26934793822, 2315.305449402982, 8586.13205982829, 73897.07999194623, 46600.28029683594, -13834.388713167753, 5286.813412524869, -11150.704163396855, -12118.288829122643, 16658.26340416234, -9104.066682346664, -19913.571466633257, 18964.225824383, 0.334, 0.892, 0.134, 192.0, 0.0, 0.0, 0.0, 0.0, 0.0, 0.0, 0.0, 0.0, 0.0, 1.6625065571187325E9, 0.0, 2022-09-06 19:22:37.118
188.0, -4855.312985815166, -3029.6001469612297, -32718.036498789374, -20595.545541709133, 2394.8329561749647, 8698.404872227296, 72673.43374174045, 46356.892151462096, -13666.929443708594, 5452.1939697496855, -11027.389589236927, -11994.817792751526, 16749.056190139796, -8962.691898666848, -19804.91963683601, 18974.418219854622, 0.334, 0.892, 0.134, 192.0, 0.0, 0.0, 0.0, 0.0, 0.0, 0.0, 0.0, 0.0, 0.0, 1.6625065571187413E9, 0.0, 2022-09-06 19:22:37.118
190.0, -4897.848355513615, -3073.5660283048187, -32778.00622916296, -20633.61056251652, 2327.330687919937, 8630.902603972268, 73838.89840112906, 46658.70775684211, -13791.138087646734, 5354.20392205762, -11091.784965012666, -12055.458075458775, 16690.06993652224, -9027.154329675952, -19842.582326243202, 18993.03722298589, 0.34600000000000003, 0.922, 0.14, 192.0, 5.0, 104.0, 14.0, 104.0, 2.0, 48.0, 0.0, 0.0, 0.0, 1.66250655711875E9, 0.0, 2022-09-06 19:22:37.118
192.0, -4872.188552878923, -3033.1540743296237, -32708.80522832933, -20564.342506449524, 2391.0331596175624, 8718.052055603512, 72470.47990208626, 46267.59693236315, -13674.841961245771, 5462.296958243484, -11036.799673652611, -11979.618606521917, 16723.485794482924, -8950.733715383258, -19784.82541857069, 18942.65639098363, 0.34600000000000003, 0.922, 0.14, 192.0, 0.0, 0.0, 0.0, 0.0, 0.0, 0.0, 0.0, 0.0, 0.0, 1.6625065571187592E9, 0.0, 2022-09-06 19:22:37.118
194.0, -4922.748198836827, -3084.160755176634, -32754.24632480697, -20593.60093994152, 2346.46378117368, 8665.838380555913, 73764.53414732625, 46678.48905068506, -13790.176962635156, 5373.672291478192, -11102.424395373393, -12030.781749580116, 16677.999994516373, -8998.186468861875, -19819.604732943146, 18972.47361808701, 0.34600000000000003, 0.922, 0.14, 192.0, 0.0, 0.0, 0.0, 0.0, 0.0, 0.0, 0.0, 0.0, 0.0, 1.6625065571187682E9, 0.0, 2022-09-06 19:22:37.118
196.0, -4871.741517989817, -3033.7352196854617, -32688.867472275197, -20525.11519493046, 2408.33340982597, 8727.43978827474, 72322.08667064746, 46169.405718970986, -13662.257929117433, 5487.554429477982, -11031.211737538784, -11935.540966456052, 16720.468308981457, -8899.928200236345, -19770.050915485732, 18925.80317566433, 0.34600000000000003, 0.922, 0.14, 192.0, 0.0, 0.0, 0.0, 0.0, 0.0, 0.0, 0.0, 0.0, 0.0, 1.6625065571187775E9, 0.0, 2022-09-06 19:22:37.118
198.0, -4962.064917333712, -3114.559127635852, -32762.449415022067, -20598.31715802159, 2340.98760378213, 8643.061952955955, 73684.62666089853, 46586.71278795157, -13778.174075862657, 5373.627587989282, -11093.416642357903, -11989.118097915423, 16663.247843175872, -8968.704517925325, -19833.149890083063, 18921.0646058398, 0.34600000000000003, 0.922, 0.14, 192.0, 0.0, 0.0, 0.0, 0.0, 0.0, 0.0, 0.0, 0.0, 0.0, 1.6625065571187887E9, 0.0, 2022-09-06 19:22:37.118
200.0, -4887.588904808629, -3039.9266528995818, -32687.571071096787, -20507.189095877304, 2405.42768304678, 8762.263806136109, 72292.00122261062, 46153.603035641085, -13694.28797892189, 5438.090018998387, -11056.536264006647, -11937.016181590103, 16678.044698005284, -8921.207060957797, -19803.66793914651, 18861.340744655223, 0.34500000000000003, 0.923, 0.14500000000000002, 192.0, 5.0, 96.0, 14.0, 112.0, 2.0, 88.0, 0.0, 0.0, 0.0, 1.662506557118796E9, 0.0, 2022-09-06 19:22:37.118
202.0, -4972.167905827511, -3116.1237497477237, -32759.4319295206, -20586.671899160374, 2334.6173566123675, 8710.653628188806, 73630.46838408332, 46649.56589335989, -13770.865055425771, 5370.654805976726, -11076.205799127318, -11958.540911500564, 16664.365430398637, -8952.097171795032, -19828.098395836165, 18919.432928494567, 0.34500000000000003, 0.923, 0.14500000000000002, 192.0, 0.0, 0.0, 0.0, 0.0, 0.0, 0.0, 0.0, 0.0, 0.0, 1.6625065571188047E9, 0.0, 2022-09-06 19:22:37.118
204.0, -4875.116631402568, -3025.465074236998, -32702.32322243729, -20521.605971050976, 2397.112834109406, 8772.433849863273, 72317.5716182675, 46015.20103397382, -13694.66795857763, 5403.131890670287, -11058.167941351885, -11928.03078031907, 16661.92909025301, -8939.848415833523, -19835.74269243988, 18781.85794137215, 0.34500000000000003, 0.923, 0.14500000000000002, 192.0, 0.0, 0.0, 0.0, 0.0, 0.0, 0.0, 0.0, 0.0, 0.0, 1.6625065571188135E9, 0.0, 2022-09-06 19:22:37.118
206.0, -4988.104699624146, -3125.8914620746928, -32766.495080768476, -20593.01979458568, 2312.466777857158, 8721.58363122745, 73562.5190809392, 46757.480115590115, -13750.05558133788, 5361.065907605399, -11067.242749600739, -11932.590536187952, 16656.743485539377, -8929.678372106358, -19844.79514894428, 18858.16679694257, 0.34500000000000003, 0.923, 0.14500000000000002, 192.0, 0.0, 0.0, 0.0, 0.0, 0.0, 0.0, 0.0, 0.0, 0.0, 1.6625065571188233E9, 0.0, 2022-09-06 19:22:37.118
208.0, -4863.985462663825, -3015.5408996988417, -32676.931640736064, -20503.97044467574, 2403.0360463900624, 8815.03627479509, 72391.80176160356, 46136.79452381069, -13702.893400537181, 5382.031843904477, -11057.8103134406, -11918.106605780913, 16648.16041566854, -8911.998142242212, -19862.475378808427, 18751.213699723925, 0.34500000000000003, 0.923, 0.14500000000000002, 192.0, 0.0, 0.0, 0.0, 0.0, 0.0, 0.0, 0.0, 0.0, 0.0, 1.6625065571188323E9, 0.0, 2022-09-06 19:22:37.118
210.0, -4992.373882815109, -3137.223796513533, -32737.99660658796, -20600.12764932247, 2337.6124903693785, 8739.733247725158, 73404.71576508472, 46670.06244302541, -13725.155738014668, 5375.259265334519, -11026.80844388109, -11889.317558922477, 16683.16324748555, -8899.592924069515, -19822.264590533327, 18806.95895039546, 0.3345, 0.9105000000000001, 0.15450000000000003, 192.0, 5.0, 16.0, 14.0, 8.0, 2.5, 16.0, 0.0, 0.0, 0.0, 1.6625065571188407E9, 0.0, 2022-09-06 19:22:37.118
212.0, -4875.787183736227, -3042.2288825784785, -32661.531288806356, -20502.316415586047, 2404.2877440795596, 8822.233536509697, 72467.64123054042, 46140.236692456805, -13734.185842774612, 5350.739401667047, -11057.698554718323, -11910.194088243734, 16628.8261567147, -8933.634630874949, -19861.491902052392, 18714.489783583856, 0.3345, 0.9105000000000001, 0.15450000000000003, 192.0, 0.0, 0.0, 0.0, 0.0, 0.0, 0.0, 0.0, 0.0, 0.0, 1.66250655711885E9, 0.0, 2022-09-06 19:22:37.118
214.0, -4998.565316029229, -3139.7718953814383, -32700.80330381433, -20562.040276770625, 2326.5707286084566, 8781.73217555668, 73233.09907115687, 46632.265643151484, -13716.617371632741, 5387.552724784938, -11009.776414606145, -11833.885232673316, 16676.010689259852, -8881.510362805171, -19792.559122152226, 18804.67907246102, 0.3345, 0.9105000000000001, 0.15450000000000003, 192.0, 0.0, 0.0, 0.0, 0.0, 0.0, 0.0, 0.0, 0.0, 0.0, 1.662506557118858E9, 0.0, 2022-09-06 19:22:37.118
216.0, -4894.182669422945, -3054.4552867955313, -32650.981265423452, -20486.11140085595, 2384.32763628097, 8829.050818568567, 72529.2649900037, 46135.207549954364, -13756.515235485464, 5340.502302706516, -11061.14072336444, -11879.192218684224, 16612.285865817772, -8932.271174463174, -19852.372390314627, 18706.733728257863, 0.3345, 0.9105000000000001, 0.15450000000000003, 192.0, 0.0, 0.0, 0.0, 0.0, 0.0, 0.0, 0.0, 0.0, 0.0, 1.662506557118867E9, 0.0, 2022-09-06 19:22:37.118
218.0, -4989.222286846911, -3123.209252740056, -32668.460329587502, -20524.77991876363, 2341.9040253047974, 8798.853611809447, 73000.90914975514, 46541.5846158963, -13693.75153705496, 5415.224184420608, -10985.88239978342, -11795.551990932465, 16675.49659913738, -8848.586243222504, -19778.879854545576, 18784.920130362527, 0.3345, 0.9105000000000001, 0.15450000000000003, 192.0, 0.0, 0.0, 0.0, 0.0, 0.0, 0.0, 0.0, 0.0, 0.0, 1.6625065571188755E9, 0.0, 2022-09-06 19:22:37.118
220.0, -4887.879477486548, -3056.243426351956, -32650.109547389693, -20484.926758399815, 2365.5745226829677, 8834.526995960117, 72610.73709854331, 46139.1414569785, -13756.068200596357, 5329.192320012131, -11051.462418015291, -11863.858921987883, 16599.254798800328, -8924.224546459263, -19845.532756511304, 18684.203169846915, 0.32725000000000004, 0.9072500000000001, 0.15925, 192.0, 5.0, 0.0, 14.0, 32.0, 2.5, 16.0, 0.0, 0.0, 0.0, 1.6625065571188848E9, 0.0, 2022-09-06 19:22:37.118
222.0, -4969.8656761486145, -3108.5465083773743, -32671.746036022432, -20522.410633851367, 2347.4472579297135, 8830.190757535787, 72755.24112644687, 46487.33693210327, -13673.23263564499, 5415.827681520901, -10966.659899551858, -11772.842618565872, 16661.660869319545, -8848.340374033496, -19796.269511731807, 18739.635496096074, 0.32725000000000004, 0.9072500000000001, 0.15925, 192.0, 0.0, 0.0, 0.0, 0.0, 0.0, 0.0, 0.0, 0.0, 0.0, 1.6625065571188936E9, 0.0, 2022-09-06 19:22:37.118
224.0, -4884.191439651423, -3057.115144385713, -32660.905439961607, -20491.833447436507, 2356.633824900845, 8814.477481183707, 72633.2900086987, 46201.681637964444, -13752.737790672516, 5321.413912941684, -11040.688877187835, -11850.783151481528, 16598.00310111083, -8935.57923264256, -19854.853433949167, 18622.288837705713, 0.32725000000000004, 0.9072500000000001, 0.15925, 192.0, 0.0, 0.0, 0.0, 0.0, 0.0, 0.0, 0.0, 0.0, 0.0, 1.6625065571189027E9, 0.0, 2022-09-06 19:22:37.118
226.0, -4941.188388012456, -3086.775909277905, -32642.152326363605, -20485.820828178028, 2336.405496168792, 8834.83992038249, 72450.6986082433, 46372.18074466953, -13661.36385933922, 5411.267925652019, -10960.490818082193, -11763.99132776157, 16664.924224010017, -8829.162577290843, -19804.316139735718, 18666.992326616328, 0.32725000000000004, 0.9072500000000001, 0.15925, 192.0, 0.0, 0.0, 0.0, 0.0, 0.0, 0.0, 0.0, 0.0, 0.0, 1.6625065571189122E9, 0.0, 2022-09-06 19:22:37.118
228.0, -4896.529602590752, -3070.436784081076, -32651.204782868004, -20494.62741549342, 2335.9361095352306, 8817.159690518343, 72699.33941356414, 46211.963440413885, -13774.642500238717, 5333.48385494755, -11035.7044381743, -11843.608241511374, 16591.722260918887, -8905.359674138985, -19855.233413604907, 18611.96233176736, 0.32725000000000004, 0.9072500000000001, 0.15925, 192.0, 0.0, 0.0, 0.0, 0.0, 0.0, 0.0, 0.0, 0.0, 0.0, 1.6625065571189213E9, 0.0, 2022-09-06 19:22:37.118
230.0, -4980.728623953894, -3132.1946540110894, -32671.969553466985, -20536.73810204722, 2296.731149760622, 8807.50373691365, 72291.68829818825, 46225.888577209545, -13679.736993281484, 5385.4516608061385, -10982.149658459384, -11795.060252554447, 16635.352866095647, -8859.672708472337, -19800.851619345143, 18595.422040870435, 0.31862500000000005, 0.904625, 0.16262500000000002, 192.0, 4.5, 88.0, 14.0, 24.0, 2.5, 24.0, 0.0, 0.0, 0.0, 1.662506557118932E9, 0.0, 2022-09-06 19:22:37.118
232.0, -4938.014440299802, -3107.361865921243, -32686.118207707194, -20528.467956598754, 2288.1704316342393, 8811.795271849069, 72794.64725192157, 46186.7506726683, -13802.023387196468, 5284.108851445777, -11076.943406694343, -11883.841381530927, 16555.870062812577, -8940.518968167182, -19900.74156531591, 18518.085005055073, 0.31862500000000005, 0.904625, 0.16262500000000002, 192.0, 0.0, 0.0, 0.0, 0.0, 0.0, 0.0, 0.0, 0.0, 0.0, 1.6625065571189408E9, 0.0, 2022-09-06 19:22:37.118
234.0, -4999.615848018629, -3149.1819797971225, -32693.986021755463, -20540.73906430472, 2275.184068105706, 8786.73896631467, 72142.87038360482, 46083.70913072934, -13682.016871215925, 5351.566416211894, -11007.049501782598, -11812.29344752949, 16618.119671120607, -8865.171237608343, -19858.720285739935, 18506.640911893955, 0.31862500000000005, 0.904625, 0.16262500000000002, 192.0, 0.0, 0.0, 0.0, 0.0, 0.0, 0.0, 0.0, 0.0, 0.0, 1.66250655711895E9, 0.0, 2022-09-06 19:22:37.118
236.0, -5008.824766734215, -3173.2548085754884, -32741.885810123185, -20572.389134453435, 2258.576721975413, 8789.488230882673, 72912.0609655453, 46201.480472264346, -13825.917402019191, 5238.041906123389, -11109.44284313236, -11909.724701610172, 16530.65729506699, -8961.596663188537, -19940.550022190815, 18472.018059732683, 0.31862500000000005, 0.904625, 0.16262500000000002, 192.0, 0.0, 0.0, 0.0, 0.0, 0.0, 0.0, 0.0, 0.0, 0.0, 1.6625065571189592E9, 0.0, 2022-09-06 19:22:37.118
238.0, -5026.169720431533, -3182.776651713449, -32729.5252954394, -20555.73708483423, 2234.7050588971447, 8766.153009671332, 72107.4205168987, 45934.71240219026, -13713.354016942265, 5309.85806105829, -11047.57321448007, -11846.044581657003, 16570.353993219614, -8887.590037297015, -19901.836800794223, 18446.760588498186, 0.31862500000000005, 0.904625, 0.16262500000000002, 192.0, 0.0, 0.0, 0.0, 0.0, 0.0, 0.0, 0.0, 0.0, 0.0, 1.6625065571189682E9, 0.0, 2022-09-06 19:22:37.118
240.0, -5055.539912645807, -3220.5734515873733, -32789.83030197982, -20605.670881947386, 2180.85970650431, 8708.172584554266, 73050.8429468683, 46144.170599480945, -13856.382829711776, 5196.199440503054, -11145.675020894412, -11943.185263059768, 16488.83718119111, -8977.756974429723, -19986.125229135185, 18394.390451239404, 0.3183125, 0.9033125, 0.15831250000000002, 192.0, 4.5, 120.0, 14.0, 24.0, 2.0, 104.0, 0.0, 0.0, 0.0, 1.662506557599084E9, 0.0, 2022-09-06 19:22:37.599
242.0, -5012.4233975915195, -3165.498753249497, -32716.740097610964, -20532.379511878433, 2237.208454276139, 8831.308344758552, 72114.4166129132, 45965.557809538586, -13740.421979477642, 5263.813467480358, -11075.848171216032, -11878.521666350563, 16524.577620575146, -8926.347962182517, -19931.94460057552, 18397.3408815075, 0.3183125, 0.9033125, 0.15831250000000002, 192.0, 0.0, 0.0, 0.0, 0.0, 0.0, 0.0, 0.0, 0.0, 0.0, 1.6625065575991704E9, 0.0, 2022-09-06 19:22:37.599
244.0, -5070.537933175317, -3220.5734515873733, -32770.29487732588, -20596.84194288754, 2198.8975642797427, 8773.171457430299, 73137.92534326618, 46275.174173733496, -13855.354649466832, 5209.476376709506, -11125.424340417903, -11924.521556439586, 16488.904236424474, -8970.246788292741, -19941.578202435758, 18419.26794281816, 0.3183125, 0.9033125, 0.15831250000000002, 192.0, 0.0, 0.0, 0.0, 0.0, 0.0, 0.0, 0.0, 0.0, 0.0, 1.6625065575992315E9, 0.0, 2022-09-06 19:22:37.599
246.0, -4997.93946718448, -3150.5454362088963, -32692.577861854777, -20525.53987807511, 2251.245349794072, 8834.616402937938, 72144.9267440947, 45865.66786356782, -13752.156645316678, 5269.937845461112, -11066.303976333616, -11875.146552937813, 16514.854611737086, -8921.318819680075, -19901.657986838578, 18366.49547415918, 0.3183125, 0.9033125, 0.15831250000000002, 192.0, 0.0, 0.0, 0.0, 0.0, 0.0, 0.0, 0.0, 0.0, 0.0, 1.662506557599301E9, 0.0, 2022-09-06 19:22:37.599
248.0, -5086.988817094424, -3237.203149462122, -32763.365836544734, -20603.569817968586, 2181.3290931378715, 8759.156913656821, 73167.04966629144, 46237.22091164839, -13848.40325694123, 5216.248955279464, -11109.15227045444, -11923.851004105927, 16481.21523633185, -8969.732698170268, -19911.716271843467, 18396.849143129486, 0.3183125, 0.9033125, 0.15831250000000002, 192.0, 0.0, 0.0, 0.0, 0.0, 0.0, 0.0, 0.0, 0.0, 0.0, 1.6625065575993078E9, 0.0, 2022-09-06 19:22:37.599
250.0, -5007.148385900067, -3165.074070104846, -32701.362097425714, -20538.839166026017, 2239.3318699993933, 8841.65720244136, 72181.82947419041, 45808.58150822896, -13780.543360774918, 5246.066182382844, -11087.515781821703, -11905.075538763469, 16480.701146209376, -8966.804619646624, -19916.231324223438, 18320.8755637259, 0.32515625000000004, 0.90765625, 0.16715625, 192.0, 5.0, 48.0, 14.0, 64.0, 2.5, 64.0, 0.0, 0.0, 0.0, 1.6625065575993147E9, 0.0, 2022-09-06 19:22:37.599
252.0, -5114.526166263362, -3255.9115595712137, -32775.34637157278, -20614.11984135149, 2167.6945290201343, 8770.243378906653, 73129.87871526227, 46228.99546968883, -13856.896919834247, 5207.308257497341, -11116.19306995786, -11933.97634434418, 16476.700183951878, -8970.269140037197, -19920.299341714304, 18370.5858433945, 0.32515625000000004, 0.90765625, 0.16715625, 192.0, 0.0, 0.0, 0.0, 0.0, 0.0, 0.0, 0.0, 0.0, 0.0, 1.6625065575993216E9, 0.0, 2022-09-06 19:22:37.599
254.0, -4997.5147840398295, -3153.3617560102653, -32701.540911381355, -20531.843070011506, 2247.959643359142, 8851.290804301596, 72206.55050355798, 45774.07041478997, -13784.790192221428, 5231.582251975805, -11091.829668501578, -11904.047358518525, 16501.80119297519, -8960.903759110422, -19924.657931883088, 18294.969891902198, 0.32515625000000004, 0.90765625, 0.16715625, 192.0, 0.0, 0.0, 0.0, 0.0, 0.0, 0.0, 0.0, 0.0, 0.0, 1.6625065575993283E9, 0.0, 2022-09-06 19:22:37.599
0.0, -5123.82449195677, -3268.7638126330153, -32778.900298941175, -20617.94198965335, 2167.0686801753855, 8797.445451908761, 73027.97711229052, 46196.07135010616, -13824.173965951679, 5221.6804291821045, -11094.869505747498, -11909.143556254336, 16535.9546585029, -8955.181712529864, -19913.392652677616, 18325.167098661317, 0.32515625000000004, 0.90765625, 0.16715625, 192.0, 0.0, 0.0, 0.0, 0.0, 0.0, 0.0, 0.0, 0.0, 0.0, 1.662506557599335E9, 0.0, 2022-09-06 19:22:37.599
2.0, -5003.840327720682, -3171.332558552332, -32706.324184694793, -20553.278392944147, 2264.768155189533, 8874.737784235214, 72252.84096632493, 45761.21816172817, -13795.988416193535, 5230.062333352845, -11101.86560176201, -11913.748015612127, 16524.89054499752, -8984.909532655422, -19932.883373842644, 18216.001178741597, 0.32515625000000004, 0.90765625, 0.16715625, 192.0, 0.0, 0.0, 0.0, 0.0, 0.0, 0.0, 0.0, 0.0, 0.0, 1.6625065575993416E9, 0.0, 2022-09-06 19:22:37.599
4.0, -5115.8449191862255, -3262.527675929985, -32765.891583668184, -20620.847716432538, 2178.4904215920474, 8830.41427498034, 72905.19897999751, 46166.63410265853, -13804.526782575464, 5275.123450174743, -11072.540113036646, -11886.344776909922, 16576.90305434502, -8953.013593317699, -19885.69884129749, 18289.87369416639, 0.31857812500000005, 0.8988281250000001, 0.173578125, 192.0, 4.5, 96.0, 13.5, 104.0, 2.5, 80.0, 0.0, 0.0, 0.0, 1.6625065575993483E9, 0.0, 2022-09-06 19:22:37.599
6.0, -5018.950106972469, -3200.2780676219545, -32738.28717926588, -20599.099469077526, 2232.0004978180527, 8875.52009529115, 72336.43649058777, 45758.02186227106, -13824.531593862963, 5259.8348569673135, -11108.571125098602, -11916.07259703548, 16534.45709162439, -9007.529498044194, -19946.272068771374, 18175.83509395541, 0.31857812500000005, 0.8988281250000001, 0.173578125, 192.0, 0.0, 0.0, 0.0, 0.0, 0.0, 0.0, 0.0, 0.0, 0.0, 1.66250655759936E9, 0.0, 2022-09-06 19:22:37.599
8.0, -5101.025712612357, -3258.750231117038, -32753.06168235084, -20626.32389382409, 2180.3903198707485, 8864.411278296862, 72789.05931580774, 46116.610898567546, -13812.64046581274, 5298.793947552914, -11078.351566595027, -11889.96575951168, 16587.72129866139, -8978.382823274473, -19891.107963455674, 18206.881667003832, 0.31857812500000005, 0.8988281250000001, 0.173578125, 192.0, 0.0, 0.0, 0.0, 0.0, 0.0, 0.0, 0.0, 0.0, 0.0, 1.662506557599367E9, 0.0, 2022-09-06 19:22:37.599
10.0, -4994.854926449648, -3177.7475092110053, -32720.271673234904, -20589.756439895205, 2217.0918842663627, 8905.225563672253, 72440.19328834931, 45766.806097841996, -13827.727893320072, 5293.9436190061115, -11099.183392427372, -11894.659625847296, 16563.000269293818, -9018.906535971944, -19928.390673207126, 18132.048026567463, 0.31857812500000005, 0.8988281250000001, 0.173578125, 192.0, 0.0, 0.0, 0.0, 0.0, 0.0, 0.0, 0.0, 0.0, 0.0, 1.6625065575993736E9, 0.0, 2022-09-06 19:22:37.599
12.0, -5082.876096114647, -3230.385867403253, -32740.96938860052, -20610.141230838446, 2187.0958432073407, 8880.973920938244, 72692.83505592764, 46025.527539912175, -13774.597796749807, 5365.9609396411115, -11047.372048779971, -11831.270078572044, 16628.28971484777, -8955.360526485507, -19859.502596795868, 18179.098448645884, 0.31857812500000005, 0.8988281250000001, 0.173578125, 192.0, 0.0, 0.0, 0.0, 0.0, 0.0, 0.0, 0.0, 0.0, 0.0, 1.6625065575993805E9, 0.0, 2022-09-06 19:22:37.599
14.0, -4995.212554360933, -3167.823334672849, -32719.310548223326, -20585.3084427486, 2213.672067364701, 8897.111880434977, 72562.16675784191, 45761.754603595095, -13826.632657841761, 5309.567488380371, -11093.953084224831, -11871.190294169224, 16581.731031147367, -9019.599440050059, -19920.075824269752, 18112.512601913524, 0.31857812500000005, 0.8988281250000001, 0.173578125, 192.0, 0.0, 0.0, 0.0, 0.0, 0.0, 0.0, 0.0, 0.0, 0.0, 1.6625065575993872E9, 0.0, 2022-09-06 19:22:37.599
16.0, -5098.812889911281, -3247.3731931892867, -32752.61464746173, -20618.992521642747, 2177.305779135916, 8876.861199958468, 72624.17049696094, 45913.23237576871, -13769.72511645855, 5354.315680779896, -11047.550862735614, -11823.782244179518, 16641.901927221053, -8980.439183764362, -19886.592911075702, 18119.084014783384, 0.294, 0.886, 0.17400000000000002, 192.0, 4.5, 24.0, 13.5, 88.0, 2.5, 56.0, 0.0, 0.0, 0.0, 1.662506557599394E9, 0.0, 2022-09-06 19:22:37.599
18.0, -5026.192072175989, -3198.5346315544407, -32745.57384795831, -20607.36961452599, 2173.640093045246, 8884.66195877337, 72677.56881446467, 45678.360245032345, -13848.425608685686, 5293.831860283835, -11112.48268037828, -11887.887047277338, 16589.844714384642, -9030.97647797781, -19955.838615398243, 18037.790720199435, 0.294, 0.886, 0.17400000000000002, 192.0, 0.0, 0.0, 0.0, 0.0, 0.0, 0.0, 0.0, 0.0, 0.0, 1.6625065575994008E9, 0.0, 2022-09-06 19:22:37.599
20.0, -5080.439755969019, -3230.1623499587004, -32726.306644237837, -20605.961454625303, 2180.926761737676, 8912.869860275969, 72549.26980129122, 45778.49606019212, -13777.995261907014, 5357.109648836809, -11052.669412215879, -11826.777377936529, 16653.077799448707, -8991.100965869542, -19914.46553641147, 18039.1094731223, 0.294, 0.886, 0.17400000000000002, 192.0, 0.0, 0.0, 0.0, 0.0, 0.0, 0.0, 0.0, 0.0, 0.0, 1.6625065575994077E9, 0.0, 2022-09-06 19:22:37.599
22.0, -5016.893746482581, -3191.493832051019, -32707.821751573298, -20594.115030063993, 2184.279523405972, 8924.425712159362, 72792.97087108743, 45760.704071605694, -13839.909594048215, 5317.412950684185, -11087.62754054398, -11872.598454069908, 16623.349979323146, -9022.259297640241, -19923.18271674904, 18013.337911765328, 0.294, 0.886, 0.17400000000000002, 192.0, 0.0, 0.0, 0.0, 0.0, 0.0, 0.0, 0.0, 0.0, 0.0, 1.6625065575994143E9, 0.0, 2022-09-06 19:22:37.599
24.0, -5071.499058186896, -3223.8591580223037, -32701.362097425714, -20600.93231212286, 2177.5292965804692, 8913.29454342062, 72468.40118985191, 45757.48542040413, -13746.322840013843, 5388.983236430077, -11025.37793223595, -11808.516002716542, 16683.96791028594, -8980.640349464458, -19876.199349903985, 18011.639179186725, 0.294, 0.886, 0.17400000000000002, 192.0, 0.0, 0.0, 0.0, 0.0, 0.0, 0.0, 0.0, 0.0, 0.0, 1.662506557599421E9, 0.0, 2022-09-06 19:22:37.599
26.0, -5030.729476300416, -3197.2829338649435, -32701.67502184809, -20596.4619632318, 2165.347595852327, 8918.167223711876, 72867.17866267904, 45761.66519661727, -13842.658858616216, 5319.357552451796, -11085.638235287457, -11875.258311660089, 16625.29458109076, -9042.26410892774, -19925.395539450114, 17961.526568117926, 0.264, 0.904, 0.164, 192.0, 4.0, 32.0, 14.0, 32.0, 2.5, 16.0, 0.0, 0.0, 0.0, 1.6625065575994277E9, 0.0, 2022-09-06 19:22:37.599
28.0, -5050.71193584346, -3204.256678134999, -32683.95008849503, -20583.050916558615, 2175.4952878350364, 8945.078724036066, 72368.22067120322, 45655.60616917684, -13733.358828229766, 5413.011361719533, -11004.07671977004, -11777.290615712478, 16686.270139964836, -8983.724890199292, -19859.144968884586, 17959.246690183485, 0.264, 0.904, 0.164, 192.0, 0.0, 0.0, 0.0, 0.0, 0.0, 0.0, 0.0, 0.0, 0.0, 1.6625065575994344E9, 0.0, 2022-09-06 19:22:37.599
30.0, -5049.192017220499, -3211.163367171689, -32718.75175461194, -20616.55618149712, 2146.5050752765032, 8915.172089954864, 72899.0075467834, 45779.524240437066, -13836.981515524569, 5328.342953722829, -11071.020194413686, -11852.548939293498, 16619.61723799911, -9051.629489854515, -19915.538420145323, 17930.97173344752, 0.264, 0.904, 0.164, 192.0, 0.0, 0.0, 0.0, 0.0, 0.0, 0.0, 0.0, 0.0, 0.0, 1.6625065575994425E9, 0.0, 2022-09-06 19:22:37.599
32.0, -5013.585688303196, -3165.0964218493014, -32652.344721835223, -20571.182140252848, 2210.6545818632344, 8958.065087564599, 72309.32382456349, 45610.41094188821, -13720.819499590338, 5413.771321031013, -10990.486859141214, -11757.017583491515, 16675.854227048665, -8990.408061791428, -19848.460835034948, 17917.60539026325, 0.264, 0.904, 0.164, 192.0, 0.0, 0.0, 0.0, 0.0, 0.0, 0.0, 0.0, 0.0, 0.0, 1.6625065575994492E9, 0.0, 2022-09-06 19:22:37.599
34.0, -5033.814017035248, -3186.9564279265915, -32691.16970195409, -20607.12374533698, 2157.435078315148, 8911.640514330926, 72906.74125036494, 45803.19473781523, -13820.217707183088, 5342.022221329477, -11049.85309241451, -11827.760854692562, 16636.559860296235, -9041.168873449431, -19882.16726567355, 17905.222523835007, 0.264, 0.904, 0.164, 192.0, 0.0, 0.0, 0.0, 0.0, 0.0, 0.0, 0.0, 0.0, 0.0, 1.662506557599456E9, 0.0, 2022-09-06 19:22:37.599
36.0, -4986.025987389802, -3134.7651046234496, -32621.45461099799, -20541.946058505306, 2222.188082002173, 8970.336195270562, 72260.28409722855, 45560.8571244308, -13712.14702274168, 5431.7644753175355, -10975.287672911605, -11732.855347735329, 16678.849360805674, -8968.995090603245, -19839.587192486193, 17900.215733077017, 0.256, 0.922, 0.146, 192.0, 4.0, 0.0, 14.0, 104.0, 2.0, 72.0, 0.0, 0.0, 0.0, 1.6625065575994627E9, 0.0, 2022-09-06 19:22:37.599
38.0, -5060.032613281323, -3204.323733368365, -32683.36894313919, -20601.02171910068, 2151.601273012313, 8894.586133311526, 72924.53323895136, 45766.29200771952, -13819.480099616063, 5355.746192425036, -11043.035810355641, -11806.86197362685, 16636.604563785146, -9008.580030033592, -19870.432599834516, 17889.6210062052, 0.256, 0.922, 0.146, 192.0, 0.0, 0.0, 0.0, 0.0, 0.0, 0.0, 0.0, 0.0, 0.0, 1.662506557599471E9, 0.0, 2022-09-06 19:22:37.599
40.0, -5019.598307561673, -3170.237323074022, -32641.07944262975, -20558.329887191045, 2179.7868227704553, 8940.764837356191, 72281.63001318336, 45490.82910905232, -13749.362677259765, 5402.014303447521, -11013.173879763352, -11766.718240585118, 16652.563709326234, -8982.428489020884, -19866.275175365827, 17845.543366139336, 0.256, 0.922, 0.146, 192.0, 0.0, 0.0, 0.0, 0.0, 0.0, 0.0, 0.0, 0.0, 0.0, 1.6625065575994775E9, 0.0, 2022-09-06 19:22:37.599
42.0, -5081.780860636337, -3224.3508964003204, -32672.2601261449, -20601.334643523056, 2145.8568746872993, 8897.178935668342, 72963.29116383687, 45746.57776910994, -13821.581163594863, 5365.357442540818, -11051.395362781926, -11826.86678491435, 16625.94278167996, -9015.240849881275, -19880.22266390594, 17853.992325543444, 0.256, 0.922, 0.146, 192.0, 0.0, 0.0, 0.0, 0.0, 0.0, 0.0, 0.0, 0.0, 0.0, 1.6625065575994844E9, 0.0, 2022-09-06 19:22:37.599
44.0, -4984.528420511297, -3125.2209097410337, -32582.339058201203, -20510.58656103451, 2242.3940589897707, 8972.638424949459, 72369.11474098143, 45502.09438825779, -13743.730037657027, 5434.200815463164, -11010.357559961982, -11773.490819155077, 16650.99908721436, -8991.838573436567, -19840.794186686777, 17809.11002267719, 0.256, 0.922, 0.146, 192.0, 0.0, 0.0, 0.0, 0.0, 0.0, 0.0, 0.0, 0.0, 0.0, 1.6625065575994911E9, 0.0, 2022-09-06 19:22:37.599
46.0, -5084.328959504242, -3215.2090329180996, -32641.146497863116, -20609.02364361568, 2189.018093230497, 8911.9534387533, 73004.75364980145, 45824.65241249233, -13773.927244416147, 5421.527376357005, -11014.693798386312, -11787.52771467301, 16660.610337330145, -8984.596608233049, -19830.959419126444, 17856.428665689073, 0.264, 0.912, 0.14400000000000002, 192.0, 4.0, 32.0, 14.0, 64.0, 2.0, 64.0, 0.0, 0.0, 0.0, 1.662506557599498E9, 0.0, 2022-09-06 19:22:37.599
48.0, -4997.961818928936, -3142.498808204986, -32601.44979971049, -20561.97322153726, 2245.5233032135134, 8976.147648828943, 72502.7111175908, 45457.435602836085, -13752.268404038956, 5413.480748353094, -11022.338094990027, -11798.52477294502, 16639.063255675228, -9006.97070443281, -19854.004067659866, 17777.527007761837, 0.264, 0.912, 0.14400000000000002, 192.0, 0.0, 0.0, 0.0, 0.0, 0.0, 0.0, 0.0, 0.0, 0.0, 1.6625065575995047E9, 0.0, 2022-09-06 19:22:37.599
50.0, -5101.249230056909, -3221.7580940435046, -32678.85389075922, -20348.625820711353, 2179.0492152034303, 8911.86403177548, 73064.11988307475, 45740.87807427384, -13768.808694935882, 5414.486576853583, -11023.299220001605, -11809.521831217031, 16639.376180097603, -8974.001881361233, -19855.009896160354, 17824.756243795902, 0.264, 0.912, 0.14400000000000002, 192.0, 0.0, 0.0, 0.0, 0.0, 0.0, 0.0, 0.0, 0.0, 0.0, 1.662506557599512E9, 0.0, 2022-09-06 19:22:37.599
52.0, -5008.936525456492, -3148.936110608114, -32667.722722020477, -19970.881339416665, 2230.5252826840024, 8984.551904744138, 72634.9440377884, 45375.94114255204, -13772.139104859723, 5407.423425605706, -11054.591662239036, -11826.19623258069, 16578.177103778973, -9008.334160844584, -19902.216780449962, 17800.348138850706, 0.264, 0.912, 0.14400000000000002, 192.0, 0.0, 0.0, 0.0, 0.0, 0.0, 0.0, 0.0, 0.0, 0.0, 1.6625065575995195E9, 0.0, 2022-09-06 19:22:37.599
54.0, -5112.648619729116, -3241.494684397541, -32785.80698797786, -19684.399030732995, 2131.663516958179, 8921.140005724432, 73085.5552060074, 45666.42441349321, -13777.212950851077, 5434.7596090745465, -11062.057144887107, -11825.86095641386, 16553.210205222393, -8970.82793364858, -19902.775574061343, 17962.152416962675, 0.264, 0.912, 0.14400000000000002, 192.0, 0.0, 0.0, 0.0, 0.0, 0.0, 0.0, 0.0, 0.0, 0.0, 1.6625065575995262E9, 0.0, 2022-09-06 19:22:37.599
56.0, -5006.746054499871, -3177.948674911103, -32795.97703170503, -19322.032549623556, 2194.2036979441286, 8944.519930424683, 72623.43288939392, 45347.73324104944, -13798.804735994905, 5407.7587017725355, -11137.069599279119, -11918.620695903384, 16442.83729110209, -9012.290419613173, -19960.46542650049, 17928.1330619017, 0.274, 0.914, 0.10400000000000001, 192.0, 4.0, 72.0, 14.0, 72.0, 1.5, 32.0, 0.0, 0.0, 0.0, 1.662506557599533E9, 0.0, 2022-09-06 19:22:37.599
58.0, -5110.8604801726915, -3268.4732399550967, -32880.824253657374, -19189.88903640378, 2158.060927159897, 8878.448173814795, 72809.8911416401, 45599.30212489392, -13765.880616412238, 5417.906393755245, -11143.149273770961, -11977.674004754306, 16438.6798666334, -8983.501372754738, -19954.00577235291, 17906.027186635398, 0.274, 0.914, 0.10400000000000001, 192.0, 0.0, 0.0, 0.0, 0.0, 0.0, 0.0, 0.0, 0.0, 0.0, 1.6625065575995398E9, 0.0, 2022-09-06 19:22:37.599
60.0, -5019.777121517315, -3197.0147129314796, -32862.94285809313, -19075.381049559244, 2162.799496984422, 8916.960229511289, 72573.83436844758, 45344.31342414778, -13811.075843700868, 5349.688869677648, -11223.12381543205, -12045.891528831904, 16351.441008024338, -9037.771408292223, -20044.999724030462, 17795.788382981824, 0.274, 0.914, 0.10400000000000001, 192.0, 0.0, 0.0, 0.0, 0.0, 0.0, 0.0, 0.0, 0.0, 0.0, 1.6625065575995464E9, 0.0, 2022-09-06 19:22:37.599
62.0, -5101.428044012552, -3241.137056486256, -32902.66190799021, -19079.605529261295, 2119.906499374688, 8918.726017323259, 72676.63004119755, 45532.42570548364, -13768.875750169249, 5386.032806161977, -11177.235684065305, -11938.22317579069, 16369.724734988778, -8989.44693677985, -20038.607125116247, 17803.589141796725, 0.274, 0.914, 0.10400000000000001, 192.0, 0.0, 0.0, 0.0, 0.0, 0.0, 0.0, 0.0, 0.0, 0.0, 1.662506557599553E9, 0.0, 2022-09-06 19:22:37.599
64.0, -5016.960801715947, -3164.0905933488125, -32898.012745143504, -19045.742636411505, 2140.827732184855, 8973.845419150046, 72589.54764479968, 45369.81676457128, -13813.35572163531, 5337.283651504952, -11205.018902423251, -11946.761542172617, 16305.999911546698, -9027.400198864962, -20113.999559163996, 17689.88581775258, 0.274, 0.914, 0.10400000000000001, 192.0, 0.0, 0.0, 0.0, 0.0, 0.0, 0.0, 0.0, 0.0, 0.0, 1.66250655759956E9, 0.0, 2022-09-06 19:22:37.599
66.0, -5112.492157517929, -3229.938832514147, -32930.0204432035, -19067.222662833057, 2127.8413686563217, 8942.374162956972, 72535.18820228436, 45535.01850784046, -13755.263537795967, 5367.167933841698, -11155.554491943658, -11899.487602649642, 16356.425447037871, -8984.171925088398, -20087.468038495546, 17677.68176527998, 0.28200000000000003, 0.916, 0.1, 192.0, 4.0, 104.0, 14.0, 80.0, 1.5, 16.0, 0.0, 0.0, 0.0, 1.6625065575995667E9, 0.0, 2022-09-06 19:22:37.599
68.0, -5055.115229501156, -3198.7357972545383, -32918.8222192314, -19028.464737947554, 2123.1027988317965, 8931.064180262587, 72632.93238078742, 45448.27138760941, -13823.2128409401, 5291.283761415931, -11200.50385004328, -11957.803303933539, 16306.581056902536, -9039.581899593104, -20138.31825713137, 17632.888869391547, 0.28200000000000003, 0.916, 0.1, 192.0, 0.0, 0.0, 0.0, 0.0, 0.0, 0.0, 0.0, 0.0, 0.0, 1.6625065575995736E9, 0.0, 2022-09-06 19:22:37.599
70.0, -5092.844974141714, -3221.3781143877645, -32885.98750662655, -18999.899208533672, 2149.7460782225226, 8940.206043744809, 72428.27980855464, 45549.34597603631, -13732.062427051358, 5360.685927949658, -11122.697427594356, -11880.77919254055, 16369.255348355216, -8981.847343665046, -20090.21730306355, 17670.77507624329, 0.28200000000000003, 0.916, 0.1, 192.0, 0.0, 0.0, 0.0, 0.0, 0.0, 0.0, 0.0, 0.0, 0.0, 1.6625065575995824E9, 0.0, 2022-09-06 19:22:37.599
72.0, -5040.988927005402, -3189.973913428058, -32891.664849718196, -19000.770926567428, 2157.1892091261398, 8938.350848955019, 72671.93617486193, 45528.13417054823, -13803.073919185868, 5296.514069618473, -11168.294986283183, -11949.622565462896, 16325.42357747836, -9026.148501175465, -20155.774969550966, 17635.325209537175, 0.28200000000000003, 0.916, 0.1, 192.0, 0.0, 0.0, 0.0, 0.0, 0.0, 0.0, 0.0, 0.0, 0.0, 1.662506557599589E9, 0.0, 2022-09-06 19:22:37.599
74.0, -5075.678834400039, -3206.0895211803345, -32903.86890219079, -19019.009950042957, 2168.9462267096314, 8961.909587610911, 72300.00314712562, 45515.192510508605, -13709.308351195856, 5360.06007910491, -11094.981264469776, -11873.44782035921, 16391.897665488443, -8986.45180302284, -20113.21724810806, 17621.48947971934, 0.28200000000000003, 0.916, 0.1, 192.0, 0.0, 0.0, 0.0, 0.0, 0.0, 0.0, 0.0, 0.0, 0.0, 1.662506557599596E9, 0.0, 2022-09-06 19:22:37.599
76.0, -5079.053947812789, -3208.9281927261586, -32955.54613537146, -19087.562750287387, 2140.447752529115, 8929.0078197727, 72704.25679734431, 45574.536392037444, -13820.240058927544, 5266.450973326084, -11169.949015372875, -11956.216330077212, 16322.853126865999, -9060.972519036832, -20187.17917051067, 17562.927909246435, 0.28200000000000003, 0.916, 0.098, 192.0, 4.0, 104.0, 14.0, 80.0, 1.5, 8.0, 0.0, 0.0, 0.0, 1.6625065575996027E9, 0.0, 2022-09-06 19:22:37.599
78.0, -5067.0957645292, -3174.2159335870665, -32912.340213339354, -19088.233302621044, 2203.8820032932763, 8980.126259341987, 72194.56996852995, 45451.847666722264, -13714.00221753147, 5357.757849426013, -11090.041528945152, -11861.422581842255, 16385.30390087413, -8983.546076243649, -20131.94800996161, 17557.563490577162, 0.28200000000000003, 0.916, 0.098, 192.0, 0.0, 0.0, 0.0, 0.0, 0.0, 0.0, 0.0, 0.0, 0.0, 1.6625065575996096E9, 0.0, 2022-09-06 19:22:37.599
80.0, -5091.928552619047, -3198.1546518987006, -32956.21668770513, -19172.23115828409, 2172.7907267559444, 8949.034982804655, 72699.7640967088, 45608.01930523149, -13805.934942476148, 5293.407177139185, -11137.606041146046, -11918.397178458832, 16337.717036928778, -9033.636335567991, -20165.319164433382, 17536.195222877886, 0.28200000000000003, 0.916, 0.098, 192.0, 0.0, 0.0, 0.0, 0.0, 0.0, 0.0, 0.0, 0.0, 0.0, 1.6625065575996163E9, 0.0, 2022-09-06 19:22:37.599
82.0, -5069.2415319969095, -3164.62703521574, -32924.879541978786, -19188.592635225374, 2226.9713553156084, 9023.131015673998, 72080.93369971916, 45445.81269571933, -13714.985694287503, 5368.620797231293, -11073.52358979268, -11830.979505894125, 16375.647947269434, -8972.861942394013, -20125.13072790274, 17510.490716754284, 0.28200000000000003, 0.916, 0.098, 192.0, 0.0, 0.0, 0.0, 0.0, 0.0, 0.0, 0.0, 0.0, 0.0, 1.6625065575996227E9, 0.0, 2022-09-06 19:22:37.599
84.0, -5141.236500887454, -3233.649222093728, -32984.82692060792, -19332.984904406658, 2142.9511479081093, 8943.9611368133, 72684.58726222363, 45647.4254307062, -13811.344064634332, 5291.66374107167, -11128.710046852833, -11899.711120094194, 16315.18647851783, -9032.49639660077, -20160.46883588658, 17497.03496659219, 0.28200000000000003, 0.916, 0.098, 192.0, 0.0, 0.0, 0.0, 0.0, 0.0, 0.0, 0.0, 0.0, 0.0, 1.6625065575996296E9, 0.0, 2022-09-06 19:22:37.599
86.0, -5073.689529143516, -3163.554151481885, -32878.76789316748, -19309.135593072842, 2199.5010613800364, 9018.258335382741, 72011.06214655186, 45387.184070013056, -13732.598868918285, 5348.504227221516, -11077.725717750278, -11832.030037883525, 16338.454644495803, -8987.68114896788, -20149.02474272546, 17460.914547552413, 0.28, 0.915, 0.094, 192.0, 4.0, 88.0, 14.0, 72.0, 1.0, 104.0, 0.0, 0.0, 0.0, 1.6625065575996363E9, 0.0, 2022-09-06 19:22:37.599
88.0, -5134.665088017594, -3223.188605688644, -32916.85526571933, -19386.45027714375, 2142.5264647634585, 8960.590834688048, 72664.0013055803, 45651.24757900806, -13793.216799881078, 5303.9795522665445, -11099.116337194007, -11865.289433633023, 16325.937667600832, -9011.865736468522, -20159.552414363912, 17495.872675880513, 0.28, 0.915, 0.094, 192.0, 0.0, 0.0, 0.0, 0.0, 0.0, 0.0, 0.0, 0.0, 0.0, 1.6625065575996432E9, 0.0, 2022-09-06 19:22:37.599
90.0, -5058.043308024801, -3151.9535961095808, -32844.770889850966, -19302.564180202982, 2200.372779413793, 9038.509015859248, 71969.9349367541, 45336.31149963278, -13729.71549388355, 5341.172855040176, -11062.392421053937, -11819.736578433107, 16345.338981788038, -8991.704462969836, -20151.12580670426, 17455.30425969413, 0.28, 0.915, 0.094, 192.0, 0.0, 0.0, 0.0, 0.0, 0.0, 0.0, 0.0, 0.0, 0.0, 1.66250655759965E9, 0.0, 2022-09-06 19:22:37.599
92.0, -5160.436649374563, -3245.674460610683, -32927.04766119095, -19376.079067716488, 2112.1057405597858, 8947.895043837434, 72620.16953470344, 45628.64996536374, -13778.285834584933, 5305.454767400595, -11072.495409547737, -11847.34098283541, 16340.220432307773, -8996.197163605353, -20149.762350292487, 17499.73952767128, 0.28, 0.915, 0.094, 192.0, 0.0, 0.0, 0.0, 0.0, 0.0, 0.0, 0.0, 0.0, 0.0, 1.6625065575996563E9, 0.0, 2022-09-06 19:22:37.599
94.0, -5076.10351754469, -3162.7718404259494, -32865.31214300539, -19312.57776171896, 2172.678968033668, 9031.602326822558, 71959.51902383793, 45255.30877772674, -13756.224662807545, 5291.216706182565, -11081.681976518867, -11843.72000023365, 16302.289521967117, -9026.863756998035, -20187.24622574404, 17398.01673865518, 0.28, 0.915, 0.094, 192.0, 0.0, 0.0, 0.0, 0.0, 0.0, 0.0, 0.0, 0.0, 0.0, 1.6625065575996633E9, 0.0, 2022-09-06 19:22:37.599
96.0, -5175.769946070904, -3245.9873850330578, -32904.96413766911, -19372.771009537104, 2124.7568279214893, 8937.43442743235, 72606.82554326362, 45534.63852818472, -13778.241131096021, 5294.547116106405, -11066.169865866885, -11839.00378215358, 16313.733615128234, -9003.237963108773, -20148.42124562517, 17437.40051238543, 0.281, 0.9165000000000001, 0.096, 192.0, 4.0, 104.0, 14.0, 88.0, 1.5, 8.0, 0.0, 0.0, 0.0, 1.66250655759967E9, 0.0, 2022-09-06 19:22:37.599
98.0, -5067.05106104029, -3143.14700879419, -32824.49785763, -19288.14730502931, 2188.325189152383, 9058.089144002097, 72031.80456540639, 45315.591432522706, -13758.39278201971, 5298.838651041824, -11068.114467634496, -11828.476110515132, 16296.299254453095, -9003.237963108773, -20128.327027359846, 17383.689270459327, 0.281, 0.9165000000000001, 0.096, 192.0, 0.0, 0.0, 0.0, 0.0, 0.0, 0.0, 0.0, 0.0, 0.0, 1.6625065575996768E9, 0.0, 2022-09-06 19:22:37.599
100.0, -5185.917638053613, -3242.9922512760463, -32898.169207354695, -19381.197617196754, 2120.6217551972577, 8993.939637415366, 72584.4290953194, 45654.62269242081, -13757.185787819122, 5330.064038045888, -11041.672353943868, -11801.631665424307, 16322.316684999072, -8959.450895720827, -20088.652680951676, 17435.83589027356, 0.281, 0.9165000000000001, 0.096, 192.0, 0.0, 0.0, 0.0, 0.0, 0.0, 0.0, 0.0, 0.0, 0.0, 1.6625065575996835E9, 0.0, 2022-09-06 19:22:37.599
102.0, -5083.703110659494, -3147.7961716408936, -32837.23835196952, -19329.453328782718, 2170.1979243991286, 9039.760713548745, 72117.00941527002, 45317.11135114567, -13763.801904177893, 5312.003828526, -11068.069764145584, -11820.742406933596, 16277.613196088458, -8996.375977560994, -20127.991751193018, 17312.09663296898, 0.281, 0.9165000000000001, 0.096, 192.0, 0.0, 0.0, 0.0, 0.0, 0.0, 0.0, 0.0, 0.0, 0.0, 1.6625065575996916E9, 0.0, 2022-09-06 19:22:37.599
104.0, -5193.651341635149, -3232.933966271158, -32876.04098034394, -19391.188846968278, 2112.9774585935425, 8991.25742808073, 72542.98896109927, 45618.234052447566, -13735.325781741833, 5335.361401481796, -11030.295316016116, -11788.511191429043, 16308.816231348066, -8964.72590741228, -20077.476808724023, 17351.703924143785, 0.281, 0.9165000000000001, 0.096, 192.0, 0.0, 0.0, 0.0, 0.0, 0.0, 0.0, 0.0, 0.0, 0.0, 1.6625065580784872E9, 0.0, 2022-09-06 19:22:38.078
106.0, -5104.222012069466, -3151.9312443651256, -32833.88559030123, -19314.835287908947, 2149.7460782225226, 9034.083370457098, 72245.82251856595, 45306.382513807126, -13775.894197928215, 5293.407177139185, -11078.038642172653, -11827.358523292367, 16255.104989421963, -9009.205878878342, -20135.7031030301, 17255.99375438616, 0.2665, 0.9192500000000001, 0.10200000000000001, 192.0, 3.5, 112.0, 14.0, 104.0, 1.5, 48.0, 0.0, 0.0, 0.0, 1.6625065580785782E9, 0.0, 2022-09-06 19:22:38.078
108.0, -5238.84656892378, -3232.7328005710606, -32894.97290789758, -19271.785828088025, 2101.4886619435147, 8996.554791516637, 72559.41749327391, 45554.5539324944, -13741.517214955953, 5348.77244815498, -11039.727752176255, -11767.411144663232, 16292.32064394005, -8938.283793721652, -20096.766364188956, 17348.57467992004, 0.2665, 0.9192500000000001, 0.10200000000000001, 192.0, 0.0, 0.0, 0.0, 0.0, 0.0, 0.0, 0.0, 0.0, 0.0, 1.6625065580786483E9, 0.0, 2022-09-06 19:22:38.078
110.0, -5182.922504296602, -3182.0837476353345, -32888.714419450094, -19013.399662184675, 2138.9725373950646, 9008.580030033592, 72437.86870692596, 45302.8956416721, -13795.854305726803, 5309.500433147005, -11145.026820305207, -11794.702624643163, 16211.899067389855, -8992.754994959236, -20172.538777892445, 17400.654244500907, 0.2665, 0.9192500000000001, 0.10200000000000001, 192.0, 0.0, 0.0, 0.0, 0.0, 0.0, 0.0, 0.0, 0.0, 0.0, 1.6625065580786548E9, 0.0, 2022-09-06 19:22:38.078
112.0, -5329.818168856879, -3254.2575304815214, -32931.74152752657, -18464.731391040255, 2105.7354933900233, 8994.274913582196, 72610.42417412093, 45538.41597299767, -13741.67367716714, 5399.823832490902, -11140.44471269187, -11713.610495759309, 16142.698066556224, -8934.394590186428, -20107.919884672152, 17470.816370346114, 0.2665, 0.9192500000000001, 0.10200000000000001, 192.0, 0.0, 0.0, 0.0, 0.0, 0.0, 0.0, 0.0, 0.0, 0.0, 1.6625065580786614E9, 0.0, 2022-09-06 19:22:38.078
114.0, -5385.071681150399, -3204.1896229016334, -32863.769872637975, -18003.301978504896, 2136.670307716168, 8990.720986213802, 72643.43770068142, 45603.52660459597, -13842.50239640503, 5424.343696158373, -11089.795659756144, -11701.115870608792, 15877.76283952747, -8983.389614032461, -20110.579742262333, 17410.623122527973, 0.2665, 0.9192500000000001, 0.10200000000000001, 192.0, 0.0, 0.0, 0.0, 0.0, 0.0, 0.0, 0.0, 0.0, 0.0, 1.6625065580786693E9, 0.0, 2022-09-06 19:22:38.078
116.0, -5551.636880831347, -3213.555003828407, -32711.442734175056, -17753.208309794463, 2152.9647294240867, 9044.096951973075, 72412.94651185829, 45818.68449672276, -13780.655119497194, 5559.124715223875, -10755.614728404847, -11498.765528054897, 15719.49013703944, -8901.962208981779, -19891.979681489433, 17407.516230048685, 0.26425, 0.920625, 0.1, 192.0, 4.0, 24.0, 14.0, 104.0, 1.5, 8.0, 0.0, 0.0, 0.0, 1.662506558078676E9, 0.0, 2022-09-06 19:22:38.078
118.0, -5538.628165558358, -3173.075994619846, -32603.573215433746, -17651.19494810044, 2107.121301546252, 9050.198978209375, 72623.32113067164, 45630.527511897984, -13865.41293447172, 5543.500845849615, -10590.14476420221, -11558.690554939576, 15567.2747572988, -8949.571424671582, -19845.756273955856, 17289.141391413377, 0.26425, 0.920625, 0.1, 192.0, 0.0, 0.0, 0.0, 0.0, 0.0, 0.0, 0.0, 0.0, 0.0, 1.6625065580786831E9, 0.0, 2022-09-06 19:22:38.078
120.0, -5579.688320122757, -3164.0235381154466, -32580.30504945577, -17620.416595985484, 2006.940782897566, 9098.478746232837, 72225.77300378955, 45789.31430450849, -13776.542398517418, 5661.473353084726, -10375.746831386905, -11467.450734073012, 15607.217324640433, -8870.893284188902, -19747.229784396863, 17328.52516514363, 0.26425, 0.920625, 0.1, 192.0, 0.0, 0.0, 0.0, 0.0, 0.0, 0.0, 0.0, 0.0, 0.0, 1.6625065580786896E9, 0.0, 2022-09-06 19:22:38.078
122.0, -5543.992584227632, -3136.7991133688824, -32650.869506701176, -17647.819834687692, 1966.707642878013, 9127.200737857907, 72551.99671411475, 45771.52231592206, -13866.50816995003, 5570.658215362813, -10381.446526223008, -11494.831621030764, 15545.302992499233, -8947.068029292588, -19844.012837888342, 17193.721794333673, 0.26425, 0.920625, 0.1, 192.0, 0.0, 0.0, 0.0, 0.0, 0.0, 0.0, 0.0, 0.0, 0.0, 1.6625065580786965E9, 0.0, 2022-09-06 19:22:38.078
124.0, -5537.28706089104, -3117.2189852260335, -32734.95676934204, -17607.117308034576, 2009.9582683990322, 9162.158866186008, 72062.02412390997, 45705.67407675673, -13757.096380841302, 5598.307323254028, -10299.192106627477, -11429.87745164364, 15669.15400852609, -8888.9981971977, -19831.11588133763, 17167.033811454035, 0.26425, 0.920625, 0.1, 192.0, 0.0, 0.0, 0.0, 0.0, 0.0, 0.0, 0.0, 0.0, 0.0, 1.6625065580787027E9, 0.0, 2022-09-06 19:22:38.078
126.0, -5530.112150920886, -3124.550357407374, -32786.81281647835, -17580.406973410485, 1962.326700964773, 9129.458264047893, 72542.45251923233, 45812.716580953194, -13830.052474743425, 5446.8519028248675, -10376.395031976108, -11621.029570225426, 15654.781836841326, -8975.87942789548, -19910.621036365155, 17171.63827081183, 0.267125, 0.9133125, 0.10600000000000001, 192.0, 4.0, 56.0, 14.0, 40.0, 1.5, 64.0, 0.0, 0.0, 0.0, 1.6625065580787096E9, 0.0, 2022-09-06 19:22:38.078
128.0, -5514.1753571242525, -3118.001296281969, -32750.424176505112, -17508.12143184202, 2008.3042393093397, 9161.57772083017, 71938.30721834984, 45717.654611784776, -13724.239316492, 5482.279417786529, -10303.841269474182, -11682.765088410984, 15765.221806194999, -8971.073802837587, -19831.562916226736, 17186.770401808073, 0.267125, 0.9133125, 0.10600000000000001, 192.0, 0.0, 0.0, 0.0, 0.0, 0.0, 0.0, 0.0, 0.0, 0.0, 1.6625065580787165E9, 0.0, 2022-09-06 19:22:38.078
130.0, -5563.125677481375, -3181.0332156459353, -32805.5435783319, -17562.90555750198, 1942.4783518884603, 9106.257153303284, 72555.08125484959, 45894.61337263744, -13816.239096670044, 5373.046442633444, -10365.57678765974, -11979.864475710927, 15741.730122772471, -9092.823754885645, -19833.10518659415, 17211.93846606475, 0.267125, 0.9133125, 0.10600000000000001, 192.0, 0.0, 0.0, 0.0, 0.0, 0.0, 0.0, 0.0, 0.0, 0.0, 1.6625065580787227E9, 0.0, 2022-09-06 19:22:38.078
132.0, -5539.9469184812215, -3164.0458898599018, -32755.028635862906, -17519.99020814779, 1972.3402824807506, 9187.326930442683, 71698.80827651123, 45710.56910879244, -13724.731054870017, 5432.636193351293, -10314.301885879266, -12121.127500668466, 15759.812684036815, -9101.272714289751, -19749.129682675564, 17195.152305978812, 0.267125, 0.9133125, 0.10600000000000001, 192.0, 0.0, 0.0, 0.0, 0.0, 0.0, 0.0, 0.0, 0.0, 0.0, 1.6625065580787296E9, 0.0, 2022-09-06 19:22:38.078
134.0, -5648.531693045104, -3260.8289433513814, -32877.829119900365, -17610.403014469506, 1870.2151620644524, 9170.876046523577, 72142.04336905997, 46007.9590687703, -13807.767785521482, 5390.346692841851, -10401.63015146615, -12277.43324964443, 15644.589441369706, -9189.204476976929, -19733.23759236784, 17173.35935513489, 0.267125, 0.9133125, 0.10600000000000001, 192.0, 0.0, 0.0, 0.0, 0.0, 0.0, 0.0, 0.0, 0.0, 0.0, 1.6625065580787408E9, 0.0, 2022-09-06 19:22:38.078
