%OpenBCI Raw EEG Data
%Number of channels = 16
%Sample Rate = 125 Hz
%Board = OpenBCI_GUI$BoardCytonSerialDaisy
Sample Index, EXG Channel 0, EXG Channel 1, EXG Channel 2, EXG Channel 3, EXG Channel 4, EXG Channel 5, EXG Channel 6, EXG Channel 7, EXG Channel 8, EXG Channel 9, EXG Channel 10, EXG Channel 11, EXG Channel 12, EXG Channel 13, EXG Channel 14, EXG Channel 15, Accel Channel 0, Accel Channel 1, Accel Channel 2, Other, Other, Other, Other, Other, Other, Other, Analog Channel 0, Analog Channel 1, Analog Channel 2, Timestamp, Other, Timestamp (Formatted)
230.0, -20314.897038328298, -26357.020599486903, -31482.096789133167, -19823.382177756095, -6603.39821617582, -4462.525780502055, -17003.97783565257, -6731.80898807156, -22318.663873513207, 11445.613079740177, -20615.192725085348, -25251.03393209385, -13315.135337726515, -4495.695769273731, -8169.674357137008, -13437.444083385955, -0.065, 0.41100000000000003, 0.261, 192.0, 125.5, 120.0, 12.5, 88.0, 8.0, 40.0, 0.0, 0.0, 0.0, 1.6730444408436592E9, 0.0, 2023-01-06 17:34:00.843
232.0, -20278.173122188226, -26323.940017693047, -31427.871457084595, -19772.174331208986, -6564.39442210131, -4416.3917799463015, -16949.97602104855, -6626.241699009144, -22310.03610015346, 11450.664573987076, -20603.815687157596, -25275.24087133895, -13299.377357885523, -4484.36343483489, -8152.731734839886, -13424.569478579699, -0.065, 0.41100000000000003, 0.261, 192.0, 0.0, 0.0, 0.0, 0.0, 0.0, 0.0, 0.0, 0.0, 0.0, 1.6730444408436673E9, 0.0, 2023-01-06 17:34:00.843
234.0, -20312.907733071774, -26364.709599579528, -31462.136681334578, -19807.847715359654, -6582.700500810207, -4463.308091557991, -16982.83308539785, -6720.387246654898, -22291.88648365575, 11470.535274807844, -20595.769059153685, -25227.251675993404, -13246.023743870706, -4471.198257350714, -8124.523833337288, -13404.899943459028, -0.065, 0.41100000000000003, 0.261, 192.0, 0.0, 0.0, 0.0, 0.0, 0.0, 0.0, 0.0, 0.0, 0.0, 1.673044440843675E9, 0.0, 2023-01-06 17:34:00.843
236.0, -20295.96511077465, -26347.20818367102, -31443.428271225486, -19772.464903886903, -6571.546980327008, -4440.241091280114, -16979.4579719851, -6641.686754427762, -22308.337367574855, 11448.854082686197, -20618.992521642747, -25271.19520559254, -13276.645633774477, -4470.326539316958, -8155.905682552539, -13429.375103637589, -0.065, 0.41100000000000003, 0.261, 192.0, 0.0, 0.0, 0.0, 0.0, 0.0, 0.0, 0.0, 0.0, 0.0, 1.673044440843682E9, 0.0, 2023-01-06 17:34:00.843
238.0, -20310.78431734852, -26362.094445478255, -31458.336884777178, -19792.894398319055, -6571.301111138, -4478.12729813186, -16914.794375275895, -6705.031598214102, -22293.965195890094, 11469.417687585079, -20603.167486568393, -25224.07772828075, -13272.041174416683, -4449.114733828871, -8133.4868828638655, -13392.65118749752, -0.065, 0.41100000000000003, 0.261, 192.0, 0.0, 0.0, 0.0, 0.0, 0.0, 0.0, 0.0, 0.0, 0.0, 1.67304444084369E9, 0.0, 2023-01-06 17:34:00.843
240.0, -20288.052593237473, -26340.390901612154, -31437.706224644928, -19776.33175567767, -6563.1203726673575, -4425.01955330605, -16925.25499168098, -6662.876208171393, -22306.705690229617, 11443.31085006128, -20615.952684396827, -25260.309906042803, -13270.253034860258, -4490.3537023489125, -8134.4256561309885, -13415.829946497674, -0.065, 0.41100000000000003, 0.261, 192.0, 0.0, 0.0, 0.0, 0.0, 0.0, 0.0, 0.0, 0.0, 0.0, 1.6730444408436975E9, 0.0, 2023-01-06 17:34:00.843
242.0, -20292.902921784273, -26338.60276205573, -31461.577887723197, -19796.336566965172, -6579.660663564285, -4442.275100025547, -16959.877843842252, -6696.604990554451, -22281.224701550567, 11487.991987227439, -20585.062573559593, -25215.919341554563, -13247.677772960398, -4449.360603017879, -8121.3945891135445, -13384.60455949361, -0.13, 0.812, 0.52, 192.0, 125.5, 120.0, 12.5, 48.0, 8.0, 32.0, 0.0, 0.0, 0.0, 1.6730444408437057E9, 0.0, 2023-01-06 17:34:00.843
244.0, -20277.793142532486, -26319.335558335253, -31439.114384545614, -19774.163636465506, -6591.462384636687, -4459.955329889694, -16953.17232050566, -6702.9975894686695, -22296.490943013545, 11468.657728273598, -20607.436669759354, -25244.23900177944, -13252.081066618093, -4473.232266096147, -8147.546130126254, -13417.193402909446, -0.13, 0.812, 0.52, 192.0, 0.0, 0.0, 0.0, 0.0, 0.0, 0.0, 0.0, 0.0, 0.0, 1.673044440843713E9, 0.0, 2023-01-06 17:34:00.843
246.0, -20307.342148702402, -26343.29662839134, -31476.330039063698, -19814.195610784962, -6583.236942677134, -4497.595667552432, -16985.381184265756, -6742.448418432286, -22282.699916684618, 11482.672272047075, -20586.98482358275, -25220.881428823643, -13245.084970603582, -4446.4995797276, -8131.922260751994, -13407.783318493763, -0.13, 0.812, 0.52, 192.0, 0.0, 0.0, 0.0, 0.0, 0.0, 0.0, 0.0, 0.0, 0.0, 1.67304444084372E9, 0.0, 2023-01-06 17:34:00.843
248.0, -20325.11178554437, -26364.664896090617, -31487.304745591257, -19818.30833176474, -6591.0600532364915, -4472.002920151105, -16990.566788979388, -6776.221904304255, -22328.141013162258, 11448.250585585904, -20627.597943258043, -25251.03393209385, -13302.81952653164, -4500.032007698061, -8186.862848623139, -13456.241900472869, -0.13, 0.812, 0.52, 192.0, 0.0, 0.0, 0.0, 0.0, 0.0, 0.0, 0.0, 0.0, 0.0, 1.6730444408437254E9, 0.0, 2023-01-06 17:34:00.843
250.0, -20332.376102492348, -26373.516186894918, -31487.70707699145, -19820.051767832254, -6639.608042193418, -4508.70448454672, -16995.238303570546, -6739.006249786169, -22322.66483577071, 11441.299193060302, -20622.457042033322, -25258.834690908756, -13315.649427848986, -4506.446958356733, -8170.769592615318, -13437.064103730216, -0.13, 0.812, 0.52, 192.0, 0.0, 0.0, 0.0, 0.0, 0.0, 0.0, 0.0, 0.0, 0.0, 1.6730444408437312E9, 0.0, 2023-01-06 17:34:00.843
252.0, -20317.55689591848, -26365.000172257445, -31465.243573813867, -19797.945892565953, -6621.860757095905, -4506.93869673475, -16999.50748676151, -6762.095601808501, -22333.32661787589, 11436.02418136885, -20633.252934605236, -25254.14082457314, -13292.157744426459, -4518.852176529429, -8184.851191622161, -13450.206929469936, -0.14, 0.8280000000000001, 0.536, 192.0, 125.5, 80.0, 12.5, 112.0, 8.0, 96.0, 0.0, 0.0, 0.0, 1.673044440843737E9, 0.0, 2023-01-06 17:34:00.843
254.0, -20322.586038420923, -26380.847559076257, -31474.60895474064, -19811.468697961416, -6620.050265795025, -4524.730685321175, -16967.4550852126, -6766.521247210651, -22300.93894016015, 11460.924024692062, -20602.809858657107, -25247.61411519219, -13248.504787505244, -4474.103984129904, -8149.378973171589, -13420.881440744573, -0.14, 0.8280000000000001, 0.536, 192.0, 0.0, 0.0, 0.0, 0.0, 0.0, 0.0, 0.0, 0.0, 0.0, 1.6730444408437421E9, 0.0, 2023-01-06 17:34:00.843
0.0, -20318.4956691856, -26378.65708811964, -31462.002570867848, -19802.840924601667, -6623.492434441142, -4523.389580653856, -16975.233492283045, -6771.86331413547, -22339.160423178724, 11421.87552712864, -20640.22667887529, -25272.648068982133, -13299.936151496906, -4523.031952742571, -8170.456668192944, -13452.911490549028, -0.14, 0.8280000000000001, 0.536, 192.0, 0.0, 0.0, 0.0, 0.0, 0.0, 0.0, 0.0, 0.0, 0.0, 1.6730444408437479E9, 0.0, 2023-01-06 17:34:00.843
2.0, -20284.163389702248, -26343.54249758035, -31436.476878699887, -19778.38811616756, -6531.000915885082, -4492.387711094345, -16966.225739267556, -6746.896415578892, -22278.69895442712, 11454.464370544478, -20584.12380029247, -25264.7131997005, -13243.162720580427, -4448.31007102848, -8125.6190688155975, -13398.105013144615, -0.14, 0.8280000000000001, 0.536, 192.0, 0.0, 0.0, 0.0, 0.0, 0.0, 0.0, 0.0, 0.0, 0.0, 1.673044440843753E9, 0.0, 2023-01-06 17:34:00.843
4.0, -20283.67165132423, -26341.50848883492, -31421.5682651482, -19773.381325409573, -6539.986317156115, -4435.770742389052, -16908.714700784054, -6757.848770361993, -22294.814562179396, 11443.064980872272, -20601.02171910068, -25268.065961368797, -13286.659215290454, -4484.318731345979, -8143.366353913111, -13419.965019221905, -0.14, 0.8280000000000001, 0.536, 192.0, 0.0, 0.0, 0.0, 0.0, 0.0, 0.0, 0.0, 0.0, 0.0, 1.6730444408437588E9, 0.0, 2023-01-06 17:34:00.843
6.0, -20212.168420811704, -26271.05579031179, -31347.874563679048, -19698.726498928845, -6535.895947920793, -4385.0546342199605, -16908.088851939305, -6693.721615519717, -22218.77392754244, 11495.278655919868, -20532.49127060071, -25274.413856794105, -13172.486504612745, -4436.396591233801, -8051.16540803497, -13349.109989298582, -0.126, 0.81, 0.54, 192.0, 126.0, 8.0, 12.5, 40.0, 8.0, 112.0, 0.0, 0.0, 0.0, 1.6730444408437676E9, 0.0, 2023-01-06 17:34:00.843
8.0, -20233.179060599694, -26292.1558370776, -31381.804511762206, -19734.37753133506, -6545.10486663638, -4436.374239489346, -16909.139383928705, -6754.317194738054, -22213.521267595443, 11535.444740706056, -20522.88002048493, -25209.169114729062, -13149.50891131269, -4378.662035305743, -8073.0254141122605, -13342.650335150998, -0.126, 0.81, 0.54, 192.0, 0.0, 0.0, 0.0, 0.0, 0.0, 0.0, 0.0, 0.0, 0.0, 1.6730444408437731E9, 0.0, 2023-01-06 17:34:00.843
10.0, -20262.661011536242, -26320.184924624555, -31422.97642504888, -19775.080057988176, -6559.141762154313, -4476.249751597614, -16920.561125345364, -6741.643755631895, -22238.555221385388, 11511.081339249771, -20540.806119538083, -25237.37701623166, -13198.772156092187, -4412.122596755337, -8084.737728206841, -13354.78733239023, -0.126, 0.81, 0.54, 192.0, 0.0, 0.0, 0.0, 0.0, 0.0, 0.0, 0.0, 0.0, 0.0, 1.6730444408437788E9, 0.0, 2023-01-06 17:34:00.843
12.0, -20307.7444801026, -26363.45790189003, -31470.18330933849, -19833.7310354389, -6613.970591303181, -4547.305947221034, -16990.96912037958, -6803.1557563729, -22289.070163854383, 11460.678155503054, -20600.79820165613, -25247.32354251427, -13259.43479054389, -4485.793946480029, -8146.495598136855, -13424.547126835243, -0.126, 0.81, 0.54, 192.0, 0.0, 0.0, 0.0, 0.0, 0.0, 0.0, 0.0, 0.0, 0.0, 1.673044440843784E9, 0.0, 2023-01-06 17:34:00.843
14.0, -20299.5413898875, -26352.952581996036, -31456.593448709664, -19824.54446846777, -6589.249561935611, -4502.066016443493, -16978.005108595506, -6788.850639921504, -22289.718364443586, 11453.637355999632, -20601.133477822958, -25287.757848233923, -13275.550398296165, -4499.3391036199455, -8146.3391359256675, -13426.737597791864, -0.126, 0.81, 0.54, 192.0, 0.0, 0.0, 0.0, 0.0, 0.0, 0.0, 0.0, 0.0, 0.0, 1.6730444408437896E9, 0.0, 2023-01-06 17:34:00.843
16.0, -20356.426579526258, -26403.9816145875, -31501.498103320373, -19869.82910273422, -6619.983210561659, -4515.27589741658, -17014.88548694676, -6841.578405091573, -22329.012731196017, 11417.36047474867, -20635.152832883934, -25275.620850994692, -13296.91866599544, -4556.693679892263, -8181.453726464954, -13456.71128710643, -0.14200000000000002, 0.788, 0.528, 192.0, 125.5, 72.0, 12.0, 80.0, 8.0, 64.0, 0.0, 0.0, 0.0, 1.6730444408437953E9, 0.0, 2023-01-06 17:34:00.843
18.0, -20319.903829086285, -26365.000172257445, -31457.88984988807, -19820.275285276806, -6608.06973076698, -4543.774371597096, -16984.93414937665, -6825.999239206224, -22320.831992725372, 11418.053378826784, -20624.111071123014, -25307.96382522152, -13275.282177362702, -4531.3244499354905, -8164.868732079117, -13432.191423438959, -0.14200000000000002, 0.788, 0.528, 192.0, 0.0, 0.0, 0.0, 0.0, 0.0, 0.0, 0.0, 0.0, 0.0, 1.6730444408438008E9, 0.0, 2023-01-06 17:34:00.843
20.0, -20331.50438445859, -26372.912689794626, -31470.630344227597, -19836.815576173733, -6649.308699287021, -4584.588656972487, -17010.45984154461, -6870.903893816936, -22317.32276884589, 11444.204919839493, -20618.679597220373, -25256.532461229857, -13271.258863360747, -4485.6598360132975, -8171.194275759969, -13436.661772330019, -0.14200000000000002, 0.788, 0.528, 192.0, 0.0, 0.0, 0.0, 0.0, 0.0, 0.0, 0.0, 0.0, 0.0, 1.6730444408438077E9, 0.0, 2023-01-06 17:34:00.843
22.0, -20314.606465650377, -26359.903974521636, -31443.629436925585, -19817.21309628643, -6615.266992481589, -4545.338993708968, -16991.259693057502, -6845.445256882341, -22306.6162832518, 11445.993059395918, -20605.17914356937, -25284.5168452879, -13245.263784559225, -4491.359530849401, -8158.4314296759885, -13428.659847815019, -0.14200000000000002, 0.788, 0.528, 192.0, 0.0, 0.0, 0.0, 0.0, 0.0, 0.0, 0.0, 0.0, 0.0, 1.6730444408438132E9, 0.0, 2023-01-06 17:34:00.843
24.0, -20342.948477619706, -26389.229463247, -31472.686704717486, -19843.856375677155, -6629.348591488432, -4570.819982388018, -17020.518126549498, -6874.1225450185, -22309.186733864157, 11442.081504116239, -20612.443460517345, -25259.438188009048, -13262.228758600802, -4511.185528181259, -8158.766705842818, -13424.748292535342, -0.14200000000000002, 0.788, 0.528, 192.0, 0.0, 0.0, 0.0, 0.0, 0.0, 0.0, 0.0, 0.0, 0.0, 1.6730444408438187E9, 0.0, 2023-01-06 17:34:00.843
26.0, -20314.785279606018, -26368.285878692375, -31436.163954277512, -19801.58922691217, -6579.280683908544, -4520.215632941203, -16986.87875114426, -6848.999184250735, -22313.3665100773, 11442.036800627327, -20620.467736776798, -25290.685926757567, -13275.505694807256, -4512.213708426203, -8155.011612774327, -13424.681237301975, -0.164, 0.8160000000000001, 0.532, 192.0, 125.0, 112.0, 12.5, 64.0, 8.0, 80.0, 0.0, 0.0, 0.0, 1.673044440843824E9, 0.0, 2023-01-06 17:34:00.843
28.0, -20332.465509470167, -26387.284861479387, -31454.939419619972, -19819.940009109978, -6604.247582465123, -4548.445886188256, -16960.280175242446, -6911.829937914603, -22290.36656503279, 11451.73745772093, -20604.419184257888, -25238.539306943334, -13269.29190984868, -4522.56256610901, -8134.537414853266, -13400.474298056877, -0.164, 0.8160000000000001, 0.532, 192.0, 0.0, 0.0, 0.0, 0.0, 0.0, 0.0, 0.0, 0.0, 0.0, 1.6730444408438296E9, 0.0, 2023-01-06 17:34:00.843
30.0, -20317.78041336303, -26375.527843895896, -31445.015245081813, -19804.33849148017, -6597.430300406254, -4552.804476357041, -16978.362736506788, -6896.071958073611, -22290.008937121504, 11447.155350107592, -20609.001291871227, -25257.203013563518, -13225.840118627564, -4512.03489447056, -8131.631688074075, -13413.907696474516, -0.164, 0.8160000000000001, 0.532, 192.0, 0.0, 0.0, 0.0, 0.0, 0.0, 0.0, 0.0, 0.0, 0.0, 1.673044440843835E9, 0.0, 2023-01-06 17:34:00.843
32.0, -20365.74725696412, -26422.399452018675, -31511.668147047538, -19869.627937034125, -6639.585690448963, -4637.472884353743, -17059.454865390642, -6963.104839695077, -22306.973911163084, 11440.494530259912, -20628.31319908061, -25245.08836806874, -13257.24431958727, -4502.133071676859, -8171.931883326994, -13418.623914554586, -0.164, 0.8160000000000001, 0.532, 192.0, 0.0, 0.0, 0.0, 0.0, 0.0, 0.0, 0.0, 0.0, 0.0, 1.6730444408438406E9, 0.0, 2023-01-06 17:34:00.843
34.0, -20369.211777354692, -26423.18176307461, -31506.214321400443, -19866.565748043748, -6669.492324530163, -4631.0579336950705, -17043.071036704903, -6966.167028685454, -22347.430568627187, 11392.77355584783, -20664.031286720194, -25288.361345334215, -13308.921552767939, -4563.443906717766, -8213.86375592515, -13478.392479228078, -0.164, 0.8160000000000001, 0.532, 192.0, 0.0, 0.0, 0.0, 0.0, 0.0, 0.0, 0.0, 0.0, 0.0, 1.673044440843846E9, 0.0, 2023-01-06 17:34:00.843
36.0, -20387.04846943003, -26440.32555107183, -31522.0393564748, -19890.303300655283, -6678.410670567831, -4644.87131176845, -17064.19343521517, -6969.788011287214, -22338.28870514497, 11403.792965864297, -20651.201385402845, -25262.165100832597, -13301.187849186403, -4560.985214827682, -8195.62473244962, -13450.721019592407, -0.158, 0.81, 0.516, 192.0, 125.5, 8.0, 12.5, 40.0, 8.0, 16.0, 0.0, 0.0, 0.0, 1.6730444408438516E9, 0.0, 2023-01-06 17:34:00.843
38.0, -20386.98141419666, -26437.017492892446, -31511.57874006972, -19879.194483660995, -6601.118338241379, -4636.5117593421655, -17031.4704813326, -6969.676252564937, -22356.907708276238, 11366.398497390568, -20671.005030990247, -25287.757848233923, -13334.536651913722, -4595.876287922417, -8217.462386782454, -13469.451781445954, -0.158, 0.81, 0.516, 192.0, 0.0, 0.0, 0.0, 0.0, 0.0, 0.0, 0.0, 0.0, 0.0, 1.6730444408438585E9, 0.0, 2023-01-06 17:34:00.843
40.0, -20402.247655659638, -26456.172937890642, -31528.923693767036, -19906.955350274486, -6705.389226125387, -4659.154076475391, -17058.113760723325, -7007.048369294211, -22348.682266316686, 11384.883390055107, -20662.42196111941, -25285.120342388196, -13349.78054163224, -4606.113386882947, -8202.486717997399, -13456.510121406332, -0.158, 0.81, 0.516, 192.0, 0.0, 0.0, 0.0, 0.0, 0.0, 0.0, 0.0, 0.0, 0.0, 1.673044440843864E9, 0.0, 2023-01-06 17:34:00.843
42.0, -20371.625765755864, -26433.865896924246, -31494.859635217148, -19871.863111479655, -6679.841182212971, -4635.125951185936, -17040.90291749274, -7002.555668658694, -22357.064170487425, 11368.186636946994, -20674.246033936266, -25304.588711808767, -13288.693224035887, -4592.657636720853, -8221.999790906882, -13481.588778685187, -0.158, 0.81, 0.516, 192.0, 0.0, 0.0, 0.0, 0.0, 0.0, 0.0, 0.0, 0.0, 0.0, 1.6730444408438692E9, 0.0, 2023-01-06 17:34:00.843
44.0, -20371.536358778045, -26431.22839107852, -31504.493237077386, -19881.340251128706, -6666.810115195527, -4644.312518157068, -17043.60747857183, -7019.3865322335405, -22309.90198968673, 11419.97562884994, -20632.738844482763, -25273.7656562049, -13276.712689007842, -4545.361345453423, -8187.801621890262, -13450.609260870131, -0.158, 0.81, 0.516, 192.0, 0.0, 0.0, 0.0, 0.0, 0.0, 0.0, 0.0, 0.0, 0.0, 1.6730444408438747E9, 0.0, 2023-01-06 17:34:00.843
46.0, -20387.69667001923, -26443.879478440223, -31493.47382706092, -19869.136198656106, -6677.2260281117, -4657.2988816856005, -17047.161405940224, -7016.0561223097, -22348.078769216394, 11388.392613934591, -20657.683391294886, -25277.163121362108, -13324.29955295319, -4583.024034860616, -8209.639276223097, -13473.922130337016, -0.159, 0.8200000000000001, 0.517, 192.0, 125.5, 0.0, 12.5, 120.0, 8.0, 24.0, 0.0, 0.0, 0.0, 1.6730444408438804E9, 0.0, 2023-01-06 17:34:00.843
48.0, -20405.443955116745, -26457.581097791328, -31515.91497849405, -19890.23624542192, -6675.9966821666585, -4673.213323737779, -17064.036973003982, -7036.507968486306, -22344.90482150374, 11406.363416476657, -20644.585269044073, -25276.5149207729, -13305.546439355188, -4576.966712113227, -8193.613075448642, -13460.66754587502, -0.159, 0.8200000000000001, 0.517, 192.0, 0.0, 0.0, 0.0, 0.0, 0.0, 0.0, 0.0, 0.0, 0.0, 1.673044440843886E9, 0.0, 2023-01-06 17:34:00.843
50.0, -20426.029911760084, -26469.71809503056, -31528.56606585575, -19893.097268712198, -6625.034704808558, -4675.426146438855, -17022.574487039386, -7014.893831598024, -22389.071868547424, 11391.365395947147, -20686.71830734233, -25277.856025440222, -13361.090524326626, -4607.1639188723475, -8235.969631191449, -13503.381729529112, -0.159, 0.8200000000000001, 0.517, 192.0, 0.0, 0.0, 0.0, 0.0, 0.0, 0.0, 0.0, 0.0, 0.0, 1.6730444408438911E9, 0.0, 2023-01-06 17:34:00.843
52.0, -20427.885106549875, -26475.596603822305, -31537.216190959956, -19899.869847282156, -6668.3076820740325, -4650.839227538017, -17059.544272368465, -7025.53326195875, -22402.48291522061, 11399.479079184423, -20686.070106753126, -25296.09504891575, -13384.559856004698, -4594.334017555001, -8211.896802413083, -13477.274892005313, -0.159, 0.8200000000000001, 0.517, 192.0, 0.0, 0.0, 0.0, 0.0, 0.0, 0.0, 0.0, 0.0, 0.0, 1.6730444408438969E9, 0.0, 2023-01-06 17:34:00.843
54.0, -20419.614961101408, -26464.733656017026, -31527.873161777636, -19896.114754213664, -6720.051970488068, -4681.192896508324, -17092.803668117962, -7019.922974100468, -22405.72391816663, 11406.698692643487, -20686.09245849758, -25266.210766579006, -13314.218916203847, -4586.600313973465, -8244.329183617734, -13492.362319512644, -0.159, 0.8200000000000001, 0.517, 192.0, 0.0, 0.0, 0.0, 0.0, 0.0, 0.0, 0.0, 0.0, 0.0, 1.673044440843902E9, 0.0, 2023-01-06 17:34:00.843
56.0, -20414.295245921046, -26453.982466934023, -31523.46986811994, -19904.40725140658, -6713.122929706923, -4674.196800493813, -17009.252847344025, -7057.138628618554, -22397.85610411836, 11417.226364281936, -20672.65906007994, -25287.28846160036, -13313.838936548107, -4567.154296297347, -8226.671305498041, -13480.962929840438, -0.1665, 0.8250000000000001, 0.5135000000000001, 192.0, 125.0, 72.0, 12.5, 120.0, 7.5, 120.0, 0.0, 0.0, 0.0, 1.6730444408439078E9, 0.0, 2023-01-06 17:34:00.843
58.0, -20419.74907156814, -26457.022304179944, -31535.20453395898, -19918.46649866897, -6709.2784296606105, -4669.905265558394, -17070.451923662655, -7066.6381200120595, -22401.454734975665, 11414.030064824829, -20682.829103807104, -25263.43915026655, -13344.93021308544, -4587.941418640783, -8226.783064220317, -13494.418680002533, -0.1665, 0.8250000000000001, 0.5135000000000001, 192.0, 0.0, 0.0, 0.0, 0.0, 0.0, 0.0, 0.0, 0.0, 0.0, 1.6730444408439133E9, 0.0, 2023-01-06 17:34:00.843
60.0, -20407.477963862177, -26443.164222617655, -31519.066574462246, -19908.36351017517, -6672.7109757317285, -4657.678861341341, -16996.534704748956, -7036.887948142046, -22389.273034247522, 11419.439186983012, -20675.14010371448, -25291.91527270261, -13319.940962784405, -4578.5760377140095, -8203.425491264521, -13470.94934832446, -0.1665, 0.8250000000000001, 0.5135000000000001, 192.0, 0.0, 0.0, 0.0, 0.0, 0.0, 0.0, 0.0, 0.0, 0.0, 1.6730444408439188E9, 0.0, 2023-01-06 17:34:00.843
62.0, -20433.584801385976, -26465.963001962067, -31546.29099920881, -19932.771615120368, -6687.708996261239, -4673.012158037682, -17030.84463248785, -7052.243596582842, -22411.87064789184, 11418.276896271336, -20696.37426094702, -25270.167025347597, -13345.041971807716, -4608.907354939861, -8212.366189046645, -13482.95223509696, -0.1665, 0.8250000000000001, 0.5135000000000001, 192.0, 0.0, 0.0, 0.0, 0.0, 0.0, 0.0, 0.0, 0.0, 0.0, 1.6730444408439243E9, 0.0, 2023-01-06 17:34:00.843
64.0, -20422.14070822486, -26454.787129734414, -31537.126783982134, -19918.913533558076, -6664.753754705639, -4636.265890153157, -17015.60074276933, -7050.857788426613, -22418.10678459487, 11421.36143700617, -20695.18961849089, -25306.6227205542, -13348.886471854028, -4577.771374913618, -8206.018293621337, -13475.95613908245, -0.1665, 0.8250000000000001, 0.5135000000000001, 192.0, 0.0, 0.0, 0.0, 0.0, 0.0, 0.0, 0.0, 0.0, 0.0, 1.6730444408439298E9, 0.0, 2023-01-06 17:34:00.843
66.0, -20435.484699664677, -26467.773493262946, -31548.01208353187, -19930.827013352755, -6699.957752222747, -4662.842114310517, -17018.662931759707, -7072.203704381431, -22420.654883462776, 11417.226364281936, -20701.51516217174, -25275.263223083406, -13336.995343803805, -4572.161087055336, -8215.450729781476, -13476.112601293637, -0.18825, 0.8205, 0.51175, 192.0, 124.5, 56.0, 12.5, 64.0, 7.5, 120.0, 0.0, 0.0, 0.0, 1.6730444408439353E9, 0.0, 2023-01-06 17:34:00.843
68.0, -20414.474059876688, -26444.527679029427, -31523.805144286773, -19911.380995676638, -6682.433984569787, -4646.234768180224, -16987.661062200197, -7072.024890425789, -22417.346825283388, 11423.64131494061, -20692.753278345263, -25303.269958885903, -13321.058550007172, -4552.893883334861, -8194.820069649228, -13466.367240711123, -0.18825, 0.8205, 0.51175, 192.0, 0.0, 0.0, 0.0, 0.0, 0.0, 0.0, 0.0, 0.0, 0.0, 1.6730444408439407E9, 0.0, 2023-01-06 17:34:00.843
70.0, -20436.4234729318, -26473.696705543603, -31553.1976882455, -19948.82016763928, -6708.585525582496, -4673.950931304805, -17025.211992885113, -7126.518443407827, -22416.16218282726, 11422.300210273292, -20698.22945573681, -25275.017353894396, -13340.683381638932, -4591.875325664917, -8200.028026107315, -13478.839514117184, -0.18825, 0.8205, 0.51175, 192.0, 0.0, 0.0, 0.0, 0.0, 0.0, 0.0, 0.0, 0.0, 0.0, 1.673044440843948E9, 0.0, 2023-01-06 17:34:00.843
72.0, -20418.05033898954, -26458.206946636077, -31541.172449728543, -19928.591838907225, -6655.41072552332, -4654.63902409542, -17002.435565285155, -7123.880937562101, -22413.52467698153, 11404.217649008948, -20703.884447084005, -25315.853991014243, -13329.842785578106, -4602.67121823683, -8207.068825610737, -13496.922075381528, -0.18825, 0.8205, 0.51175, 192.0, 0.0, 0.0, 0.0, 0.0, 0.0, 0.0, 0.0, 0.0, 0.0, 1.6730444408439536E9, 0.0, 2023-01-06 17:34:00.843
74.0, -20454.28251675159, -26497.72483083306, -31580.712685669983, -19971.462484772503, -6724.343505423487, -4716.262783558701, -17057.353801411846, -7187.941037171011, -22419.06790960645, 11411.660779912565, -20707.72894713032, -25288.33899358976, -13357.581300447144, -4619.189157389303, -8228.750017732384, -13513.81999418974, -0.18825, 0.8205, 0.51175, 192.0, 0.0, 0.0, 0.0, 0.0, 0.0, 0.0, 0.0, 0.0, 0.0, 1.6730444408439593E9, 0.0, 2023-01-06 17:34:00.843
76.0, -20424.08530999247, -26473.987278221524, -31550.493127166406, -19935.923211088564, -6688.156031150345, -4682.422242453366, -17038.019542458005, -7173.680624208525, -22432.501308024086, 11396.975683805429, -20718.793060635693, -25328.080395231296, -13356.5531202022, -4624.352410358478, -8237.713067258963, -13528.683904252519, -0.201125, 0.82125, 0.5098750000000001, 192.0, 124.5, 40.0, 12.5, 88.0, 7.5, 112.0, 0.0, 0.0, 0.0, 1.6730444408439648E9, 0.0, 2023-01-06 17:34:00.843
78.0, -20447.018199803617, -26502.82102856887, -31576.95759260149, -19957.514996232392, -6750.942081325303, -4706.2492020427235, -17101.543200199987, -7204.526031556849, -22419.649054962287, 11425.36239926367, -20703.638577894995, -25288.24958661194, -13352.283937011236, -4609.287334595601, -8240.685849271518, -13524.81705246175, -0.201125, 0.82125, 0.5098750000000001, 192.0, 0.0, 0.0, 0.0, 0.0, 0.0, 0.0, 0.0, 0.0, 0.0, 1.6730444408439703E9, 0.0, 2023-01-06 17:34:00.843
80.0, -20416.86569653341, -26466.90177522919, -31524.632158831617, -19893.164323945563, -6705.322170892021, -4689.887725101438, -16989.270387800978, -7178.083917866221, -22431.24961033459, 11414.96883809195, -20704.33148197311, -25306.8238862543, -13342.650335150998, -4576.676139435308, -8237.713067258963, -13513.216497089446, -0.201125, 0.82125, 0.5098750000000001, 192.0, 0.0, 0.0, 0.0, 0.0, 0.0, 0.0, 0.0, 0.0, 0.0, 1.673044440843976E9, 0.0, 2023-01-06 17:34:00.843
82.0, -20429.159155983827, -26485.0513917269, -31553.264743478867, -19914.89021955612, -6712.251211673166, -4700.92948686236, -17056.839711289373, -7207.744682758414, -22407.95909261216, 11448.608213497188, -20684.371374174523, -25265.741379945444, -13338.425855448944, -4568.204828286747, -8212.05326462427, -13488.741336910885, -0.201125, 0.82125, 0.5098750000000001, 192.0, 0.0, 0.0, 0.0, 0.0, 0.0, 0.0, 0.0, 0.0, 0.0, 1.6730444408439813E9, 0.0, 2023-01-06 17:34:00.843
84.0, -20406.3156731505, -26465.985353706525, -31520.117106451646, -19884.64830930809, -6683.506868303642, -4649.095791470503, -16949.417227437167, -7211.231554893441, -22406.461525733655, 11436.068884857761, -20684.61724336353, -25283.08633364276, -13354.742628901318, -4607.76741597264, -8224.503186285876, -13495.938598625495, -0.201125, 0.82125, 0.5098750000000001, 192.0, 0.0, 0.0, 0.0, 0.0, 0.0, 0.0, 0.0, 0.0, 0.0, 1.6730444408439867E9, 0.0, 2023-01-06 17:34:00.843
86.0, -20432.109586251925, -26488.87354002876, -31550.738996355416, -19905.726004329445, -6699.913048733837, -4712.194766067835, -17021.03221667197, -7237.807779050801, -22398.414897729745, 11453.950280422006, -20670.33447865659, -25263.19328107754, -13340.884547339028, -4572.4740114777105, -8188.1368980570915, -13473.09511579217, -0.2155625, 0.822625, 0.5119375, 192.0, 124.0, 104.0, 12.5, 96.0, 8.0, 8.0, 0.0, 0.0, 0.0, 1.6730444408439925E9, 0.0, 2023-01-06 17:34:00.843
88.0, -20421.291341935557, -26485.163150449178, -31535.986845014915, -19898.059355981273, -6683.842144470471, -4698.0908153165365, -16997.205257082613, -7249.229520467463, -22437.44104354871, 11421.696713172998, -20703.75033661727, -25297.637319283167, -13378.636643724043, -4608.549727028576, -8228.77236947684, -13499.269008549334, -0.2155625, 0.822625, 0.5119375, 192.0, 0.0, 0.0, 0.0, 0.0, 0.0, 0.0, 0.0, 0.0, 0.0, 1.6730444408439977E9, 0.0, 2023-01-06 17:34:00.843
90.0, -20406.025100472583, -26469.785150263924, -31521.368804141144, -19896.31591991376, -6703.489327846686, -4705.26572528669, -16986.901102888718, -7269.01081431041, -22384.10978127835, 11455.872530445164, -20658.063370950626, -25264.310868300305, -13302.193677686892, -4569.143601553869, -8179.531476441798, -13465.249653488358, -0.2155625, 0.822625, 0.5119375, 192.0, 0.0, 0.0, 0.0, 0.0, 0.0, 0.0, 0.0, 0.0, 0.0, 1.6730444408440032E9, 0.0, 2023-01-06 17:34:00.844
0.0, -10499.26257124693, -13409.862030728107, -16007.715881790626, -10406.39107303513, -3749.102800977564, -2673.0451194101715, -8882.94087445031, -3751.0921062340867, -11202.135527388516, 5719.364371223971, -10334.686676822505, -12642.437236599593, -6663.03267038258, -2298.78751025051, -4096.76183423541, -6741.62140388744, -0.28200000000000003, 0.79, 0.508, 192.0, 123.5, 24.0, 12.0, 88.0, 7.5, 112.0, 0.0, 0.0, 0.0, 1.6730444411083655E9, 0.0, 2023-01-06 17:34:01.108
2.0, -20967.43386595653, -26788.141046540863, -31988.833187679436, -20792.844390016126, -7495.366930409305, -5316.585936139338, -17751.12959756012, -7481.017110468997, -22625.62038011794, 10642.53725320545, -20868.437989763974, -24955.387408183506, -13626.36102752221, -5436.234824208596, -8967.162247557908, -14533.528927985302, -0.28200000000000003, 0.79, 0.508, 192.0, 0.0, 0.0, 0.0, 0.0, 0.0, 0.0, 0.0, 0.0, 0.0, 1.6730444411084037E9, 0.0, 2023-01-06 17:34:01.108
4.0, -20995.909988392592, -26815.343119542973, -32015.699984514715, -20823.868611320093, -7499.9490380226425, -5353.421611001684, -17750.95078360448, -7497.736215321567, -22630.783633087118, 10654.24956730003, -20874.517664255818, -24914.461364085837, -13657.809931970827, -5448.036545280998, -8988.195239090353, -14550.918585171532, -0.28200000000000003, 0.79, 0.508, 192.0, 0.0, 0.0, 0.0, 0.0, 0.0, 0.0, 0.0, 0.0, 0.0, 1.6730444411084113E9, 0.0, 2023-01-06 17:34:01.108
6.0, -20982.990680097424, -26802.28970078107, -31995.60576624939, -20805.45077388892, -7476.4126511112045, -5347.073715576376, -17726.587382148195, -7491.254209429528, -22632.661179621362, 10637.686924658648, -20874.472960766907, -24961.154158252975, -13659.553368038341, -5450.606995893359, -8979.366300030506, -14555.8359689517, -0.28200000000000003, 0.79, 0.508, 192.0, 0.0, 0.0, 0.0, 0.0, 0.0, 0.0, 0.0, 0.0, 0.0, 1.6730444411084187E9, 0.0, 2023-01-06 17:34:01.108
8.0, -20994.099497091713, -26811.856247407944, -32006.491065799128, -20822.013416530302, -7459.581787536358, -5366.407974530217, -17741.965382333445, -7534.504834950547, -22627.81085107456, 10653.44490449964, -20869.734390942383, -24914.34960536356, -13661.095638405757, -5451.054030782465, -8961.730773655268, -14563.21204462195, -0.31, 0.78, 0.504, 192.0, 123.0, 40.0, 12.0, 48.0, 7.5, 96.0, 0.0, 0.0, 0.0, 1.6730444411084256E9, 0.0, 2023-01-06 17:34:01.108
10.0, -20998.435735516043, -26812.884427652887, -32009.039164667032, -20816.85016356113, -7468.969520207587, -5351.432305745162, -17747.21804228044, -7500.083148489374, -22640.260772736165, 10630.601421666315, -20881.089077125678, -24964.99865829929, -13691.538714353886, -5498.059749371976, -8969.464477236805, -14577.919492473542, -0.31, 0.78, 0.504, 192.0, 0.0, 0.0, 0.0, 0.0, 0.0, 0.0, 0.0, 0.0, 0.0, 1.67304444110844E9, 0.0, 2023-01-06 17:34:01.108
12.0, -21017.83704970325, -26829.916456927833, -32019.52213281657, -20825.187364242956, -7472.881075487266, -5359.34482328234, -17753.81180689476, -7491.6788925741785, -22651.660162408374, 10631.987229822544, -20890.342699330176, -24929.884067760002, -13674.283167634389, -5478.5466764624925, -8980.953273886833, -14570.856341225666, -0.31, 0.78, 0.504, 192.0, 0.0, 0.0, 0.0, 0.0, 0.0, 0.0, 0.0, 0.0, 0.0, 1.6730444411084497E9, 0.0, 2023-01-06 17:34:01.108
14.0, -20995.64176745913, -26807.654119450348, -31997.19274010572, -20797.31473890719, -7439.644031482224, -5316.943564050623, -17737.56208867575, -7510.141433494263, -22652.95656358678, 10628.656819898704, -20885.26885333882, -24961.578841397626, -13649.696248733551, -5460.866446598345, -8976.505276740227, -14559.747524231378, -0.31, 0.78, 0.504, 192.0, 0.0, 0.0, 0.0, 0.0, 0.0, 0.0, 0.0, 0.0, 0.0, 1.6730444411084602E9, 0.0, 2023-01-06 17:34:01.108
16.0, -21001.34146229523, -26811.453916007747, -32002.020716908064, -20810.88224779156, -7492.371796652294, -5366.989119886055, -17743.105321300667, -7512.108387006329, -22637.37739770143, 10635.049418812921, -20875.65760322304, -24922.41858511193, -13678.284129891888, -5447.723620858625, -8973.197218560841, -14565.514274300847, -0.31, 0.78, 0.504, 192.0, 0.0, 0.0, 0.0, 0.0, 0.0, 0.0, 0.0, 0.0, 0.0, 1.6730444411084712E9, 0.0, 2023-01-06 17:34:01.108
18.0, -20973.96057533748, -26785.50354069514, -31976.8973561403, -20783.09902943361, -7461.57109279288, -5326.24188974403, -17737.450329953474, -7502.698302590645, -22627.22970571872, 10655.277747544975, -20861.285431538276, -24935.539059107192, -13660.313327349822, -5438.581757376404, -8964.05535507862, -14549.219852592929, -0.33, 0.772, 0.518, 192.0, 122.5, 88.0, 12.0, 16.0, 8.0, 24.0, 0.0, 0.0, 0.0, 1.6730444411084795E9, 0.0, 2023-01-06 17:34:01.108
20.0, -21008.561075754296, -26815.6783957098, -32013.24129262463, -20822.907486308515, -7493.19881119714, -5366.475029763584, -17760.874958142635, -7539.0422390749745, -22623.921647539337, 10660.798628425435, -20864.28056529529, -24915.31073037514, -13663.241405873467, -5464.710946644658, -8966.11171556851, -14559.434599809003, -0.33, 0.772, 0.518, 192.0, 0.0, 0.0, 0.0, 0.0, 0.0, 0.0, 0.0, 0.0, 0.0, 1.6730444411084874E9, 0.0, 2023-01-06 17:34:01.108
22.0, -21001.699090206515, -26808.279968295097, -31996.43278079424, -20810.435212902452, -7462.241645126539, -5334.646145659226, -17719.345416944674, -7539.489273964081, -22644.552307671584, 10642.000811338523, -20882.899568426557, -24948.480719146817, -13684.073231705814, -5469.203647280175, -8977.91343664091, -14582.322786131239, -0.33, 0.772, 0.518, 192.0, 0.0, 0.0, 0.0, 0.0, 0.0, 0.0, 0.0, 0.0, 0.0, 1.6730444411084943E9, 0.0, 2023-01-06 17:34:01.108
24.0, -21022.486212549953, -26828.284779582595, -32020.349147361416, -20827.780166599772, -7481.285331402461, -5350.180608055664, -17736.26568749734, -7471.987005709053, -22646.899240839393, 10638.357476992307, -20885.22414984991, -24935.248486429275, -13680.027565959403, -5462.788696621501, -8964.860017879011, -14570.096381914185, -0.33, 0.772, 0.518, 192.0, 0.0, 0.0, 0.0, 0.0, 0.0, 0.0, 0.0, 0.0, 0.0, 1.673044441108502E9, 0.0, 2023-01-06 17:34:01.108
26.0, -21019.53578228185, -26828.01655864913, -32018.695118271724, -20814.011492015303, -7441.320412316372, -5333.193282269631, -17728.017893793334, -7507.079244503885, -22660.220880534755, 10624.834671596846, -20899.66337676804, -24950.22415521433, -13677.300653135855, -5472.489353715105, -8975.834724406568, -14567.704745257468, -0.33, 0.772, 0.518, 192.0, 0.0, 0.0, 0.0, 0.0, 0.0, 0.0, 0.0, 0.0, 0.0, 1.6730444411085098E9, 0.0, 2023-01-06 17:34:01.108
28.0, -21032.700959766025, -26839.862983210445, -32041.404490638317, -20839.939515583457, -7483.699319803634, -5351.320547022885, -17773.213121081964, -7557.30361429496, -22653.358894986977, 10642.62666018327, -20898.41167907854, -24942.624562099525, -13685.771964284417, -5464.822705366934, -8978.315768041108, -14568.531759802314, -0.326, 0.756, 0.538, 192.0, 122.5, 104.0, 11.5, 80.0, 8.0, 104.0, 0.0, 0.0, 0.0, 1.6730444411085172E9, 0.0, 2023-01-06 17:34:01.108
30.0, -21044.79325351635, -26852.670532783337, -32043.840830783945, -20856.189233802466, -7489.7342908065675, -5363.34578553984, -17761.903138387577, -7563.964434142642, -22682.97495639026, 10603.28758994193, -20931.112281216658, -24965.73626586631, -13718.293752466889, -5511.314333833973, -9018.660666782936, -14614.933981291531, -0.326, 0.756, 0.538, 192.0, 0.0, 0.0, 0.0, 0.0, 0.0, 0.0, 0.0, 0.0, 0.0, 1.6730444411085253E9, 0.0, 2023-01-06 17:34:01.108
32.0, -21047.87779425118, -26851.17296590483, -32039.839868526444, -20859.98903035987, -7519.551517909947, -5381.674215993192, -17765.546472733793, -7542.886739121287, -22667.39579050491, 10610.976590034556, -20915.063728697747, -24960.03657103021, -13723.278191480422, -5523.116054906375, -8987.949369901344, -14596.27027467135, -0.326, 0.756, 0.538, 192.0, 0.0, 0.0, 0.0, 0.0, 0.0, 0.0, 0.0, 0.0, 0.0, 1.673044441108533E9, 0.0, 2023-01-06 17:34:01.108
34.0, -21069.938966028567, -26874.26231792716, -32041.784470294057, -20867.722733941406, -7536.896471607265, -5395.30878011093, -17783.51727527586, -7575.475582537125, -22693.457924539798, 10588.602493834793, -20933.23569693991, -24954.135710494007, -13720.774796101428, -5532.012049199588, -9018.30303887165, -14613.324655690749, -0.326, 0.756, 0.538, 192.0, 0.0, 0.0, 0.0, 0.0, 0.0, 0.0, 0.0, 0.0, 0.0, 1.6730444411085415E9, 0.0, 2023-01-06 17:34:01.108
36.0, -21089.630852893693, -26895.295309459605, -32061.38695018136, -20883.547769015764, -7527.307573235938, -5410.485614596083, -17800.683415017535, -7609.0702544534515, -22696.408354807896, 10583.886275754723, -20928.765348048848, -24972.57589966964, -13730.721322384039, -5526.290002619029, -9014.905573714444, -14623.51705116237, -0.326, 0.756, 0.538, 192.0, 0.0, 0.0, 0.0, 0.0, 0.0, 0.0, 0.0, 0.0, 0.0, 1.6730444411085513E9, 0.0, 2023-01-06 17:34:01.108
38.0, -21099.152696031655, -26901.75496360719, -32046.05365348502, -20868.70621069744, -7514.67883761869, -5402.394283103262, -17791.653310257592, -7555.694288694178, -22732.282904658667, 10559.813446976357, -20955.20746173948, -24966.697390877893, -13780.275139841455, -5557.716555323191, -9054.714030589346, -14646.76286539589, -0.332, 0.77, 0.562, 192.0, 122.5, 80.0, 12.0, 8.0, 8.5, 72.0, 0.0, 0.0, 0.0, 1.6730444415794852E9, 0.0, 2023-01-06 17:34:01.579
40.0, -21081.964204545522, -26879.693791829803, -32044.39962439533, -20846.779149386784, -7503.5923723688575, -5374.856933934323, -17797.19654288251, -7549.7263729246115, -22703.71737524478, 10590.18946769112, -20921.366920634144, -24958.539004151706, -13735.214023019556, -5522.803130484001, -9018.481852827294, -14596.203219437984, -0.332, 0.77, 0.562, 192.0, 0.0, 0.0, 0.0, 0.0, 0.0, 0.0, 0.0, 0.0, 0.0, 1.673044441579559E9, 0.0, 2023-01-06 17:34:01.579
42.0, -21089.854370338246, -26880.878434285933, -32064.426787427285, -20857.575041958695, -7559.158809084751, -5366.296215807941, -17794.626092270148, -7579.633007005812, -22722.984578965257, 10583.57335133235, -20948.56899363625, -24935.31554166264, -13776.475343284053, -5553.559130854504, -9048.813170053145, -14638.179795525051, -0.332, 0.77, 0.562, 192.0, 0.0, 0.0, 0.0, 0.0, 0.0, 0.0, 0.0, 0.0, 0.0, 1.673044441579599E9, 0.0, 2023-01-06 17:34:01.579
44.0, -21095.419954707617, -26882.554815120082, -32086.040924315566, -20871.835454921184, -7548.899358379765, -5386.3904340732615, -17794.268464358862, -7611.528946343536, -22706.77956423516, 10590.748261302502, -20933.481566128918, -24955.387408183506, -13733.358828229766, -5545.199578428219, -9031.177643677907, -14625.774577352355, -0.332, 0.77, 0.562, 192.0, 0.0, 0.0, 0.0, 0.0, 0.0, 0.0, 0.0, 0.0, 0.0, 1.6730444415796044E9, 0.0, 2023-01-06 17:34:01.579
46.0, -21106.864047868738, -26889.953242534786, -32097.39561049886, -20890.767382474827, -7549.793428157977, -5394.839393477368, -17799.588179539227, -7624.224737194149, -22753.986448524767, 10566.295452868397, -20979.079124817745, -24948.36896042454, -13797.821259238872, -5569.1159449953975, -9080.50794369077, -14672.824999430777, -0.332, 0.77, 0.562, 192.0, 0.0, 0.0, 0.0, 0.0, 0.0, 0.0, 0.0, 0.0, 0.0, 1.67304444157961E9, 0.0, 2023-01-06 17:34:01.579
48.0, -21087.79800984836, -26869.50139635818, -32083.35871498093, -20881.670222481516, -7543.378477499304, -5364.642186718248, -17809.557057566293, -7580.817649461944, -22722.291674887143, 10581.986377476023, -20956.839139084714, -24977.18035902743, -13770.954462403592, -5552.128619209364, -9063.766487093746, -14648.103970063206, -0.328, 0.734, 0.5740000000000001, 192.0, 122.5, 96.0, 11.0, 120.0, 8.5, 120.0, 0.0, 0.0, 0.0, 1.6730444415796156E9, 0.0, 2023-01-06 17:34:01.579
50.0, -21093.430649451097, -26878.240928440206, -32080.9223748353, -20895.215379621433, -7553.146189826273, -5373.515829267005, -17798.783516738837, -7590.495954811091, -22728.796032523638, 10581.874618753745, -20956.61562164016, -24937.59541959708, -13775.96125316158, -5561.538703625048, -9073.824772098635, -14654.56362421079, -0.328, 0.734, 0.5740000000000001, 192.0, 0.0, 0.0, 0.0, 0.0, 0.0, 0.0, 0.0, 0.0, 0.0, 1.6730444415796213E9, 0.0, 2023-01-06 17:34:01.579
52.0, -21070.542463128862, -26858.325524130527, -32054.457909400215, -20879.837379436183, -7520.803215599444, -5339.228253272564, -17787.317071833262, -7597.715568270156, -22706.35488109051, 10570.788153503914, -20931.581667850216, -24975.258109004273, -13756.135255829724, -5561.002261758121, -9057.016260268243, -14645.868795617676, -0.328, 0.734, 0.5740000000000001, 192.0, 0.0, 0.0, 0.0, 0.0, 0.0, 0.0, 0.0, 0.0, 0.0, 1.6730444415796266E9, 0.0, 2023-01-06 17:34:01.579
54.0, -21090.59197790527, -26879.98436450772, -32064.24797347164, -20897.00351917786, -7570.334681312404, -5382.25536134903, -17859.714372124003, -7614.099396955896, -22703.851485711515, 10566.18369414612, -20930.553487605273, -24931.69455906088, -13760.784418676427, -5577.00611078812, -9071.254321486274, -14659.816284157789, -0.328, 0.734, 0.5740000000000001, 192.0, 0.0, 0.0, 0.0, 0.0, 0.0, 0.0, 0.0, 0.0, 0.0, 1.673044441579632E9, 0.0, 2023-01-06 17:34:01.579
56.0, -21081.450114423053, -26872.31771615955, -32043.639665083847, -20880.642042236574, -7530.056837803941, -5367.994948386544, -17793.933188192033, -7612.892402755309, -22704.2091136228, 10544.636612491204, -20931.224039938934, -24981.628356174035, -13727.05563629337, -5582.348177712939, -9074.987062810309, -14655.010659099897, -0.328, 0.734, 0.5740000000000001, 192.0, 0.0, 0.0, 0.0, 0.0, 0.0, 0.0, 0.0, 0.0, 0.0, 1.6730444415796375E9, 0.0, 2023-01-06 17:34:01.579
58.0, -21097.208094264042, -26887.40514366688, -32061.789281581558, -20905.743051259884, -7538.394038485771, -5396.40401558924, -17839.7095608365, -7642.217891480672, -22707.316006102086, 10541.239147333998, -20938.868336542648, -24946.379655168017, -13759.778590175938, -5605.549288457548, -9056.993908523787, -14662.364383025693, -0.337, 0.73, 0.5780000000000001, 192.0, 122.5, 24.0, 11.0, 88.0, 9.0, 24.0, 0.0, 0.0, 0.0, 1.6730444415796432E9, 0.0, 2023-01-06 17:34:01.579
60.0, -21067.681439838583, -26862.259431154664, -32033.84960101242, -20873.400077033053, -7529.274526748005, -5367.413803030706, -17805.109060419687, -7626.191690706217, -22695.134305373944, 10533.147815841177, -20931.201688194476, -24984.824655631146, -13760.136218087224, -5615.227593806696, -9064.057059771665, -14663.973708626476, -0.337, 0.73, 0.5780000000000001, 192.0, 0.0, 0.0, 0.0, 0.0, 0.0, 0.0, 0.0, 0.0, 0.0, 1.6730444415796485E9, 0.0, 2023-01-06 17:34:01.579
62.0, -21096.626948908204, -26893.462466414272, -32070.461758430218, -20910.77219376233, -7571.295806323983, -5418.353428644351, -17841.117720737187, -7661.105115545406, -22681.566796489573, 10542.781417701413, -20922.015121223347, -24941.864602788046, -13751.843720894305, -5597.72617789819, -9061.397202181482, -14660.66565044709, -0.337, 0.73, 0.5780000000000001, 192.0, 0.0, 0.0, 0.0, 0.0, 0.0, 0.0, 0.0, 0.0, 0.0, 1.673044441579654E9, 0.0, 2023-01-06 17:34:01.579
64.0, -21077.717373099014, -26877.056285984076, -32044.511383117606, -20886.609958006142, -7535.912994851232, -5390.436099819673, -17789.52989453434, -7657.126505032362, -22683.667860468373, 10523.447158747573, -20930.419377138543, -24986.210463787374, -13729.491976438998, -5597.01092207562, -9066.51575166175, -14661.604423714212, -0.337, 0.73, 0.5780000000000001, 192.0, 0.0, 0.0, 0.0, 0.0, 0.0, 0.0, 0.0, 0.0, 0.0, 1.6730444415796595E9, 0.0, 2023-01-06 17:34:01.579
66.0, -21108.27220776942, -26903.967786308265, -32088.36550573892, -20919.42231886653, -7561.796314930477, -5412.698437297158, -17843.039970760343, -7642.620222880867, -22700.789296721137, 10518.440367989584, -20949.91009830357, -24964.79749259919, -13773.033174637936, -5621.597840976458, -9078.295120989695, -14672.109743608207, -0.337, 0.73, 0.5780000000000001, 192.0, 0.0, 0.0, 0.0, 0.0, 0.0, 0.0, 0.0, 0.0, 0.0, 1.673044441579665E9, 0.0, 2023-01-06 17:34:01.579
68.0, -21080.667803367116, -26882.979498264733, -32051.753348321123, -20884.486542282884, -7553.056782848452, -5390.167878886209, -17808.752394765903, -7628.337458173926, -22696.184837363344, 10516.920449366624, -20952.90523206058, -24986.210463787374, -13767.646404224206, -5597.904991853833, -9080.239722757307, -14666.56651098329, -0.3385, 0.737, 0.5820000000000001, 192.0, 122.5, 48.0, 11.5, 32.0, 9.0, 40.0, 0.0, 0.0, 0.0, 1.6730444415796704E9, 0.0, 2023-01-06 17:34:01.579
70.0, -21094.79410586287, -26900.99500429571, -32084.900985348344, -20915.063728697747, -7577.934274427209, -5418.442835622172, -17877.662822921615, -7624.269440683061, -22684.4054680354, 10521.502556979962, -20944.769197078847, -24964.529271665728, -13751.173168560645, -5590.975951072687, -9074.60708315457, -14657.692868434533, -0.3385, 0.737, 0.5820000000000001, 192.0, 0.0, 0.0, 0.0, 0.0, 0.0, 0.0, 0.0, 0.0, 0.0, 1.673044441579676E9, 0.0, 2023-01-06 17:34:01.579
72.0, -21053.756303042926, -26865.7910067786, -32041.71741506069, -20879.233882335888, -7511.415482928215, -5388.78207072998, -17744.7369986459, -7619.687333069723, -22692.943834417325, 10513.254763275954, -20950.4465401705, -24987.28334752123, -13754.235357551022, -5612.612439705425, -9090.387414740017, -14674.948415154031, -0.3385, 0.737, 0.5820000000000001, 192.0, 0.0, 0.0, 0.0, 0.0, 0.0, 0.0, 0.0, 0.0, 0.0, 1.6730444415796814E9, 0.0, 2023-01-06 17:34:01.579
74.0, -21054.113930954212, -26870.440169625304, -32054.25674370012, -20896.020042421824, -7541.590337942879, -5399.063873179421, -17810.67464478906, -7596.776795003033, -22658.276278767145, 10551.386839316707, -20911.867429240636, -24945.820861556633, -13733.247069507488, -5572.446354919238, -9049.617832853537, -14646.248775273416, -0.3385, 0.737, 0.5820000000000001, 192.0, 0.0, 0.0, 0.0, 0.0, 0.0, 0.0, 0.0, 0.0, 0.0, 1.6730444415796893E9, 0.0, 2023-01-06 17:34:01.579
76.0, -21047.40840761762, -26868.607326579968, -32037.53763884755, -20885.358260316643, -7525.295916234961, -5370.207771087619, -17786.937092177523, -7561.416335274736, -22681.09740985601, 10527.805748916358, -20936.90138303058, -24972.88882409201, -13741.740732400505, -5588.62901790488, -9076.37287096654, -14664.800723171322, -0.3385, 0.737, 0.5820000000000001, 192.0, 0.0, 0.0, 0.0, 0.0, 0.0, 0.0, 0.0, 0.0, 0.0, 1.6730444415796945E9, 0.0, 2023-01-06 17:34:01.579
78.0, -21042.334561626263, -26865.947468989787, -32045.941894762746, -20891.21441736393, -7526.569965668913, -5372.018262388499, -17796.32482484875, -7577.375480815826, -22666.3005550266, 10548.861092193258, -20919.399967122077, -24960.483605919315, -13731.101302039779, -5565.0702792489865, -9041.101818216064, -14630.043760543318, -0.33325000000000005, 0.7344999999999999, 0.5860000000000001, 192.0, 122.5, 96.0, 11.0, 112.0, 9.0, 56.0, 0.0, 0.0, 0.0, 1.6730444415797E9, 0.0, 2023-01-06 17:34:01.579
80.0, -21032.20922138801, -26859.21959390874, -32034.274284157073, -20877.825722435206, -7532.448474460659, -5366.832657674869, -17788.971100922954, -7585.980902431119, -22666.233499793234, 10547.810560203858, -20928.60888583766, -24957.17554773993, -13725.535717670407, -5568.646558361836, -9053.015298010743, -14644.125359550162, -0.33325000000000005, 0.7344999999999999, 0.5860000000000001, 192.0, 0.0, 0.0, 0.0, 0.0, 0.0, 0.0, 0.0, 0.0, 0.0, 1.6730444415797052E9, 0.0, 2023-01-06 17:34:01.579
82.0, -21034.44439583354, -26865.36632363395, -32046.903019774323, -20886.90053068406, -7551.179236314206, -5385.87634395079, -17803.9020662191, -7604.21992590665, -22652.10719729748, 10557.265348108453, -20916.47188859843, -24958.404893684972, -13722.831156591315, -5555.771953555579, -9029.747132032768, -14642.694847905022, -0.33325000000000005, 0.7344999999999999, 0.5860000000000001, 192.0, 0.0, 0.0, 0.0, 0.0, 0.0, 0.0, 0.0, 0.0, 0.0, 1.6730444415797126E9, 0.0, 2023-01-06 17:34:01.579
84.0, -21034.399692344632, -26873.74822780469, -32041.829173782968, -20876.104638112145, -7547.625308945812, -5388.0891666518655, -17823.638656573137, -7581.979940173619, -22675.062438853078, 10534.399513530674, -20935.80614755227, -24961.154158252975, -13777.570578762363, -5592.048834806542, -9061.576016137125, -14674.635490731656, -0.33325000000000005, 0.7344999999999999, 0.5860000000000001, 192.0, 0.0, 0.0, 0.0, 0.0, 0.0, 0.0, 0.0, 0.0, 0.0, 1.67304444157972E9, 0.0, 2023-01-06 17:34:01.579
86.0, -21009.2092763435, -26851.620000793937, -32021.936121217743, -20848.008495331826, -7507.369817181804, -5356.8637796478015, -17797.688281260525, -7560.16463758524, -22633.957580799768, 10558.159417886665, -20891.639100508582, -24950.9394110369, -13702.021682503426, -5551.055735475509, -9033.636335567991, -14631.027237299353, -0.33325000000000005, 0.7344999999999999, 0.5860000000000001, 192.0, 0.0, 0.0, 0.0, 0.0, 0.0, 0.0, 0.0, 0.0, 0.0, 1.673044441579728E9, 0.0, 2023-01-06 17:34:01.579
88.0, -21027.850631219226, -26872.60828883747, -32030.00510096611, -20853.97641110139, -7519.663276632224, -5391.866611464812, -17775.60475773868, -7596.150946158284, -22655.661124665872, 10551.27508059443, -20912.18035366301, -24934.041492228687, -13742.992430090002, -5559.057659990509, -9043.806379295156, -14650.763827653389, -0.32762500000000006, 0.74025, 0.591, 192.0, 122.5, 120.0, 11.5, 40.0, 9.0, 80.0, 0.0, 0.0, 0.0, 1.6730444415797355E9, 0.0, 2023-01-06 17:34:01.579
90.0, -21010.796250199826, -26857.923192730334, -32018.650414782813, -20840.3194952392, -7515.7964248414555, -5371.817096688402, -17788.009975911376, -7624.358847660881, -22635.1422232559, 10565.42373483464, -20888.867484196126, -24950.31356219215, -13715.723301854528, -5530.782703254546, -9021.544041817671, -14632.413045455582, -0.32762500000000006, 0.74025, 0.591, 192.0, 0.0, 0.0, 0.0, 0.0, 0.0, 0.0, 0.0, 0.0, 0.0, 1.673044441579743E9, 0.0, 2023-01-06 17:34:01.579
92.0, -21032.768014999394, -26879.626736596434, -32030.921522488778, -20848.388474987565, -7521.809044099933, -5379.72961422558, -17792.368566080164, -7571.005233646064, -22657.382208988933, 10554.314917840353, -20913.633217052608, -24935.94139050739, -13740.421979477642, -5559.661157090803, -9054.222292211329, -14668.399354028626, -0.32762500000000006, 0.74025, 0.591, 192.0, 0.0, 0.0, 0.0, 0.0, 0.0, 0.0, 0.0, 0.0, 0.0, 1.6730444415797496E9, 0.0, 2023-01-06 17:34:01.579
94.0, -21001.274407061865, -26848.893087970388, -31997.595071505915, -20819.0629862622, -7495.746910065045, -5342.491607963038, -17767.75929543487, -7520.065608032419, -22632.124737754435, 10569.603511047782, -20887.70519348445, -24953.867489560544, -13726.832118848815, -5531.766180010579, -9020.381751105995, -14599.243056683907, -0.32762500000000006, 0.74025, 0.591, 192.0, 0.0, 0.0, 0.0, 0.0, 0.0, 0.0, 0.0, 0.0, 0.0, 1.6730444415797575E9, 0.0, 2023-01-06 17:34:01.579
96.0, -20996.938168637535, -26846.8367274805, -31992.007135392087, -20827.087262521658, -7485.018072726497, -5348.124247565776, -17753.23066153892, -7537.477616963103, -22621.462955649255, 10575.504371583984, -20878.2280538354, -24909.387518094485, -13720.126595512224, -5538.918738236277, -9024.315658130128, -14607.736719576922, -0.32762500000000006, 0.74025, 0.591, 192.0, 0.0, 0.0, 0.0, 0.0, 0.0, 0.0, 0.0, 0.0, 0.0, 1.6730444415797646E9, 0.0, 2023-01-06 17:34:01.579
98.0, -20994.971215125468, -26843.752186745667, -31990.24134758012, -20828.49542242234, -7480.324206390883, -5336.926023593667, -17765.70293494498, -7546.507721723047, -22617.99843525868, 10572.084554682322, -20869.533225242285, -24947.676056346423, -13699.562990613342, -5543.366735382883, -9005.249620109751, -14606.641484098613, -0.31881250000000005, 0.7401249999999999, 0.5905, 192.0, 123.0, 40.0, 11.5, 16.0, 9.0, 56.0, 0.0, 0.0, 0.0, 1.67304444157977E9, 0.0, 2023-01-06 17:34:01.579
100.0, -21016.942979925036, -26861.49947184318, -32011.341394345927, -20840.90064059504, -7472.791668509444, -5358.651919204226, -17795.318996348262, -7568.680652222712, -22634.561077900064, 10568.66473778066, -20880.396173047564, -24911.421526839917, -13724.753406614473, -5548.798209285523, -9017.923059215911, -14624.142900007118, -0.31881250000000005, 0.7401249999999999, 0.5905, 192.0, 0.0, 0.0, 0.0, 0.0, 0.0, 0.0, 0.0, 0.0, 0.0, 1.6730444415797756E9, 0.0, 2023-01-06 17:34:01.579
102.0, -21019.580485770763, -26863.689942799803, -32014.694156014226, -20837.45847194892, -7501.5360118789695, -5361.848218661335, -17786.624167755148, -7563.2268265756165, -22646.519261183654, 10545.530682269417, -20891.03560340829, -24955.856794817068, -13724.95457231457, -5545.579558083959, -9015.687884770381, -14621.259524972384, -0.31881250000000005, 0.7401249999999999, 0.5905, 192.0, 0.0, 0.0, 0.0, 0.0, 0.0, 0.0, 0.0, 0.0, 0.0, 1.673044441579781E9, 0.0, 2023-01-06 17:34:01.579
104.0, -21024.564924784296, -26868.45086436878, -32021.980824706654, -20837.681989393473, -7494.986950753564, -5358.562512226405, -17818.743624537423, -7598.207306648173, -22652.800101375593, 10555.499560296485, -20903.150248903068, -24921.41275661144, -13731.704799140072, -5547.814732529489, -9020.202937150352, -14634.961144323486, -0.31881250000000005, 0.7401249999999999, 0.5905, 192.0, 0.0, 0.0, 0.0, 0.0, 0.0, 0.0, 0.0, 0.0, 0.0, 1.6730444415797863E9, 0.0, 2023-01-06 17:34:01.579
106.0, -21007.1082123647, -26854.972762462232, -32000.56785351847, -20812.78214607026, -7486.716805305101, -5347.878378376768, -17791.094516646208, -7568.59124524489, -22637.95854305727, 10565.021403434444, -20879.837379436183, -24943.36216966655, -13726.474490937531, -5527.988735197632, -9013.07273066911, -14606.753242820889, -0.31881250000000005, 0.7401249999999999, 0.5905, 192.0, 0.0, 0.0, 0.0, 0.0, 0.0, 0.0, 0.0, 0.0, 0.0, 1.6730444415797937E9, 0.0, 2023-01-06 17:34:01.579
108.0, -21019.401671815118, -26869.434341124816, -32009.9555861897, -20829.03186428927, -7495.188116453662, -5365.804477429924, -17793.66496725857, -7569.217094089639, -22645.692246638806, 10565.42373483464, -20884.84417019417, -24917.79177400968, -13743.48416846802, -5535.8565492459, -9011.64221902397, -14599.667739828557, -0.31040625, 0.7380625, 0.5882499999999999, 192.0, 123.0, 72.0, 11.5, 0.0, 9.0, 40.0, 0.0, 0.0, 0.0, 1.6730444415797992E9, 0.0, 2023-01-06 17:34:01.579
110.0, -20999.77684018336, -26851.441186838292, -31994.443475537715, -20809.921122779982, -7500.1278519782845, -5349.15242781072, -17810.76405176688, -7553.772038671022, -22641.110139025466, 10566.85424647978, -20883.681879482494, -24956.88497506201, -13712.169374486135, -5515.359999580383, -9000.622809007504, -14596.247922926894, -0.31040625, 0.7380625, 0.5882499999999999, 192.0, 0.0, 0.0, 0.0, 0.0, 0.0, 0.0, 0.0, 0.0, 0.0, 1.6730444415798044E9, 0.0, 2023-01-06 17:34:01.579
112.0, -21015.82539270227, -26867.55679459057, -32013.800086236013, -20836.430291703975, -7510.387302683271, -5365.49155300755, -17795.76603123737, -7607.572687574946, -22634.203449988778, 10578.834781507825, -20879.211530591434, -24922.77621302321, -13723.836985091804, -5530.827406743456, -9009.474099811805, -14601.701748573989, -0.31040625, 0.7380625, 0.5882499999999999, 192.0, 0.0, 0.0, 0.0, 0.0, 0.0, 0.0, 0.0, 0.0, 0.0, 1.67304444157981E9, 0.0, 2023-01-06 17:34:01.579
114.0, -21010.48332577745, -26860.918326487343, -32009.642661767324, -20826.88609682156, -7500.8207560564, -5344.592671941838, -17805.734909264436, -7589.244257121594, -22646.787482117117, 10569.357641858775, -20893.33783308719, -24956.527347150728, -13736.175148031134, -5526.401761341305, -9011.239887623775, -14612.98937952392, -0.31040625, 0.7380625, 0.5882499999999999, 192.0, 0.0, 0.0, 0.0, 0.0, 0.0, 0.0, 0.0, 0.0, 0.0, 1.6730444415798156E9, 0.0, 2023-01-06 17:34:01.579
116.0, -21022.21799161649, -26870.08254171402, -32027.166429420286, -20849.75193139934, -7512.778939339989, -5373.247608333541, -17804.70672901949, -7617.340399901915, -22640.99838030319, 10578.454801852084, -20895.818876721725, -24934.13089920651, -13751.843720894305, -5518.869223459867, -9017.744245260268, -14610.061301000274, -0.31040625, 0.7380625, 0.5882499999999999, 192.0, 0.0, 0.0, 0.0, 0.0, 0.0, 0.0, 0.0, 0.0, 0.0, 1.6730444415798209E9, 0.0, 2023-01-06 17:34:01.579
118.0, -21000.983834383947, -26850.480061826715, -31992.968260403668, -20828.69658812244, -7474.333938876861, -5328.119436278276, -17792.212103868977, -7592.909943212265, -22639.031426791124, 10567.681261024627, -20898.881065712103, -24964.79749259919, -13728.061464793858, -5527.675810775258, -9013.296248113662, -14618.756129593388, -0.299203125, 0.72503125, 0.578125, 192.0, 123.5, 0.0, 11.0, 32.0, 8.5, 96.0, 0.0, 0.0, 0.0, 1.6730444415798264E9, 0.0, 2023-01-06 17:34:01.579
120.0, -21010.237456588442, -26860.51599508715, -32005.082905898442, -20843.69460865195, -7464.85679922781, -5364.709241951614, -17812.82041225677, -7683.635673956356, -22619.741871326194, 10580.66762455316, -20878.183350346488, -24930.755785793757, -13726.072159537336, -5509.414435555272, -8993.872582182, -14601.03119624033, -0.299203125, 0.72503125, 0.578125, 192.0, 0.0, 0.0, 0.0, 0.0, 0.0, 0.0, 0.0, 0.0, 0.0, 1.6730444415798318E9, 0.0, 2023-01-06 17:34:01.579
122.0, -21006.214142586487, -26859.59957356448, -31992.27535632555, -20817.25249496132, -7484.928665748676, -5331.114570035287, -17809.445298844017, -7581.443498306692, -22632.169441243346, 10568.865903480757, -20893.427240065008, -24953.241640715798, -13721.71356936855, -5528.547528809015, -9017.990114449276, -14613.27995220184, -0.299203125, 0.72503125, 0.578125, 192.0, 0.0, 0.0, 0.0, 0.0, 0.0, 0.0, 0.0, 0.0, 0.0, 1.673044441579838E9, 0.0, 2023-01-06 17:34:01.579
124.0, -21019.804003215315, -26875.581070850025, -31999.13734187333, -20819.331207195664, -7493.131755963774, -5357.467276748094, -17816.083766947242, -7627.041056995518, -22625.754490584673, 10577.717194285058, -20877.26692882382, -24930.487564860294, -13712.66111286415, -5528.659287531292, -8999.192297362364, -14582.993338464898, -0.299203125, 0.72503125, 0.578125, 192.0, 0.0, 0.0, 0.0, 0.0, 0.0, 0.0, 0.0, 0.0, 0.0, 1.6730444415798435E9, 0.0, 2023-01-06 17:34:01.579
126.0, -21022.39680557213, -26883.024201753644, -31978.730199185637, -20801.44981163142, -7509.403825927237, -5379.796669458946, -17825.449147874016, -7626.191690706217, -22652.28601125312, 10555.700725996581, -20887.906359184548, -24951.36409418155, -13741.047828322391, -5530.447427087716, -9023.846271496568, -14608.116699232663, -0.299203125, 0.72503125, 0.578125, 192.0, 0.0, 0.0, 0.0, 0.0, 0.0, 0.0, 0.0, 0.0, 0.0, 1.6730444415798488E9, 0.0, 2023-01-06 17:34:01.579
128.0, -21004.895389663627, -26867.13211144592, -31963.061626322466, -20792.062078960193, -7482.492325603048, -5360.574169227382, -17786.311243332773, -7649.884539828842, -22624.905124295372, 10586.0990984558, -20851.204794788933, -24929.727605548815, -13708.548391884375, -5496.293961560007, -8990.855096680534, -14579.037079696309, -0.299203125, 0.72503125, 0.578125, 192.0, 0.0, 0.0, 0.0, 0.0, 0.0, 0.0, 0.0, 0.0, 0.0, 1.6730444415798545E9, 0.0, 2023-01-06 17:34:01.579
130.0, -20985.449371987506, -26847.641390280893, -31947.482460437117, -20770.246776371812, -7470.28827313045, -5334.646145659226, -17778.62224324015, -7612.020684721552, -22623.1393364834, 10583.305130398885, -20856.859786136127, -24931.89572476098, -13711.744691341484, -5510.37556056685, -8992.73264321478, -14587.486039100415, -0.304, 0.748, 0.56, 192.0, 123.0, 64.0, 11.5, 48.0, 8.5, 64.0, 0.0, 0.0, 0.0, 1.6730444415798597E9, 0.0, 2023-01-06 17:34:01.579
132.0, -20957.085008273723, -26817.801811433055, -31941.31337896745, -20754.73466571983, -7440.024011137964, -5322.576203653361, -17765.837045411714, -7604.957533473675, -22579.285213862087, 10631.495491444528, -20819.68883510695, -24906.392384337472, -13696.009063244946, -5452.037507538499, -8955.494636952239, -14536.16643383103, -0.304, 0.748, 0.56, 192.0, 0.0, 0.0, 0.0, 0.0, 0.0, 0.0, 0.0, 0.0, 0.0, 1.6730444415798652E9, 0.0, 2023-01-06 17:34:01.579
134.0, -20944.635086612117, -26807.095325838964, -31935.479573664616, -20745.190470837413, -7415.906478870688, -5302.124357476754, -17754.281193528317, -7599.861335737865, -22583.219120886224, 10623.113587273787, -20832.921067824493, -24907.889951215977, -13674.484333334487, -5456.530208174016, -8970.783230159668, -14553.220814850429, -0.304, 0.748, 0.56, 192.0, 0.0, 0.0, 0.0, 0.0, 0.0, 0.0, 0.0, 0.0, 0.0, 1.6730444415798707E9, 0.0, 2023-01-06 17:34:01.579
136.0, -20923.95972299096, -26788.275157007596, -31917.30760542245, -20728.024331095738, -7429.18341507714, -5299.084520230833, -17751.107245815667, -7589.668940266245, -22535.632256940873, 10651.29913703193, -20791.615044071084, -24901.49735230176, -13636.195795082545, -5433.865539296334, -8924.403360414906, -14507.355035228138, -0.304, 0.748, 0.56, 192.0, 0.0, 0.0, 0.0, 0.0, 0.0, 0.0, 0.0, 0.0, 0.0, 1.6730444415798764E9, 0.0, 2023-01-06 17:34:01.579
138.0, -20948.81486282526, -26813.01853811962, -31936.865381820844, -20748.58793599462, -7445.164912362685, -5335.763732881991, -17777.61641473966, -7625.387027905826, -22564.957745666237, 10634.781197879458, -20811.463393147398, -24879.771456691204, -13667.532940808886, -5468.667205413247, -8953.48297995126, -14543.140178101085, -0.304, 0.748, 0.56, 192.0, 0.0, 0.0, 0.0, 0.0, 0.0, 0.0, 0.0, 0.0, 0.0, 1.673044441579883E9, 0.0, 2023-01-06 17:34:01.579
140.0, -20958.761389107873, -26820.34991030096, -31937.781803343514, -20745.324581304143, -7442.125075116763, -5352.616948201293, -17789.08285964523, -7612.668885310756, -22570.94801318026, 10632.210747267098, -20810.0105297578, -24885.20293059384, -13672.740897266973, -5445.331984201906, -8960.367317243496, -14547.16349210304, -0.304, 0.768, 0.526, 192.0, 123.0, 64.0, 12.0, 0.0, 8.0, 56.0, 0.0, 0.0, 0.0, 1.6730444415798883E9, 0.0, 2023-01-06 17:34:01.579
142.0, -20989.71855517847, -26852.581125805515, -31956.154937285777, -20760.657878000486, -7477.887866245254, -5377.1144601243095, -17814.76501402438, -7658.311147488493, -22600.206446672255, 10605.0533777539, -20836.944381826448, -24873.781189177178, -13720.104243767768, -5477.1385165618085, -8988.642273979458, -14569.895216214087, -0.304, 0.768, 0.526, 192.0, 0.0, 0.0, 0.0, 0.0, 0.0, 0.0, 0.0, 0.0, 0.0, 1.673044441579894E9, 0.0, 2023-01-06 17:34:01.579
144.0, -20990.612624956684, -26852.424663594327, -31964.827414134434, -20757.148654121, -7480.994758724542, -5380.355463070329, -17819.19065942653, -7659.004051566608, -22610.063565977045, 10597.073804983354, -20842.68878015146, -24898.16694237792, -13698.355996412754, -5477.362034006362, -8994.990169404766, -14571.370431348138, -0.304, 0.768, 0.526, 192.0, 0.0, 0.0, 0.0, 0.0, 0.0, 0.0, 0.0, 0.0, 0.0, 1.6730444415798993E9, 0.0, 2023-01-06 17:34:01.579
146.0, -21004.023671629868, -26865.36632363395, -31977.679667196237, -20765.038819913723, -7474.7139185326005, -5384.870515450301, -17823.10221470621, -7678.494772731635, -22615.919723024337, 10589.675377568648, -20855.339867513165, -24878.49740725725, -13725.2898484814, -5505.592287253415, -9015.062035925632, -14583.373318120637, -0.304, 0.768, 0.526, 192.0, 0.0, 0.0, 0.0, 0.0, 0.0, 0.0, 0.0, 0.0, 0.0, 1.6730444415799048E9, 0.0, 2023-01-06 17:34:01.579
148.0, -20989.852665645205, -26846.188526891296, -31964.335675756418, -20744.229345825835, -7464.365060849794, -5378.723785725091, -17806.38310985364, -7675.90197037482, -22618.177249214325, 10588.826011279347, -20859.005553603834, -24899.999785423253, -13719.187822245101, -5497.411548782772, -9000.220477607309, -14566.542454545792, -0.304, 0.768, 0.526, 192.0, 0.0, 0.0, 0.0, 0.0, 0.0, 0.0, 0.0, 0.0, 0.0, 1.6730444415799105E9, 0.0, 2023-01-06 17:34:01.579
150.0, -20994.032441858344, -26849.16130890385, -31978.350219529897, -20755.695790731406, -7499.792575811455, -5404.562402315427, -17830.67945607656, -7704.109871877417, -22619.451298648277, 10591.932903758634, -20864.772303673304, -24867.992087363255, -13719.791319345393, -5516.924621692255, -8995.548963016148, -14568.174131891028, -0.292, 0.8, 0.47000000000000003, 192.0, 123.0, 112.0, 12.5, 0.0, 7.0, 88.0, 0.0, 0.0, 0.0, 1.673044441579917E9, 0.0, 2023-01-06 17:34:01.579
152.0, -20978.00624108389, -26833.850363951966, -31983.781693432535, -20746.419816782454, -7472.255226642517, -5395.264076622018, -17825.225630429464, -7698.544287508045, -22606.733156053204, 10594.52570611545, -20856.300992524742, -24885.717020716314, -13712.683464608606, -5492.605923724881, -8988.105832112531, -14560.395724820582, -0.292, 0.8, 0.47000000000000003, 192.0, 0.0, 0.0, 0.0, 0.0, 0.0, 0.0, 0.0, 0.0, 0.0, 1.6730444415799234E9, 0.0, 2023-01-06 17:34:01.579
154.0, -20989.785610411836, -26847.864907725445, -32012.079001912953, -20766.849311214606, -7505.6487328587455, -5425.416579892228, -17871.76196238541, -7746.488779364679, -22612.03051948911, 10590.033005479932, -20868.303879297244, -24860.660715181915, -13725.80393860387, -5500.607848239881, -9012.603344035548, -14586.681376300023, -0.292, 0.8, 0.47000000000000003, 192.0, 0.0, 0.0, 0.0, 0.0, 0.0, 0.0, 0.0, 0.0, 0.0, 1.6730444415799289E9, 0.0, 2023-01-06 17:34:01.579
156.0, -20984.175322553554, -26845.11564315744, -32010.514379801083, -20755.82990119814, -7489.600180339835, -5426.869443281823, -17861.122532024685, -7748.522788110112, -22609.840048532493, 10587.507258356483, -20866.001649618345, -24882.855997426035, -13720.350112956778, -5494.170545836752, -9008.535326544683, -14581.629882053125, -0.292, 0.8, 0.47000000000000003, 192.0, 0.0, 0.0, 0.0, 0.0, 0.0, 0.0, 0.0, 0.0, 0.0, 1.6730444415799344E9, 0.0, 2023-01-06 17:34:01.579
158.0, -20992.177247068554, -26852.715236272245, -32025.020661952578, -20771.185549638933, -7509.739102094067, -5439.833455065901, -17889.352785271738, -7787.1018990399725, -22612.67872007832, 10582.679281554138, -20870.807274676237, -24859.766645403703, -13722.76410135795, -5505.011141897577, -9019.800605750157, -14596.806716538278, -0.292, 0.8, 0.47000000000000003, 192.0, 0.0, 0.0, 0.0, 0.0, 0.0, 0.0, 0.0, 0.0, 0.0, 1.67304444157994E9, 0.0, 2023-01-06 17:34:01.579
160.0, -20983.54947370881, -26837.292532598083, -32017.935158960245, -20752.00775289628, -7477.418479611693, -5445.689612113191, -17879.272148522396, -7801.921105613841, -22612.209333444756, 10575.392612861708, -20871.52253049881, -24880.21849158031, -13729.313162483355, -5521.417322327772, -9028.69660004337, -14598.483097372426, -0.28200000000000003, 0.838, 0.396, 192.0, 123.5, 24.0, 13.0, 24.0, 6.0, 48.0, 0.0, 0.0, 0.0, 1.6730444420598893E9, 0.0, 2023-01-06 17:34:02.059
162.0, -21011.600913000217, -26842.45578556726, -32040.24219992664, -20770.716163005374, -7504.799366569444, -5475.193914794197, -17921.248724609464, -7860.817952253575, -22611.538781111096, 10575.906702984179, -20873.84711192216, -24853.217584278296, -13737.42684572063, -5535.297755634518, -9038.844292026079, -14611.782385323333, -0.28200000000000003, 0.838, 0.396, 192.0, 0.0, 0.0, 0.0, 0.0, 0.0, 0.0, 0.0, 0.0, 0.0, 1.6730444420599027E9, 0.0, 2023-01-06 17:34:02.059
164.0, -21028.29766610833, -26829.46942203873, -32039.415185381793, -20771.297308361212, -7524.91593657922, -5451.79163834949, -17937.721960273026, -7856.615824295977, -22623.921647539337, 10550.671583494137, -20896.958815688948, -24883.951232904343, -13747.082799325324, -5544.216101672185, -9060.056097514165, -14630.714312876979, -0.28200000000000003, 0.838, 0.396, 192.0, 0.0, 0.0, 0.0, 0.0, 0.0, 0.0, 0.0, 0.0, 0.0, 1.67304444205991E9, 0.0, 2023-01-06 17:34:02.059
166.0, -21035.673741778584, -26824.194410347274, -32053.72030183319, -20785.088334690136, -7526.458206946637, -5439.945213788177, -17954.64223082569, -7895.261990459203, -22628.391996430397, 10542.177920601122, -20907.88881872759, -24860.705418670826, -13748.513310970464, -5544.1713981832745, -9058.536178891203, -14620.119586005163, -0.28200000000000003, 0.838, 0.396, 192.0, 0.0, 0.0, 0.0, 0.0, 0.0, 0.0, 0.0, 0.0, 0.0, 1.6730444420599177E9, 0.0, 2023-01-06 17:34:02.059
168.0, -21027.627113774673, -26806.78240141659, -32041.650359827327, -20775.74530550782, -7524.468901690114, -5443.588548134393, -17946.081512699307, -7963.323052325613, -22618.356063169966, 10556.930071941624, -20906.145382660077, -24867.88032864098, -13734.588174174807, -5530.693296276724, -9057.642109112992, -14619.31492320477, -0.28200000000000003, 0.838, 0.396, 192.0, 0.0, 0.0, 0.0, 0.0, 0.0, 0.0, 0.0, 0.0, 0.0, 1.6730444420599253E9, 0.0, 2023-01-06 17:34:02.059
170.0, -21037.864212735203, -26806.22360780521, -32041.04686272703, -20790.54216033723, -7528.91689883672, -5449.377649948317, -17974.155303735173, -7999.599933576576, -22619.116022481445, 10555.521912040938, -20913.99084496389, -24859.72194191479, -13718.271400722433, -5542.316203393484, -9049.282556686707, -14636.816339113277, -0.28800000000000003, 0.866, 0.322, 192.0, 123.5, 0.0, 13.5, 8.0, 5.0, 8.0, 0.0, 0.0, 0.0, 1.6730444420599437E9, 0.0, 2023-01-06 17:34:02.059
172.0, -21033.036235932857, -26799.674546679802, -32030.742708533136, -20773.890110718028, -7516.556384152936, -5429.21637644963, -17972.88125430122, -7994.347273629579, -22619.25013294818, 10560.551054543383, -20904.111373914646, -24860.660715181915, -13717.71260711105, -5529.531005565048, -9038.88899551499, -14613.324655690749, -0.28800000000000003, 0.866, 0.322, 192.0, 0.0, 0.0, 0.0, 0.0, 0.0, 0.0, 0.0, 0.0, 0.0, 1.6730444420599513E9, 0.0, 2023-01-06 17:34:02.059
174.0, -21039.741759269447, -26809.55401772905, -32039.39283363734, -20779.321584620666, -7519.238593487572, -5415.984143732088, -17998.071670302354, -8032.814625837163, -22617.596103858486, 10563.769705744948, -20901.831495980205, -24852.569383689093, -13734.588174174807, -5541.62329931537, -9037.12320770302, -14594.616245581657, -0.28800000000000003, 0.866, 0.322, 192.0, 0.0, 0.0, 0.0, 0.0, 0.0, 0.0, 0.0, 0.0, 0.0, 1.6730444420599585E9, 0.0, 2023-01-06 17:34:02.059
176.0, -21055.812663532815, -26832.241038351185, -32049.272304686583, -20780.148599165514, -7526.122930779807, -5432.569138117926, -18033.56624049738, -8078.255722314802, -22627.877906307927, 10545.642440991693, -20917.634179310106, -24866.963907118312, -13738.410322476664, -5559.504694879615, -9051.629489854515, -14612.810565568278, -0.28800000000000003, 0.866, 0.322, 192.0, 0.0, 0.0, 0.0, 0.0, 0.0, 0.0, 0.0, 0.0, 0.0, 1.673044442059966E9, 0.0, 2023-01-06 17:34:02.059
178.0, -21070.475407895497, -26851.50824207166, -32068.472453173694, -20791.615044071084, -7521.652581888746, -5430.31161192794, -17971.495446144992, -8042.582338164132, -22630.13543249791, 10541.730885712015, -20936.05201674128, -24863.63349719447, -13744.937031857615, -5546.42892437326, -9059.296138202684, -14605.278027686838, -0.28800000000000003, 0.866, 0.322, 192.0, 0.0, 0.0, 0.0, 0.0, 0.0, 0.0, 0.0, 0.0, 0.0, 1.6730444420599737E9, 0.0, 2023-01-06 17:34:02.059
180.0, -21106.305254257353, -26891.56256813557, -32104.436410002283, -20821.32051245219, -7565.350242298871, -5470.947083347689, -18037.790720199435, -8128.591850828154, -22662.590165447018, 10501.296579992364, -20968.372639223653, -24866.941555373854, -13792.233323125045, -5588.338445226961, -9073.713013376357, -14636.99515306892, -0.25, 0.926, 0.316, 192.0, 124.0, 24.0, 14.0, 120.0, 4.5, 112.0, 0.0, 0.0, 0.0, 1.673044442059981E9, 0.0, 2023-01-06 17:34:02.059
182.0, -21092.290710483874, -26880.677268585834, -32100.390744255874, -20820.962884540902, -7581.063518650952, -5497.947990649699, -18042.23871734604, -8147.680240592986, -22668.423970749853, 10498.949646824556, -20978.76620039537, -24873.06593335461, -13806.001997709513, -5581.744680612645, -9104.22314455785, -14663.660784204101, -0.25, 0.926, 0.316, 192.0, 0.0, 0.0, 0.0, 0.0, 0.0, 0.0, 0.0, 0.0, 0.0, 1.6730444420599885E9, 0.0, 2023-01-06 17:34:02.059
184.0, -21102.974844333512, -26893.015431525164, -32120.30614856555, -20839.738349883362, -7593.558143801469, -5509.392083810817, -18052.85579596231, -8136.996106743349, -22658.812720634072, 10495.373367711707, -20975.92752884955, -24859.54312795915, -13793.060337669891, -5607.404483247338, -9110.503984749792, -14684.29144433635, -0.25, 0.926, 0.316, 192.0, 0.0, 0.0, 0.0, 0.0, 0.0, 0.0, 0.0, 0.0, 0.0, 1.6730444420599961E9, 0.0, 2023-01-06 17:34:02.059
186.0, -21120.342149775286, -26911.321510234062, -32156.337160627507, -20863.65471645054, -7608.802033519988, -5504.586458752926, -18079.655537564224, -8119.941725723949, -22679.421029021865, 10481.157658238133, -20995.842933159227, -24880.173788091397, -13821.469404872585, -5635.0982946274635, -9134.375647828061, -14686.101935637229, -0.25, 0.926, 0.316, 192.0, 0.0, 0.0, 0.0, 0.0, 0.0, 0.0, 0.0, 0.0, 0.0, 1.6730444420600035E9, 0.0, 2023-01-06 17:34:02.060
188.0, -21169.180711410132, -26959.221298601784, -32205.019260051165, -20906.100679171166, -7617.385103390826, -5540.393953370328, -18127.39886372076, -8175.798735117762, -22715.988482950746, 10451.765114279404, -21041.30638138132, -24876.97748863429, -13874.890074120769, -5688.742481320201, -9174.407622147515, -14730.693665825567, -0.25, 0.926, 0.316, 192.0, 0.0, 0.0, 0.0, 0.0, 0.0, 0.0, 0.0, 0.0, 0.0, 1.6730444420600128E9, 0.0, 2023-01-06 17:34:02.060
190.0, -21236.034779075955, -27021.470906909813, -32271.42629282788, -20968.193825268012, -7753.551930612556, -5614.11000658393, -18213.967169996165, -8239.791779493306, -22768.425675442897, 10425.323000588776, -21088.334451715287, -24882.855997426035, -13929.405978847264, -5717.129196778441, -9212.807919121733, -14770.658584911656, -0.184, 0.93, 0.306, 192.0, 125.0, 32.0, 14.5, 8.0, 4.5, 72.0, 0.0, 0.0, 0.0, 1.6730444420600207E9, 0.0, 2023-01-06 17:34:02.060
192.0, -21326.9840272646, -27108.083916674128, -32359.02277934823, -21043.854480249225, -7805.49738472669, -5698.800766325088, -18297.585046003467, -8320.213356043501, -22858.72672304234, 10356.636089877617, -21179.775438281948, -24876.508102000727, -14033.408645797808, -5803.205764675828, -9312.27318194785, -14851.393085884225, -0.184, 0.93, 0.306, 192.0, 0.0, 0.0, 0.0, 0.0, 0.0, 0.0, 0.0, 0.0, 0.0, 1.6730444420600283E9, 0.0, 2023-01-06 17:34:02.060
194.0, -21362.27743175953, -27135.37539665406, -32385.442541294404, -21069.916614284113, -7850.245577126215, -5738.2292435442505, -18338.041703467574, -8347.08015287878, -22915.29898825872, 10296.286379848289, -21236.995904087533, -24931.873373016522, -14100.59798963046, -5853.385430977993, -9355.210883046495, -14895.716595139098, -0.184, 0.93, 0.306, 192.0, 0.0, 0.0, 0.0, 0.0, 0.0, 0.0, 0.0, 0.0, 0.0, 1.673044442060036E9, 0.0, 2023-01-06 17:34:02.060
196.0, -21379.890606390312, -27146.55126888171, -32384.660230238467, -21072.062381751824, -7862.1814086653485, -5751.908511150898, -18349.351686161957, -8372.136458413179, -22945.317381062196, 10263.69753643245, -21264.73441895657, -24930.442861371383, -14097.491097151173, -5899.117100133551, -9395.309912599316, -14934.72038921361, -0.184, 0.93, 0.306, 192.0, 0.0, 0.0, 0.0, 0.0, 0.0, 0.0, 0.0, 0.0, 0.0, 1.6730444420600436E9, 0.0, 2023-01-06 17:34:02.060
198.0, -21304.028785709, -27070.287116800206, -32295.230900672785, -20988.131581322144, -7771.522733154623, -5683.355710906471, -18270.33826951245, -8307.316399492789, -22898.490476428327, 10289.93848442298, -21212.72190960907, -24963.232870487318, -14063.091762434455, -5838.700334870856, -9335.742513625923, -14883.087859521851, -0.184, 0.93, 0.306, 192.0, 0.0, 0.0, 0.0, 0.0, 0.0, 0.0, 0.0, 0.0, 0.0, 1.6730444420600514E9, 0.0, 2023-01-06 17:34:02.060
200.0, -21239.096968066333, -27011.457325393836, -32230.8578766415, -20923.937371246502, -7712.827052214987, -5610.533727471081, -18201.785469268023, -8257.628471568642, -22830.94350468439, 10347.136598484112, -21152.930993191123, -24911.041547184177, -14005.91600011778, -5773.120316638985, -9282.947693222486, -14834.338704864826, -0.179, 0.9550000000000001, 0.304, 192.0, 125.0, 72.0, 15.0, 80.0, 4.5, 56.0, 0.0, 0.0, 0.0, 1.6730444420600593E9, 0.0, 2023-01-06 17:34:02.060
202.0, -21174.500426590494, -26950.72763570877, -32164.674361309335, -20859.720809426406, -7638.820426323466, -5531.900290477311, -18123.777881119, -8189.746223657874, -22749.98548626727, 10418.550422018818, -21073.001155018945, -24891.59552950806, -13907.903600681258, -5690.396510409893, -9186.477564153382, -14748.418599178625, -0.179, 0.9550000000000001, 0.304, 192.0, 0.0, 0.0, 0.0, 0.0, 0.0, 0.0, 0.0, 0.0, 0.0, 1.673044442060069E9, 0.0, 2023-01-06 17:34:02.060
204.0, -21149.108844889266, -26927.95120810881, -32155.219573404742, -20843.94047784096, -7617.161585946273, -5521.014990927576, -18110.38918619027, -8186.013482333838, -22720.436480097353, 10452.122742190688, -21048.92832624058, -24843.852203351522, -13883.830771902893, -5678.639492826402, -9157.688517294946, -14721.82002327681, -0.179, 0.9550000000000001, 0.304, 192.0, 0.0, 0.0, 0.0, 0.0, 0.0, 0.0, 0.0, 0.0, 0.0, 1.6730444420600767E9, 0.0, 2023-01-06 17:34:02.060
206.0, -21082.902977812646, -26866.193338178797, -32109.376145526905, -20793.58199758315, -7545.859521133843, -5462.207551265664, -18045.636182503247, -8130.156472940025, -22671.888491140428, 10490.41128044263, -21008.1587443541, -24849.86482261, -13840.490739404053, -5607.695055925257, -9116.985990641831, -14677.697679722034, -0.179, 0.9550000000000001, 0.304, 192.0, 0.0, 0.0, 0.0, 0.0, 0.0, 0.0, 0.0, 0.0, 0.0, 1.6730444420600846E9, 0.0, 2023-01-06 17:34:02.060
208.0, -21058.53957635636, -26844.243925123683, -32104.883444891388, -20787.189398668936, -7523.6642388897235, -5424.254289180552, -18028.782967183946, -8120.32170537969, -22628.86138306396, 10538.668696721637, -20971.032496813834, -24791.52676958165, -13824.084558973856, -5563.058622248009, -9092.153202551986, -14639.543251936824, -0.179, 0.9550000000000001, 0.304, 192.0, 0.0, 0.0, 0.0, 0.0, 0.0, 0.0, 0.0, 0.0, 0.0, 1.6730444420600924E9, 0.0, 2023-01-06 17:34:02.060
210.0, -21017.188849114045, -26806.849456649958, -32062.750406593135, -20755.271107586756, -7496.126889720785, -5354.852122646824, -17978.580949137326, -8081.69789096092, -22598.932397238303, 10548.168188115143, -20947.71962734695, -24817.76771757218, -13773.770782204962, -5535.230700401152, -9062.380678937518, -14610.910667289576, -0.1585, 0.9535, 0.303, 192.0, 125.5, 88.0, 14.5, 96.0, 4.5, 56.0, 0.0, 0.0, 0.0, 1.6730444420601E9, 0.0, 2023-01-06 17:34:02.060
212.0, -21018.842878203737, -26803.563750215024, -32068.58421189597, -20777.53344506424, -7492.394148396748, -5365.82682917438, -17986.02408004094, -8098.104071391114, -22576.245376616167, 10573.783287260925, -20937.124900475133, -24790.163313169876, -13757.252843052489, -5510.979057667143, -9050.288385187196, -14594.504486859381, -0.1585, 0.9535, 0.303, 192.0, 0.0, 0.0, 0.0, 0.0, 0.0, 0.0, 0.0, 0.0, 0.0, 1.6730444420601075E9, 0.0, 2023-01-06 17:34:02.060
214.0, -20998.011052371392, -26781.68139239328, -32036.77767953607, -20769.755037993793, -7500.574886867391, -5333.126227036265, -17956.02803898192, -8072.980710623349, -22575.574824282507, 10569.84938023679, -20944.09864474519, -24819.108822239497, -13756.202311063089, -5493.678807458736, -9043.426399639417, -14590.525876346335, -0.1585, 0.9535, 0.303, 192.0, 0.0, 0.0, 0.0, 0.0, 0.0, 0.0, 0.0, 0.0, 0.0, 1.6730444420601149E9, 0.0, 2023-01-06 17:34:02.060
216.0, -21002.235532073442, -26783.894215094355, -32040.53277260456, -20801.673329075973, -7505.313456691916, -5355.500323236028, -17975.675222358135, -8079.462716515389, -22567.70701023424, 10584.243903666009, -20943.361037178165, -24789.80568525859, -13745.853453380281, -5493.254124314085, -9034.26218441274, -14588.849495512188, -0.1585, 0.9535, 0.303, 192.0, 0.0, 0.0, 0.0, 0.0, 0.0, 0.0, 0.0, 0.0, 0.0, 1.6730444420601225E9, 0.0, 2023-01-06 17:34:02.060
218.0, -20989.53974122283, -26768.02447653109, -32024.81949625248, -20802.545047109732, -7484.079299459375, -5308.114624990777, -17955.98333549301, -8045.510416687777, -22571.439751558275, 10582.768688531958, -20946.51263314636, -24806.368327899974, -13755.62116570725, -5497.2103830826745, -9031.69173380038, -14596.136164204618, -0.1585, 0.9535, 0.303, 192.0, 0.0, 0.0, 0.0, 0.0, 0.0, 0.0, 0.0, 0.0, 0.0, 1.67304444206013E9, 0.0, 2023-01-06 17:34:02.060
220.0, -21017.367663069686, -26795.78534314458, -32065.16439499431, -20847.31559125371, -7527.575794169402, -5358.2719395484855, -17992.21551325506, -8069.784411166241, -22572.93731843678, 10591.1505927027, -20955.878014073136, -24789.58216781404, -13770.328613558844, -5516.298772847506, -9025.701466286358, -14595.711481059967, -0.13525, 0.92275, 0.2885, 192.0, 126.0, 64.0, 13.5, 112.0, 4.0, 72.0, 0.0, 0.0, 0.0, 1.6730444420601375E9, 0.0, 2023-01-06 17:34:02.060
222.0, -21025.570753284785, -26805.910683382834, -32070.282944474573, -20858.714980925917, -7525.810006357433, -5368.06200361991, -17994.808315611877, -8060.553140706199, -22616.478516635718, 10548.65992649316, -21000.313282050287, -24835.53735441415, -13811.165250678689, -5536.52710157956, -9053.216463710842, -14630.602554154702, -0.13525, 0.92275, 0.2885, 192.0, 0.0, 0.0, 0.0, 0.0, 0.0, 0.0, 0.0, 0.0, 0.0, 1.673044442060145E9, 0.0, 2023-01-06 17:34:02.060
224.0, -21030.063453920302, -26813.063241608532, -32091.226529029198, -20878.160998602034, -7522.569003411413, -5384.892867194756, -18010.879219875245, -8071.907826889495, -22611.024690988626, 10564.32849935633, -20997.094630848722, -24825.14379324243, -13773.524913015952, -5509.99558091111, -9043.292289172685, -14622.153594750596, -0.13525, 0.92275, 0.2885, 192.0, 0.0, 0.0, 0.0, 0.0, 0.0, 0.0, 0.0, 0.0, 0.0, 1.6730444420601523E9, 0.0, 2023-01-06 17:34:02.060
226.0, -21027.35889284121, -26817.757107944144, -32084.87863360389, -20869.868501409113, -7520.110311521329, -5352.371079012284, -17999.010443569478, -8078.211018825891, -22622.446432405286, 10550.85039744978, -21010.282160077353, -24841.080587039065, -13813.892163502236, -5520.411493827283, -9061.620719626037, -14632.345990222215, -0.13525, 0.92275, 0.2885, 192.0, 0.0, 0.0, 0.0, 0.0, 0.0, 0.0, 0.0, 0.0, 0.0, 1.6730444420601602E9, 0.0, 2023-01-06 17:34:02.060
228.0, -21006.080032119757, -26800.83683739148, -32069.657095629824, -20852.076512822692, -7505.402863669738, -5340.234081773053, -17973.417696168148, -8110.621048286087, -22612.321092167032, 10568.307109869374, -20996.73700293744, -24835.87263058098, -13787.785325978439, -5498.640894727814, -9038.21844318133, -14613.481117901936, -0.13525, 0.92275, 0.2885, 192.0, 0.0, 0.0, 0.0, 0.0, 0.0, 0.0, 0.0, 0.0, 0.0, 1.6730444420601678E9, 0.0, 2023-01-06 17:34:02.060
230.0, -20996.73700293744, -26798.959290857234, -32051.73099657667, -20826.349654954633, -7489.555476850925, -5322.15152050871, -17961.79478905139, -8128.480092105877, -22613.48338287871, 10570.18465640362, -20990.92554937906, -24824.38383393095, -13786.310110844388, -5489.141403334308, -9039.537196104193, -14608.250809699395, -0.129625, 0.909375, 0.27025, 192.0, 126.0, 16.0, 14.0, 0.0, 3.5, 112.0, 0.0, 0.0, 0.0, 1.6730444420601757E9, 0.0, 2023-01-06 17:34:02.060
232.0, -20980.844912629713, -26788.766895385612, -32043.52790636157, -20808.714128579395, -7467.8966364737325, -5318.485834418039, -17949.143701689685, -8197.323465028223, -22586.348365109967, 10594.659816582182, -20961.1977292535, -24810.056365735098, -13757.58811921932, -5464.912112344756, -9007.998884677754, -14575.8407802392, -0.129625, 0.909375, 0.27025, 192.0, 0.0, 0.0, 0.0, 0.0, 0.0, 0.0, 0.0, 0.0, 0.0, 1.6730444420601833E9, 0.0, 2023-01-06 17:34:02.060
234.0, -21002.615511729182, -26816.281892810097, -32051.57453436548, -20815.531410638265, -7480.681834302168, -5343.050401574422, -17963.64998384118, -8272.313567675777, -22600.228798416712, 10577.180752418131, -20971.278366002844, -24789.738630025226, -13782.10798288679, -5482.145307319797, -9024.628582552503, -14587.12841118913, -0.129625, 0.909375, 0.27025, 192.0, 0.0, 0.0, 0.0, 0.0, 0.0, 0.0, 0.0, 0.0, 0.0, 1.6730444420601928E9, 0.0, 2023-01-06 17:34:02.060
236.0, -21027.001264929924, -26839.281837854607, -32072.384008453373, -20833.591620158153, -7503.458261902126, -5368.687852464659, -17987.722812619544, -8349.98587965797, -22617.931380025315, 10569.46940058105, -20988.220988299967, -24807.374156400463, -13768.831046680338, -5476.110336316864, -9036.854986769556, -14592.671643814045, -0.129625, 0.909375, 0.27025, 192.0, 0.0, 0.0, 0.0, 0.0, 0.0, 0.0, 0.0, 0.0, 0.0, 1.6730444420602002E9, 0.0, 2023-01-06 17:34:02.060
238.0, -21037.64069529065, -26852.02233219413, -32083.984563825677, -20844.521623196797, -7543.937271110687, -5385.608123017326, -18001.29032150392, -8414.940049045092, -22652.800101375593, 10549.643403249192, -21020.452203804518, -24791.929100981844, -13814.361550135798, -5518.623354270859, -9066.180475494919, -14631.496623932913, -0.129625, 0.909375, 0.27025, 192.0, 0.0, 0.0, 0.0, 0.0, 0.0, 0.0, 0.0, 0.0, 0.0, 1.673044442060208E9, 0.0, 2023-01-06 17:34:02.060
240.0, -21021.279218349366, -26838.231305865207, -32061.990447281656, -20828.651884633528, -7526.167634268718, -5388.424442818695, -17987.968681808554, -8449.518197717452, -22630.80598483157, 10561.713345255059, -21000.62620647266, -24796.041821961622, -13799.698805773116, -5502.507746518582, -9049.260204942251, -14613.928152791043, -0.1268125, 0.9086875000000001, 0.252125, 192.0, 126.0, 16.0, 14.0, 48.0, 3.5, 40.0, 0.0, 0.0, 0.0, 1.6730444420602155E9, 0.0, 2023-01-06 17:34:02.060
242.0, -21032.410387088108, -26853.45284383927, -32070.931145063776, -20841.437082461965, -7527.933422080687, -5393.006550432033, -18000.88799010372, -8505.15168966671, -22632.95175229928, 10556.415981819151, -21000.492096005928, -24759.921402921846, -13804.817355253383, -5513.549508279504, -9055.205768967364, -14621.594801139212, -0.1268125, 0.9086875000000001, 0.252125, 192.0, 0.0, 0.0, 0.0, 0.0, 0.0, 0.0, 0.0, 0.0, 0.0, 1.673044442060223E9, 0.0, 2023-01-06 17:34:02.060
244.0, -21035.137299911654, -26857.923192730334, -32073.30042997604, -20843.627553418584, -7525.877061590799, -5393.230067876586, -17999.43512671413, -8546.055382019924, -22632.05768252107, 10547.855263692769, -21003.710747207493, -24795.32656613905, -13822.966971751091, -5512.230755356641, -9055.205768967364, -14618.756129593388, -0.1268125, 0.9086875000000001, 0.252125, 192.0, 0.0, 0.0, 0.0, 0.0, 0.0, 0.0, 0.0, 0.0, 0.0, 1.6730444420602312E9, 0.0, 2023-01-06 17:34:02.060
246.0, -21039.182965658067, -26861.387713120905, -32085.236261515172, -20846.80150113124, -7538.796369885966, -5413.324286141907, -18008.04054832942, -8582.55578071544, -22641.780691359127, 10549.598699760283, -21013.389052556642, -24759.407312799372, -13834.83574805686, -5525.060656673987, -9068.438001684905, -14630.110815776685, -0.1268125, 0.9086875000000001, 0.252125, 192.0, 0.0, 0.0, 0.0, 0.0, 0.0, 0.0, 0.0, 0.0, 0.0, 1.6730444420602396E9, 0.0, 2023-01-06 17:34:02.060
248.0, -21013.076128134267, -26838.67834075431, -32075.736770121668, -20830.328265467677, -7533.499006450058, -5408.585716317381, -17988.482771931027, -8644.447761112186, -22623.18403997231, 10556.058353907867, -21002.280235562353, -24778.13807465292, -13821.156480450212, -5524.300697362506, -9058.51382714675, -14624.701693618501, -0.1268125, 0.9086875000000001, 0.252125, 192.0, 0.0, 0.0, 0.0, 0.0, 0.0, 0.0, 0.0, 0.0, 0.0, 1.6730444420602467E9, 0.0, 2023-01-06 17:34:02.060
250.0, -21017.83704970325, -26842.902820456366, -32088.477264461195, -20831.423500945988, -7541.120951309318, -5412.765492530524, -18004.665434916667, -8633.651868540272, -22615.42798464632, 10567.27892962443, -21001.185000084042, -24729.79125139609, -13815.322675147376, -5526.4464648302155, -9070.27084473024, -14635.631696657145, -0.12140625, 0.9153437500000001, 0.2350625, 192.0, 126.0, 48.0, 14.0, 104.0, 3.0, 104.0, 0.0, 0.0, 0.0, 1.6730444420602548E9, 0.0, 2023-01-06 17:34:02.060
252.0, -20984.845874887214, -26814.292587553573, -32059.73292109167, -20800.846314531125, -7497.915029277209, -5381.2271811040855, -17971.69661184509, -8606.807423449449, -22590.684603534297, 10582.589874576315, -20977.514502705875, -24746.108024848465, -13799.363529606288, -5489.029644612032, -9044.365172906539, -14605.613303853668, -0.12140625, 0.9153437500000001, 0.2350625, 192.0, 0.0, 0.0, 0.0, 0.0, 0.0, 0.0, 0.0, 0.0, 0.0, 1.673044442060263E9, 0.0, 2023-01-06 17:34:02.060
254.0, -20988.980947611446, -26818.517067255627, -32065.991409539154, -20807.998872756823, -7491.254209429528, -5383.484707294072, -17968.83558855481, -8670.800467824993, -22584.448466831265, 10593.609284592781, -20972.328897992244, -24706.18780925129, -13799.229419139556, -5489.9907696236105, -9042.867606028034, -14606.708539331978, -0.12140625, 0.9153437500000001, 0.2350625, 192.0, 0.0, 0.0, 0.0, 0.0, 0.0, 0.0, 0.0, 0.0, 0.0, 1.6730444420602703E9, 0.0, 2023-01-06 17:34:02.060
0.0, -20970.071371802256, -26800.188636802275, -32040.48806911565, -20779.20982589839, -7481.24062791355, -5358.607215715315, -17937.96782946203, -8592.70347269815, -22573.294946348065, 10596.358549160785, -20967.90325259009, -24740.810661412557, -13788.187657378634, -5478.010234595566, -9034.910385001944, -14598.88542877262, -0.12140625, 0.9153437500000001, 0.2350625, 192.0, 0.0, 0.0, 0.0, 0.0, 0.0, 0.0, 0.0, 0.0, 0.0, 1.6730444420602782E9, 0.0, 2023-01-06 17:34:02.060
2.0, -20964.215214754968, -26792.365526242917, -32043.930237761768, -20782.897863733517, -7490.404843140226, -5349.10772432181, -17951.7365040465, -8534.723047581083, -22565.494187533164, 10616.139843003732, -20955.43097918403, -24687.70291658675, -13785.863075955282, -5463.6380629108035, -9014.324428358606, -14570.74458250339, -0.12140625, 0.9153437500000001, 0.2350625, 192.0, 0.0, 0.0, 0.0, 0.0, 0.0, 0.0, 0.0, 0.0, 0.0, 1.6730444420602856E9, 0.0, 2023-01-06 17:34:02.060
4.0, -20927.33483640371, -26755.887479291854, -32011.140228645832, -20753.617078497064, -7453.368002577782, -5305.275953444952, -17918.41005306364, -8524.39654164273, -22552.574879237996, 10624.588802407838, -20947.406702924574, -24710.568751164526, -13771.021517636958, -5445.466094668638, -9004.891992198467, -14561.423905065527, -0.10370312500000001, 0.900671875, 0.21753125, 192.0, 126.5, 40.0, 13.5, 88.0, 3.0, 32.0, 0.0, 0.0, 0.0, 1.6730444420602937E9, 0.0, 2023-01-06 17:34:02.060
6.0, -20920.85283051167, -26747.81849954349, -32010.737897245635, -20758.512110532774, -7441.342764060827, -5297.251677185497, -17919.751157730956, -8515.992285727536, -22525.37280623589, 10658.362288279806, -20926.686635814505, -24663.719494786204, -13741.383104489221, -5418.621649577814, -8989.402233290939, -14545.509463013348, -0.10370312500000001, 0.900671875, 0.21753125, 192.0, 0.0, 0.0, 0.0, 0.0, 0.0, 0.0, 0.0, 0.0, 0.0, 1.6730444420603013E9, 0.0, 2023-01-06 17:34:02.060
8.0, -20903.351414603167, -26728.975978967665, -31982.127664342843, -20746.039837126715, -7426.210633064585, -5256.347984832285, -17893.01847136241, -8467.801924681893, -22519.471945699686, 10655.143637078243, -20927.558353848264, -24694.542550390073, -13741.070180066847, -5423.829606035902, -8981.087384353565, -14546.537643258293, -0.10370312500000001, 0.900671875, 0.21753125, 192.0, 0.0, 0.0, 0.0, 0.0, 0.0, 0.0, 0.0, 0.0, 0.0, 1.6730444420603085E9, 0.0, 2023-01-06 17:34:02.060
10.0, -20898.47873431191, -26722.471621331173, -31965.85559437938, -20757.68509598793, -7445.209615851595, -5271.189543150609, -17897.175895831097, -8445.584290693318, -22498.483657656154, 10677.473029789095, -20902.636158780595, -24664.568861075506, -13731.838909606804, -5419.2027949336525, -8950.711363638802, -14524.029436591798, -0.10370312500000001, 0.900671875, 0.21753125, 192.0, 0.0, 0.0, 0.0, 0.0, 0.0, 0.0, 0.0, 0.0, 0.0, 1.6730444420603182E9, 0.0, 2023-01-06 17:34:02.060
12.0, -20908.402908850065, -26733.803955770014, -31964.0451030785, -20765.30704084719, -7433.944336646121, -5263.679357013626, -17894.11370684072, -8426.831177095315, -22495.197951221224, 10664.844294171846, -20905.65364428206, -24699.102306258956, -13724.306371725366, -5411.066759951921, -8952.655965406415, -14530.377332017104, -0.10370312500000001, 0.900671875, 0.21753125, 192.0, 0.0, 0.0, 0.0, 0.0, 0.0, 0.0, 0.0, 0.0, 0.0, 1.673044442060326E9, 0.0, 2023-01-06 17:34:02.060
14.0, -20911.95683621846, -26734.586266825947, -31982.865271909868, -20779.612157298587, -7439.465217526582, -5283.438299112117, -17913.40326230565, -8432.57557542033, -22506.105602515414, 10665.403087783228, -20914.10260368617, -24700.733983604194, -13740.041999821902, -5403.154242414742, -8959.29443350964, -14539.608602477147, -0.10370312500000001, 0.900671875, 0.21753125, 192.0, 0.0, 0.0, 0.0, 0.0, 0.0, 0.0, 0.0, 0.0, 0.0, 1.6730444420603335E9, 0.0, 2023-01-06 17:34:02.060
16.0, -20898.590493034186, -26722.046938186522, -31970.08007408143, -20758.422703554956, -7404.842365365311, -5266.026290181433, -17879.96505260051, -8413.777758333415, -22513.012291552102, 10665.917177905701, -20915.868391498137, -24708.825315097012, -13721.132424012712, -5403.8247947484015, -8969.263311536708, -14552.170282861029, -0.08, 0.874, 0.168, 192.0, 126.5, 64.0, 13.5, 40.0, 2.5, 32.0, 0.0, 0.0, 0.0, 1.6730444420603414E9, 0.0, 2023-01-06 17:34:02.060
18.0, -20897.405850578052, -26720.32585386346, -31977.70201894069, -20763.16127337948, -7438.369982048272, -5277.716252531559, -17893.35374752924, -8405.909944285148, -22497.991919278138, 10681.652806002237, -20901.049184924268, -24696.867131813426, -13711.655284363662, -5396.359312100329, -8959.830875376569, -14547.230547336407, -0.08, 0.874, 0.168, 192.0, 0.0, 0.0, 0.0, 0.0, 0.0, 0.0, 0.0, 0.0, 0.0, 1.6730444420603497E9, 0.0, 2023-01-06 17:34:02.060
20.0, -20876.70813521244, -26703.494990288615, -31956.84784136389, -20740.787177179718, -7421.784987662433, -5264.819295980847, -17881.954357857034, -8368.873103722704, -22495.890855299338, 10682.077489146888, -20897.85288546716, -24691.681527099794, -13713.488127408997, -5390.59256203086, -8965.083535323565, -14553.936070672999, -0.08, 0.874, 0.168, 192.0, 0.0, 0.0, 0.0, 0.0, 0.0, 0.0, 0.0, 0.0, 0.0, 1.673044442060357E9, 0.0, 2023-01-06 17:34:02.060
22.0, -20861.486597238374, -26689.011059881577, -31950.969332572146, -20740.72012194635, -7395.32052222735, -5249.441295795596, -17844.179909727565, -8354.724449482495, -22468.688782297228, 10694.147431152753, -20871.768399687815, -24688.46287589823, -13689.66116781964, -5377.203867102131, -8938.663773377391, -14520.564916201225, -0.08, 0.874, 0.168, 192.0, 0.0, 0.0, 0.0, 0.0, 0.0, 0.0, 0.0, 0.0, 0.0, 1.6730444420603652E9, 0.0, 2023-01-06 17:34:02.060
24.0, -20856.971544858403, -26685.010097624076, -31932.618550374336, -20738.194374822902, -7380.076632508831, -5239.293603812886, -17833.09344447773, -8342.095713865247, -22466.319497384968, 10699.601256799848, -20872.75187644385, -24684.618375851915, -13691.561066098342, -5366.765602441502, -8935.869805320479, -14516.92158185501, -0.08, 0.874, 0.168, 192.0, 0.0, 0.0, 0.0, 0.0, 0.0, 0.0, 0.0, 0.0, 0.0, 1.673044442539276E9, 0.0, 2023-01-06 17:34:02.539
26.0, -20841.191213272956, -26662.054856068477, -31912.97136699812, -20732.78525266472, -7376.075670251331, -5208.6493621646605, -17813.222743656963, -8323.320248522788, -22439.899735438794, 10718.667294820225, -20853.149396556546, -24693.670832356314, -13644.220071342, -5337.48481720505, -8906.320799150562, -14488.512514652315, -0.088, 0.86, 0.152, 192.0, 126.5, 32.0, 13.0, 112.0, 2.0, 96.0, 0.0, 0.0, 0.0, 1.6730444425393193E9, 0.0, 2023-01-06 17:34:02.539
28.0, -20830.64118989005, -26647.436815194706, -31896.207558656643, -20715.70851990086, -7347.823065259822, -5190.499745666951, -17784.90308343209, -8302.197850012524, -22444.504194796587, 10726.400998401761, -20856.770379158304, -24680.17037870531, -13644.197719597545, -5330.0416863014325, -8897.067176946066, -14481.427011659982, -0.088, 0.86, 0.152, 192.0, 0.0, 0.0, 0.0, 0.0, 0.0, 0.0, 0.0, 0.0, 0.0, 1.673044442539346E9, 0.0, 2023-01-06 17:34:02.539
30.0, -20783.322546878167, -26600.69931753866, -31850.654703456727, -20676.145932214968, -7304.192460083063, -5156.413335372607, -17737.60679216466, -8258.544893091308, -22409.14373506829, 10755.122990026832, -20827.824870088683, -24691.614471866425, -13619.499041974432, -5284.265313656964, -8854.867083414447, -14431.895545947022, -0.088, 0.86, 0.152, 192.0, 0.0, 0.0, 0.0, 0.0, 0.0, 0.0, 0.0, 0.0, 0.0, 1.6730444425393722E9, 0.0, 2023-01-06 17:34:02.539
32.0, -20779.790971254228, -26595.871340736314, -31846.854906899323, -20676.794132804174, -7296.838736157267, -5151.764172525904, -17727.995542048877, -8256.801457023796, -22372.218653228123, 10793.99267363461, -20788.86577950308, -24625.54271525654, -13583.848009568217, -5256.5491505323835, -8816.869117840424, -14394.255208284285, -0.088, 0.86, 0.152, 192.0, 0.0, 0.0, 0.0, 0.0, 0.0, 0.0, 0.0, 0.0, 0.0, 1.6730444425393865E9, 0.0, 2023-01-06 17:34:02.539
34.0, -20800.935721508948, -26614.31152991194, -31863.529308262983, -20696.910702813948, -7308.998085140955, -5167.723318066993, -17747.955649847467, -8267.038555984325, -22382.031069044002, 10778.145286815798, -20807.283616934255, -24653.460044081217, -13593.660425384096, -5292.401348638696, -8832.805911637059, -14413.321246304662, -0.088, 0.86, 0.152, 192.0, 0.0, 0.0, 0.0, 0.0, 0.0, 0.0, 0.0, 0.0, 0.0, 1.6730444425393922E9, 0.0, 2023-01-06 17:34:02.539
36.0, -20814.92791353797, -26626.783803318, -31859.12601460529, -20693.28972021219, -7308.193422340563, -5191.438518934074, -17744.446425967984, -8309.819794871783, -22398.549008196474, 10768.288167511007, -20823.242762475344, -24631.73414847066, -13617.532088462363, -5301.654970843193, -8840.383153007408, -14434.756569237301, -0.10400000000000001, 0.88, 0.122, 192.0, 126.0, 96.0, 13.5, 64.0, 1.5, 104.0, 0.0, 0.0, 0.0, 1.6730444425393977E9, 0.0, 2023-01-06 17:34:02.539
38.0, -20787.055288202202, -26598.665308793225, -31822.513857187496, -20653.145987170457, -7259.7571921059125, -5146.243291645443, -17715.210344220442, -8181.923113098516, -22391.418801715234, 10770.746859401092, -20805.92016052248, -24652.67773302528, -13577.947149032016, -5276.375147864241, -8812.778748605102, -14413.9023916605, -0.10400000000000001, 0.88, 0.122, 192.0, 0.0, 0.0, 0.0, 0.0, 0.0, 0.0, 0.0, 0.0, 0.0, 1.6730444425394034E9, 0.0, 2023-01-06 17:34:02.539
40.0, -20757.19335760991, -26571.820863702404, -31802.039659266433, -20626.65916999092, -7266.328604975773, -5128.384247825653, -17695.563160844227, -8197.614037706142, -22371.481045661098, 10786.236618308618, -20774.337145607133, -24597.424220731762, -13576.047250753314, -5262.651176768682, -8794.78559431858, -14390.164839048963, -0.10400000000000001, 0.88, 0.122, 192.0, 0.0, 0.0, 0.0, 0.0, 0.0, 0.0, 0.0, 0.0, 0.0, 1.673044442539409E9, 0.0, 2023-01-06 17:34:02.539
42.0, -20716.826107123627, -26530.224267271074, -31772.982391474536, -20584.12380029247, -7248.961299533999, -5099.170517822567, -17667.0199831748, -8176.066956051226, -22329.884449229772, 10821.082987914442, -20726.794985150693, -24604.19679930172, -13512.925924411527, -5211.912716855135, -8766.957672471723, -14357.12896074402, -0.10400000000000001, 0.88, 0.122, 192.0, 0.0, 0.0, 0.0, 0.0, 0.0, 0.0, 0.0, 0.0, 0.0, 1.673044442539422E9, 0.0, 2023-01-06 17:34:02.539
44.0, -20673.731943813797, -26483.73263880404, -31741.399376559184, -20547.578698108042, -7199.094557654209, -5041.458313638963, -17632.039503102245, -8149.647194105053, -22298.12262035878, 10857.024592998576, -20693.66969986793, -24549.926763764237, -13500.118374838636, -5199.686312638082, -8759.089858423455, -14341.773312303223, -0.10400000000000001, 0.88, 0.122, 192.0, 0.0, 0.0, 0.0, 0.0, 0.0, 0.0, 0.0, 0.0, 0.0, 1.6730444425394275E9, 0.0, 2023-01-06 17:34:02.539
46.0, -20622.948780411338, -26429.261437566453, -31687.88930033318, -20494.470953282234, -7152.737039653903, -4998.967647429425, -17588.14067699202, -8110.486937819355, -22242.26561096497, 10901.102233064441, -20635.37635032849, -24551.178461453732, -13436.684124074474, -5133.659259517105, -8711.43593924474, -14285.11164010902, -0.148, 0.88, 0.094, 192.0, 125.5, 48.0, 13.5, 64.0, 1.0, 120.0, 0.0, 0.0, 0.0, 1.673044442539433E9, 0.0, 2023-01-06 17:34:02.539
48.0, -20581.709811891298, -26381.227538731997, -31665.202279711044, -20466.37481050191, -7092.208515668931, -4964.74712666835, -17644.82470093068, -8066.051669842204, -22194.455229575065, 10953.226501134217, -20591.611634684996, -24492.594539236372, -13387.644396739532, -5088.195811295011, -8674.24263647111, -14233.948497050822, -0.148, 0.88, 0.094, 192.0, 0.0, 0.0, 0.0, 0.0, 0.0, 0.0, 0.0, 0.0, 0.0, 1.6730444425394385E9, 0.0, 2023-01-06 17:34:02.539
50.0, -20556.854672056994, -26347.20818367102, -31628.59012229325, -20443.687789879776, -7113.822652557213, -4943.177693268978, -17513.731719700303, -8041.375343963546, -22165.66618271663, 10976.137039200907, -20575.831303099552, -24511.593522023384, -13372.244044809824, -5034.953956002469, -8679.741165607114, -14205.628836825948, -0.148, 0.88, 0.094, 192.0, 0.0, 0.0, 0.0, 0.0, 0.0, 0.0, 0.0, 0.0, 0.0, 1.673044442539444E9, 0.0, 2023-01-06 17:34:02.539
52.0, -20554.820663311562, -26331.673721274583, -31605.321956315274, -20438.27866772159, -7076.6740532724925, -4952.386611984564, -17493.12341131251, -8066.632815198042, -22141.61570568272, 11002.51209765817, -20541.744892805207, -24445.45471018013, -13313.391901659, -5016.066731937734, -8586.13205982829, -14176.146885889399, -0.148, 0.88, 0.094, 192.0, 0.0, 0.0, 0.0, 0.0, 0.0, 0.0, 0.0, 0.0, 0.0, 1.6730444425394497E9, 0.0, 2023-01-06 17:34:02.539
54.0, -20583.587358425542, -26346.314113892808, -31614.30735758631, -20450.28155449409, -7083.379576609084, -4963.786001656771, -17563.889034258013, -8125.350847882134, -22148.835319141785, 10976.539370601104, -20546.908145774385, -24474.914309372227, -13331.854442579084, -5044.162874718056, -8617.670371254728, -14204.935932747834, -0.148, 0.88, 0.094, 192.0, 0.0, 0.0, 0.0, 0.0, 0.0, 0.0, 0.0, 0.0, 0.0, 1.6730444425394552E9, 0.0, 2023-01-06 17:34:02.539
56.0, -20580.815742113085, -26332.321921863786, -31592.87203465367, -20432.511917652122, -7072.963663692912, -4965.127106324089, -17543.548946803683, -8084.424803784466, -22141.883926616185, 10975.198265933785, -20536.69339855831, -24444.627695635285, -13308.563924856655, -5039.223139193433, -8619.413807322242, -14201.158487934887, -0.2, 0.916, 0.058, 192.0, 124.5, 96.0, 14.0, 80.0, 0.5, 104.0, 0.0, 0.0, 0.0, 1.6730444425394607E9, 0.0, 2023-01-06 17:34:02.539
58.0, -20646.1722429004, -26389.229463247, -31639.765994520905, -20491.744040458685, -7147.886711107101, -5000.353455585654, -17611.878229603557, -8088.939856164438, -22167.81195018434, 10952.891224967389, -20560.565061636575, -24451.2214602496, -13346.897166597506, -5083.166668792566, -8638.971583720635, -14218.19051720983, -0.2, 0.916, 0.058, 192.0, 0.0, 0.0, 0.0, 0.0, 0.0, 0.0, 0.0, 0.0, 0.0, 1.673044442539466E9, 0.0, 2023-01-06 17:34:02.539
60.0, -20681.1303712285, -26411.268283279933, -31666.968067523012, -20520.68954952831, -7176.966330643455, -5051.42719166603, -17544.778292748724, -8102.5520685377205, -22220.15973569867, 10914.334465781983, -20615.013911129703, -24452.271992239, -13396.94272243294, -5139.962451453502, -8669.839342813415, -14254.757971138713, -0.2, 0.916, 0.058, 192.0, 0.0, 0.0, 0.0, 0.0, 0.0, 0.0, 0.0, 0.0, 0.0, 1.6730444425394716E9, 0.0, 2023-01-06 17:34:02.539
62.0, -20714.47917395582, -26435.832850436313, -31704.094315063277, -20559.201605224804, -7193.126641884643, -5055.629319623628, -17609.397185969017, -8127.541318838754, -22247.719436612064, 10876.828238585978, -20651.067274936115, -24495.41085903774, -13418.556859321221, -5157.843847017747, -8696.683787904238, -14281.49065750726, -0.2, 0.916, 0.058, 192.0, 0.0, 0.0, 0.0, 0.0, 0.0, 0.0, 0.0, 0.0, 0.0, 1.673044442539477E9, 0.0, 2023-01-06 17:34:02.539
64.0, -20716.222610023335, -26423.47233575253, -31704.429591230106, -20567.650564628908, -7184.543572013805, -5052.7459445888935, -17606.558514423195, -8152.687031350974, -22262.672753652663, 10876.716479863702, -20671.51912111272, -24510.47593480062, -13419.13800467706, -5188.286922965875, -8719.661381204294, -14300.534343783182, -0.2, 0.916, 0.058, 192.0, 0.0, 0.0, 0.0, 0.0, 0.0, 0.0, 0.0, 0.0, 0.0, 1.6730444425394824E9, 0.0, 2023-01-06 17:34:02.539
66.0, -20712.936903588405, -26414.46458273704, -31707.201207542566, -20573.797294354117, -7181.950769656989, -5059.853799325681, -17648.512738765807, -8162.298281466757, -22253.530890170445, 10888.026462558088, -20659.717400040317, -24512.46524005714, -13409.951437705928, -5159.8108005298145, -8723.796453928526, -14309.296227609662, -0.242, 0.916, 0.06, 192.0, 124.0, 56.0, 14.0, 80.0, 0.5, 112.0, 0.0, 0.0, 0.0, 1.673044442539488E9, 0.0, 2023-01-06 17:34:02.539
68.0, -20711.662854154452, -26410.910655368647, -31734.358577055762, -20598.94300686634, -7210.7398165154245, -5069.286235485821, -17682.912073482523, -8167.103906524648, -22265.69023915413, 10902.577448198492, -20670.379182145498, -24505.536199275997, -13399.066138156193, -5151.898282992635, -8755.155951399322, -14324.562469072638, -0.242, 0.916, 0.06, 192.0, 0.0, 0.0, 0.0, 0.0, 0.0, 0.0, 0.0, 0.0, 0.0, 1.6730444425394936E9, 0.0, 2023-01-06 17:34:02.539
70.0, -20739.669589956953, -26445.08647264081, -31763.013513447466, -20641.90305970944, -7252.448171669027, -5089.738081662426, -17654.48065453537, -8171.887179838083, -22260.12465478476, 10890.619264914903, -20684.773705574717, -24505.625606253816, -13431.789092038762, -5171.411355902119, -8777.284178410075, -14331.402102875962, -0.242, 0.916, 0.06, 192.0, 0.0, 0.0, 0.0, 0.0, 0.0, 0.0, 0.0, 0.0, 0.0, 1.6730444425394993E9, 0.0, 2023-01-06 17:34:02.539
72.0, -20732.13705207551, -26436.90573417017, -31768.46733909456, -20643.534737054677, -7239.126531973664, -5106.658352215094, -17655.799407458235, -8193.277799281812, -22295.574521490875, 10856.443447642738, -20716.066147812147, -24538.86265025886, -13460.511083663832, -5217.701818669059, -8788.258884937632, -14367.522521915738, -0.242, 0.916, 0.06, 192.0, 0.0, 0.0, 0.0, 0.0, 0.0, 0.0, 0.0, 0.0, 0.0, 1.6730444425395045E9, 0.0, 2023-01-06 17:34:02.539
74.0, -20738.395540522997, -26440.079681882824, -31757.447929078095, -20636.404530573433, -7234.834997038245, -5087.86053512818, -17698.31242541223, -8089.118670120081, -22297.80969593641, 10866.725250092179, -20694.94374930188, -24509.783030722505, -13449.894005047561, -5208.515251697928, -8782.514486612617, -14350.781065318712, -0.242, 0.916, 0.06, 192.0, 0.0, 0.0, 0.0, 0.0, 0.0, 0.0, 0.0, 0.0, 0.0, 1.6730444425395124E9, 0.0, 2023-01-06 17:34:02.539
76.0, -20735.02042711025, -26438.649170237684, -31724.188533328597, -20607.950759881827, -7236.869005783678, -5096.95769512149, -17657.7663609703, -8100.473356303377, -22301.45303028262, 10845.044057970532, -20698.1847522479, -24526.72565301963, -13441.065065987716, -5223.803844905358, -8785.174344202798, -14351.161044974453, -0.304, 0.9480000000000001, 0.10200000000000001, 192.0, 123.0, 64.0, 14.5, 80.0, 1.5, 24.0, 0.0, 0.0, 0.0, 1.6730444425395179E9, 0.0, 2023-01-06 17:34:02.539
78.0, -20761.3507820786, -26459.369237347753, -31725.641396718194, -20610.65532096092, -7243.887453542645, -5120.248212843921, -17701.79929754726, -8107.760024995808, -22288.22079756508, 10861.517293634093, -20686.405382919955, -24479.943451874668, -13411.158431906515, -5224.496748983473, -8748.15985538481, -14338.085274468098, -0.304, 0.9480000000000001, 0.10200000000000001, 192.0, 0.0, 0.0, 0.0, 0.0, 0.0, 0.0, 0.0, 0.0, 0.0, 1.6730444425395231E9, 0.0, 2023-01-06 17:34:02.539
80.0, -20800.801611042218, -26481.67627831415, -31759.10195816779, -20638.59500153005, -7249.162465234097, -5163.051803475833, -17692.143343942564, -8130.603507829132, -22343.22844066959, 10811.561144776482, -20746.889203416016, -24521.38358609481, -13462.321574964712, -5291.686092816126, -8810.49887067066, -14397.719728674858, -0.304, 0.9480000000000001, 0.10200000000000001, 192.0, 0.0, 0.0, 0.0, 0.0, 0.0, 0.0, 0.0, 0.0, 0.0, 1.6730444425395288E9, 0.0, 2023-01-06 17:34:02.539
82.0, -20794.409012128, -26461.179728648633, -31750.80946097487, -20615.17037334089, -7226.922479501067, -5151.339489381253, -17698.804163790246, -8133.263365419312, -22344.882469759283, 10817.66317101278, -20738.28378180072, -24485.62079496632, -13446.340077679168, -5271.61422629526, -8789.197658204754, -14388.376699492539, -0.304, 0.9480000000000001, 0.10200000000000001, 192.0, 0.0, 0.0, 0.0, 0.0, 0.0, 0.0, 0.0, 0.0, 0.0, 1.6730444425395343E9, 0.0, 2023-01-06 17:34:02.539
84.0, -20786.429439357453, -26452.261382610963, -31748.797803973892, -20603.301597035123, -7297.598695468748, -5174.250027447943, -17746.927469602524, -8131.94461249645, -22379.550025409466, 10790.75167068859, -20744.87754641504, -24515.818001725438, -13437.712304319419, -5289.339159648319, -8790.404652405341, -14407.487441001826, -0.304, 0.9480000000000001, 0.10200000000000001, 192.0, 0.0, 0.0, 0.0, 0.0, 0.0, 0.0, 0.0, 0.0, 0.0, 1.6730444425395398E9, 0.0, 2023-01-06 17:34:02.539
86.0, -20779.88037823205, -26435.40816729166, -31734.157411355667, -20577.753553122708, -7252.090543757742, -5175.457021648529, -17616.0580058167, -8130.871728762595, -22323.64831252674, 10799.580609748436, -20706.141973273992, -24477.21653905112, -13375.082716355648, -5263.925226202635, -8776.50186735414, -14390.857743127079, -0.392, 1.0030000000000001, 0.10800000000000001, 192.0, 120.5, 0.0, 16.5, 8.0, 1.5, 72.0, 0.0, 0.0, 0.0, 1.6730444425395453E9, 0.0, 2023-01-06 17:34:02.539
88.0, -20821.87930606357, -26461.112673415268, -31783.465359624075, -20609.068347104592, -7269.77077362189, -5183.973036286001, -17664.60599477363, -8173.183581016491, -22364.216728713123, 10791.42222302225, -20735.512165488264, -24494.56149274844, -13407.984484193861, -5280.756089777481, -8785.867248280912, -14399.105536831086, -0.392, 1.0030000000000001, 0.10800000000000001, 192.0, 0.0, 0.0, 0.0, 0.0, 0.0, 0.0, 0.0, 0.0, 0.0, 1.6730444425395508E9, 0.0, 2023-01-06 17:34:02.539
90.0, -20897.3834988336, -26519.026043298967, -31867.15029086474, -20665.66296406543, -7347.376030370717, -5252.816409208347, -17726.207402492455, -8258.746058791407, -22400.247740775078, 10779.262874038563, -20781.467352088377, -24437.3186751984, -13478.079554805703, -5333.461503203095, -8847.580414722015, -14426.70994123339, -0.392, 1.0030000000000001, 0.10800000000000001, 192.0, 0.0, 0.0, 0.0, 0.0, 0.0, 0.0, 0.0, 0.0, 0.0, 1.6730444425395565E9, 0.0, 2023-01-06 17:34:02.539
92.0, -21006.884694920147, -26586.014221431524, -31962.52518445554, -20720.04475832519, -7448.875301942266, -5349.398296999729, -17806.338406364728, -8341.358106298221, -22518.063785799004, 10683.083317647377, -20904.55840880375, -24513.85104821337, -13567.754753560395, -5443.722658601125, -8955.002898574221, -14510.05959630723, -0.392, 1.0030000000000001, 0.10800000000000001, 192.0, 0.0, 0.0, 0.0, 0.0, 0.0, 0.0, 0.0, 0.0, 0.0, 1.6730444425395617E9, 0.0, 2023-01-06 17:34:02.539
94.0, -21007.91287516509, -26573.027857902987, -31941.22397198963, -20699.86113308205, -7440.001659393509, -5345.576148697871, -17789.95457767899, -8379.445478850064, -22561.917908420313, 10661.044497614444, -20940.030627254324, -24511.414708067743, -13638.453321272531, -5502.932429663233, -8993.380843803983, -14540.368561788628, -0.392, 1.0030000000000001, 0.10800000000000001, 192.0, 0.0, 0.0, 0.0, 0.0, 0.0, 0.0, 0.0, 0.0, 0.0, 1.6730444425395672E9, 0.0, 2023-01-06 17:34:02.539
96.0, -21007.35408155371, -26575.35243932634, -31926.69533809368, -20696.441316180386, -7411.592592190814, -5310.394502925218, -17751.33076326022, -8384.295807396866, -22533.642951684353, 10664.039631371455, -20928.139499204102, -24543.62357182784, -13627.523318233887, -5491.063653357465, -8962.982471344767, -14526.01874184832, -0.454, 1.1135000000000002, 0.139, 192.0, 119.5, 112.0, 19.0, 32.0, 2.5, 40.0, 0.0, 0.0, 0.0, 1.6730444425395727E9, 0.0, 2023-01-06 17:34:02.539
98.0, -20972.954746836993, -26548.530345979972, -31889.144407408767, -20678.26934793822, -7368.476077136526, -5263.277025613431, -17693.30563465424, -8355.84203670526, -22499.109506500903, 10688.738308994569, -20904.066670425735, -24512.88992320179, -13613.17349829358, -5461.916978587745, -8941.256575734207, -14502.147078770053, -0.454, 1.1135000000000002, 0.139, 192.0, 0.0, 0.0, 0.0, 0.0, 0.0, 0.0, 0.0, 0.0, 0.0, 1.6730444425395784E9, 0.0, 2023-01-06 17:34:02.539
100.0, -20955.833310584225, -26539.522592964484, -31870.59245951086, -20688.349984687567, -7356.964928742043, -5218.931164614101, -17672.227939632885, -8331.232766059968, -22449.82390997695, 10709.16780342672, -20870.0249636203, -24514.499248802575, -13553.337878386723, -5431.183329961697, -8903.035092715632, -14481.516418637804, -0.454, 1.1135000000000002, 0.139, 192.0, 0.0, 0.0, 0.0, 0.0, 0.0, 0.0, 0.0, 0.0, 0.0, 1.6730444425395837E9, 0.0, 2023-01-06 17:34:02.539
102.0, -20928.89945851558, -26510.934711806145, -31851.369959279295, -20688.461743409844, -7325.896003949167, -5210.325742998808, -17649.9656021554, -8283.601198625707, -22438.670389493753, 10730.26785019253, -20867.052181607745, -24483.69854494316, -13534.562413044265, -5416.028847220999, -8890.875743731945, -14465.691383563446, -0.454, 1.1135000000000002, 0.139, 192.0, 0.0, 0.0, 0.0, 0.0, 0.0, 0.0, 0.0, 0.0, 0.0, 1.6730444425395892E9, 0.0, 2023-01-06 17:34:02.539
104.0, -20951.2959064598, -26529.77723238197, -31871.620639755805, -20735.847441655093, -7337.0048209434535, -5205.788338874381, -17654.54770976874, -8309.640980916141, -22411.714185680652, 10736.213414217642, -20872.617765977117, -24502.988100408093, -13532.193128132001, -5403.131890670287, -8882.449136072295, -14462.495084106336, -0.454, 1.1135000000000002, 0.139, 192.0, 0.0, 0.0, 0.0, 0.0, 0.0, 0.0, 0.0, 0.0, 0.0, 1.673044442539595E9, 0.0, 2023-01-06 17:34:02.539
106.0, -20957.107360018177, -26526.178601524665, -31882.617698027814, -20775.611195041085, -7340.648155289669, -5183.570704885806, -17651.887852178555, -8309.2610012604, -22432.233087090623, 10731.072512992921, -20896.3329668442, -24505.625606253816, -13541.826729992239, -5432.636193351293, -8888.081775675033, -14482.38813667156, -0.46, 1.11775, 0.1915, 192.0, 120.5, 56.0, 17.5, 8.0, 3.5, 80.0, 0.0, 0.0, 0.0, 1.6730444425396016E9, 0.0, 2023-01-06 17:34:02.539
108.0, -20970.63016541364, -26531.095985304833, -31908.478666362607, -20845.192175530457, -7363.961024756554, -5162.828286031281, -17666.39413433005, -8302.108443034702, -22449.86861346586, 10724.74696931207, -20908.693481527982, -24534.57111532344, -13548.286384139823, -5442.538016144993, -8893.75911876668, -14498.749613612845, -0.46, 1.11775, 0.1915, 192.0, 0.0, 0.0, 0.0, 0.0, 0.0, 0.0, 0.0, 0.0, 0.0, 1.673044442539607E9, 0.0, 2023-01-06 17:34:02.539
110.0, -20968.193825268012, -26504.29624370292, -31932.12681199632, -20906.927693716014, -7368.096097480786, -5141.080038676267, -17677.30178562424, -8253.716916288962, -22419.760813684563, 10729.060855991944, -20913.81203100825, -24533.609990311863, -13547.481721339433, -5432.412675906739, -8915.283848677142, -14513.859392864633, -0.46, 1.11775, 0.1915, 192.0, 0.0, 0.0, 0.0, 0.0, 0.0, 0.0, 0.0, 0.0, 0.0, 1.6730444425396125E9, 0.0, 2023-01-06 17:34:02.539
112.0, -20977.11217130568, -26498.641252355726, -31939.07820452192, -20966.115113033666, -7388.212667490562, -5117.029561642356, -17702.73807081438, -8179.084441552693, -22438.066892393457, 10732.257155449051, -20922.260990412356, -24555.29118243351, -13579.824695566262, -5424.1872339471865, -8936.33919195404, -14530.578497717202, -0.46, 1.11775, 0.1915, 192.0, 0.0, 0.0, 0.0, 0.0, 0.0, 0.0, 0.0, 0.0, 0.0, 1.673044442539618E9, 0.0, 2023-01-06 17:34:02.539
114.0, -20994.032441858344, -26510.174752494666, -31971.488233982116, -21006.54941875332, -7403.344798486805, -5111.531032506351, -17742.41241722255, -8109.481109318866, -22464.44195085072, 10720.92482101021, -20942.19874646649, -24571.0491622745, -13589.659463126596, -5449.0200220370325, -8971.878465637978, -14556.059486396252, -0.46, 1.11775, 0.1915, 192.0, 0.0, 0.0, 0.0, 0.0, 0.0, 0.0, 0.0, 0.0, 0.0, 1.6730444425396235E9, 0.0, 2023-01-06 17:34:02.539
116.0, -21036.657218534616, -26554.319447793896, -32009.039164667032, -21048.771864029393, -7456.206674123607, -5149.104314935722, -17796.637749271125, -8092.963170166394, -22499.288320456544, 10689.16299213922, -20975.167569538065, -24604.710889424194, -13626.02575135538, -5471.215304281152, -9016.917230715422, -14599.846553784198, -0.404, 0.9808749999999999, 0.20775, 192.0, 122.5, 16.0, 13.0, 48.0, 3.5, 0.0, 0.0, 0.0, 0.0, 1.6730444425396292E9, 0.0, 2023-01-06 17:34:02.539
118.0, -21081.74068710097, -26597.704183781647, -32041.695063316234, -21079.639623122173, -7496.618628098801, -5177.468678649507, -17864.609404159713, -8077.652225214509, -22518.376710221375, 10654.517788233494, -21003.44252627403, -24646.843927722446, -13676.160714168635, -5501.881897673834, -9053.685850344402, -14636.19049026853, -0.404, 0.9808749999999999, 0.20775, 192.0, 0.0, 0.0, 0.0, 0.0, 0.0, 0.0, 0.0, 0.0, 0.0, 1.6730444425396347E9, 0.0, 2023-01-06 17:34:02.539
120.0, -21128.41112952365, -26647.41446345025, -32076.899060833344, -21102.639568166684, -7537.678782663201, -5233.906833399157, -17933.050445681863, -8095.60067601212, -22566.008277655637, 10608.33908418883, -21033.751491755425, -24683.16551246232, -13735.303429997377, -5556.442505889238, -9095.975350853843, -14670.455714518514, -0.404, 0.9808749999999999, 0.20775, 192.0, 0.0, 0.0, 0.0, 0.0, 0.0, 0.0, 0.0, 0.0, 0.0, 1.67304444253964E9, 0.0, 2023-01-06 17:34:02.539
122.0, -21169.247766643497, -26702.19858911021, -32133.650140005368, -21134.691969715594, -7589.445422821692, -5303.666627844171, -18006.498277962004, -8116.879536733572, -22618.780746314616, 10570.698746526092, -21075.526902142396, -24729.970065351736, -13773.837837438326, -5584.806869603022, -9132.699266993914, -14715.315665640315, -0.404, 0.9808749999999999, 0.20775, 192.0, 0.0, 0.0, 0.0, 0.0, 0.0, 0.0, 0.0, 0.0, 0.0, 1.6730444425396464E9, 0.0, 2023-01-06 17:34:02.539
124.0, -21218.153383511708, -26771.779569599577, -32171.268125923652, -21166.05146718639, -7629.812673307976, -5347.878378376768, -18066.490360080046, -8160.063107021226, -22676.0012121202, 10505.83398411679, -21125.438347511095, -24765.464635546763, -13790.311073101888, -5630.605593991947, -9179.593226861147, -14779.30871001586, -0.404, 0.9808749999999999, 0.20775, 192.0, 0.0, 0.0, 0.0, 0.0, 0.0, 0.0, 0.0, 0.0, 0.0, 1.673044442539652E9, 0.0, 2023-01-06 17:34:02.539
126.0, -21244.81901464689, -26810.470439251716, -32206.405068207394, -21183.1505516947, -7676.036080841552, -5386.479841051083, -18117.698206627156, -8198.038720850793, -22700.49872404322, 10466.606672597727, -21146.51604253245, -24819.332339684053, -13842.189471982656, -5665.541370575592, -9200.805032349233, -14815.965570922563, -0.382, 0.8554375, 0.19087500000000002, 192.0, 122.0, 96.0, 11.0, 104.0, 2.5, 56.0, 0.0, 0.0, 0.0, 1.6730444425396574E9, 0.0, 2023-01-06 17:34:02.539
128.0, -21285.02980292199, -26859.197242164286, -32248.113423360996, -21190.124295964753, -7709.608401013423, -5438.559405631949, -18170.22480609713, -8255.974442478948, -22708.098317158023, 10436.007134438412, -21175.595662068805, -24823.53446764165, -13873.303100264444, -5698.17491748034, -9236.21019556644, -14851.326030650858, -0.382, 0.8554375, 0.19087500000000002, 192.0, 0.0, 0.0, 0.0, 0.0, 0.0, 0.0, 0.0, 0.0, 0.0, 1.673044442539664E9, 0.0, 2023-01-06 17:34:02.539
130.0, -21308.297968899962, -26895.094143759507, -32274.53318530717, -21182.032964471935, -7723.332372108981, -5477.853772384378, -18215.107108963384, -8282.729480591952, -22758.300335204643, 10396.310436285787, -21215.58293289935, -24877.44687526785, -13912.105728638857, -5724.594679426513, -9266.943844192487, -14880.495057165035, -0.382, 0.8554375, 0.19087500000000002, 192.0, 0.0, 0.0, 0.0, 0.0, 0.0, 0.0, 0.0, 0.0, 0.0, 1.6730444425396695E9, 0.0, 2023-01-06 17:34:02.539
132.0, -21332.191983722685, -26935.550801223613, -32290.20175817034, -21168.353696865284, -7756.412953902835, -5527.966383453177, -18229.18870797023, -8319.229879287468, -22771.487864433275, 10386.028633836346, -21231.139747040244, -24854.804558134623, -13908.820022203927, -5746.365278525982, -9291.50841134887, -14889.435754947157, -0.382, 0.8554375, 0.19087500000000002, 192.0, 0.0, 0.0, 0.0, 0.0, 0.0, 0.0, 0.0, 0.0, 0.0, 1.6730444425396752E9, 0.0, 2023-01-06 17:34:02.539
