%OpenBCI Raw EEG Data
%Number of channels = 16
%Sample Rate = 125 Hz
%Board = OpenBCI_GUI$BoardCytonSerialDaisy
Sample Index, EXG Channel 0, EXG Channel 1, EXG Channel 2, EXG Channel 3, EXG Channel 4, EXG Channel 5, EXG Channel 6, EXG Channel 7, EXG Channel 8, EXG Channel 9, EXG Channel 10, EXG Channel 11, EXG Channel 12, EXG Channel 13, EXG Channel 14, EXG Channel 15, Accel Channel 0, Accel Channel 1, Accel Channel 2, Other, Other, Other, Other, Other, Other, Other, Analog Channel 0, Analog Channel 1, Analog Channel 2, Timestamp, Other, Timestamp (Formatted)
0.0, -30707.8994164347, -29019.381585047435, -33231.32195846104, -25709.37880389438, -30557.18160357256, -28757.50854700906, -35647.8137550132, -30538.182620785552, 0.0, 0.0, 0.0, 0.0, 0.0, 0.0, 0.0, 0.0, 0.0, 0.0, 0.0, 192.0, 0.0, 0.0, 0.0, 0.0, 0.0, 0.0, 0.0, 0.0, 0.0, 1.6731202005024292E9, 0.0, 2023-01-07 14:36:40.502
150.0, -30686.039410357407, -28994.615852190957, -33210.95951926226, -25697.80060026653, -30546.31865576728, -28742.711692179644, -35626.04315591373, -30520.636501388133, -25381.568119712847, -4381.76892778503, -33946.95776068661, -35660.4648423749, -18684.538446013743, -19020.37340645473, -33021.796705937, -31399.641203837542, 0.0, 0.0, 0.0, 192.0, 0.0, 0.0, 0.0, 0.0, 0.0, 0.0, 0.0, 0.0, 0.0, 1.6731202005024395E9, 0.0, 2023-01-07 14:36:40.502
152.0, -30704.926634422143, -29015.000643134197, -33226.06929851405, -25722.43222265628, -30566.770501943887, -28763.543518011993, -35639.8118304982, -30539.031987074854, -25358.21054675705, -4459.776515934052, -33941.30276933942, -35740.41703229154, -18684.426687291467, -19043.708627666074, -33029.8433339409, -31461.22025981191, 0.0, 0.0, 0.0, 192.0, 0.0, 0.0, 0.0, 0.0, 0.0, 0.0, 0.0, 0.0, 0.0, 1.673120200502447E9, 0.0, 2023-01-07 14:36:40.502
154.0, -30680.98791611051, -28989.720820155242, -33206.17624594882, -25692.70440253072, -30543.05530107681, -28732.02755833001, -35624.79145822424, -30507.247806459407, -25374.683782420612, -4385.278151664514, -33934.79841170293, -35652.57467658218, -18679.822227933673, -19013.846697073783, -33018.53335124652, -31389.761732788294, -0.11, 0.453, -0.13, 192.0, 124.5, 16.0, 14.0, 40.0, 123.5, 112.0, 0.0, 0.0, 0.0, 1.6731202005024548E9, 0.0, 2023-01-07 14:36:40.502
156.0, -30707.765305967965, -29020.633282736933, -33227.5445136481, -25725.42735641329, -30561.71900769699, -28764.549346512482, -35655.793327783744, -30546.206897045005, -25353.20375599906, -4453.428620508745, -33935.91599892569, -35733.15271534356, -18685.164294858492, -19035.52788919543, -33020.25443556958, -31440.187268279467, -0.11, 0.453, -0.13, 192.0, 0.0, 0.0, 0.0, 0.0, 0.0, 0.0, 0.0, 0.0, 0.0, 1.6731202005024629E9, 0.0, 2023-01-07 14:36:40.502
158.0, -30691.962622638064, -28998.147427814893, -33227.94684504829, -25699.99107122315, -30553.13593782615, -28740.8341456454, -35649.221914913884, -30523.743393867422, -25388.16188432716, -4392.363654656846, -33953.238600878554, -35666.34335116665, -18699.69292875444, -19035.32672349533, -33031.96674966416, -31398.143636959034, -0.11, 0.453, -0.13, 192.0, 0.0, 0.0, 0.0, 0.0, 0.0, 0.0, 0.0, 0.0, 0.0, 1.6731202005024705E9, 0.0, 2023-01-07 14:36:40.502
160.0, -30700.523340764445, -29005.657613951877, -33216.592158864994, -25718.811240054518, -30555.840498905243, -28755.742759197088, -35640.214161898395, -30545.603399944714, -25349.336904208292, -4443.616204692866, -33934.86546693629, -35719.51815122583, -18684.31492856919, -19029.314104236855, -33011.626662209834, -31435.13577403257, -0.11, 0.453, -0.13, 192.0, 0.0, 0.0, 0.0, 0.0, 0.0, 0.0, 0.0, 0.0, 0.0, 1.673120200502478E9, 0.0, 2023-01-07 14:36:40.502
162.0, -30691.940270893607, -28994.392334746404, -33223.320033946045, -25686.17769314977, -30543.61409468819, -28719.599988412858, -35621.99749016732, -30499.670565089058, -25388.698326194088, -4388.541506354989, -33953.12684215628, -35662.1188714646, -18696.451925808422, -19014.740766851995, -33014.77825817803, -31391.996907233824, -0.11, 0.453, -0.13, 192.0, 0.0, 0.0, 0.0, 0.0, 0.0, 0.0, 0.0, 0.0, 0.0, 1.673120200502485E9, 0.0, 2023-01-07 14:36:40.502
164.0, -30692.342602293804, -29000.74023017171, -33208.43377213881, -25718.94535052125, -30543.8599638772, -28747.562020726447, -35621.21517911139, -30534.963969583987, -25338.362197680737, -4425.980678317628, -33924.00251913101, -35699.40158121605, -18673.429629019454, -19006.984711526, -32994.41581897924, -31413.029898766268, -0.159, 0.6785, -0.193, 192.0, 124.5, 64.0, 14.0, 32.0, 124.0, 0.0, 0.0, 0.0, 0.0, 1.6731202005024922E9, 0.0, 2023-01-07 14:36:40.502
166.0, -30709.531093779933, -29009.233893064727, -33244.44243245631, -25709.311748661014, -30556.689865194545, -28735.626189187315, -35649.087804447154, -30513.506294906892, -25388.564215727358, -4408.747483342586, -33960.435862593156, -35678.9720867839, -18710.667635281996, -19027.86124084726, -33027.92108391775, -31408.17957021947, -0.159, 0.6785, -0.193, 192.0, 0.0, 0.0, 0.0, 0.0, 0.0, 0.0, 0.0, 0.0, 0.0, 1.6731202005025012E9, 0.0, 2023-01-07 14:36:40.502
168.0, -30703.898454177197, -29009.479762253733, -33219.29671994409, -25743.33110372199, -30536.193315529028, -28766.11396862435, -35639.029519442265, -30555.125243082675, -25357.49529093448, -4444.130294815337, -33940.43105130566, -35710.08571506569, -18688.65116699352, -19025.849583846284, -33009.25737729757, -31432.520619931296, -0.159, 0.6785, -0.193, 192.0, 0.0, 0.0, 0.0, 0.0, 0.0, 0.0, 0.0, 0.0, 0.0, 1.6731202005025108E9, 0.0, 2023-01-07 14:36:40.502
170.0, -30705.41837280016, -29001.567244716556, -33236.95459806378, -25704.50612360312, -30549.961990113497, -28730.30647400695, -35629.5076763043, -30500.966966267464, -25384.093866836294, -4418.470492180645, -33956.70312126912, -35690.01384854482, -18703.93976020095, -19041.629915431728, -33017.41576402375, -31415.510942400808, -0.159, 0.6785, -0.193, 192.0, 0.0, 0.0, 0.0, 0.0, 0.0, 0.0, 0.0, 0.0, 0.0, 1.673120200502519E9, 0.0, 2023-01-07 14:36:40.502
172.0, -30710.31340483587, -29013.97246288925, -33226.38222293642, -25750.57306892551, -30553.650027948624, -28774.250003606085, -35650.138336436554, -30561.00375187442, -25362.099750292273, -4427.388838218312, -33937.8606006933, -35700.65327890555, -18690.84163795014, -19035.75140663998, -33000.54019696, -31419.377794191576, -0.159, 0.6785, -0.193, 192.0, 0.0, 0.0, 0.0, 0.0, 0.0, 0.0, 0.0, 0.0, 0.0, 1.6731202005025272E9, 0.0, 2023-01-07 14:36:40.502
174.0, -30711.632157758733, -29007.69162269731, -33249.06924355856, -25715.23496094167, -30555.281705293863, -28740.02948284501, -35645.466821845395, -30512.56752163977, -25385.70319243708, -4433.3567539878795, -33961.82167074939, -35713.63964243408, -18707.873667225085, -19048.134273068223, -33021.08145011443, -31428.45260244043, -0.1835, 0.78225, -0.2285, 192.0, 124.5, 64.0, 13.5, 88.0, 123.5, 96.0, 0.0, 0.0, 0.0, 1.673120200502535E9, 0.0, 2023-01-07 14:36:40.502
176.0, -30695.628308728734, -29000.986099360718, -33212.85941754096, -25739.06192053103, -30545.938676111542, -28760.235459832606, -35630.15587689351, -30549.716120924488, -25363.73142763751, -4416.682352624221, -33940.74397572804, -35700.85444460565, -18691.914521683993, -19030.364636226255, -33006.597519707386, -31420.65184362553, -0.1835, 0.78225, -0.2285, 192.0, 0.0, 0.0, 0.0, 0.0, 0.0, 0.0, 0.0, 0.0, 0.0, 1.6731202005025427E9, 0.0, 2023-01-07 14:36:40.502
178.0, -30699.763381452965, -28993.855892879474, -33233.82535384004, -25695.45366709872, -30552.353626770215, -28723.82446811491, -35629.2618071153, -30499.46939938896, -25369.565232940346, -4420.68331488172, -33942.19683911763, -35708.811665631736, -18696.921312441984, -19030.878726348725, -33008.25154879708, -31421.031823281268, -0.1835, 0.78225, -0.2285, 192.0, 0.0, 0.0, 0.0, 0.0, 0.0, 0.0, 0.0, 0.0, 0.0, 1.6731202005025487E9, 0.0, 2023-01-07 14:36:40.502
180.0, -30681.479654488525, -28983.93171834132, -33202.197635435776, -25720.822897055496, -30546.676283678567, -28748.724311438124, -35626.1102111471, -30539.90370510861, -25353.047293787873, -4385.233448175603, -33919.97920512906, -35667.57269711169, -18677.542349999232, -19015.724243608027, -32991.80066487797, -31394.656764824005, -0.1835, 0.78225, -0.2285, 192.0, 0.0, 0.0, 0.0, 0.0, 0.0, 0.0, 0.0, 0.0, 0.0, 1.673120200502561E9, 0.0, 2023-01-07 14:36:40.502
182.0, -30702.579701254333, -28996.247529536195, -33236.23934224121, -25698.202931666725, -30563.685961209056, -28731.647578674267, -35645.24330440084, -30510.712326849978, -25366.72656139452, -4436.217777278159, -33938.88878093824, -35713.37142150062, -18697.636568264552, -19037.986581085515, -33017.7957436795, -31432.498268186842, -0.1835, 0.78225, -0.2285, 192.0, 0.0, 0.0, 0.0, 0.0, 0.0, 0.0, 0.0, 0.0, 0.0, 1.6731202005025685E9, 0.0, 2023-01-07 14:36:40.502
184.0, -30699.472808775048, -28999.22031154875, -33208.500827372176, -25722.5216296341, -30542.407100487602, -28758.469672020638, -35647.992568968846, -30553.314751781792, -25359.886927591197, -4388.4520993771675, -33924.96364414259, -35661.42596738648, -18684.31492856919, -19011.499763905977, -32998.483836470106, -31393.98621249035, -0.1835, 0.78225, -0.2285, 192.0, 0.0, 0.0, 0.0, 0.0, 0.0, 0.0, 0.0, 0.0, 0.0, 1.6731202005025756E9, 0.0, 2023-01-07 14:36:40.502
186.0, -30707.87706469024, -29004.160047073372, -33226.04694676959, -25696.4147921103, -30542.161231298596, -28734.910933364743, -35644.03631020025, -30519.585969398737, -25362.8373578593, -4443.146818059304, -33938.19587686013, -35720.36751751513, -18690.953396672416, -19035.52788919543, -33003.06594408345, -31432.319454231198, -0.212, 0.904, -0.264, 192.0, 124.5, 48.0, 14.0, 32.0, 123.5, 96.0, 0.0, 0.0, 0.0, 1.6731202005025835E9, 0.0, 2023-01-07 14:36:40.502
188.0, -30697.34939305179, -29001.522541227645, -33203.40462963637, -25717.80541155403, -30539.501373708415, -28753.865212662844, -35641.93524622145, -30549.5596587133, -25361.87623284772, -4382.618294074332, -33922.974338886066, -35650.38420562556, -18676.760038943296, -19010.113955749744, -32986.324487486425, -31385.000811219314, -0.212, 0.904, -0.264, 192.0, 0.0, 0.0, 0.0, 0.0, 0.0, 0.0, 0.0, 0.0, 0.0, 1.6731202005025918E9, 0.0, 2023-01-07 14:36:40.502
190.0, -30735.772041770466, -29031.6526927534, -33249.806851125584, -25726.768461080606, -30573.81130144731, -28758.603782487367, -35665.4716331329, -30546.631580189656, -25372.35920099726, -4463.308091557991, -33949.729376999065, -35736.57253224523, -18704.096222412136, -19054.23629930452, -33013.928891888725, -31447.339826505166, -0.212, 0.904, -0.264, 192.0, 0.0, 0.0, 0.0, 0.0, 0.0, 0.0, 0.0, 0.0, 0.0, 1.6731202005025988E9, 0.0, 2023-01-07 14:36:40.502
192.0, -30695.06951511735, -28997.83450339252, -33207.47264712723, -25719.61590285491, -30529.398385214616, -28740.700035178666, -35632.592217039135, -30536.528591695856, -25383.669183691643, -4388.228581932614, -33942.7109292401, -35664.264638932305, -18695.110821141105, -19036.690179907106, -33006.172836562735, -31394.656764824005, -0.212, 0.904, -0.264, 192.0, 0.0, 0.0, 0.0, 0.0, 0.0, 0.0, 0.0, 0.0, 0.0, 1.6731202005026045E9, 0.0, 2023-01-07 14:36:40.502
194.0, -30713.912035693174, -29012.430192521835, -33231.79134509461, -25715.681995830775, -30550.09610058023, -28746.98087537061, -35638.71659501989, -30526.693824135524, -25347.63817162969, -4444.107943070882, -33925.81301043189, -35723.54146522778, -18680.26926282278, -19039.126520052734, -32993.85702536786, -31427.2679599843, -0.212, 0.904, -0.264, 192.0, 0.0, 0.0, 0.0, 0.0, 0.0, 0.0, 0.0, 0.0, 0.0, 1.6731202005026104E9, 0.0, 2023-01-07 14:36:40.502
196.0, -30691.47088426005, -28992.64889867889, -33208.500827372176, -25709.490562616655, -30532.058242804796, -28740.051834589463, -35618.08593488764, -30520.48003917695, -25380.472884234536, -4378.773794028019, -33936.05010939242, -35649.57954282517, -18692.585074017654, -19021.13336576621, -32997.366249247345, -31380.709276283895, -0.224, 0.904, -0.264, 192.0, 124.5, 0.0, 14.0, 32.0, 123.5, 96.0, 0.0, 0.0, 0.0, 1.6731202005026164E9, 0.0, 2023-01-07 14:36:40.502
198.0, -30723.36682359777, -29021.236779837225, -33237.848667841994, -25731.462327416222, -30560.08733035175, -28760.101349365876, -35642.82931599967, -30533.08642304974, -25353.136700765695, -4455.59673972091, -33926.48356276555, -35724.54729372827, -18683.912597168994, -19032.66686590515, -32990.61602242184, -31432.990006564858, -0.224, 0.904, -0.264, 192.0, 0.0, 0.0, 0.0, 0.0, 0.0, 0.0, 0.0, 0.0, 0.0, 1.6731202005026221E9, 0.0, 2023-01-07 14:36:40.502
200.0, -30693.46018951657, -28989.989041088706, -33210.4901326287, -25705.89193175935, -30521.84349558872, -28733.01103508604, -35611.827446440155, -30499.6482133446, -25385.16675057015, -4386.216924931637, -33939.62638850527, -35654.87690626108, -18690.439306549946, -19016.61831338624, -32995.287537013, -31389.11353219909, -0.224, 0.904, -0.264, 192.0, 0.0, 0.0, 0.0, 0.0, 0.0, 0.0, 0.0, 0.0, 0.0, 1.673120200502628E9, 0.0, 2023-01-07 14:36:40.502
202.0, -30705.865407689264, -29001.433134249823, -33224.28115895762, -25718.02892899858, -30543.636446432647, -28744.410424758247, -35622.466876800885, -30512.81339082878, -25348.733407108, -4447.818332650463, -33923.62253947527, -35722.31211928274, -18677.45294302141, -19026.229563502024, -32983.41876070723, -31438.399128723042, -0.224, 0.904, -0.264, 192.0, 0.0, 0.0, 0.0, 0.0, 0.0, 0.0, 0.0, 0.0, 0.0, 1.6731202005026336E9, 0.0, 2023-01-07 14:36:40.502
204.0, -30685.793541168397, -28979.01433456115, -33216.36864142044, -25689.396344351335, -30534.740452139435, -28721.432831458194, -35611.67098422897, -30485.857187015677, -25366.525395694425, -4360.892398463774, -33927.24352207703, -35636.45906882991, -18677.810570932696, -19002.447307401577, -32987.509129942555, -31387.437151364942, -0.224, 0.904, -0.264, 192.0, 0.0, 0.0, 0.0, 0.0, 0.0, 0.0, 0.0, 0.0, 0.0, 1.6731202005026395E9, 0.0, 2023-01-07 14:36:40.502
206.0, -30706.02186990045, -29000.40495400488, -33227.52216190364, -25710.988129495163, -30551.928943625564, -28748.858421904853, -35633.374528095075, -30516.74729785291, -25349.44866293057, -4430.182806275226, -33922.46024876359, -35708.386982487085, -18676.849445921118, -19009.555162138364, -32991.59949917788, -31447.764509649816, -0.216, 0.912, -0.256, 192.0, 124.5, 32.0, 14.0, 64.0, 124.0, 0.0, 0.0, 0.0, 0.0, 1.6731202005026472E9, 0.0, 2023-01-07 14:36:40.502
208.0, -30693.728410450032, -28986.189244531306, -33226.0916502585, -25679.516873302087, -30545.357530755704, -28721.54459018047, -35628.47949605936, -30483.55495733678, -25386.664317448656, -4371.48712533559, -33936.00540590351, -35644.43864160045, -18687.35476581511, -18991.85258052976, -33000.71901091564, -31404.35742191761, -0.216, 0.912, -0.256, 192.0, 0.0, 0.0, 0.0, 0.0, 0.0, 0.0, 0.0, 0.0, 0.0, 1.6731202005026543E9, 0.0, 2023-01-07 14:36:40.502
210.0, -30690.710924948566, -28989.7431718997, -33217.218007709744, -25698.784077022563, -30540.95423709801, -28745.036273602997, -35627.89835070352, -30516.635539130635, -25350.186270497594, -4437.581233689933, -33920.71681269608, -35707.44820921996, -18671.149751085013, -18998.62515909972, -32998.46148472565, -31446.13283230458, -0.216, 0.912, -0.256, 192.0, 0.0, 0.0, 0.0, 0.0, 0.0, 0.0, 0.0, 0.0, 0.0, 1.673120200502663E9, 0.0, 2023-01-07 14:36:40.502
212.0, -30678.238651542506, -28971.906479824363, -33225.53285664712, -25665.323515572967, -30538.69671090802, -28708.647633629756, -35606.7536004488, -30465.718265261447, -25369.475825962523, -4373.834058503397, -33928.00348138851, -35646.852630001624, -18677.51999825478, -18986.309347904844, -33000.54019696, -31402.770448061285, -0.216, 0.912, -0.256, 192.0, 0.0, 0.0, 0.0, 0.0, 0.0, 0.0, 0.0, 0.0, 0.0, 1.673120200502673E9, 0.0, 2023-01-07 14:36:40.502
214.0, -30686.777017924433, -28987.820921876544, -33219.85551355547, -25710.496391117144, -30541.088347564742, -28744.54453522498, -35608.58644349414, -30509.37122218266, -25336.43994765758, -4417.934050313717, -33912.983109114546, -35697.76990387081, -18662.432570747445, -18995.04887998687, -32987.084446797904, -31434.84520135465, -0.216, 0.912, -0.256, 192.0, 0.0, 0.0, 0.0, 0.0, 0.0, 0.0, 0.0, 0.0, 0.0, 1.6731202005026813E9, 0.0, 2023-01-07 14:36:40.502
216.0, -30690.129779592728, -28985.563395686557, -33242.9448655778, -25692.078553685973, -30553.739434926443, -28715.30845347744, -35609.167588849974, -30466.210003639462, -25374.147340553685, -4394.688236080198, -33939.64874024972, -35676.692208849454, -18680.26926282278, -18999.98861551149, -33006.21754005164, -31422.93172155997, -0.212, 0.906, -0.258, 192.0, 124.5, 48.0, 14.0, 40.0, 123.5, 120.0, 0.0, 0.0, 0.0, 1.6731202005026891E9, 0.0, 2023-01-07 14:36:40.502
218.0, -30690.800331926388, -28996.4933987252, -33224.638786868905, -25737.832574585984, -30535.925094595565, -28751.004189372565, -35606.64184172652, -30512.254597217394, -25349.91804956413, -4422.024419549039, -33920.89562665172, -35710.30923251024, -18658.051628834204, -19001.79910681237, -32990.10193229937, -31441.304855502232, -0.212, 0.906, -0.258, 192.0, 0.0, 0.0, 0.0, 0.0, 0.0, 0.0, 0.0, 0.0, 0.0, 1.6731202005026977E9, 0.0, 2023-01-07 14:36:40.502
220.0, -30700.12100936425, -28998.326241770537, -33250.96914183726, -25708.507085860623, -30546.743338911932, -28719.957616324144, -35616.320147075676, -30469.965096707954, -25376.158997554663, -4411.16147174376, -33946.19780137513, -35704.65424116304, -18676.5588732432, -19013.444365673586, -33003.26710978355, -31433.66055889852, -0.212, 0.906, -0.258, 192.0, 0.0, 0.0, 0.0, 0.0, 0.0, 0.0, 0.0, 0.0, 0.0, 1.6731202005027068E9, 0.0, 2023-01-07 14:36:40.502
222.0, -30699.22693958604, -29003.377736017435, -33229.66792937135, -25740.49243217617, -30534.963969583987, -28753.395826029282, -35627.831295470154, -30523.363414211683, -25357.49529093448, -4423.745503872097, -33931.53505701245, -35712.857331378145, -18665.18183531545, -19004.816592313837, -32994.41581897924, -31436.163954277512, -0.212, 0.906, -0.258, 192.0, 0.0, 0.0, 0.0, 0.0, 0.0, 0.0, 0.0, 0.0, 0.0, 1.6731202005027163E9, 0.0, 2023-01-07 14:36:40.502
224.0, -30714.8508089603, -29013.5477797446, -33264.849575144006, -25712.061013229017, -30559.684998951558, -28732.40753798575, -35638.046042686234, -30488.31587890576, -25386.93253838212, -4439.637594179821, -33956.792528246944, -35723.51911348332, -18689.03114664926, -19032.19747927159, -33015.62762446733, -31444.210582281423, -0.212, 0.906, -0.258, 192.0, 0.0, 0.0, 0.0, 0.0, 0.0, 0.0, 0.0, 0.0, 0.0, 1.6731202005027256E9, 0.0, 2023-01-07 14:36:40.502
226.0, -30675.198814296582, -28988.044439321096, -33208.23260643871, -25717.38072840938, -30516.769649597365, -28738.77778515551, -35603.75846669179, -30509.93001579404, -25364.178462526615, -4414.536585156511, -33929.545751755926, -35701.86027310613, -18670.814474918185, -19006.068290003335, -32993.20882477866, -31427.469125684398, -0.216, 0.9, -0.262, 192.0, 124.5, 32.0, 14.0, 16.0, 123.5, 104.0, 0.0, 0.0, 0.0, 1.673120200502736E9, 0.0, 2023-01-07 14:36:40.502
228.0, -30694.48836976151, -28994.951128357785, -33241.78257486613, -25689.75397226262, -30544.10583306621, -28713.565017409925, -35607.73707720484, -30468.311067618262, -25364.44668346008, -4415.765931101552, -33928.00348138851, -35708.20816853144, -18672.088524352137, -19002.76023182395, -32988.24673750958, -31426.88798032856, -0.216, 0.9, -0.262, 192.0, 0.0, 0.0, 0.0, 0.0, 0.0, 0.0, 0.0, 0.0, 0.0, 1.673120200502746E9, 0.0, 2023-01-07 14:36:40.502
230.0, -30686.21822431305, -28996.806323147575, -33213.038231496605, -25716.732527820175, -30529.80071661481, -28738.97895085561, -35608.117056860574, -30512.209893728483, -25355.573040911324, -4390.575515100421, -33920.582702229345, -35681.20726122943, -18667.953451627905, -18992.65724333015, -32986.68211539771, -31414.236892966856, -0.216, 0.9, -0.262, 192.0, 0.0, 0.0, 0.0, 0.0, 0.0, 0.0, 0.0, 0.0, 0.0, 1.6731202005027564E9, 0.0, 2023-01-07 14:36:40.502
232.0, -30706.066573389362, -29009.63622446492, -33240.53087717663, -25689.79867575153, -30543.05530107681, -28716.023709300007, -35615.20255985291, -30475.97771596643, -25367.21829977254, -4437.715344156664, -33935.58072275886, -35727.72124144092, -18680.93981515644, -19020.37340645473, -32999.467313226145, -31447.138660805067, -0.216, 0.9, -0.262, 192.0, 0.0, 0.0, 0.0, 0.0, 0.0, 0.0, 0.0, 0.0, 0.0, 1.673120200502766E9, 0.0, 2023-01-07 14:36:40.502
234.0, -30691.247366815493, -29002.058983094572, -33207.517350616145, -25706.495428859645, -30534.76280388389, -28728.92066585072, -35596.51650148827, -30498.620033099658, -25366.279526505416, -4391.380177900813, -33922.840228419336, -35673.004171014334, -18669.383963273045, -18999.273359688923, -32980.66949613923, -31398.993003248335, -0.216, 0.9, -0.262, 192.0, 0.0, 0.0, 0.0, 0.0, 0.0, 0.0, 0.0, 0.0, 0.0, 1.6731202005027769E9, 0.0, 2023-01-07 14:36:40.502
236.0, -30710.000480413495, -29016.185285590327, -33237.80396435308, -25692.36912636389, -30557.986266372955, -28720.44935470216, -35614.86728368608, -30479.37518112364, -25369.02879107342, -4453.003937364094, -33934.932522169656, -35732.079831609706, -18685.007832647305, -19019.680502376617, -32997.56741494744, -31435.918085088502, -0.216, 0.902, -0.262, 192.0, 124.5, 32.0, 14.0, 24.0, 123.5, 104.0, 0.0, 0.0, 0.0, 1.6731202005027857E9, 0.0, 2023-01-07 14:36:40.502
238.0, -30689.436875514613, -28999.935567371318, -33210.55718786206, -25704.014385225106, -30537.109737051695, -28740.610628200848, -35608.74290570532, -30503.8503413022, -25373.20856728656, -4394.643532591287, -33924.53896099794, -35664.04112148775, -18676.08948660964, -19000.99444401198, -32992.06888581144, -31395.483779368853, -0.216, 0.902, -0.262, 192.0, 0.0, 0.0, 0.0, 0.0, 0.0, 0.0, 0.0, 0.0, 0.0, 1.6731202005027936E9, 0.0, 2023-01-07 14:36:40.502
240.0, -30704.881930933232, -29007.915140141864, -33229.55617064908, -25690.357469362913, -30542.47415572097, -28732.943979852676, -35618.66708024348, -30488.36058239467, -25364.15611078216, -4453.875655397851, -33925.0083476315, -35728.45884900795, -18679.442248277934, -19024.0390925454, -33001.836598138405, -31440.924875846493, -0.216, 0.902, -0.262, 192.0, 0.0, 0.0, 0.0, 0.0, 0.0, 0.0, 0.0, 0.0, 0.0, 1.6731202005028012E9, 0.0, 2023-01-07 14:36:40.502
242.0, -30683.06662834485, -28987.485645709712, -33195.58151907701, -25691.385649607855, -30509.88531230513, -28734.35213975336, -35589.47570198485, -30494.619070842156, -25365.72073289403, -4373.185857914193, -33909.272719534965, -35638.85070548662, -18660.89030038003, -18995.22769394251, -32979.462501938644, -31384.151444930012, -0.216, 0.902, -0.262, 192.0, 0.0, 0.0, 0.0, 0.0, 0.0, 0.0, 0.0, 0.0, 0.0, 1.6731202005028086E9, 0.0, 2023-01-07 14:36:40.502
244.0, -30700.41158204217, -29000.092029582505, -33214.222873952735, -25687.65290828382, -30525.687995635035, -28729.8817908623, -35600.361001534584, -30482.772646280846, -25352.309686220848, -4445.918434371762, -33913.944234126124, -35721.038069848786, -18663.103123081102, -19020.507516921465, -32984.87162409683, -31441.41661422451, -0.216, 0.902, -0.262, 192.0, 0.0, 0.0, 0.0, 0.0, 0.0, 0.0, 0.0, 0.0, 0.0, 1.6731202005028188E9, 0.0, 2023-01-07 14:36:40.502
246.0, -30679.713866676557, -28984.64697416389, -33196.408533621856, -25686.93765246125, -30510.13118149414, -28724.047985559464, -35589.609812451585, -30483.26438465886, -25361.20568051406, -4368.179067156204, -33914.637138204234, -35639.454202586916, -18656.844634633617, -18997.2840544324, -32974.74628385857, -31380.932793728447, -0.212, 0.91, -0.26, 192.0, 124.5, 48.0, 14.0, 56.0, 123.5, 112.0, 0.0, 0.0, 0.0, 1.6731202005028265E9, 0.0, 2023-01-07 14:36:40.502
248.0, -30703.518474521457, -29007.98219537523, -33220.99545252269, -25707.121277704395, -30543.390577243637, -28751.272410306028, -35616.07427788666, -30507.337213437226, -25339.613895370236, -4450.9699286186615, -33913.8548271483, -35725.374308273116, -18656.30819276669, -19031.214002515557, -32987.33031598691, -31446.512811960318, -0.212, 0.91, -0.26, 192.0, 0.0, 0.0, 0.0, 0.0, 0.0, 0.0, 0.0, 0.0, 0.0, 1.673120200502834E9, 0.0, 2023-01-07 14:36:40.502
250.0, -30682.954869622576, -28991.240738778204, -33209.819580295036, -25691.69857403023, -30543.23411503245, -28732.809869385943, -35602.05973411319, -30489.545224850805, -25368.715866651044, -4383.422956874723, -33921.18619932964, -35645.28800788975, -18671.21680631838, -19009.085775504802, -32998.75205740357, -31393.136846201047, -0.212, 0.91, -0.26, 192.0, 0.0, 0.0, 0.0, 0.0, 0.0, 0.0, 0.0, 0.0, 0.0, 1.67312020050284E9, 0.0, 2023-01-07 14:36:40.502
252.0, -30707.31827107886, -29013.078393111038, -33217.508580387665, -25709.155286449826, -30548.62088544618, -28752.613514973345, -35624.970272179875, -30515.741469352422, -25341.31262794884, -4453.003937364094, -33908.8033329014, -35717.57354945821, -18666.746457427318, -19018.51821166494, -32997.09802831388, -31442.31068400272, -0.212, 0.91, -0.26, 192.0, 0.0, 0.0, 0.0, 0.0, 0.0, 0.0, 0.0, 0.0, 0.0, 1.6731202005028455E9, 0.0, 2023-01-07 14:36:40.502
254.0, -30705.440724544613, -29007.110477341474, -33217.84385655449, -25682.869634970386, -30544.821088888777, -28731.02172982952, -35622.71274598989, -30496.071934231753, -25389.950023883586, -4390.754329056064, -33935.22309484758, -35650.138336436554, -18683.44321053543, -19011.47741216152, -33013.14658083279, -31398.68007882596, -0.212, 0.91, -0.26, 192.0, 0.0, 0.0, 0.0, 0.0, 0.0, 0.0, 0.0, 0.0, 0.0, 1.673120200502852E9, 0.0, 2023-01-07 14:36:40.502
0.0, -30709.821666457854, -29012.229026821737, -33210.736001817706, -25691.60916705241, -30545.066958077787, -28741.795270656978, -35619.22587385486, -30517.50725716439, -25351.21445074254, -4447.572463461454, -33920.04626036242, -35713.147904056066, -18672.98259413035, -19008.99636852698, -33005.99402260709, -31433.928779831982, -0.211, 0.909, -0.26, 192.0, 124.5, 56.0, 14.0, 48.0, 123.5, 112.0, 0.0, 0.0, 0.0, 1.6731202005028577E9, 0.0, 2023-01-07 14:36:40.502
2.0, -30707.31827107886, -29004.003584862185, -33220.727231589226, -25674.666544755288, -30546.56452495629, -28722.371604725315, -35610.32987956165, -30491.46747487396, -25382.39513425769, -4383.266494663536, -33932.07149887938, -35647.903161991024, -18680.671594222975, -18995.004176497958, -33006.48576098511, -31387.34774438712, -0.211, 0.909, -0.26, 192.0, 0.0, 0.0, 0.0, 0.0, 0.0, 0.0, 0.0, 0.0, 0.0, 1.6731202005028636E9, 0.0, 2023-01-07 14:36:40.502
4.0, -30706.088925133816, -29009.904445398384, -33211.630071595915, -25705.84722827044, -30550.8113564028, -28745.6844741922, -35610.91102491749, -30521.642329888622, -25355.30481997786, -4442.096286069905, -33920.71681269608, -35710.331584254694, -18676.44711452092, -19017.355920953265, -32998.483836470106, -31436.56628567771, -0.211, 0.909, -0.26, 192.0, 0.0, 0.0, 0.0, 0.0, 0.0, 0.0, 0.0, 0.0, 0.0, 1.6731202005028698E9, 0.0, 2023-01-07 14:36:40.502
6.0, -30702.222073343048, -29000.02497434914, -33223.00710952367, -25681.4614750697, -30542.00476908741, -28717.54362792297, -35617.23656859834, -30483.286736403315, -25383.043334846894, -4399.851489049374, -33935.73718497004, -35665.15870871052, -18684.98548090285, -19010.158659238656, -33006.19518830719, -31404.245663195332, -0.211, 0.909, -0.26, 192.0, 0.0, 0.0, 0.0, 0.0, 0.0, 0.0, 0.0, 0.0, 0.0, 1.6731202005028763E9, 0.0, 2023-01-07 14:36:40.502
8.0, -30713.01796591496, -29019.403936791892, -33206.37741164892, -25724.46623140171, -30534.829859117253, -28757.329733053415, -35628.32303384817, -30532.99701607192, -25346.4311774291, -4437.916509856762, -33916.64879520521, -35709.68338366549, -18661.31498352468, -19015.85835407476, -32993.43234222321, -31439.02497756779, -0.211, 0.909, -0.26, 192.0, 0.0, 0.0, 0.0, 0.0, 0.0, 0.0, 0.0, 0.0, 0.0, 1.673120200502884E9, 0.0, 2023-01-07 14:36:40.502
10.0, -30718.538846795425, -29016.542913501613, -33230.38318519392, -25700.773382279087, -30523.609283400692, -28726.05964256044, -35613.928510418955, -30481.275079402338, -25385.83730290381, -4420.549204414989, -33943.13561238475, -35693.25485149084, -18681.096277367626, -19029.04588330339, -33005.85991214036, -31425.993910550347, -0.2115, 0.9045000000000001, -0.263, 192.0, 124.5, 48.0, 14.0, 16.0, 123.5, 88.0, 0.0, 0.0, 0.0, 1.6731202005028913E9, 0.0, 2023-01-07 14:36:40.502
12.0, -30698.578738996835, -29003.467142995258, -33196.117960943935, -25716.6207690979, -30508.94653903801, -28738.442508988683, -35592.58259446414, -30501.88338779013, -25352.15322400966, -4433.133236543326, -33916.58173997185, -35706.44238071947, -18658.900995123506, -19012.349130195278, -32978.769597860526, -31426.530352417274, -0.2115, 0.9045000000000001, -0.263, 192.0, 0.0, 0.0, 0.0, 0.0, 0.0, 0.0, 0.0, 0.0, 0.0, 1.6731202005028985E9, 0.0, 2023-01-07 14:36:40.502
0.0, -15374.021574738215, -14524.074140080707, -16600.6182552121, -12861.327870050416, -15257.92661403735, -14374.026879552232, -17795.453106814995, -15239.06174171707, -12688.526533666436, -2197.5341078679694, -16966.11398054528, -17832.04291248833, -9339.341144483227, -9506.442786031103, -16498.046099906696, -15702.77103218687, -0.21475, 0.8972500000000001, -0.2675, 192.0, 124.5, 24.0, 13.5, 104.0, 123.5, 64.0, 0.0, 0.0, 0.0, 1.6731202010643604E9, 0.0, 2023-01-07 14:36:41.064
2.0, -30770.484300909557, -29070.030637983164, -33218.58146412152, -25742.548792666053, -30535.075728306263, -28769.667895992745, -35602.05973411319, -30498.150646466096, -25326.426366141604, -4502.200126910225, -33901.74018165352, -35750.69883474098, -18622.937038294916, -19044.15566255518, -32983.172891518225, -31467.99283838187, -0.21475, 0.8972500000000001, -0.2675, 192.0, 0.0, 0.0, 0.0, 0.0, 0.0, 0.0, 0.0, 0.0, 0.0, 1.6731202010644045E9, 0.0, 2023-01-07 14:36:41.064
4.0, -30775.7146091121, -29068.823643782576, -33245.87294410145, -25732.691673361263, -30551.90659188111, -28766.426893046726, -35614.1073243746, -30483.957288736976, -25374.192044042593, -4463.26338806908, -33934.19491460263, -35704.609537674136, -18659.66095443499, -19061.835892419327, -33007.26807204104, -31441.349558991144, -0.21475, 0.8972500000000001, -0.2675, 192.0, 0.0, 0.0, 0.0, 0.0, 0.0, 0.0, 0.0, 0.0, 0.0, 1.6731202010644567E9, 0.0, 2023-01-07 14:36:41.064
6.0, -30758.973152515075, -29056.910163987897, -33223.63295836842, -25743.912249077828, -30536.640350418136, -28782.296631609996, -35604.31726030317, -30505.258501202883, -25338.272790702915, -4507.877470001873, -33914.27951029295, -35754.54333478729, -18647.434550217935, -19062.72996219754, -32995.60046143537, -31478.60991699814, -0.21475, 0.8972500000000001, -0.2675, 192.0, 0.0, 0.0, 0.0, 0.0, 0.0, 0.0, 0.0, 0.0, 0.0, 1.6731202010644693E9, 0.0, 2023-01-07 14:36:41.064
8.0, -30758.03437924795, -29046.538954560634, -33236.462859685766, -25707.054222471026, -30537.91439985209, -28754.78163418551, -35604.40666728099, -30467.104073417675, -25359.17167176863, -4450.768762918564, -33922.03556561894, -35695.75824686983, -18656.621117189065, -19043.798034643893, -32995.73457190211, -31436.610989166616, -0.216, 0.898, -0.262, 192.0, 124.5, 32.0, 14.0, 8.0, 123.5, 104.0, 0.0, 0.0, 0.0, 1.6731202010644753E9, 0.0, 2023-01-07 14:36:41.064
10.0, -30754.055768734906, -29049.824660995564, -33219.02849901062, -25735.75386235164, -30546.38571100065, -28787.012849690065, -35614.12967611905, -30516.27791121935, -25337.378720924702, -4484.899876701817, -33910.63617594673, -35733.86797116613, -18650.02735257475, -19044.736807911017, -32996.5392347025, -31465.958829636438, -0.216, 0.898, -0.262, 192.0, 0.0, 0.0, 0.0, 0.0, 0.0, 0.0, 0.0, 0.0, 0.0, 1.6731202010644813E9, 0.0, 2023-01-07 14:36:41.064
12.0, -30751.88764952274, -29036.525373044657, -33228.706804359776, -25694.269024642592, -30553.38180701516, -28748.769014927035, -35607.69237371592, -30466.344114106196, -25357.897622334676, -4453.808600164485, -33917.38640277224, -35695.26650849182, -18662.969012614372, -19039.61825843075, -33007.357479018865, -31432.319454231198, -0.216, 0.898, -0.262, 192.0, 0.0, 0.0, 0.0, 0.0, 0.0, 0.0, 0.0, 0.0, 0.0, 1.6731202010644867E9, 0.0, 2023-01-07 14:36:41.064
14.0, -30750.23362043305, -29045.39901559341, -33200.297737157074, -25729.42831867079, -30542.13887955414, -28775.814625717954, -35611.268652828774, -30510.958196038988, -25324.88409577419, -4477.434394053745, -33889.200853014096, -35704.609537674136, -18640.773730370252, -19028.218868758544, -32992.67238291173, -31434.331111232175, -0.216, 0.898, -0.262, 192.0, 0.0, 0.0, 0.0, 0.0, 0.0, 0.0, 0.0, 0.0, 0.0, 1.6731202010644925E9, 0.0, 2023-01-07 14:36:41.064
16.0, -30778.486225424556, -29063.436873368846, -33248.84572611401, -25715.100850474937, -30560.422606518583, -28757.665009220247, -35629.64178677103, -30484.51608234836, -25361.987991569997, -4480.854210955406, -33925.74595519852, -35716.81359014673, -18665.271242293267, -19052.42580800364, -33021.52848500353, -31443.0706433142, -0.216, 0.898, -0.262, 192.0, 0.0, 0.0, 0.0, 0.0, 0.0, 0.0, 0.0, 0.0, 0.0, 1.6731202010644984E9, 0.0, 2023-01-07 14:36:41.064
18.0, -30772.115978254795, -29069.22597518277, -33221.487190900705, -25745.745092123165, -30549.47025173548, -28788.778637502033, -35622.57863552316, -30527.99022531393, -25352.77907285441, -4479.535458032544, -33922.92963539715, -35721.038069848786, -18654.430646232446, -19031.750444382484, -33011.559606976465, -31450.111442817622, -0.218, 0.914, -0.258, 192.0, 124.5, 24.0, 14.0, 72.0, 123.5, 120.0, 0.0, 0.0, 0.0, 1.6731202010645056E9, 0.0, 2023-01-07 14:36:41.064
20.0, -30794.065391309905, -29086.07919050207, -33262.23442104273, -25726.835516313975, -30567.95514440002, -28777.40159957428, -35639.56596130919, -30499.8493790447, -25377.20952954406, -4489.727853504164, -33944.29790309643, -35736.349014800675, -18670.903881896007, -19042.859261376772, -33026.311758316966, -31470.429178527498, -0.218, 0.914, -0.258, 192.0, 0.0, 0.0, 0.0, 0.0, 0.0, 0.0, 0.0, 0.0, 0.0, 1.6731202010645113E9, 0.0, 2023-01-07 14:36:41.064
22.0, -30764.538736884446, -29068.868347271487, -33218.58146412152, -25735.843269329464, -30543.144708054628, -28785.18000664473, -35609.41345803898, -30524.793925856822, -25363.574965426324, -4467.376109048857, -33929.36693780028, -35708.677555165, -18659.63860269053, -19028.174165269633, -33019.91915940275, -31461.823756912203, -0.218, 0.914, -0.258, 192.0, 0.0, 0.0, 0.0, 0.0, 0.0, 0.0, 0.0, 0.0, 0.0, 1.673120201064518E9, 0.0, 2023-01-07 14:36:41.064
24.0, -30779.290888224947, -29078.054914242617, -33251.10325230399, -25710.295225417045, -30560.75788268541, -28759.095520865387, -35613.928510418955, -30483.934936992522, -25356.601221156267, -4485.503373802111, -33928.47286802207, -35726.53659898479, -18661.4043905025, -19031.504575193474, -33014.82296166694, -31467.54580349276, -0.218, 0.914, -0.258, 192.0, 0.0, 0.0, 0.0, 0.0, 0.0, 0.0, 0.0, 0.0, 0.0, 1.6731202010645247E9, 0.0, 2023-01-07 14:36:41.064
26.0, -30766.41628341869, -29075.976202008274, -33216.68156584282, -25738.748996108654, -30543.815260388288, -28776.37341932934, -35605.21133008139, -30518.244864731416, -25349.336904208292, -4450.701707685198, -33913.877178892755, -35688.91861306651, -18653.73774215433, -19023.390891956198, -33003.06594408345, -31430.576018163687, -0.218, 0.914, -0.258, 192.0, 0.0, 0.0, 0.0, 0.0, 0.0, 0.0, 0.0, 0.0, 0.0, 1.6731202010645304E9, 0.0, 2023-01-07 14:36:41.064
28.0, -30800.23447277957, -29097.836208085562, -33242.900162088896, -25724.130955234883, -30563.462443764503, -28760.34721855488, -35604.630184725545, -30487.667678316557, -25363.217337515038, -4525.84827254394, -33933.300844824415, -35756.57734353273, -18670.523902240267, -19061.63472671923, -33017.86279891286, -31462.628419712597, -0.21, 0.92, -0.252, 192.0, 124.5, 56.0, 14.0, 96.0, 124.0, 16.0, 0.0, 0.0, 0.0, 1.673120201064536E9, 0.0, 2023-01-07 14:36:41.064
30.0, -30776.18399574566, -29081.251213699725, -33206.600929093474, -25728.981283781683, -30539.09904230822, -28770.40550355977, -35591.8002834082, -30509.013594271375, -25361.5856601698, -4470.527705017055, -33924.650719720215, -35695.95941256993, -18662.4549224919, -19030.118767037246, -32998.46148472565, -31403.82098005068, -0.21, 0.92, -0.252, 192.0, 0.0, 0.0, 0.0, 0.0, 0.0, 0.0, 0.0, 0.0, 0.0, 1.6731202010645418E9, 0.0, 2023-01-07 14:36:41.064
32.0, -30793.350135487337, -29087.33088819157, -33236.08288003002, -25709.89289401685, -30545.066958077787, -28759.207279587663, -35597.11999858856, -30484.09139920371, -25358.657581646155, -4524.842444043451, -33929.29988256692, -35753.91748594254, -18667.819341161176, -19053.25282254849, -33003.8929586283, -31443.94236134796, -0.21, 0.92, -0.252, 192.0, 0.0, 0.0, 0.0, 0.0, 0.0, 0.0, 0.0, 0.0, 0.0, 1.6731202010645475E9, 0.0, 2023-01-07 14:36:41.064
34.0, -30769.456120664614, -29065.694399558834, -33210.512484373154, -25715.391423152858, -30531.365338726682, -28762.850613933875, -35599.55633873419, -30501.36929766766, -25367.82179687283, -4453.629786208843, -33925.09775460932, -35678.43564491697, -18661.046762591217, -19026.318970479842, -32998.72970565912, -31394.276785168266, -0.21, 0.92, -0.252, 192.0, 0.0, 0.0, 0.0, 0.0, 0.0, 0.0, 0.0, 0.0, 0.0, 1.6731202010645533E9, 0.0, 2023-01-07 14:36:41.064
36.0, -30811.924435129695, -29094.684612117366, -33259.82043264156, -25737.653760630343, -30556.980437872466, -28785.515282811557, -35652.239400415354, -30523.497524678412, -25361.540956680892, -4525.289478932557, -33938.64291174924, -35757.76198598886, -18674.614271475588, -19054.281002793432, -33017.236950068116, -31459.476823744397, -0.21, 0.92, -0.252, 192.0, 0.0, 0.0, 0.0, 0.0, 0.0, 0.0, 0.0, 0.0, 0.0, 1.6731202010645587E9, 0.0, 2023-01-07 14:36:41.064
38.0, -30779.022667291483, -29062.721617546278, -33223.96823453525, -25719.124164476892, -30520.43533568804, -28760.011942388053, -35601.81386492418, -30507.963062281975, -25387.670145949145, -4444.644384937809, -33944.29790309643, -35677.54157513876, -18678.481123266356, -19036.19844152909, -33010.71024068716, -31412.89578829954, -0.2, 0.912, -0.262, 192.0, 124.5, 96.0, 14.0, 64.0, 123.5, 104.0, 0.0, 0.0, 0.0, 1.673120201064566E9, 0.0, 2023-01-07 14:36:41.064
40.0, -30802.04496408045, -29087.241481213747, -33255.126566305946, -25732.736376850175, -30558.321542539783, -28768.59501225889, -35615.78370520875, -30510.55586463879, -25370.05697131836, -4517.600478839931, -33942.465060051094, -35752.911657442055, -18685.052536136216, -19054.48216849353, -33013.928891888725, -31461.913163890025, -0.2, 0.912, -0.262, 192.0, 0.0, 0.0, 0.0, 0.0, 0.0, 0.0, 0.0, 0.0, 0.0, 1.6731202010645716E9, 0.0, 2023-01-07 14:36:41.064
42.0, -30768.629106119766, -29055.636114553945, -33228.349176448486, -25711.07753647298, -30532.37116722717, -28746.98087537061, -35576.176414033944, -30485.007820726376, -25382.01515460195, -4438.922338357251, -33939.894609438736, -35667.8185663007, -18682.07975412366, -19019.881668076716, -33007.223368552135, -31402.189302705447, -0.2, 0.912, -0.262, 192.0, 0.0, 0.0, 0.0, 0.0, 0.0, 0.0, 0.0, 0.0, 0.0, 1.6731202010645773E9, 0.0, 2023-01-07 14:36:41.064
44.0, -30775.625202134277, -29065.38147513646, -33232.886580572915, -25719.191219710257, -30547.123318567672, -28755.631000474812, -35583.57484144865, -30488.584099839223, -25338.38454942519, -4503.809452511007, -33917.43110626115, -35733.51034325485, -18668.556948728197, -19023.390891956198, -32991.51009220006, -31444.657617170527, -0.2, 0.912, -0.262, 192.0, 0.0, 0.0, 0.0, 0.0, 0.0, 0.0, 0.0, 0.0, 0.0, 1.673120201064583E9, 0.0, 2023-01-07 14:36:41.064
46.0, -30758.950800770617, -29051.076358685063, -33230.025557282635, -25707.769478293598, -30541.17775454256, -28748.769014927035, -35592.35907701958, -30484.136102692617, -25362.68089564811, -4438.967041846161, -33924.62836797576, -35661.09069121965, -18674.79308543123, -19014.24902847398, -33001.143694060294, -31399.17181720398, -0.2, 0.912, -0.262, 192.0, 0.0, 0.0, 0.0, 0.0, 0.0, 0.0, 0.0, 0.0, 0.0, 1.6731202010645885E9, 0.0, 2023-01-07 14:36:41.064
48.0, -30799.698030912645, -29094.215225483804, -33254.5007174612, -25746.169775267816, -30578.661629994112, -28793.673669537744, -35645.28800788975, -30535.81333587329, -25344.665389617134, -4508.74918803563, -33926.41650753218, -35745.31206432725, -18678.637585477543, -19036.75723514047, -33025.79766819449, -31464.908297647038, -0.195, 0.915, -0.26, 192.0, 125.0, 8.0, 14.0, 88.0, 123.5, 120.0, 0.0, 0.0, 0.0, 1.6731202010645945E9, 0.0, 2023-01-07 14:36:41.064
50.0, -30777.078065523874, -29065.783806536652, -33239.10036553149, -25705.154324192325, -30558.925039640075, -28747.83024165991, -35598.818731167165, -30480.246899157395, -25397.728430954034, -4452.780419919542, -33948.63414152076, -35681.475482162896, -18699.69292875444, -19032.420996716144, -33033.41961305375, -31413.3651749331, -0.195, 0.915, -0.26, 192.0, 0.0, 0.0, 0.0, 0.0, 0.0, 0.0, 0.0, 0.0, 0.0, 1.6731202010646002E9, 0.0, 2023-01-07 14:36:41.064
52.0, -30765.701027596122, -29062.22987916826, -33220.86134205596, -25714.18442895227, -30548.866754635186, -28758.156747598263, -35600.83038816814, -30497.03305924333, -25344.710093106045, -4481.837687711441, -33910.256196291, -35713.21495928943, -18675.5083412538, -19023.949685567582, -33005.30111852898, -31422.954073304427, -0.195, 0.915, -0.26, 192.0, 0.0, 0.0, 0.0, 0.0, 0.0, 0.0, 0.0, 0.0, 0.0, 1.673120201064606E9, 0.0, 2023-01-07 14:36:41.064
54.0, -30731.413451601682, -29027.629378751444, -33208.3890686499, -25662.060160882495, -30502.196312212505, -28707.194770240163, -35543.9899020183, -30432.0341863673, -25363.30674449286, -4410.826195576929, -33911.843170147324, -35638.64953978652, -18672.200283074413, -18996.926426521117, -32990.21369102164, -31363.431377819943, -0.195, 0.915, -0.26, 192.0, 0.0, 0.0, 0.0, 0.0, 0.0, 0.0, 0.0, 0.0, 0.0, 1.6731202010646117E9, 0.0, 2023-01-07 14:36:41.064
56.0, -30720.818724729867, -29026.06475663957, -33199.60483307896, -25684.054277426516, -30506.241977958918, -28733.25690427505, -35531.47292512333, -30469.518061818846, -25313.194133424062, -4429.3110882414685, -33877.8461668308, -35665.739854066356, -18649.960297341382, -18980.296728646368, -32963.99509477557, -31381.20101466191, -0.195, 0.915, -0.26, 192.0, 0.0, 0.0, 0.0, 0.0, 0.0, 0.0, 0.0, 0.0, 0.0, 1.6731202010646172E9, 0.0, 2023-01-07 14:36:41.064
58.0, -30714.001442670997, -29011.670233210356, -33227.857438070474, -25645.74338743012, -30520.65885313259, -28696.287118945973, -35558.98792254781, -30432.8835526566, -25337.803404069353, -4365.586264799388, -33887.882100091236, -35612.05096388471, -18660.64443119102, -18961.14128364817, -32966.78906283248, -31333.63650246102, -0.1745, 0.9275, -0.253, 192.0, 125.5, 24.0, 14.5, 48.0, 124.0, 40.0, 0.0, 0.0, 0.0, 1.6731202010646229E9, 0.0, 2023-01-07 14:36:41.064
60.0, -30722.986843942028, -29029.484573541235, -33241.02261555465, -25698.18057992227, -30517.015518786375, -28751.36181728385, -35602.953803891396, -30515.540303652324, -25324.571171351814, -4394.710587824654, -33890.67606814815, -35652.597028326636, -18661.65025969151, -18969.545539563365, -32986.01156306405, -31377.11064542659, -0.1745, 0.9275, -0.253, 192.0, 0.0, 0.0, 0.0, 0.0, 0.0, 0.0, 0.0, 0.0, 0.0, 1.6731202010646286E9, 0.0, 2023-01-07 14:36:41.064
62.0, -30695.98593664002, -29001.88016913893, -33262.92732512085, -25652.135986344336, -30540.23898127544, -28704.378450438795, -35592.58259446414, -30451.949590676977, -25349.49336641948, -4356.600863528355, -33904.19887354361, -35620.58933026664, -18679.21873083338, -18963.398809838156, -33006.172836562735, -31356.658799249984, -0.1745, 0.9275, -0.253, 192.0, 0.0, 0.0, 0.0, 0.0, 0.0, 0.0, 0.0, 0.0, 0.0, 1.673120201064634E9, 0.0, 2023-01-07 14:36:41.064
64.0, -30679.445645743093, -29006.55168373009, -33240.82144985455, -25690.08924842945, -30514.690937363022, -28740.6329799453, -35604.60783298109, -30508.834780315734, -25319.519677104912, -4350.387078569779, -33877.577945897334, -35623.718574490376, -18660.152692813004, -18950.5242050319, -32997.27684226952, -31362.71612199737, -0.1745, 0.9275, -0.253, 192.0, 0.0, 0.0, 0.0, 0.0, 0.0, 0.0, 0.0, 0.0, 0.0, 1.67312020106464E9, 0.0, 2023-01-07 14:36:41.064
66.0, -30650.053101784364, -28981.003639817674, -33238.899199831394, -25628.89017211082, -30521.061184532784, -28672.34840063434, -35563.9947133058, -30425.663939197537, -25332.215467955528, -4341.133456365283, -33882.0482947884, -35620.991661666834, -18667.55112022771, -18939.32598105979, -33001.50132197158, -31347.047549134204, -0.1745, 0.9275, -0.253, 192.0, 0.0, 0.0, 0.0, 0.0, 0.0, 0.0, 0.0, 0.0, 0.0, 1.6731202010646458E9, 0.0, 2023-01-07 14:36:41.064
68.0, -30633.06577599833, -28979.148445027884, -33207.83027503852, -25659.623820736866, -30516.032042030343, -28698.34347943586, -35552.86354456706, -30470.210965896964, -25299.067830928307, -4319.966354366106, -33846.59842808228, -35597.432923010936, -18642.628925160043, -18911.3639487462, -32979.06017053845, -31326.14866806849, -0.15125, 0.93875, -0.2475, 192.0, 126.0, 0.0, 14.5, 88.0, 124.0, 56.0, 0.0, 0.0, 0.0, 1.6731202010646515E9, 0.0, 2023-01-07 14:36:41.064
70.0, -30613.7762205334, -28953.198069715272, -33198.353135389465, -25600.168180485747, -30517.663719375578, -28635.870353683276, -35489.004610658245, -30381.094560753652, -25295.44684832655, -4309.9751245945845, -33837.03188145541, -35597.41057126648, -18643.008904815782, -18902.624416664174, -32959.63650460679, -31312.15647603947, -0.15125, 0.93875, -0.2475, 192.0, 0.0, 0.0, 0.0, 0.0, 0.0, 0.0, 0.0, 0.0, 0.0, 1.6731202010646594E9, 0.0, 2023-01-07 14:36:41.064
72.0, -30592.787932489868, -28944.50324112216, -33155.54954475755, -25628.130212799337, -30501.682222090036, -28662.804205751923, -35497.051238662156, -30427.8320584097, -25268.66945846909, -4272.1112694872945, -33805.11359037323, -35561.82659409363, -18620.053663260183, -18882.664308865584, -32936.681263051185, -31284.641478614987, -0.15125, 0.93875, -0.2475, 192.0, 0.0, 0.0, 0.0, 0.0, 0.0, 0.0, 0.0, 0.0, 0.0, 1.6731202010646653E9, 0.0, 2023-01-07 14:36:41.064
74.0, -30629.936531774587, -28976.689753137798, -33198.219024922735, -25624.330416241937, -30519.8541903322, -28660.881955728764, -35558.51853591425, -30418.041994338277, -25287.020240666898, -4325.576642224389, -33830.482820330006, -35618.44356279893, -18632.72710236634, -18931.70403620053, -32956.14963247176, -31327.936807624916, -0.15125, 0.93875, -0.2475, 192.0, 0.0, 0.0, 0.0, 0.0, 0.0, 0.0, 0.0, 0.0, 0.0, 1.6731202010646708E9, 0.0, 2023-01-07 14:36:41.064
76.0, -30647.661465127643, -28996.56045395857, -33196.96732723324, -25677.013477923094, -30516.07674551925, -28725.63495941579, -35622.84685645662, -30508.99124252692, -25305.460429842526, -4313.305534518425, -33845.10086120378, -35595.86830089907, -18639.522032680754, -18939.437739782064, -32970.41004543424, -31322.125354066535, -0.15125, 0.93875, -0.2475, 192.0, 0.0, 0.0, 0.0, 0.0, 0.0, 0.0, 0.0, 0.0, 0.0, 1.6731202010646763E9, 0.0, 2023-01-07 14:36:41.064
78.0, -30651.573020407322, -28983.39527647439, -33216.458048398265, -25645.721035685663, -30521.441164188527, -28691.705011332633, -35588.24635603981, -30457.91750644654, -25318.647959071157, -4372.224732902615, -33870.246573715995, -35659.43666212996, -18658.02927708975, -18972.0265831979, -33001.76954290504, -31377.624735549063, -0.142625, 0.940375, -0.24775, 192.0, 125.5, 104.0, 14.5, 56.0, 124.0, 32.0, 0.0, 0.0, 0.0, 1.6731202010646832E9, 0.0, 2023-01-07 14:36:41.064
80.0, -30618.224217680006, -28948.59361035748, -33178.99652469117, -25653.432387522746, -30500.855207545188, -28688.19578745315, -35552.17064048894, -30463.393683838094, -25311.383642123183, -4293.9489238201295, -33849.81707928384, -35578.72451290185, -18643.388884471522, -18928.865364654706, -32971.214708234635, -31323.555865711674, -0.142625, 0.940375, -0.24775, 192.0, 0.0, 0.0, 0.0, 0.0, 0.0, 0.0, 0.0, 0.0, 0.0, 1.6731202010646887E9, 0.0, 2023-01-07 14:36:41.064
82.0, -30647.01326453844, -28962.362284941948, -33193.92748998731, -25647.196250819714, -30506.28668144783, -28667.81099650991, -35550.96364628836, -30426.088622342188, -25283.421609809593, -4332.438627772168, -33836.763660521945, -35629.239455370844, -18634.694055878408, -18930.429986766576, -32958.40715866174, -31359.475119051353, -0.142625, 0.940375, -0.24775, 192.0, 0.0, 0.0, 0.0, 0.0, 0.0, 0.0, 0.0, 0.0, 0.0, 1.6731202010646944E9, 0.0, 2023-01-07 14:36:41.064
84.0, -30656.199831509573, -28967.59259314449, -33176.76135024564, -25674.979469177662, -30504.051507002296, -28675.611755324815, -35553.28822771171, -30449.35678832016, -25325.509944618934, -4291.624342396777, -33852.432233385116, -35588.559280462185, -18644.439416460922, -18921.355178517722, -32953.42271964821, -31322.773554655738, -0.142625, 0.940375, -0.24775, 192.0, 0.0, 0.0, 0.0, 0.0, 0.0, 0.0, 0.0, 0.0, 0.0, 1.6731202010647004E9, 0.0, 2023-01-07 14:36:41.064
86.0, -30671.331962505814, -28973.11347402495, -33186.30554512805, -25668.899794685818, -30509.32651869375, -28649.728435245568, -35554.785794590214, -30430.15663983305, -25320.816078283322, -4369.34135786788, -33865.32918993583, -35672.28891519176, -18653.581279943144, -18951.50768178793, -32967.437263421685, -31383.63735480754, -0.142625, 0.940375, -0.24775, 192.0, 0.0, 0.0, 0.0, 0.0, 0.0, 0.0, 0.0, 0.0, 0.0, 1.673120201064706E9, 0.0, 2023-01-07 14:36:41.064
88.0, -30639.279560956904, -28935.92017125132, -33151.727396455695, -25656.4051695353, -30498.687088333023, -28650.24252536804, -35511.66927953593, -30411.895264613067, -25329.935590021087, -4318.737008421064, -33853.482765374516, -35592.09085608612, -18642.60657341559, -18927.166632076103, -32947.097175967356, -31327.266255291255, -0.1683125, 0.9291875, -0.250875, 192.0, 124.5, 120.0, 14.0, 88.0, 124.0, 8.0, 0.0, 0.0, 0.0, 1.6731202010647116E9, 0.0, 2023-01-07 14:36:41.064
90.0, -30642.453508669558, -28925.99599671316, -33154.4766610237, -25652.35950378889, -30509.99707102741, -28646.889763699743, -35510.37287835752, -30395.131456271585, -25285.7685429774, -4361.518247308522, -33818.994023679974, -35632.592217039135, -18624.12168075105, -18921.913972129103, -32926.89119897976, -31364.750130742807, -0.1683125, 0.9291875, -0.250875, 192.0, 0.0, 0.0, 0.0, 0.0, 0.0, 0.0, 0.0, 0.0, 0.0, 1.6731202010647173E9, 0.0, 2023-01-07 14:36:41.064
92.0, -30663.93353509111, -28937.7306625522, -33176.269611867625, -25685.864768727395, -30520.949425810508, -28686.362944407818, -35582.0996263146, -30444.685273729003, -25328.370967909214, -4338.294784819458, -33846.79959378238, -35584.491262971314, -18647.16632928447, -18943.84103343976, -32961.62580986331, -31351.607305003086, -0.1683125, 0.9291875, -0.250875, 192.0, 0.0, 0.0, 0.0, 0.0, 0.0, 0.0, 0.0, 0.0, 0.0, 1.673120201064723E9, 0.0, 2023-01-07 14:36:41.064
94.0, -30678.819796898344, -28944.078557977507, -33171.10635889845, -25694.98428046516, -30508.52185589336, -28705.719555106112, -35593.14138807552, -30465.517099561348, -25302.6217582967, -4409.708608354164, -33844.31855014784, -35660.084862719166, -18642.383055971033, -18979.246196656968, -32976.71323737064, -31425.435116938967, -0.1683125, 0.9291875, -0.250875, 192.0, 0.0, 0.0, 0.0, 0.0, 0.0, 0.0, 0.0, 0.0, 0.0, 1.6731202010647287E9, 0.0, 2023-01-07 14:36:41.064
96.0, -30678.439817242604, -28937.037758474085, -33165.85369895145, -25685.32832686047, -30506.823123314756, -28702.120924248808, -35586.748789161305, -30454.69885524498, -25339.949171537064, -4362.546427553467, -33861.08235848932, -35601.99267887982, -18660.107989324093, -18979.156789679146, -32975.59565014787, -31375.54602331472, -0.1683125, 0.9291875, -0.250875, 192.0, 0.0, 0.0, 0.0, 0.0, 0.0, 0.0, 0.0, 0.0, 0.0, 1.6731202010647345E9, 0.0, 2023-01-07 14:36:41.064
98.0, -30677.970430609043, -28933.886162505885, -33148.12876559839, -25685.4624373272, -30494.619070842156, -28704.69137486117, -35560.239620237306, -30456.777567479323, -25293.546950047847, -4400.812614060952, -33832.76269826444, -35642.9634264664, -18632.771805855253, -18973.211225654035, -32949.33235041289, -31403.552759117218, -0.20815625, 0.91759375, -0.2504375, 192.0, 124.0, 32.0, 14.0, 40.0, 124.0, 24.0, 0.0, 0.0, 0.0, 1.67312020106474E9, 0.0, 2023-01-07 14:36:41.064
100.0, -30694.398962783693, -28940.099947464463, -33174.19089963328, -25681.64028902534, -30523.07284153376, -28694.16370322272, -35583.01604783726, -30445.445233040482, -25337.937514536086, -4360.28890136348, -33861.372931167236, -35596.36003927708, -18653.558928198687, -18977.770981522917, -32960.82114706292, -31360.570354529664, -0.20815625, 0.91759375, -0.2504375, 192.0, 0.0, 0.0, 0.0, 0.0, 0.0, 0.0, 0.0, 0.0, 0.0, 1.6731202010647457E9, 0.0, 2023-01-07 14:36:41.064
102.0, -30673.813006140354, -28917.502333820146, -33145.714777197216, -25678.242823868135, -30492.51800686336, -28689.536892120468, -35561.60307664908, -30454.050654655774, -25306.220389154005, -4401.125538483327, -33851.18053569562, -35648.037272457754, -18645.44524496141, -18970.573719808308, -32968.30898145545, -31408.850122553125, -0.20815625, 0.91759375, -0.2504375, 192.0, 0.0, 0.0, 0.0, 0.0, 0.0, 0.0, 0.0, 0.0, 0.0, 1.6731202010647528E9, 0.0, 2023-01-07 14:36:41.064
104.0, -30692.946099394096, -28927.538267080577, -33178.214213635234, -25672.878405198862, -30534.919266095076, -28687.458179886125, -35575.10353030009, -30430.760136933346, -25326.381662652693, -4354.4774478051, -33854.443890386094, -35594.23662355383, -18652.530747953744, -18951.060646898826, -32955.344969671365, -31357.06113065018, -0.20815625, 0.91759375, -0.2504375, 192.0, 0.0, 0.0, 0.0, 0.0, 0.0, 0.0, 0.0, 0.0, 0.0, 1.6731202010647583E9, 0.0, 2023-01-07 14:36:41.064
106.0, -30697.34939305179, -28934.40025262836, -33167.038341407584, -25707.098925959937, -30507.068992503762, -28716.135468022287, -35592.8508153976, -30476.715323533455, -25314.289368902373, -4416.212965990659, -33861.149413722684, -35653.222877171385, -18658.521015467766, -18972.071286686813, -32976.82499609292, -31413.11930574409, -0.20815625, 0.91759375, -0.2504375, 192.0, 0.0, 0.0, 0.0, 0.0, 0.0, 0.0, 0.0, 0.0, 0.0, 1.6731202010647643E9, 0.0, 2023-01-07 14:36:41.064
108.0, -30697.237634329515, -28927.024176958108, -33182.25987938164, -25679.516873302087, -30507.761896581876, -28682.29492691695, -35578.36688499056, -30423.898151385565, -25335.188249968083, -4377.72326203862, -33868.52548939294, -35616.8565889426, -18654.4529979769, -18958.771998735905, -32970.655914623254, -31371.142729657025, -0.243078125, 0.9057968750000001, -0.24321874999999998, 192.0, 123.5, 40.0, 13.5, 120.0, 124.0, 80.0, 0.0, 0.0, 0.0, 1.67312020106477E9, 0.0, 2023-01-07 14:36:41.064
110.0, -30672.98599159551, -28910.05920291653, -33144.64189346336, -25691.720925774687, -30476.46945434445, -28696.465932901614, -35563.12299527204, -30462.119634404142, -25304.365194364214, -4399.695026838187, -33855.002683997474, -35637.86722873059, -18641.377227470544, -18962.303574359845, -32969.02423727801, -31399.73061081536, -0.243078125, 0.9057968750000001, -0.24321874999999998, 192.0, 0.0, 0.0, 0.0, 0.0, 0.0, 0.0, 0.0, 0.0, 0.0, 1.6731202010647757E9, 0.0, 2023-01-07 14:36:41.064
112.0, -30709.5981490133, -28941.82103178752, -33182.99748694867, -25682.7131727592, -30511.338175694727, -28690.565072365414, -35558.138556258506, -30421.148886817562, -25313.864685757722, -4384.004102230561, -33855.87440203124, -35610.91102491749, -18638.516204180265, -18961.61067028173, -32949.15353645725, -31365.979476687848, -0.243078125, 0.9057968750000001, -0.24321874999999998, 192.0, 0.0, 0.0, 0.0, 0.0, 0.0, 0.0, 0.0, 0.0, 0.0, 1.6731202010647812E9, 0.0, 2023-01-07 14:36:41.064
114.0, -30688.78867492541, -28932.790927027578, -33162.79150996107, -25714.407946396823, -30497.904777277086, -28726.238456516083, -35574.47768145534, -30477.296468889293, -25311.11542118972, -4415.676524123732, -33867.810233570366, -35644.57275206718, -18651.189643286427, -18999.295711433377, -32975.841519336886, -31401.83167479416, -0.243078125, 0.9057968750000001, -0.24321874999999998, 192.0, 0.0, 0.0, 0.0, 0.0, 0.0, 0.0, 0.0, 0.0, 0.0, 1.673120201064787E9, 0.0, 2023-01-07 14:36:41.064
116.0, -30729.22298064506, -28968.620773389433, -33216.033365253614, -25711.70338531773, -30533.17583002756, -28724.293854748474, -35609.79343769472, -30459.325666347228, -25317.61977882621, -4416.436483435212, -33875.65569587418, -35644.19277241144, -18654.67651542145, -19006.56002838135, -32990.41485672174, -31397.227215436367, -0.243078125, 0.9057968750000001, -0.24321874999999998, 192.0, 0.0, 0.0, 0.0, 0.0, 0.0, 0.0, 0.0, 0.0, 0.0, 1.6731202010647926E9, 0.0, 2023-01-07 14:36:41.064
118.0, -30677.70220967558, -28923.134973422882, -33157.98588490318, -25695.766591521096, -30514.400364685105, -28712.425078442706, -35562.81007084967, -30464.801843738776, -25321.799555039353, -4423.432579449723, -33878.6955331201, -35648.752528280325, -18662.74549516982, -19006.604731870262, -33000.20492079317, -31403.552759117218, -0.243078125, 0.9057968750000001, -0.24321874999999998, 192.0, 0.0, 0.0, 0.0, 0.0, 0.0, 0.0, 0.0, 0.0, 0.0, 1.6731202010647988E9, 0.0, 2023-01-07 14:36:41.064
120.0, -30725.8031637434, -28965.91621231034, -33209.4396006393, -25701.04160321255, -30532.840553860733, -28722.55041868096, -35617.348327320615, -30461.65024777058, -25306.175685665094, -4412.860204322363, -33860.43415790012, -35634.827391484665, -18650.83201537514, -18993.327795663812, -32988.693772398685, -31385.40314261951, -0.28800000000000003, 0.896, -0.228, 192.0, 123.5, 0.0, 14.0, 0.0, 124.0, 112.0, 0.0, 0.0, 0.0, 1.6731202015449333E9, 0.0, 2023-01-07 14:36:41.544
122.0, -30685.324154534836, -28932.20978167174, -33150.185126088276, -25691.98914670815, -30494.93199526453, -28708.312357462928, -35561.916001071455, -30469.741579263402, -25330.740252821477, -4421.107998026371, -33880.17074825415, -35639.54360956474, -18667.03703010524, -19008.750499337973, -32998.841464381396, -31394.83557877965, -0.28800000000000003, 0.896, -0.228, 192.0, 0.0, 0.0, 0.0, 0.0, 0.0, 0.0, 0.0, 0.0, 0.0, 1.6731202015450044E9, 0.0, 2023-01-07 14:36:41.545
124.0, -30707.184160612127, -28950.87348829192, -33174.90615545585, -25670.263251097593, -30511.36052743918, -28682.20551993913, -35558.9432190589, -30425.753346175356, -25294.217502381507, -4402.06431175045, -33845.436137370605, -35625.01497566879, -18640.17023326996, -18974.14999892116, -32952.99803650356, -31360.25743010729, -0.28800000000000003, 0.896, -0.228, 192.0, 0.0, 0.0, 0.0, 0.0, 0.0, 0.0, 0.0, 0.0, 0.0, 1.6731202015451424E9, 0.0, 2023-01-07 14:36:41.545
126.0, -30685.055933601372, -28935.897819506863, -33141.870277150905, -25681.975565192173, -30477.609393311668, -28678.852758270834, -35537.35143391507, -30447.92627667502, -25315.6751770586, -4400.410282660757, -33867.20673647007, -35613.2579580853, -18650.675553163954, -18986.756382793952, -32953.243905692565, -31339.403252530486, -0.28800000000000003, 0.896, -0.228, 192.0, 0.0, 0.0, 0.0, 0.0, 0.0, 0.0, 0.0, 0.0, 0.0, 1.6731202015451524E9, 0.0, 2023-01-07 14:36:41.545
128.0, -30707.02769840094, -28955.500299394167, -33182.43869333729, -25680.07566691347, -30515.495600163413, -28683.703086817633, -35542.42527990643, -30424.233427552397, -25287.176702878085, -4418.001105547083, -33848.87830601672, -35629.99941468232, -18635.766939612262, -18983.56008333684, -32938.17882992969, -31357.418758561464, -0.28800000000000003, 0.896, -0.228, 192.0, 0.0, 0.0, 0.0, 0.0, 0.0, 0.0, 0.0, 0.0, 0.0, 1.6731202015451603E9, 0.0, 2023-01-07 14:36:41.545
130.0, -30675.914070119154, -28930.376938626403, -33157.6282569919, -25680.679164013764, -30500.02819300034, -28690.05098224294, -35542.38057641752, -30450.004988909364, -25316.368081136716, -4393.682407579709, -33860.47886138903, -35595.93535613243, -18656.643468933522, -18982.353089136253, -32958.04953075046, -31347.516935767766, -0.258, 0.898, -0.20600000000000002, 192.0, 123.5, 120.0, 14.0, 8.0, 124.5, 72.0, 0.0, 0.0, 0.0, 1.6731202015451689E9, 0.0, 2023-01-07 14:36:41.545
132.0, -30692.946099394096, -28948.414796401838, -33186.59611780597, -25679.762742491097, -30508.879483804645, -28691.48149388808, -35570.34260873111, -30446.674578985523, -25267.462464268505, -4406.378198430324, -33831.35453836376, -35614.46495228588, -18634.291724478215, -18973.61355705423, -32961.33523718539, -31384.218500163377, -0.258, 0.898, -0.20600000000000002, 192.0, 0.0, 0.0, 0.0, 0.0, 0.0, 0.0, 0.0, 0.0, 0.0, 1.6731202015451772E9, 0.0, 2023-01-07 14:36:41.545
134.0, -30698.26581457446, -28958.361322684446, -33189.21127190725, -25703.61205382491, -30524.056318289797, -28722.282197747496, -35575.77408263375, -30484.672544559548, -25315.20579042504, -4397.973942515128, -33867.094977747794, -35590.77210316325, -18668.64635570602, -18996.14411546518, -33002.66361268325, -31383.34678212962, -0.258, 0.898, -0.20600000000000002, 192.0, 0.0, 0.0, 0.0, 0.0, 0.0, 0.0, 0.0, 0.0, 0.0, 1.6731202015451934E9, 0.0, 2023-01-07 14:36:41.545
136.0, -30701.97620415404, -28959.836537818497, -33189.56889981853, -25687.809370495008, -30527.073803791263, -28701.472723659605, -35569.98498081982, -30460.39855008108, -25279.465351041003, -4424.661925394765, -33844.40795712566, -35618.08593488764, -18652.21782353137, -18993.931292764104, -32990.59367067739, -31410.03476500926, -0.258, 0.898, -0.20600000000000002, 192.0, 0.0, 0.0, 0.0, 0.0, 0.0, 0.0, 0.0, 0.0, 0.0, 1.6731202015452015E9, 0.0, 2023-01-07 14:36:41.545
138.0, -30695.78477093992, -28959.09893025147, -33184.67386778282, -25700.348699134436, -30516.188504241527, -28703.886712060776, -35577.159890789975, -30475.79890201079, -25321.419575383614, -4387.356863898857, -33866.0444457584, -35576.13171054503, -18670.233329562347, -18992.679595074605, -32994.639336423796, -31371.58976454613, -0.258, 0.898, -0.20600000000000002, 192.0, 0.0, 0.0, 0.0, 0.0, 0.0, 0.0, 0.0, 0.0, 0.0, 1.6731202015452101E9, 0.0, 2023-01-07 14:36:41.545
140.0, -30692.230843571528, -28956.26025870565, -33182.52810031511, -25694.961928720706, -30519.876542076654, -28693.269633444506, -35563.100643527585, -30458.69981750248, -25271.597536992736, -4416.034152035017, -33838.75296577847, -35609.5028650168, -18645.6017071726, -19006.738842336996, -32976.310905970444, -31406.950224274427, -0.202, 0.908, -0.186, 192.0, 124.5, 88.0, 14.0, 48.0, 125.0, 24.0, 0.0, 0.0, 0.0, 1.6731202015452187E9, 0.0, 2023-01-07 14:36:41.545
142.0, -30668.82856712682, -28929.371110125914, -33164.1773181173, -25672.6101842654, -30514.64623387411, -28683.63603158427, -35535.38448040301, -30441.578381249714, -25303.649938541646, -4369.587227056888, -33848.431271127614, -35556.12689925753, -18656.777579400252, -18990.109144462247, -32972.57816464641, -31353.90953468198, -0.202, 0.908, -0.186, 192.0, 0.0, 0.0, 0.0, 0.0, 0.0, 0.0, 0.0, 0.0, 0.0, 1.6731202015452273E9, 0.0, 2023-01-07 14:36:41.545
144.0, -30686.06176210186, -28948.101871979463, -33173.743864744174, -25687.161169905805, -30515.450896674505, -28693.090819488865, -35560.55254465968, -30454.475337800424, -25260.980458376464, -4390.575515100421, -33816.356517834254, -35583.95482110439, -18630.894259321005, -18982.80012402536, -32951.41106264723, -31379.21170940539, -0.202, 0.908, -0.186, 192.0, 0.0, 0.0, 0.0, 0.0, 0.0, 0.0, 0.0, 0.0, 0.0, 1.6731202015452356E9, 0.0, 2023-01-07 14:36:41.545
146.0, -30716.79541072791, -28976.22036650424, -33213.105286729966, -25709.42350738329, -30534.04754806132, -28706.85949407333, -35590.794454907715, -30471.26149788636, -25340.150337237163, -4405.215907718648, -33874.40399818468, -35579.97621059135, -18675.664803464988, -19007.297635948376, -32991.353629988866, -31363.54313654222, -0.202, 0.908, -0.186, 192.0, 0.0, 0.0, 0.0, 0.0, 0.0, 0.0, 0.0, 0.0, 0.0, 1.6731202015452442E9, 0.0, 2023-01-07 14:36:41.545
148.0, -30688.185177825115, -28950.69467433628, -33179.331800858, -25692.682050786265, -30507.873655304156, -28689.425133398192, -35551.164811988456, -30447.009855152355, -25292.42936282508, -4415.542413657, -33846.21844842654, -35610.03930688373, -18650.340276997125, -19000.212132956047, -32968.95718204465, -31394.768523546285, -0.202, 0.908, -0.186, 192.0, 0.0, 0.0, 0.0, 0.0, 0.0, 0.0, 0.0, 0.0, 0.0, 1.6731202015452528E9, 0.0, 2023-01-07 14:36:41.545
150.0, -30700.165712853162, -28959.97064828523, -33200.945937746284, -25686.244748383135, -30515.629710630146, -28685.223005440595, -35548.32614044263, -30421.819439151222, -25323.8782672737, -4383.825288274919, -33863.831623057325, -35572.80130062119, -18659.97387885736, -18995.09358347578, -32971.59468789038, -31357.26229635028, -0.178, 0.912, -0.17, 192.0, 125.0, 56.0, 14.0, 64.0, 125.0, 88.0, 0.0, 0.0, 0.0, 1.6731202015452611E9, 0.0, 2023-01-07 14:36:41.545
152.0, -30669.00738108246, -28933.886162505885, -33165.11609138442, -25667.357524318402, -30500.676393589547, -28668.8168250104, -35515.916110982434, -30408.475447711404, -25278.101894629228, -4397.325741925924, -33835.98134946601, -35594.39308576502, -18635.141090767516, -18995.160638709145, -32955.94846677166, -31386.565433331187, -0.178, 0.912, -0.17, 192.0, 0.0, 0.0, 0.0, 0.0, 0.0, 0.0, 0.0, 0.0, 0.0, 1.67312020154527E9, 0.0, 2023-01-07 14:36:41.545
154.0, -30699.115180863762, -28963.502223909167, -33212.85941754096, -25673.683067999253, -30522.067013033273, -28683.613679839815, -35554.31640795665, -30407.134343044087, -25306.220389154005, -4365.0945264213715, -33847.380739138214, -35561.37955920453, -18643.075960049147, -18978.933272234593, -32958.45186215066, -31351.361435814077, -0.178, 0.912, -0.17, 192.0, 0.0, 0.0, 0.0, 0.0, 0.0, 0.0, 0.0, 0.0, 0.0, 1.6731202015452788E9, 0.0, 2023-01-07 14:36:41.545
156.0, -30671.600183439277, -28939.608209086444, -33172.11218739893, -25668.028076652063, -30498.754143566388, -28685.58063335188, -35524.00744247525, -30417.729069915902, -25285.09799064374, -4394.330608168913, -33838.8870762452, -35592.873167142054, -18633.420006444456, -18984.700022304063, -32958.96595227312, -31392.667459567485, -0.178, 0.912, -0.17, 192.0, 0.0, 0.0, 0.0, 0.0, 0.0, 0.0, 0.0, 0.0, 0.0, 1.6731202015452876E9, 0.0, 2023-01-07 14:36:41.545
158.0, -30691.02384937094, -28952.616924359434, -33201.97411799122, -25659.31089631449, -30520.725908365956, -28678.651592570735, -35537.306730426164, -30390.281127724786, -25310.04253745586, -4374.348148625869, -33853.818041541344, -35571.86252735407, -18642.226593759846, -18979.89439724617, -32958.988304017585, -31364.928944698448, -0.178, 0.912, -0.17, 192.0, 0.0, 0.0, 0.0, 0.0, 0.0, 0.0, 0.0, 0.0, 0.0, 1.673120201545296E9, 0.0, 2023-01-07 14:36:41.545
160.0, -30657.898564088176, -28924.76665076812, -33152.95674240074, -25660.31672481498, -30484.560785837268, -28678.517482104002, -35501.54393929767, -30402.26166275283, -25279.42064755209, -4373.565837569933, -33832.002738952964, -35578.9480303464, -18618.086709748117, -18970.84194074177, -32945.24198117757, -31381.69275303993, -0.166, 0.93, -0.168, 192.0, 125.0, 104.0, 14.5, 8.0, 125.0, 96.0, 0.0, 0.0, 0.0, 1.6731202015453048E9, 0.0, 2023-01-07 14:36:41.545
162.0, -30688.855730158775, -28954.986209271698, -33181.52227181462, -25653.141814844825, -30507.314861692772, -28667.20749940962, -35530.9364832564, -30373.718485083402, -25289.702450001532, -4360.065383918927, -33832.53918081989, -35559.814937092655, -18617.818488814653, -18959.46490281402, -32941.88921950927, -31351.763767214274, -0.166, 0.93, -0.168, 192.0, 0.0, 0.0, 0.0, 0.0, 0.0, 0.0, 0.0, 0.0, 0.0, 1.6731202015453131E9, 0.0, 2023-01-07 14:36:41.545
164.0, -30689.97331738154, -28970.319505968037, -33160.399873304355, -25695.18544616526, -30490.305184162284, -28707.194770240163, -35547.11914624204, -30434.090546857187, -25297.39145009416, -4398.800957059974, -33843.17861118062, -35594.147216576006, -18620.679512104933, -18990.75734505145, -32955.54613537146, -31393.919157256983, -0.166, 0.93, -0.168, 192.0, 0.0, 0.0, 0.0, 0.0, 0.0, 0.0, 0.0, 0.0, 0.0, 1.6731202015453227E9, 0.0, 2023-01-07 14:36:41.545
166.0, -30697.371744796248, -28974.07459903653, -33181.76814100363, -25671.872576698373, -30496.80954179878, -28670.224984911085, -35512.94332896988, -30373.830243805678, -25300.453639084535, -4398.353922170869, -33848.81125078336, -35602.41736202447, -18625.283971462726, -18996.814667798837, -32956.08257723839, -31387.191282175936, -0.166, 0.93, -0.168, 192.0, 0.0, 0.0, 0.0, 0.0, 0.0, 0.0, 0.0, 0.0, 0.0, 1.673120201545334E9, 0.0, 2023-01-07 14:36:41.545
168.0, -30660.491366444992, -28938.82589803051, -33130.537942712064, -25670.777341220062, -30464.332457105218, -28666.224022653583, -35478.655752975435, -30387.19658698995, -25279.532406274368, -4367.463811333634, -33830.21459939654, -35578.18807103492, -18606.910837520463, -18962.84001622677, -32931.0709751929, -31366.985305188336, -0.166, 0.93, -0.168, 192.0, 0.0, 0.0, 0.0, 0.0, 0.0, 0.0, 0.0, 0.0, 0.0, 1.673120201545342E9, 0.0, 2023-01-07 14:36:41.545
170.0, -30712.101544392295, -28987.843273620998, -33194.55333883206, -25690.7150972742, -30519.697728121013, -28681.110284460818, -35529.058936722155, -30382.994459032354, -25286.103819144228, -4377.231523660604, -33841.68104430212, -35594.79541716521, -18611.515296878257, -18968.85263548525, -32942.11273695382, -31374.137863414035, -0.17400000000000002, 0.9380000000000001, -0.162, 192.0, 125.0, 72.0, 14.5, 40.0, 125.0, 120.0, 0.0, 0.0, 0.0, 1.6731202015453503E9, 0.0, 2023-01-07 14:36:41.545
172.0, -30684.899471390185, -28964.798625087577, -33158.589382003476, -25697.13004793287, -30504.073858746753, -28682.697258317145, -35507.44479983387, -30403.088677297674, -25303.62758679719, -4378.684387050198, -33855.5391258644, -35594.46014099838, -18627.720311608355, -18979.536769334885, -32970.54415590098, -31382.02802920676, -0.17400000000000002, 0.9380000000000001, -0.162, 192.0, 0.0, 0.0, 0.0, 0.0, 0.0, 0.0, 0.0, 0.0, 0.0, 1.673120201545358E9, 0.0, 2023-01-07 14:36:41.545
174.0, -30716.79541072791, -28996.202826047283, -33202.9352430028, -25695.52072233209, -30530.247751503917, -28686.608813596824, -35549.35432068758, -30391.39871494755, -25292.854045969732, -4396.409320403257, -33846.061986215354, -35606.48537951534, -18629.463747675865, -18981.23550191349, -32974.45571118066, -31394.276785168266, -0.17400000000000002, 0.9380000000000001, -0.162, 192.0, 0.0, 0.0, 0.0, 0.0, 0.0, 0.0, 0.0, 0.0, 0.0, 1.6731202015453663E9, 0.0, 2023-01-07 14:36:41.545
176.0, -30692.007326126975, -28980.847177606487, -33166.390140818374, -25705.824876525985, -30489.075838217243, -28713.29679647646, -35537.6867100819, -30431.050709611263, -25315.96574973652, -4399.940896027195, -33865.485652147014, -35603.8031701807, -18646.853404862097, -19006.694138848085, -32998.81911263694, -31405.810285307205, -0.17400000000000002, 0.9380000000000001, -0.162, 192.0, 0.0, 0.0, 0.0, 0.0, 0.0, 0.0, 0.0, 0.0, 0.0, 1.6731202015453742E9, 0.0, 2023-01-07 14:36:41.545
178.0, -30704.814875699863, -28991.17368354484, -33181.365809603434, -25683.07080067048, -30515.51795190787, -28693.24728170005, -35522.12989594101, -30386.01194453382, -25271.19520559254, -4399.627971604821, -33830.058137185355, -35606.9547661489, -18617.48321264782, -18990.064440973336, -32958.921248784216, -31399.79766604873, -0.17400000000000002, 0.9380000000000001, -0.162, 192.0, 0.0, 0.0, 0.0, 0.0, 0.0, 0.0, 0.0, 0.0, 0.0, 1.6731202015453827E9, 0.0, 2023-01-07 14:36:41.545
180.0, -30706.424201300648, -28994.526445213134, -33168.51355654163, -25703.142667191347, -30508.857132060188, -28721.6787006472, -35545.12984098552, -30432.280055556304, -25306.39920310965, -4387.960360999151, -33855.76264330895, -35590.52623397425, -18638.560907669176, -18992.05374622986, -32971.66174312374, -31380.418703605977, -0.16, 0.9420000000000001, -0.154, 192.0, 125.5, 0.0, 14.5, 56.0, 125.5, 24.0, 0.0, 0.0, 0.0, 1.6731202015453908E9, 0.0, 2023-01-07 14:36:41.545
182.0, -30742.03053021795, -29023.673119982854, -33204.1869406923, -25708.283568416067, -30540.57425744227, -28725.120869293318, -35560.41843419295, -30423.138192074086, -25302.130019918684, -4450.947576874206, -33871.31945744985, -35648.73017653587, -18644.41706471647, -19020.060482032357, -32991.66655441124, -31428.07262278469, -0.16, 0.9420000000000001, -0.154, 192.0, 0.0, 0.0, 0.0, 0.0, 0.0, 0.0, 0.0, 0.0, 0.0, 1.6731202015453992E9, 0.0, 2023-01-07 14:36:41.545
184.0, -30711.54275078091, -28992.02304983414, -33168.915887941825, -25689.195178651236, -30524.212780500984, -28715.55432266645, -35538.357262415564, -30423.987558363388, -25333.355406922747, -4404.612410618354, -33880.21545174306, -35598.9528416339, -18658.900995123506, -19009.778679582916, -32994.080542812415, -31384.93375598595, -0.16, 0.9420000000000001, -0.154, 192.0, 0.0, 0.0, 0.0, 0.0, 0.0, 0.0, 0.0, 0.0, 0.0, 1.6731202015454073E9, 0.0, 2023-01-07 14:36:41.545
186.0, -30702.69145997661, -28980.40014271738, -33158.008236647634, -25666.59756500692, -30518.51308566488, -28700.757467837033, -35517.234863905294, -30402.39577321956, -25289.657746512625, -4417.710532869164, -33840.76462277945, -35610.441638283926, -18636.83982334612, -19010.27041796093, -32981.87649033982, -31411.912311543503, -0.16, 0.9420000000000001, -0.154, 192.0, 0.0, 0.0, 0.0, 0.0, 0.0, 0.0, 0.0, 0.0, 0.0, 1.6731202015454152E9, 0.0, 2023-01-07 14:36:41.545
188.0, -30682.127855077728, -28959.367151184935, -33131.92375086829, -25652.381855533346, -30511.42758267255, -28687.458179886125, -35497.76649448473, -30396.181988260985, -25303.180551908084, -4359.841866474374, -33831.60040755277, -35547.61088462006, -18634.090558778116, -18976.653394300152, -32960.95525752965, -31353.820127704163, -0.16, 0.9420000000000001, -0.154, 192.0, 0.0, 0.0, 0.0, 0.0, 0.0, 0.0, 0.0, 0.0, 0.0, 1.6731202015454235E9, 0.0, 2023-01-07 14:36:41.545
190.0, -30714.51553279347, -28991.330145756026, -33153.962570901225, -25673.548957532523, -30514.64623387411, -28704.57961613889, -35554.092890512096, -30421.5288664733, -25273.363324804704, -4400.656151849765, -33825.654843527656, -35598.14817883351, -18625.239267973815, -18984.14122869268, -32954.00386500405, -31402.16695096099, -0.15, 0.9400000000000001, -0.152, 192.0, 125.5, 40.0, 14.5, 48.0, 125.5, 32.0, 0.0, 0.0, 0.0, 1.6731202015454319E9, 0.0, 2023-01-07 14:36:41.545
192.0, -30721.04224217442, -28998.952090615287, -33173.27447811061, -25689.50810307361, -30505.45966690298, -28711.083973775385, -35563.391216205506, -30432.190648578486, -25335.411767412636, -4391.760157556553, -33874.582812140325, -35592.470835741864, -18651.301402008703, -19000.323891678323, -32974.70158036966, -31386.96776473138, -0.15, 0.9400000000000001, -0.152, 192.0, 0.0, 0.0, 0.0, 0.0, 0.0, 0.0, 0.0, 0.0, 0.0, 1.67312020154544E9, 0.0, 2023-01-07 14:36:41.545
194.0, -30708.83818970182, -28983.998773574684, -33169.09470189747, -25687.809370495008, -30512.120486750664, -28704.57961613889, -35534.82568679162, -30424.92633163051, -25298.374926850192, -4417.554070657977, -33855.0920909753, -35624.67969950196, -18641.377227470544, -19001.128554478713, -32968.912478555736, -31425.07748902768, -0.15, 0.9400000000000001, -0.152, 192.0, 0.0, 0.0, 0.0, 0.0, 0.0, 0.0, 0.0, 0.0, 0.0, 1.6731202015454483E9, 0.0, 2023-01-07 14:36:41.545
196.0, -30724.439707331625, -28995.50992196917, -33195.76033303265, -25694.917225231795, -30538.182620785552, -28704.221988227608, -35536.45736413686, -30415.739764659378, -25341.022055270918, -4388.876782521818, -33875.70039936309, -35588.067542084165, -18662.901957381007, -19006.58238012581, -32977.652010637765, -31382.87739549606, -0.15, 0.9400000000000001, -0.152, 192.0, 0.0, 0.0, 0.0, 0.0, 0.0, 0.0, 0.0, 0.0, 0.0, 1.6731202015454564E9, 0.0, 2023-01-07 14:36:41.545
198.0, -30707.02769840094, -28979.997811317186, -33168.24533560817, -25689.396344351335, -30522.067013033273, -28700.422191670204, -35519.35827962855, -30419.092526327673, -25305.95216822054, -4422.136178271315, -33856.72376832054, -35625.28319660225, -18654.229480532347, -19007.498801648475, -32982.971725818126, -31423.535218660265, -0.15, 0.9400000000000001, -0.152, 192.0, 0.0, 0.0, 0.0, 0.0, 0.0, 0.0, 0.0, 0.0, 0.0, 1.6731202015454667E9, 0.0, 2023-01-07 14:36:41.545
200.0, -30706.22303560055, -28977.762636871656, -33176.91781245683, -25673.191329621237, -30522.067013033273, -28681.132636205275, -35530.62355883403, -30392.44924693695, -25320.413746883125, -4377.253875405058, -33857.08139623182, -35578.45629196838, -18654.341239254623, -18986.354051393755, -32977.093217026384, -31370.58393604564, -0.14700000000000002, 0.9390000000000001, -0.154, 192.0, 125.5, 64.0, 14.5, 40.0, 125.5, 16.0, 0.0, 0.0, 0.0, 1.6731202015454743E9, 0.0, 2023-01-07 14:36:41.545
202.0, -30716.393079327714, -28994.54879695759, -33163.819690206015, -25693.889044986852, -30519.071879276264, -28706.97125279561, -35538.24550369329, -30430.961302633445, -25293.85987447022, -4408.591021131399, -33843.5362390919, -35608.63114698305, -18645.22172751686, -18999.56393236684, -32977.294382726475, -31403.59746260613, -0.14700000000000002, 0.9390000000000001, -0.154, 192.0, 0.0, 0.0, 0.0, 0.0, 0.0, 0.0, 0.0, 0.0, 0.0, 1.6731202015454829E9, 0.0, 2023-01-07 14:36:41.545
204.0, -30718.248274117504, -28994.235872535217, -33167.3289140855, -25659.69087597023, -30522.782268855844, -28677.131673947773, -35500.336945097086, -30383.06151426572, -25332.573095866814, -4398.82330880443, -33866.02209401394, -35593.47666424235, -18660.68913467993, -19007.297635948376, -32973.3828274468, -31362.514956297277, -0.14700000000000002, 0.9390000000000001, -0.154, 192.0, 0.0, 0.0, 0.0, 0.0, 0.0, 0.0, 0.0, 0.0, 0.0, 1.6731202015454912E9, 0.0, 2023-01-07 14:36:41.545
206.0, -30687.78284642492, -28967.369075699935, -33122.62542517488, -25643.955247873695, -30508.23128321544, -28681.53496760547, -35495.48661655028, -30402.954566830944, -25273.698600971533, -4382.864163263341, -33820.133962647196, -35579.30565825768, -18624.233439473326, -18974.909958232638, -32926.10888792382, -31344.81237468867, -0.14700000000000002, 0.9390000000000001, -0.154, 192.0, 0.0, 0.0, 0.0, 0.0, 0.0, 0.0, 0.0, 0.0, 0.0, 1.6731202015454996E9, 0.0, 2023-01-07 14:36:41.545
208.0, -30747.014969231484, -29017.772259446654, -33186.50671082815, -25668.341001074434, -30521.91055082209, -28714.794363354966, -35566.00637030678, -30430.178991577508, -25327.231028941995, -4385.68048306471, -33865.08332074682, -35586.97230660586, -18649.468558963366, -19006.42591791462, -32957.803661561455, -31353.10487188159, -0.14700000000000002, 0.9390000000000001, -0.154, 192.0, 0.0, 0.0, 0.0, 0.0, 0.0, 0.0, 0.0, 0.0, 0.0, 1.6731202015455077E9, 0.0, 2023-01-07 14:36:41.545
210.0, -30725.55729455439, -28999.689698182312, -33148.84402142096, -25681.2603093696, -30526.13503052414, -28719.175305268207, -35546.26977995274, -30453.60361976667, -25330.24851444346, -4428.551128929988, -33881.26598373246, -35625.7078797469, -18661.985535858337, -19030.208174015068, -32984.42458920772, -31404.983270762357, -0.14450000000000002, 0.9395, -0.155, 192.0, 125.5, 72.0, 14.5, 48.0, 125.5, 16.0, 0.0, 0.0, 0.0, 1.6731202015455155E9, 0.0, 2023-01-07 14:36:41.545
212.0, -30726.473716077056, -28994.772314402144, -33165.94310592927, -25653.253573567104, -30510.220588471962, -28686.78762755247, -35536.256198436764, -30401.188779018972, -25311.160124678627, -4397.616314603843, -33860.83648930031, -35591.37560026355, -18647.859233362586, -18995.04887998687, -32968.9348303002, -31365.420683076467, -0.14450000000000002, 0.9395, -0.155, 192.0, 0.0, 0.0, 0.0, 0.0, 0.0, 0.0, 0.0, 0.0, 0.0, 1.673120201545524E9, 0.0, 2023-01-07 14:36:41.545
214.0, -30717.398907828203, -28990.34666899999, -33148.32993129849, -25679.22630062417, -30508.27598670435, -28708.044136529465, -35530.601207089574, -30441.533677760803, -25303.96286296402, -4400.052654749472, -33860.881192789224, -35598.215234066876, -18644.797044372208, -19000.86033354525, -32973.65104838026, -31382.363305373587, -0.14450000000000002, 0.9395, -0.155, 192.0, 0.0, 0.0, 0.0, 0.0, 0.0, 0.0, 0.0, 0.0, 0.0, 1.6731202015455322E9, 0.0, 2023-01-07 14:36:41.545
216.0, -30744.757443041497, -29013.011337877673, -33195.73798128819, -25668.452759796714, -30536.41683297358, -28690.699182832144, -35545.86744855255, -30410.196532034464, -25317.776241037398, -4401.706683839165, -33871.11829174975, -35598.9528416339, -18651.860195620084, -18998.08871723279, -32981.1835862617, -31378.429398349454, -0.14450000000000002, 0.9395, -0.155, 192.0, 0.0, 0.0, 0.0, 0.0, 0.0, 0.0, 0.0, 0.0, 0.0, 1.6731202015455403E9, 0.0, 2023-01-07 14:36:41.545
218.0, -30720.706966007587, -28993.40885799037, -33161.80803320504, -25681.148550647325, -30516.344966452714, -28695.81773231241, -35538.424317648925, -30440.6843114715, -25325.68875857458, -4401.952553028173, -33880.28250697643, -35602.66323121348, -18661.627907947055, -19004.57072312483, -32999.0873335704, -31394.96968924638, -0.14450000000000002, 0.9395, -0.155, 192.0, 0.0, 0.0, 0.0, 0.0, 0.0, 0.0, 0.0, 0.0, 0.0, 1.6731202015455487E9, 0.0, 2023-01-07 14:36:41.545
220.0, -30743.84102151883, -29012.78782043312, -33189.65830679635, -25670.687934242244, -30529.42073695907, -28681.043229227453, -35535.67505308092, -30400.92055808551, -25313.5741130798, -4403.338361184402, -33866.87146030324, -35605.27838531475, -18651.12258805306, -19002.603769612764, -32982.748208373574, -31385.045514708225, -0.14425000000000002, 0.94275, -0.1545, 192.0, 125.5, 64.0, 14.5, 72.0, 125.5, 24.0, 0.0, 0.0, 0.0, 1.6731202015455568E9, 0.0, 2023-01-07 14:36:41.545
222.0, -30710.961605425073, -28988.044439321096, -33138.83043990498, -25675.18063487776, -30509.192408227016, -28684.73126706258, -35504.382610843495, -30418.086697827184, -25328.505078375947, -4400.63380010531, -33872.07941676133, -35600.11513234558, -18662.03023934725, -19003.76606032444, -32984.648106652276, -31378.02706694926, -0.14425000000000002, 0.94275, -0.1545, 192.0, 0.0, 0.0, 0.0, 0.0, 0.0, 0.0, 0.0, 0.0, 0.0, 1.673120201545565E9, 0.0, 2023-01-07 14:36:41.545
224.0, -30724.685576520635, -28994.325279513036, -33155.437786035276, -25643.731730429143, -30522.04466128882, -28662.603040051825, -35495.75483748375, -30369.873985037088, -25289.076601156787, -4394.576477357921, -33841.41282336865, -35597.23175731084, -18637.21980300186, -18983.56008333684, -32953.19920220366, -31362.313790597178, -0.14425000000000002, 0.94275, -0.1545, 192.0, 0.0, 0.0, 0.0, 0.0, 0.0, 0.0, 0.0, 0.0, 0.0, 1.673120201545573E9, 0.0, 2023-01-07 14:36:41.545
226.0, -30707.541788523413, -28980.64601190639, -33128.54863745554, -25653.812367178485, -30504.31972793576, -28695.482456145583, -35516.98899471629, -30417.103221071153, -25309.19317116656, -4383.221791174626, -33848.721843805535, -35569.31442848616, -18646.2499077618, -18982.93423449209, -32960.932905785194, -31337.279836807233, -0.14425000000000002, 0.94275, -0.1545, 192.0, 0.0, 0.0, 0.0, 0.0, 0.0, 0.0, 0.0, 0.0, 0.0, 1.673120201545581E9, 0.0, 2023-01-07 14:36:41.545
228.0, -30734.56504756988, -29002.193093561305, -33158.589382003476, -25643.26234379558, -30524.436297945536, -28697.114133490817, -35530.17652394492, -30401.76992437481, -25294.06104017032, -4406.892288552795, -33842.50805884696, -35595.48832124333, -18645.6017071726, -19000.346243422777, -32967.81724307743, -31375.54602331472, -0.14425000000000002, 0.94275, -0.1545, 192.0, 0.0, 0.0, 0.0, 0.0, 0.0, 0.0, 0.0, 0.0, 0.0, 1.6731202015455892E9, 0.0, 2023-01-07 14:36:41.545
230.0, -30715.83428571633, -28981.808302618065, -33129.86739037841, -25636.959151859184, -30520.502390921403, -28708.893502818766, -35529.66243382245, -30427.563837476235, -25332.416633655626, -4388.496802866078, -33859.45068114408, -35566.72162612934, -18665.22653880436, -19006.403566170164, -32979.9318885722, -31362.514956297277, -0.143125, 0.9433750000000001, -0.15525, 192.0, 125.5, 72.0, 14.5, 64.0, 125.5, 16.0, 0.0, 0.0, 0.0, 1.6731202015455995E9, 0.0, 2023-01-07 14:36:41.545
232.0, -30733.84979174731, -29000.58376796052, -33149.53692549907, -25635.282771025035, -30525.464478190483, -28716.98483431159, -35550.315445699154, -30423.36170951864, -25291.423534324593, -4407.585192630911, -33828.96290170705, -35581.54083270321, -18640.527861181243, -19015.14309825219, -32960.3294086849, -31394.03091597926, -0.143125, 0.9433750000000001, -0.15525, 192.0, 0.0, 0.0, 0.0, 0.0, 0.0, 0.0, 0.0, 0.0, 0.0, 1.6731202015456076E9, 0.0, 2023-01-07 14:36:41.545
234.0, -30727.881875977742, -28996.471046980747, -33146.11710859741, -25647.442120008724, -30512.701632106502, -28726.21610477163, -35552.975303289335, -30447.367483063637, -25345.313590206337, -4398.3762739153235, -33866.55853588087, -35568.845041852604, -18668.355783028102, -19020.77573785493, -32980.82595835042, -31386.34191588663, -0.143125, 0.9433750000000001, -0.15525, 192.0, 0.0, 0.0, 0.0, 0.0, 0.0, 0.0, 0.0, 0.0, 0.0, 1.673120201545617E9, 0.0, 2023-01-07 14:36:41.545
236.0, -30722.31629160837, -28988.06679106555, -33149.29105631007, -25634.567515202467, -30513.685108862534, -28694.275461944995, -35538.80429730467, -30417.371442004616, -25288.316641845304, -4408.255744964569, -33836.80836401086, -35589.78862640722, -18642.673628648954, -19000.636816100698, -32958.831841806394, -31405.83263705166, -0.143125, 0.9433750000000001, -0.15525, 192.0, 0.0, 0.0, 0.0, 0.0, 0.0, 0.0, 0.0, 0.0, 0.0, 1.6731202015456257E9, 0.0, 2023-01-07 14:36:41.545
238.0, -30708.79348621291, -28975.326296726027, -33133.84600089145, -25628.934875599727, -30499.961137766975, -28683.278403672983, -35516.81018076064, -30411.49293321287, -25321.33016840579, -4363.999290943061, -33856.32143692034, -35556.23865797981, -18653.246003776312, -18985.99642348247, -32964.06215000894, -31361.330313841143, -0.143125, 0.9433750000000001, -0.15525, 192.0, 0.0, 0.0, 0.0, 0.0, 0.0, 0.0, 0.0, 0.0, 0.0, 1.6731202015456336E9, 0.0, 2023-01-07 14:36:41.545
240.0, -30721.869256719263, -28986.949203842785, -33136.79643115955, -25643.01647460657, -30505.392611669617, -28688.21813919761, -35528.32132915513, -30416.298558270762, -25272.737475959955, -4387.938009254695, -33823.7325935045, -35585.18416704943, -18622.4452999169, -18978.575644323308, -32947.275989923, -31391.639279322542, -0.1435625, 0.9376875, -0.155625, 192.0, 125.5, 64.0, 14.5, 16.0, 125.5, 16.0, 0.0, 0.0, 0.0, 1.6731202020259767E9, 0.0, 2023-01-07 14:36:42.025
242.0, -30720.148172396206, -28983.93171834132, -33138.38340501588, -25645.07283509646, -30508.700669849, -28676.885804758767, -35515.357317371054, -30403.356898231137, -25328.236857442484, -4383.020625474528, -33858.55661136587, -35568.845041852604, -18649.40150373, -18999.273359688923, -32977.40614144876, -31371.478005823854, -0.1435625, 0.9376875, -0.155625, 192.0, 0.0, 0.0, 0.0, 0.0, 0.0, 0.0, 0.0, 0.0, 0.0, 1.6731202020260448E9, 0.0, 2023-01-07 14:36:42.026
244.0, -30724.529114309447, -28988.44677072129, -33133.84600089145, -25656.248707324114, -30514.065088518273, -28688.01697349751, -35520.09588719557, -30414.890398370077, -25282.95222317603, -4400.63380010531, -33834.79670700988, -35598.1034753446, -18634.15761401148, -18988.56687409483, -32961.60345811885, -31395.774352046774, -0.1435625, 0.9376875, -0.155625, 192.0, 0.0, 0.0, 0.0, 0.0, 0.0, 0.0, 0.0, 0.0, 0.0, 1.6731202020260615E9, 0.0, 2023-01-07 14:36:42.026
246.0, -30738.07427144936, -28999.39912550439, -33148.03935862057, -25655.73461720164, -30512.679280362045, -28691.68265958818, -35525.437954120396, -30410.06242156773, -25330.762604565934, -4382.0595004629495, -33866.066797502855, -35579.90915535798, -18657.96222185638, -19003.72135683553, -32979.35074321637, -31369.868680223073, -0.1435625, 0.9376875, -0.155625, 192.0, 0.0, 0.0, 0.0, 0.0, 0.0, 0.0, 0.0, 0.0, 0.0, 1.6731202020260963E9, 0.0, 2023-01-07 14:36:42.026
248.0, -30723.52328580896, -28991.710125411766, -33112.097753536436, -25641.60831470589, -30487.55591959428, -28686.318240918907, -35498.83937821858, -30406.039107565775, -25290.417705824104, -4408.188689731203, -33836.897770988675, -35602.17149283546, -18631.050721532192, -19000.18978121159, -32947.275989923, -31387.41479962049, -0.1435625, 0.9376875, -0.155625, 192.0, 0.0, 0.0, 0.0, 0.0, 0.0, 0.0, 0.0, 0.0, 0.0, 1.6731202020261023E9, 0.0, 2023-01-07 14:36:42.026
250.0, -30755.03924549094, -29022.3990705489, -33144.03839636307, -25648.35854153139, -30502.50923663488, -28703.864360316322, -35541.62061710604, -30411.716450657423, -25331.857840044242, -4393.615352346344, -33859.18246021062, -35579.50682395778, -18647.792178129217, -19001.352071923266, -32949.51116436853, -31353.30603758169, -0.14378125000000003, 0.93684375, -0.15581250000000002, 192.0, 125.5, 64.0, 14.5, 32.0, 125.5, 16.0, 0.0, 0.0, 0.0, 1.6731202020261085E9, 0.0, 2023-01-07 14:36:42.026
252.0, -30746.478527364558, -29014.88888441192, -33118.065669306, -25646.771567675063, -30488.74056205041, -28706.85949407333, -35522.84515176358, -30430.134288088597, -25312.05419445684, -4432.730905143131, -33860.389454411204, -35619.76231572179, -18644.618230416567, -19028.19651701409, -32949.46646087962, -31394.992040990837, -0.14378125000000003, 0.93684375, -0.15581250000000002, 192.0, 0.0, 0.0, 0.0, 0.0, 0.0, 0.0, 0.0, 0.0, 0.0, 1.6731202020261145E9, 0.0, 2023-01-07 14:36:42.026
254.0, -30761.409492660703, -29021.661462981876, -33150.4756987662, -25627.45966046568, -30515.51795190787, -28692.73319157758, -35526.42143087643, -30402.485180197382, -25338.87628780321, -4401.103186738871, -33876.16978599665, -35586.79349265021, -18655.414122988477, -19014.00315928497, -32945.33138815539, -31352.92605792595, -0.14378125000000003, 0.93684375, -0.15581250000000002, 192.0, 0.0, 0.0, 0.0, 0.0, 0.0, 0.0, 0.0, 0.0, 0.0, 1.6731202020261204E9, 0.0, 2023-01-07 14:36:42.026
0.0, -30725.8031637434, -28986.54687244259, -33102.41944818729, -25605.465543921655, -30485.90189050459, -28686.452351385637, -35498.50410205175, -30414.59982569216, -25312.5235810904, -4415.184785745715, -33856.70141657608, -35593.40960900898, -18649.826186874652, -19004.458964402555, -32943.543248598966, -31376.797721004215, -0.14378125000000003, 0.93684375, -0.15581250000000002, 192.0, 0.0, 0.0, 0.0, 0.0, 0.0, 0.0, 0.0, 0.0, 0.0, 1.673120202026126E9, 0.0, 2023-01-07 14:36:42.026
2.0, -30744.332759896846, -28999.6449946934, -33137.06465209302, -25583.44907563318, -30516.344966452714, -28668.034513954466, -35502.32625035361, -30380.781636331278, -25321.665444572624, -4383.825288274919, -33852.25341942947, -35553.71291085636, -18650.16146304148, -18983.604786825752, -32938.491754352064, -31336.609284473576, -0.14378125000000003, 0.93684375, -0.15581250000000002, 192.0, 0.0, 0.0, 0.0, 0.0, 0.0, 0.0, 0.0, 0.0, 0.0, 1.673120202026132E9, 0.0, 2023-01-07 14:36:42.026
4.0, -30712.12389613675, -28975.30394498157, -33091.198872470726, -25588.992308258094, -30485.387800382116, -28663.832385996866, -35497.61003227354, -30403.334546486683, -25296.09504891575, -4381.4112998737455, -33828.89584647368, -35555.74691960179, -18639.812605358675, -18977.36865012272, -32938.55880958543, -31342.420738031953, -0.148890625, 0.9414218750000001, -0.15790625000000003, 192.0, 125.5, 24.0, 14.5, 72.0, 125.5, 0.0, 0.0, 0.0, 0.0, 1.673120202026138E9, 0.0, 2023-01-07 14:36:42.026
6.0, -30769.70198985362, -29031.585637520035, -33153.89551566786, -25618.071927794448, -30523.31871072277, -28665.352304619828, -35542.827611306624, -30396.025526049798, -25316.77041253691, -4384.093509208383, -33846.777242037926, -35567.302771485185, -18649.78148338574, -18988.611577583742, -32955.61319060483, -31329.121450081046, -0.148890625, 0.9414218750000001, -0.15790625000000003, 192.0, 0.0, 0.0, 0.0, 0.0, 0.0, 0.0, 0.0, 0.0, 0.0, 1.6731202020261517E9, 0.0, 2023-01-07 14:36:42.026
8.0, -30741.00234997301, -29005.456448251778, -33111.47190469169, -25632.98054134614, -30489.433466128525, -28673.331877390374, -35511.110485924546, -30422.422936251514, -25333.355406922747, -4413.039018278006, -33870.58184988282, -35599.176359078454, -18661.06911433567, -19000.726223078516, -32970.790025089984, -31356.792909716718, -0.148890625, 0.9414218750000001, -0.15790625000000003, 192.0, 0.0, 0.0, 0.0, 0.0, 0.0, 0.0, 0.0, 0.0, 0.0, 1.6731202020261571E9, 0.0, 2023-01-07 14:36:42.026
10.0, -30731.5028585795, -28991.196035289293, -33128.01219558861, -25606.292558466503, -30497.32363192125, -28640.76538571899, -35476.10765410753, -30359.30160990973, -25307.114458932218, -4382.3500731408685, -33848.56538159435, -35575.95289658939, -18639.16440476947, -18976.51928383342, -32942.4256613762, -31333.547095483198, -0.148890625, 0.9414218750000001, -0.15790625000000003, 192.0, 0.0, 0.0, 0.0, 0.0, 0.0, 0.0, 0.0, 0.0, 0.0, 1.673120202026163E9, 0.0, 2023-01-07 14:36:42.026
12.0, -30707.139457123216, -28971.101817023973, -33096.40682892881, -25634.254590780092, -30484.65019281509, -28676.572880336393, -35493.27379384921, -30409.570683189715, -25297.570264049802, -4362.680538020199, -33835.46725934354, -35554.76344284576, -18636.571602412656, -18973.747667520962, -32937.597684573855, -31340.476136264344, -0.148890625, 0.9414218750000001, -0.15790625000000003, 192.0, 0.0, 0.0, 0.0, 0.0, 0.0, 0.0, 0.0, 0.0, 0.0, 1.673120202026169E9, 0.0, 2023-01-07 14:36:42.026
14.0, -30759.241373448538, -29024.388375805425, -33156.73418721368, -25664.921184172774, -30529.532495681346, -28703.484380660582, -35551.52243989974, -30418.86900888312, -25307.20386591004, -4407.451082164179, -33850.48763161751, -35593.14138807552, -18658.476311978855, -19013.645531373684, -32962.78810057499, -31391.527520600263, -0.148890625, 0.9414218750000001, -0.15790625000000003, 192.0, 0.0, 0.0, 0.0, 0.0, 0.0, 0.0, 0.0, 0.0, 0.0, 1.6731202020261748E9, 0.0, 2023-01-07 14:36:42.026
16.0, -30726.898399221707, -28995.040535335607, -33104.63227088836, -25664.921184172774, -30497.927129021544, -28709.16172375223, -35530.13182045601, -30441.35486380516, -25323.475935873503, -4399.20328846017, -33852.74515780749, -35581.0490943252, -18667.908748138994, -19021.915676822147, -32966.2302692211, -31392.53334910075, -0.148, 0.9460000000000001, -0.156, 192.0, 125.5, 48.0, 14.5, 72.0, 125.5, 16.0, 0.0, 0.0, 0.0, 1.6731202020261805E9, 0.0, 2023-01-07 14:36:42.026
18.0, -30749.42895763266, -29009.83739016502, -33128.861561877915, -25642.97177111766, -30520.077707776753, -28694.38722066727, -35521.16877092943, -30402.596938919658, -25305.48278158698, -4410.356808943368, -33836.629550055215, -35590.034495596236, -18653.87185262106, -19023.01091230046, -32942.15744044274, -31392.53334910075, -0.148, 0.9460000000000001, -0.156, 192.0, 0.0, 0.0, 0.0, 0.0, 0.0, 0.0, 0.0, 0.0, 0.0, 1.6731202020261865E9, 0.0, 2023-01-07 14:36:42.026
20.0, -30719.65643401819, -28978.92492758333, -33090.6624306038, -25628.621951177356, -30508.968890782464, -28689.8721682873, -35487.59645075756, -30411.44822972396, -25323.319473662315, -4384.384081886302, -33848.230105427516, -35559.77023360375, -18664.22071030387, -19007.029415014913, -32943.63265557679, -31356.032950405235, -0.148, 0.9460000000000001, -0.156, 192.0, 0.0, 0.0, 0.0, 0.0, 0.0, 0.0, 0.0, 0.0, 0.0, 1.6731202020261924E9, 0.0, 2023-01-07 14:36:42.026
22.0, -30735.526172581456, -28993.02887833463, -33117.193951272246, -25615.50147718209, -30525.71034737949, -28680.506787360526, -35515.782000515705, -30395.354973716137, -25295.49155181546, -4394.352959913368, -33830.236951141, -35573.33774248812, -18649.133282796538, -18997.418164899133, -32935.787193272976, -31360.279781851743, -0.148, 0.9460000000000001, -0.156, 192.0, 0.0, 0.0, 0.0, 0.0, 0.0, 0.0, 0.0, 0.0, 0.0, 1.6731202020261981E9, 0.0, 2023-01-07 14:36:42.026
24.0, -30724.32794860935, -28984.423456719334, -33104.27464297708, -25625.917390098264, -30500.788152311823, -28699.282252702982, -35556.97626554683, -30440.349035304673, -25330.33792142128, -4374.929293981707, -33849.95118975058, -35552.28239921122, -18664.60068995961, -19005.867124303237, -32959.390635417774, -31341.750185698296, -0.148, 0.9460000000000001, -0.156, 192.0, 0.0, 0.0, 0.0, 0.0, 0.0, 0.0, 0.0, 0.0, 0.0, 1.673120202026204E9, 0.0, 2023-01-07 14:36:42.026
26.0, -30734.073309191863, -28987.172721287337, -33121.798410630036, -25607.387793944814, -30529.510143936892, -28687.01114499702, -35550.56131488816, -30418.89136062758, -25290.23889186846, -4394.1517942132705, -33828.82879124031, -35576.8469663676, -18645.557003683687, -19015.61248488575, -32957.04370224997, -31376.440093092933, -0.152, 0.9380000000000001, -0.158, 192.0, 125.5, 32.0, 14.5, 40.0, 125.5, 8.0, 0.0, 0.0, 0.0, 1.6731202020262098E9, 0.0, 2023-01-07 14:36:42.026
28.0, -30718.024756672952, -28971.995886802186, -33106.53216916706, -25609.153581756782, -30504.632652358134, -28686.184130452173, -35537.50789612626, -30430.134288088597, -25332.43898540008, -4353.806895471442, -33846.978407738025, -35532.70227106837, -18665.807684160198, -18993.305443919355, -32964.03979826448, -31349.97562765785, -0.152, 0.9380000000000001, -0.158, 192.0, 0.0, 0.0, 0.0, 0.0, 0.0, 0.0, 0.0, 0.0, 0.0, 1.6731202020262156E9, 0.0, 2023-01-07 14:36:42.026
30.0, -30741.35997788429, -28992.715953912255, -33120.25614026262, -25614.473296937143, -30515.205027485496, -28681.57967109438, -35532.07642222362, -30421.35005251766, -25299.24664488395, -4400.030303005016, -33834.953169221066, -35575.349399489096, -18648.395675229513, -18996.27822593191, -32949.64527483526, -31392.68981131194, -0.152, 0.9380000000000001, -0.158, 192.0, 0.0, 0.0, 0.0, 0.0, 0.0, 0.0, 0.0, 0.0, 0.0, 1.6731202020262215E9, 0.0, 2023-01-07 14:36:42.026
32.0, -30732.46398359108, -28984.15523578587, -33105.48163717766, -25609.421802690245, -30488.762913794868, -28665.262897642006, -35505.96958469982, -30403.848636609157, -25334.33888367878, -4356.2879391059805, -33853.259247929964, -35539.407794404964, -18654.49770146581, -18979.737935034984, -32945.08551896638, -31343.135993854525, -0.152, 0.9380000000000001, -0.158, 192.0, 0.0, 0.0, 0.0, 0.0, 0.0, 0.0, 0.0, 0.0, 0.0, 1.6731202020262275E9, 0.0, 2023-01-07 14:36:42.026
34.0, -30758.056730992408, -29010.843218665508, -33128.28041652208, -25639.551954216, -30515.205027485496, -28683.993659495554, -35534.088079224595, -30426.379195020105, -25309.371985122205, -4407.227564719626, -33842.99979722498, -35593.655478197994, -18642.07013154866, -18997.216999199034, -32940.27989390849, -31388.46533160989, -0.152, 0.9380000000000001, -0.158, 192.0, 0.0, 0.0, 0.0, 0.0, 0.0, 0.0, 0.0, 0.0, 0.0, 1.6731202020262332E9, 0.0, 2023-01-07 14:36:42.026
36.0, -30758.727283326065, -29012.98898613322, -33138.51751548261, -25648.4032450203, -30524.07867003425, -28684.127769962284, -35542.5370386287, -30427.586189220692, -25351.39326469818, -4385.099337708872, -33876.01332378547, -35574.81295762217, -18676.380059287556, -19012.974979040024, -32973.00284779106, -31367.409988332987, -0.16, 0.936, -0.162, 192.0, 125.5, 0.0, 14.5, 32.0, 125.0, 120.0, 0.0, 0.0, 0.0, 1.673120202026239E9, 0.0, 2023-01-07 14:36:42.026
38.0, -30741.270570906472, -28997.610985947966, -33108.253253490126, -25637.719111170663, -30511.047603016807, -28670.24733665554, -35512.78686675869, -30411.984671590886, -25301.14654316265, -4407.026399019528, -33846.53137284891, -35606.239510326326, -18656.330544511147, -19000.4356504006, -32958.29539993947, -31394.58970959064, -0.16, 0.936, -0.162, 192.0, 0.0, 0.0, 0.0, 0.0, 0.0, 0.0, 0.0, 0.0, 0.0, 1.6731202020262463E9, 0.0, 2023-01-07 14:36:42.026
40.0, -30767.533870641455, -29022.04144263762, -33132.10256482394, -25645.810442663485, -30527.8561148472, -28684.68656357367, -35538.0890414821, -30417.907883871543, -25339.971523281518, -4370.81657300193, -33861.03765500041, -35564.75467261728, -18669.987460373337, -18996.591150354285, -32952.88627778128, -31341.616075231563, -0.16, 0.936, -0.162, 192.0, 0.0, 0.0, 0.0, 0.0, 0.0, 0.0, 0.0, 0.0, 0.0, 1.673120202026252E9, 0.0, 2023-01-07 14:36:42.026
42.0, -30759.174318215173, -29014.97829138974, -33104.65462263282, -25647.106843841895, -30508.924187293553, -28692.040287499465, -35531.294111167685, -30430.73778518889, -25324.48176437399, -4418.761064858564, -33862.065835245354, -35616.23074009785, -18669.920405139972, -19025.849583846284, -32957.021350505514, -31392.287479911745, -0.16, 0.936, -0.162, 192.0, 0.0, 0.0, 0.0, 0.0, 0.0, 0.0, 0.0, 0.0, 0.0, 1.673120202026258E9, 0.0, 2023-01-07 14:36:42.026
44.0, -30769.76904508699, -29023.293140327114, -33126.60403568793, -25635.483936725133, -30518.624844387155, -28679.880938515777, -35529.30480591116, -30405.34620348766, -25350.25332573096, -4396.29756168098, -33869.71013184907, -35578.45629196838, -18675.93302439845, -19016.4394994306, -32943.9232282547, -31340.63259847553, -0.16, 0.936, -0.162, 192.0, 0.0, 0.0, 0.0, 0.0, 0.0, 0.0, 0.0, 0.0, 0.0, 1.6731202020262637E9, 0.0, 2023-01-07 14:36:42.026
46.0, -30741.35997788429, -28996.98513710322, -33088.29314569153, -25619.681253395232, -30490.573405095747, -28675.499996602535, -35516.09492493808, -30414.845694881165, -25310.86955200071, -4405.618239118843, -33844.3409018923, -35594.929527631946, -18657.425779989455, -19017.981769798014, -32937.038890962474, -31361.97851443035, -0.17, 0.936, -0.16, 192.0, 125.0, 88.0, 14.5, 32.0, 125.5, 0.0, 0.0, 0.0, 0.0, 1.6731202020262723E9, 0.0, 2023-01-07 14:36:42.026
48.0, -30758.70493158161, -29005.7470209297, -33118.53505593957, -25604.526770654535, -30511.60639662819, -28665.128787175276, -35517.659547049945, -30390.214072491417, -25324.370005651715, -4365.2062851436485, -33849.839431028304, -35557.62446613604, -18662.49962598081, -18992.4337258856, -32938.00001597405, -31322.125354066535, -0.17, 0.936, -0.16, 192.0, 0.0, 0.0, 0.0, 0.0, 0.0, 0.0, 0.0, 0.0, 0.0, 1.6731202020262785E9, 0.0, 2023-01-07 14:36:42.026
50.0, -30734.60975105879, -28985.988078831208, -33086.10267473492, -25615.724994626642, -30499.08941973322, -28681.19969143864, -35513.971509214825, -30422.378232762607, -25299.045479183853, -4375.085756192894, -33834.46143084305, -35570.38731222002, -18653.380114243046, -18988.768039794926, -32936.815373517915, -31355.16123237148, -0.17, 0.936, -0.16, 192.0, 0.0, 0.0, 0.0, 0.0, 0.0, 0.0, 0.0, 0.0, 0.0, 1.6731202020262842E9, 0.0, 2023-01-07 14:36:42.026
52.0, -30778.57563240238, -29023.20373334929, -33144.41837601881, -25635.707454169686, -30518.93776880953, -28695.236586956573, -35565.26876273975, -30423.40641300755, -25324.05708122934, -4369.766041012531, -33852.40988164066, -35561.40191094898, -18663.416047503477, -18996.52409512092, -32953.668588837216, -31353.194278859413, -0.17, 0.936, -0.16, 192.0, 0.0, 0.0, 0.0, 0.0, 0.0, 0.0, 0.0, 0.0, 0.0, 1.67312020202629E9, 0.0, 2023-01-07 14:36:42.026
54.0, -30742.32110289587, -28991.128980055928, -33091.958831782205, -25636.981503603638, -30487.824140527744, -28686.67586883019, -35532.478753623815, -30437.01862538083, -25327.72276732001, -4395.761119814053, -33863.0940154903, -35588.201652550895, -18667.819341161176, -19009.599865627275, -32972.37699894631, -31394.612061335098, -0.17, 0.936, -0.16, 192.0, 0.0, 0.0, 0.0, 0.0, 0.0, 0.0, 0.0, 0.0, 0.0, 1.673120202026296E9, 0.0, 2023-01-07 14:36:42.026
56.0, -30745.584457586345, -28990.771352144642, -33105.2134162442, -25606.40431718878, -30499.156474966585, -28649.594324778835, -35496.71596249533, -30373.986706016865, -25315.921046247608, -4357.696099006665, -33843.692701303095, -35554.31640795665, -18648.59684092961, -18981.369612380222, -32940.391652630766, -31348.321598568156, -0.166, 0.9400000000000001, -0.16, 192.0, 125.0, 104.0, 14.5, 48.0, 125.5, 0.0, 0.0, 0.0, 0.0, 1.6731202020263019E9, 0.0, 2023-01-07 14:36:42.026
58.0, -30732.84396324682, -28985.809264875566, -33074.41271238479, -25633.762852402077, -30512.43341117304, -28678.383371637272, -35504.36025909904, -30423.898151385565, -25300.520694317904, -4350.454133803146, -33829.141715662685, -35543.27464619573, -18642.204242015392, -18969.545539563365, -32924.96894895661, -31348.14278461251, -0.166, 0.9400000000000001, -0.16, 192.0, 0.0, 0.0, 0.0, 0.0, 0.0, 0.0, 0.0, 0.0, 0.0, 1.6731202020263076E9, 0.0, 2023-01-07 14:36:42.026
60.0, -30787.113998784305, -29036.100689900006, -33134.56125671402, -25656.42752127976, -30528.928998581054, -28696.309470690427, -35573.248335510296, -30425.842753153178, -25326.180496952595, -4397.795128559485, -33856.70141657608, -35580.400893736, -18665.31594578218, -18994.512438119942, -32956.820184805416, -31376.663610537486, -0.166, 0.9400000000000001, -0.16, 192.0, 0.0, 0.0, 0.0, 0.0, 0.0, 0.0, 0.0, 0.0, 0.0, 1.6731202020263135E9, 0.0, 2023-01-07 14:36:42.026
62.0, -30759.84487054883, -29009.613872720467, -33096.47388416217, -25662.909527171796, -30500.855207545188, -28701.71859284861, -35545.979207274824, -30448.97680866442, -25337.311665691337, -4394.397663402279, -33865.53035563593, -35584.983001349334, -18668.802817917207, -19004.70483359156, -32958.921248784216, -31374.67430528096, -0.166, 0.9400000000000001, -0.16, 192.0, 0.0, 0.0, 0.0, 0.0, 0.0, 0.0, 0.0, 0.0, 0.0, 1.6731202020263193E9, 0.0, 2023-01-07 14:36:42.026
64.0, -30769.36671368679, -29014.732422200734, -33121.373727485385, -25637.003855348095, -30524.436297945536, -28673.220118668094, -35527.69548031038, -30395.891415583064, -25321.799555039353, -4395.179974458215, -33854.6897595751, -35591.353248519095, -18663.75132367031, -18997.105240476758, -32946.80660328944, -31366.49356681032, -0.166, 0.9400000000000001, -0.16, 192.0, 0.0, 0.0, 0.0, 0.0, 0.0, 0.0, 0.0, 0.0, 0.0, 1.6731202020263252E9, 0.0, 2023-01-07 14:36:42.026
66.0, -30726.80899224389, -28978.813168861052, -33077.07256997497, -25634.45575648019, -30513.171018740064, -28672.504862845526, -35511.04343069118, -30406.083811054687, -25324.30295041835, -4362.904055464752, -33847.403090882675, -35553.869373067544, -18661.06911433567, -18981.52607459141, -32942.358606142836, -31336.184601328925, -0.16, 0.9380000000000001, -0.168, 192.0, 125.5, 0.0, 14.5, 40.0, 125.0, 96.0, 0.0, 0.0, 0.0, 1.673120202026331E9, 0.0, 2023-01-07 14:36:42.026
68.0, -30761.65536184971, -29006.328166285537, -33128.83921013346, -25642.83766065093, -30536.081556806752, -28683.05488622843, -35552.70708235587, -30396.181988260985, -25311.383642123183, -4393.749462813075, -33842.59746582478, -35577.33870474562, -18661.046762591217, -19002.737880079494, -32949.01942599052, -31362.98434293084, -0.16, 0.9380000000000001, -0.168, 192.0, 0.0, 0.0, 0.0, 0.0, 0.0, 0.0, 0.0, 0.0, 0.0, 1.673120202026337E9, 0.0, 2023-01-07 14:36:42.026
70.0, -30737.202553415606, -28980.087218295008, -33099.04433477454, -25641.60831470589, -30510.399402427603, -28688.95574676463, -35531.294111167685, -30411.44822972396, -25331.8801917887, -4372.202381158159, -33857.8413555433, -35550.9412945439, -18665.897091138017, -18993.84188578628, -32960.172946473715, -31348.880392179537, -0.16, 0.9380000000000001, -0.168, 192.0, 0.0, 0.0, 0.0, 0.0, 0.0, 0.0, 0.0, 0.0, 0.0, 1.6731202020263448E9, 0.0, 2023-01-07 14:36:42.026
72.0, -30743.997483730018, -28984.065828808052, -33114.71290763771, -25618.96599757266, -30512.165190239575, -28669.509729088513, -35508.07064867862, -30369.605764103624, -25304.7228222755, -4389.234410433103, -33841.79280302439, -35573.40479772149, -18651.614326431078, -18990.533827606898, -32944.14674569926, -31376.3059826262, -0.16, 0.9380000000000001, -0.168, 192.0, 0.0, 0.0, 0.0, 0.0, 0.0, 0.0, 0.0, 0.0, 0.0, 1.6731202020263505E9, 0.0, 2023-01-07 14:36:42.026
74.0, -30734.16271616968, -28980.154273528373, -33106.420410444785, -25633.762852402077, -30523.09519327822, -28687.59229035286, -35530.89177976749, -30401.43464820798, -25324.05708122934, -4362.457020575645, -33845.05615771486, -35534.021023991234, -18653.49187296532, -18981.03433621339, -32943.543248598966, -31349.953275913394, -0.16, 0.9380000000000001, -0.168, 192.0, 0.0, 0.0, 0.0, 0.0, 0.0, 0.0, 0.0, 0.0, 0.0, 1.6731202020263567E9, 0.0, 2023-01-07 14:36:42.026
76.0, -30747.685521565145, -28993.006526590172, -33119.47382920669, -25631.997064590105, -30509.818257071765, -28674.42711286868, -35524.70034655337, -30381.42983692048, -25305.34867112025, -4399.471509393634, -33841.524582090926, -35588.24635603981, -18643.433587960433, -19000.927388778615, -32949.15353645725, -31407.888997541548, -0.17, 0.9380000000000001, -0.17400000000000002, 192.0, 125.0, 88.0, 14.5, 40.0, 125.0, 72.0, 0.0, 0.0, 0.0, 1.6731202020263624E9, 0.0, 2023-01-07 14:36:42.026
78.0, -30718.292977606416, -28971.68296237981, -33090.08128524796, -25621.625855162845, -30491.690992318512, -28655.808109737412, -35502.16978814242, -30366.163595457507, -25331.902543533153, -4353.091639648872, -33847.827774027326, -35542.15705897297, -18643.92532633845, -18988.18689443909, -32937.26240840703, -31360.905630696492, -0.17, 0.9380000000000001, -0.17400000000000002, 192.0, 0.0, 0.0, 0.0, 0.0, 0.0, 0.0, 0.0, 0.0, 0.0, 1.6731202020263684E9, 0.0, 2023-01-07 14:36:42.026
80.0, -30724.32794860935, -28978.567299672046, -33095.13277949486, -25624.68804415322, -30494.261442930874, -28658.62442953878, -35499.68874450788, -30361.022694232786, -25276.80549345082, -4385.0546342199605, -33819.21754112453, -35579.395065235505, -18615.382148669025, -18975.31228963283, -32916.65410001923, -31396.534311358253, -0.17, 0.9380000000000001, -0.17400000000000002, 192.0, 0.0, 0.0, 0.0, 0.0, 0.0, 0.0, 0.0, 0.0, 0.0, 1.673120202026374E9, 0.0, 2023-01-07 14:36:42.026
82.0, -30720.394041585216, -28977.852043849474, -33097.0103260291, -25633.449927979702, -30488.673506817046, -28665.799339508932, -35519.73825928429, -30373.562022872215, -25314.892866002665, -4343.793313955464, -33834.21556165404, -35543.31934968464, -18626.759186596773, -18969.433780841086, -32927.382937357776, -31362.98434293084, -0.17, 0.9380000000000001, -0.17400000000000002, 192.0, 0.0, 0.0, 0.0, 0.0, 0.0, 0.0, 0.0, 0.0, 0.0, 1.67312020202638E9, 0.0, 2023-01-07 14:36:42.026
84.0, -30739.08009994985, -28996.6945644253, -33113.12593378138, -25649.274963054057, -30505.86199830318, -28683.568976350904, -35539.31838742714, -30392.62806089259, -25291.95997619152, -4391.044901733983, -33829.02995694041, -35600.83038816814, -18621.283009205225, -18984.18593218159, -32939.16230668573, -31417.679061612973, -0.17, 0.9380000000000001, -0.17400000000000002, 192.0, 0.0, 0.0, 0.0, 0.0, 0.0, 0.0, 0.0, 0.0, 0.0, 1.6731202020263858E9, 0.0, 2023-01-07 14:36:42.026
86.0, -30750.03245473295, -29005.277634296137, -33123.60890193092, -25646.5033467416, -30513.103963506695, -28684.194825195653, -35532.07642222362, -30384.134397999576, -25342.09493900477, -4367.396756100268, -33859.473032888534, -35572.063693054166, -18650.228518274846, -18989.416240384133, -32953.98151325959, -31381.06690419518, -0.17, 0.937, -0.167, 192.0, 125.0, 88.0, 14.5, 32.0, 125.5, 0.0, 0.0, 0.0, 0.0, 1.6731202020263915E9, 0.0, 2023-01-07 14:36:42.026
88.0, -30739.32596913886, -28995.06288708006, -33094.618689372386, -25629.426613977746, -30492.495655118903, -28672.884842501266, -35503.30972710964, -30380.20049097544, -25316.122211947706, -4408.032227520016, -33845.03380597041, -35613.14619936302, -18636.817471601662, -19000.256836444954, -32937.75414678504, -31412.225235965878, -0.17, 0.937, -0.167, 192.0, 0.0, 0.0, 0.0, 0.0, 0.0, 0.0, 0.0, 0.0, 0.0, 1.6731202020263977E9, 0.0, 2023-01-07 14:36:42.026
90.0, -30742.902248251707, -29002.43896275031, -33111.82953260297, -25616.06027079347, -30504.23032095794, -28665.553470319926, -35510.37287835752, -30359.77099654329, -25334.49534588997, -4358.523113551511, -33852.499288618485, -35566.72162612934, -18635.02933204524, -18977.43570535609, -32928.03113794698, -31353.30603758169, -0.17, 0.937, -0.167, 192.0, 0.0, 0.0, 0.0, 0.0, 0.0, 0.0, 0.0, 0.0, 0.0, 1.6731202020264032E9, 0.0, 2023-01-07 14:36:42.026
92.0, -30743.326931396357, -29007.892788397407, -33104.00642204362, -25629.963055844673, -30501.9504430235, -28685.759447307522, -35523.5827593306, -30391.44341843646, -25300.610101295722, -4398.644494848788, -33839.37881462322, -35608.407629538495, -18623.58523888412, -18987.069307216323, -32931.83093450438, -31392.667459567485, -0.17, 0.937, -0.167, 192.0, 0.0, 0.0, 0.0, 0.0, 0.0, 0.0, 0.0, 0.0, 0.0, 1.6731202020264091E9, 0.0, 2023-01-07 14:36:42.026
94.0, -30753.47462337907, -29013.033689622127, -33128.52628571109, -25618.004872561083, -30515.383841441137, -28674.851796013332, -35524.07449770862, -30371.080979237675, -25335.34471217927, -4369.944854968173, -33862.356407923275, -35580.512652458274, -18648.038047318227, -18988.991557239482, -32946.91836201172, -31364.414854575978, -0.17, 0.937, -0.167, 192.0, 0.0, 0.0, 0.0, 0.0, 0.0, 0.0, 0.0, 0.0, 0.0, 1.673120202026415E9, 0.0, 2023-01-07 14:36:42.026
96.0, -30730.631140545745, -28991.39720098939, -33093.72461959417, -25621.849372607398, -30498.441219144013, -28682.42903738368, -35513.79269525918, -30391.801046347744, -25310.735441533976, -4390.173183700226, -33841.90456174667, -35600.31629804568, -18641.399579215, -18992.590188096787, -32944.169097443715, -31397.853064281117, -0.17, 0.9335, -0.1665, 192.0, 125.0, 88.0, 14.5, 8.0, 125.0, 104.0, 0.0, 0.0, 0.0, 1.6731202020264208E9, 0.0, 2023-01-07 14:36:42.026
98.0, -30740.711777295088, -28999.8461603935, -33113.37180297039, -25602.87274156484, -30504.18561746903, -28671.00729596702, -35512.69745978087, -30361.045045977244, -25327.007511497442, -4370.2577793905475, -33840.7869745239, -35564.08412028362, -18641.243117003814, -18984.99059498198, -32932.7250042826, -31365.755959243295, -0.17, 0.9335, -0.1665, 192.0, 0.0, 0.0, 0.0, 0.0, 0.0, 0.0, 0.0, 0.0, 0.0, 1.6731202020264268E9, 0.0, 2023-01-07 14:36:42.026
100.0, -30726.920750966165, -28989.631413177423, -33079.017171742584, -25609.98059630163, -30495.535492364826, -28683.568976350904, -35509.45645683485, -30392.426895192493, -25302.10766817423, -4382.081852207405, -33833.79087850939, -35588.11224557307, -18629.955486053885, -18983.582435081298, -32935.94365548416, -31398.12128521458, -0.17, 0.9335, -0.1665, 192.0, 0.0, 0.0, 0.0, 0.0, 0.0, 0.0, 0.0, 0.0, 0.0, 1.6731202020264325E9, 0.0, 2023-01-07 14:36:42.026
102.0, -30741.13646043974, -29000.78493366062, -33098.35143069642, -25591.808628059465, -30495.222567942452, -28657.216269638095, -35497.56532878463, -30349.891525494044, -25316.591598581268, -4360.467715319123, -33840.31758789034, -35567.34747497409, -18631.6989221214, -18972.741839020473, -32930.8251060039, -31370.852156979105, -0.17, 0.9335, -0.1665, 192.0, 0.0, 0.0, 0.0, 0.0, 0.0, 0.0, 0.0, 0.0, 0.0, 1.67312020202644E9, 0.0, 2023-01-07 14:36:42.026
104.0, -30714.60493977129, -28981.02599156213, -33052.597409796406, -25607.25368347808, -30474.45779734347, -28671.05199945593, -35476.73350295228, -30375.48427289537, -25286.707316244523, -4363.172276398215, -33820.51394230294, -35572.28721049872, -18611.269427689247, -18969.925519219105, -32907.33342258137, -31374.584898303143, -0.17, 0.9335, -0.1665, 192.0, 0.0, 0.0, 0.0, 0.0, 0.0, 0.0, 0.0, 0.0, 0.0, 1.673120202505386E9, 0.0, 2023-01-07 14:36:42.505
106.0, -30752.42409138967, -29015.60414023449, -33105.83926508895, -25618.60836966138, -30499.201178455496, -28681.356153649827, -35522.50987559675, -30364.129586712075, -25304.208732153027, -4375.756308526553, -33832.852105242266, -35579.32801000214, -18619.98660802682, -18977.905091989647, -32912.295509850446, -31372.193261646422, -0.169, 0.93475, -0.16625, 192.0, 125.0, 96.0, 14.5, 32.0, 125.0, 104.0, 0.0, 0.0, 0.0, 1.673120202505587E9, 0.0, 2023-01-07 14:36:42.505
108.0, -30730.13940216773, -28996.761619658664, -33077.09492171943, -25630.343035500413, -30478.347000878694, -28690.699182832144, -35511.75868651375, -30397.456037694938, -25311.584807823278, -4385.121689453326, -33840.339939634796, -35589.587460707124, -18627.87677381954, -18987.493990360974, -32925.3712803568, -31386.92306124247, -0.169, 0.93475, -0.16625, 192.0, 0.0, 0.0, 0.0, 0.0, 0.0, 0.0, 0.0, 0.0, 0.0, 1.6731202025055957E9, 0.0, 2023-01-07 14:36:42.505
110.0, -30752.066463478383, -29013.011337877673, -33112.52243668109, -25611.433459691223, -30500.184655211528, -28661.373694106784, -35504.36025909904, -30351.09851969463, -25308.924950233097, -4389.301465666469, -33838.238875655996, -35585.76531240527, -18628.435567430923, -18978.575644323308, -32919.60453028733, -31373.02027619127, -0.169, 0.93475, -0.16625, 192.0, 0.0, 0.0, 0.0, 0.0, 0.0, 0.0, 0.0, 0.0, 0.0, 1.673120202505604E9, 0.0, 2023-01-07 14:36:42.505
112.0, -30724.32794860935, -28989.92198585534, -33065.22614541365, -25613.154544014284, -30476.40239911108, -28668.570955821393, -35481.650886732445, -30377.33946768516, -25312.992967723963, -4372.1353259247935, -33842.642169313694, -35574.23181226633, -18636.5492506682, -18973.90412973215, -32924.67837627869, -31364.81718597617, -0.169, 0.93475, -0.16625, 192.0, 0.0, 0.0, 0.0, 0.0, 0.0, 0.0, 0.0, 0.0, 0.0, 1.6731202025056117E9, 0.0, 2023-01-07 14:36:42.505
114.0, -30758.257896692503, -29017.012300135175, -33099.64783187483, -25597.754192084576, -30503.38095466864, -28667.67688604318, -35503.80146548766, -30355.904144752523, -25290.95414769103, -4372.984692214095, -33827.30887261735, -35578.836271624124, -18616.05270100268, -18977.100429189257, -32913.01076567302, -31363.096101653115, -0.169, 0.93475, -0.16625, 192.0, 0.0, 0.0, 0.0, 0.0, 0.0, 0.0, 0.0, 0.0, 0.0, 1.6731202025056193E9, 0.0, 2023-01-07 14:36:42.505
116.0, -30747.640818076234, -29005.322337785048, -33077.45254963071, -25606.87370382234, -30497.502445876893, -28691.01210725452, -35517.48073309431, -30400.33941272967, -25330.516735376925, -4368.0896601783825, -33854.309779919364, -35568.062730796664, -18636.191622756913, -18980.27437690191, -32936.99418747356, -31361.44207256342, -0.1665, 0.936375, -0.17012500000000003, 192.0, 125.0, 112.0, 14.5, 40.0, 125.0, 72.0, 0.0, 0.0, 0.0, 1.6731202025056272E9, 0.0, 2023-01-07 14:36:42.505
118.0, -30768.025609019474, -29018.06283212457, -33106.82274184498, -25581.951508754675, -30505.61612911417, -28674.024781468488, -35535.54094261419, -30373.316153683205, -25316.591598581268, -4385.099337708872, -33850.10765196176, -35588.22400429535, -18635.297552978704, -18977.43570535609, -32938.87173400781, -31380.06107569469, -0.1665, 0.936375, -0.17012500000000003, 192.0, 0.0, 0.0, 0.0, 0.0, 0.0, 0.0, 0.0, 0.0, 0.0, 1.6731202025056367E9, 0.0, 2023-01-07 14:36:42.505
120.0, -30739.057748205396, -28989.45259922178, -33068.71301754868, -25567.691095792186, -30478.88344274562, -28667.67688604318, -35505.58960504408, -30385.944889300456, -25331.991950510976, -4347.324889579402, -33848.81125078336, -35539.72071882734, -18633.710579122377, -18958.83905396927, -32931.272140893, -31341.146688598, -0.1665, 0.936375, -0.17012500000000003, 192.0, 0.0, 0.0, 0.0, 0.0, 0.0, 0.0, 0.0, 0.0, 0.0, 1.6731202025056448E9, 0.0, 2023-01-07 14:36:42.505
122.0, -30757.028550747462, -29004.45061975129, -33091.89177654884, -25561.700828278164, -30490.08166671773, -28657.75271150502, -35503.756761998746, -30362.34144715565, -25304.946339720052, -4371.285959635492, -33831.108669174755, -35565.335817973115, -18622.467651661354, -18961.38715283718, -32920.92328321019, -31368.393465089022, -0.1665, 0.936375, -0.17012500000000003, 192.0, 0.0, 0.0, 0.0, 0.0, 0.0, 0.0, 0.0, 0.0, 0.0, 1.6731202025056531E9, 0.0, 2023-01-07 14:36:42.505
124.0, -30749.272495421472, -29004.36121277347, -33079.03952348704, -25584.812532044954, -30495.51314062037, -28662.08894992935, -35510.21641614633, -30383.28503171027, -25329.242685942972, -4350.387078569779, -33846.73253854901, -35539.51955312724, -18637.01863730176, -18968.070324429314, -32926.15359141274, -31342.241924076312, -0.1665, 0.936375, -0.17012500000000003, 192.0, 0.0, 0.0, 0.0, 0.0, 0.0, 0.0, 0.0, 0.0, 0.0, 1.6731202025056615E9, 0.0, 2023-01-07 14:36:42.505
126.0, -30769.053789264417, -29023.807230449587, -33097.63617487385, -25607.07486952244, -30494.239091186417, -28661.776025506977, -35525.16973318693, -30374.456092650427, -25307.069755443306, -4396.163451214248, -33835.64607329918, -35594.013106109276, -18629.307285464678, -18975.46875184402, -32923.76195475602, -31379.34581987212, -0.17025, 0.9371875000000001, -0.1740625, 192.0, 125.0, 72.0, 14.5, 40.0, 125.0, 56.0, 0.0, 0.0, 0.0, 1.67312020250567E9, 0.0, 2023-01-07 14:36:42.505
128.0, -30758.079082736862, -29014.575959989546, -33084.85097704542, -25627.526715699045, -30493.52383536385, -28669.800301766434, -35504.74023875478, -30383.30738345473, -25353.315514721337, -4368.62610204531, -33862.08818698981, -35571.97428607634, -18649.222689774357, -18992.94781600807, -32934.84842000585, -31352.88135443704, -0.17025, 0.9371875000000001, -0.1740625, 192.0, 0.0, 0.0, 0.0, 0.0, 0.0, 0.0, 0.0, 0.0, 0.0, 1.673120202505678E9, 0.0, 2023-01-07 14:36:42.505
