%OpenBCI Raw EEG Data
%Number of channels = 16
%Sample Rate = 125 Hz
%Board = OpenBCI_GUI$BoardCytonSerialDaisy
Sample Index, EXG Channel 0, EXG Channel 1, EXG Channel 2, EXG Channel 3, EXG Channel 4, EXG Channel 5, EXG Channel 6, EXG Channel 7, EXG Channel 8, EXG Channel 9, EXG Channel 10, EXG Channel 11, EXG Channel 12, EXG Channel 13, EXG Channel 14, EXG Channel 15, Accel Channel 0, Accel Channel 1, Accel Channel 2, Other, Other, Other, Other, Other, Other, Other, Analog Channel 0, Analog Channel 1, Analog Channel 2, Timestamp, Other, Timestamp (Formatted)
0.0, -15689.315282024776, -6743.521302166141, -34061.13047136432, -24794.43249636084, -10240.742294876849, -6117.560698695266, 18231.490937649123, 14709.48186033748, 0.0, 0.0, 0.0, 0.0, 0.0, 0.0, 0.0, 0.0, 0.088, 0.46900000000000003, -0.13, 192.0, 2.5, 64.0, 14.5, 40.0, 123.5, 112.0, 0.0, 0.0, 0.0, 1.6625064455976095E9, 0.0, 2022-09-06 19:20:45.597
182.0, -14827.610829783778, -5641.781466219601, -33029.97744440764, -23583.683202705768, -9081.245551257796, -5016.446711593475, 6279.968473907527, 15043.3498672664, -14720.277752909393, 163.21243801265217, -14552.863186939143, -11789.271150740524, 11851.163131137268, -10489.226637986498, -5811.118282213007, 265.4046136623161, 0.088, 0.46900000000000003, -0.13, 192.0, 0.0, 0.0, 0.0, 0.0, 0.0, 0.0, 0.0, 0.0, 0.0, 1.6625064455976186E9, 0.0, 2022-09-06 19:20:45.597
184.0, -15516.513945640798, -6630.890861855849, -33826.19128539458, -24720.55998093605, -10110.319865980133, -6027.796092962753, 17804.550266808303, 14837.847928744308, -13823.190489195644, 798.091387521194, -14154.152769345375, -11065.834589700054, 12290.777241084248, -10357.15018000009, -4852.340203802611, 1497.410416294386, 0.088, 0.46900000000000003, -0.13, 192.0, 0.0, 0.0, 0.0, 0.0, 0.0, 0.0, 0.0, 0.0, 0.0, 1.6625064455976255E9, 0.0, 2022-09-06 19:20:45.597
186.0, -14946.209185863638, -5679.846487026988, -33162.36682681642, -23621.815278746522, -9150.982993958354, -5043.402915406575, 7361.725850311023, 14923.768034430508, -14745.043485765873, 96.76070174702427, -14648.059266574297, -11838.646154242297, 11788.153563517757, -10525.503519237462, -5804.636276320967, 268.73502358615684, 0.088, 0.46900000000000003, -0.13, 192.0, 0.0, 0.0, 0.0, 0.0, 0.0, 0.0, 0.0, 0.0, 0.0, 1.6625064455976331E9, 0.0, 2022-09-06 19:20:45.597
188.0, -15429.632714943018, -6575.480887351142, -33774.29053476936, -24664.01006746412, -10068.678566059896, -5986.177144786971, 16971.67956491465, 14921.37639777379, -13964.833493808925, 974.3572442957454, -14090.45029764775, -10962.770696016634, 12479.627129987137, -10209.3604456616, -4858.978671905837, 1464.5310002006293, 0.088, 0.46900000000000003, -0.13, 192.0, 0.0, 0.0, 0.0, 0.0, 0.0, 0.0, 0.0, 0.0, 0.0, 1.6625064455976408E9, 0.0, 2022-09-06 19:20:45.597
190.0, -15151.71112438573, -5873.993739365786, -33383.62674517951, -23766.498120605724, -9263.032288912807, -5170.45023089054, 8759.02280319009, 14797.771250935943, -14904.18790628766, -79.16987886069762, -14803.649759727688, -11925.46032970671, 11829.928973904727, -10753.111333025854, -5828.954974288342, 306.77769264908943, 0.136, 0.7085, -0.183, 192.0, 2.5, 96.0, 14.5, 80.0, 124.0, 80.0, 0.0, 0.0, 0.0, 1.662506445597648E9, 0.0, 2022-09-06 19:20:45.597
192.0, -15292.79533538763, -6487.23620024159, -33640.82826862673, -24584.996650814614, -9995.49895471322, -5888.812945939654, 15833.953420395068, 15001.127421990326, -14107.661140878337, 747.7999624967531, -14103.928399554301, -11037.604336453001, 12617.939724676577, -10089.845668059072, -4941.389553712554, 1351.9229116347924, 0.136, 0.7085, -0.183, 192.0, 0.0, 0.0, 0.0, 0.0, 0.0, 0.0, 0.0, 0.0, 0.0, 1.6625064455976539E9, 0.0, 2022-09-06 19:20:45.597
194.0, -15121.648028093343, -5804.5021658542355, -33347.64043660646, -23764.240594415736, -9340.235214261438, -5216.025437834912, 10501.676559648104, 14740.01434326343, -14701.725805011489, -251.18890418874076, -14782.59441645079, -11939.787797902562, 11801.586961935398, -10800.608789993381, -5810.961820001819, 366.36744336693806, 0.136, 0.7085, -0.183, 192.0, 0.0, 0.0, 0.0, 0.0, 0.0, 0.0, 0.0, 0.0, 0.0, 1.6625064455976596E9, 0.0, 2022-09-06 19:20:45.597
196.0, -15108.4157953758, -6300.219154384035, -33465.36707465256, -24469.1252075583, -9894.536125008599, -5757.384688542448, 14433.415464569982, 15107.477022108678, -13676.831266502293, 988.9305816806057, -13822.45288162862, -10798.351263803395, 12550.169235488085, -9901.554572767565, -4875.3625005915765, 1343.3398417639544, 0.136, 0.7085, -0.183, 192.0, 0.0, 0.0, 0.0, 0.0, 0.0, 0.0, 0.0, 0.0, 0.0, 1.6625064455976655E9, 0.0, 2022-09-06 19:20:45.597
198.0, -15185.99870038017, -5863.01903283823, -33343.88534353797, -23779.149207967428, -9409.7714912619, -5315.133072749743, 12327.657619435504, 14666.99119412794, -14760.645003395679, -228.36777309987227, -14828.348437350804, -11868.664547045773, 11678.518256964477, -10895.089613805963, -5731.590775441025, 467.88906668294277, 0.136, 0.7085, -0.183, 192.0, 0.0, 0.0, 0.0, 0.0, 0.0, 0.0, 0.0, 0.0, 0.0, 1.6625064455976715E9, 0.0, 2022-09-06 19:20:45.597
200.0, -15037.650172430298, -6239.601223421243, -33404.033887867205, -24343.463700230564, -9763.957233900695, -5657.360632104949, 12940.475397166658, 15179.24847355467, -13762.304337299389, 898.3836648921567, -13775.424811294653, -10803.492165028116, 12667.337079922805, -9881.661520202342, -4894.808518267693, 1256.838590721916, 0.158, 0.82725, -0.20450000000000002, 192.0, 2.5, 80.0, 14.5, 72.0, 124.0, 120.0, 0.0, 0.0, 0.0, 1.6625064455976777E9, 0.0, 2022-09-06 19:20:45.597
202.0, -15484.126267925058, -6216.400112676634, -33767.137976543665, -24084.96577560494, -9661.452133828656, -5523.987772940132, 14151.738780944203, 14548.370486303627, -14942.72231372861, -153.57883615241482, -14996.142982976793, -11928.634277419362, 11896.514820637087, -11002.355635446982, -5729.08738006203, 554.0997450470621, 0.158, 0.82725, -0.20450000000000002, 192.0, 0.0, 0.0, 0.0, 0.0, 0.0, 0.0, 0.0, 0.0, 0.0, 1.6625064455976837E9, 0.0, 2022-09-06 19:20:45.597
204.0, -15014.314951218958, -6250.419467737612, -33383.15735854594, -24319.435574941108, -9655.372459336813, -5539.589290569937, 11433.900765645596, 15207.3893198239, -14158.757228703169, 702.6047352081222, -13967.091019998912, -11091.382633612471, 12950.980717060653, -9838.008563281128, -5149.707812036016, 1015.5738610713317, 0.158, 0.82725, -0.20450000000000002, 192.0, 0.0, 0.0, 0.0, 0.0, 0.0, 0.0, 0.0, 0.0, 0.0, 1.66250644559769E9, 0.0, 2022-09-06 19:20:45.597
206.0, -15552.276736769289, -6363.184018514636, -33959.3629788593, -24337.316970505355, -9908.684779248808, -5690.083585987519, 15894.236075191031, 14469.58058709867, -14741.668372353122, -228.72540101115717, -14984.274206671025, -11936.41268448981, 11762.739630072074, -11036.576156208057, -5648.531693045104, 662.4833539108461, 0.158, 0.82725, -0.20450000000000002, 192.0, 0.0, 0.0, 0.0, 0.0, 0.0, 0.0, 0.0, 0.0, 0.0, 1.6625064455976975E9, 0.0, 2022-09-06 19:20:45.597
208.0, -14903.651464420733, -6097.689997874499, -33302.19934012882, -24106.088174115204, -9628.863290412819, -5380.891904937256, 10009.602905464519, 15240.648715573398, -14072.188922427766, 1127.980783937071, -14015.504898489107, -11146.814959861633, 12819.306590474438, -9875.268921288123, -5306.058264500888, 848.4275160345455, 0.158, 0.82725, -0.20450000000000002, 192.0, 0.0, 0.0, 0.0, 0.0, 0.0, 0.0, 0.0, 0.0, 0.0, 1.6625064455977056E9, 0.0, 2022-09-06 19:20:45.597
210.0, -15425.788214896706, -6195.367121144191, -33564.318247356205, -24143.907325733584, -9842.903595316839, -5725.779321882645, 17598.109555019088, 14540.480320510904, -14960.894281970774, 260.5542851155144, -14939.347200315859, -11764.103086483847, 11726.105120909826, -11060.850150686521, -5511.1802233672415, 858.1952283615146, 0.164, 0.8856250000000001, -0.22725, 192.0, 2.5, 40.0, 14.5, 64.0, 124.0, 24.0, 0.0, 0.0, 0.0, 1.662506445597714E9, 0.0, 2022-09-06 19:20:45.597
212.0, -14521.570744701714, -5642.004983664154, -32763.00820863345, -23698.012375594662, -9180.643758850547, -5164.057631976322, 9168.372651144582, 15354.910833228927, -13474.23505475939, 1615.7181996963263, -13542.407875348077, -10718.779053542501, 12060.777790639138, -9938.367895885456, -5002.856850964648, 937.3651072222123, 0.164, 0.8856250000000001, -0.22725, 192.0, 0.0, 0.0, 0.0, 0.0, 0.0, 0.0, 0.0, 0.0, 0.0, 1.662506445597726E9, 0.0, 2022-09-06 19:20:45.597
214.0, -15435.108892334569, -6321.3415528943015, -33652.02649259883, -24277.481350598497, -9893.127965107915, -5783.4244708328815, 19145.87845157128, 14575.304338372272, -14198.81155476708, 541.4710094298136, -14548.795169448278, -11427.463463242468, 11589.379500076711, -10886.528895679581, -5142.532902065862, 1159.4967436190539, 0.164, 0.8856250000000001, -0.22725, 192.0, 0.0, 0.0, 0.0, 0.0, 0.0, 0.0, 0.0, 0.0, 0.0, 1.6625064455977328E9, 0.0, 2022-09-06 19:20:45.597
216.0, -14541.083817611197, -5608.231497792184, -32865.78152963895, -23654.292363440083, -9155.252177149318, -5030.707124555961, 8433.179072520623, 15333.877841696483, -13923.28160086651, 1445.4649621802525, -13823.570468851385, -10985.971806761243, 12058.609671426973, -9824.195185207747, -5245.015650393445, 739.9992036818509, 0.164, 0.8856250000000001, -0.22725, 192.0, 0.0, 0.0, 0.0, 0.0, 0.0, 0.0, 0.0, 0.0, 0.0, 1.66250644559774E9, 0.0, 2022-09-06 19:20:45.597
218.0, -15532.651905137529, -6501.854241115361, -33863.49634689049, -24449.45567243763, -10042.169397135902, -5917.758455009277, 20160.021800997474, 14571.638652281601, -14228.427616170362, 722.3636773066137, -14530.600849461658, -11342.213909889926, 11667.051812058904, -10818.601944279902, -5094.5437067203175, 1286.5217073585638, 0.164, 0.8856250000000001, -0.22725, 192.0, 0.0, 0.0, 0.0, 0.0, 0.0, 0.0, 0.0, 0.0, 0.0, 1.662506445597748E9, 0.0, 2022-09-06 19:20:45.597
220.0, -14581.428716353026, -5599.827241876989, -32970.85708032335, -23616.026176932595, -9163.544674342236, -5054.042345767301, 8073.941835634928, 15234.72550329274, -14150.263565810154, 1300.78212032105, -14043.265765102598, -11225.738969533322, 11945.152216571834, -10071.651348072452, -5453.088039527898, 558.0113003267409, 0.164, 0.8856250000000001, -0.22725, 192.0, 0.0, 0.0, 0.0, 0.0, 0.0, 0.0, 0.0, 0.0, 0.0, 1.662506445597754E9, 0.0, 2022-09-06 19:20:45.597
222.0, -15549.348658245643, -6597.184431217245, -33982.11705471481, -24617.317273296987, -10173.172971388456, -6005.399645018536, 20844.40986447452, 14612.140013234617, -14144.921498885335, 862.0397284078275, -14471.793409799744, -11276.32096723568, 11757.934005014182, -10747.523396912027, -5035.870377525137, 1360.3048158055326, 0.17200000000000001, 0.894, -0.268, 192.0, 2.5, 48.0, 13.5, 120.0, 123.5, 80.0, 0.0, 0.0, 0.0, 1.66250644559776E9, 0.0, 2022-09-06 19:20:45.597
224.0, -14611.290646945316, -5577.4531456772265, -33035.118345632356, -23573.401400256327, -9160.169560929486, -4986.048339134257, 8176.469287451421, 15172.565301962532, -14305.250561863251, 1183.3013514639558, -14214.860107285991, -11403.457689697469, 11746.378153130789, -10264.45749574393, -5591.691206895257, 413.529624167636, 0.17200000000000001, 0.894, -0.268, 192.0, 0.0, 0.0, 0.0, 0.0, 0.0, 0.0, 0.0, 0.0, 0.0, 1.662506445597766E9, 0.0, 2022-09-06 19:20:45.597
226.0, -15521.967771287891, -6651.119190587901, -34030.82150588292, -24676.459989125728, -10230.751065105327, -6052.986508963884, 21116.408242751153, 14681.519828023891, -14044.249241858632, 985.3990060566672, -14372.663423140459, -11191.540800516701, 11839.674334487241, -10673.24855008704, -4976.101812851645, 1421.3027264240654, 0.17200000000000001, 0.894, -0.268, 192.0, 0.0, 0.0, 0.0, 0.0, 0.0, 0.0, 0.0, 0.0, 0.0, 1.6625064455977716E9, 0.0, 2022-09-06 19:20:45.597
228.0, -14616.588010381223, -5533.24139514463, -33068.06481695948, -23479.188797377206, -9127.714827980379, -4949.369126483099, 8660.80923805347, 15116.775347802086, -14390.477763471337, 1100.3540277903114, -14323.64604754997, -11516.602220130233, 11640.58734662382, -10390.498982727408, -5662.233312396206, 357.8961322183767, 0.17200000000000001, 0.894, -0.268, 192.0, 0.0, 0.0, 0.0, 0.0, 0.0, 0.0, 0.0, 0.0, 0.0, 1.6625064455977778E9, 0.0, 2022-09-06 19:20:45.597
230.0, -15463.339145581622, -6653.376716777888, -33990.34249667436, -24681.153855461343, -10196.150564688513, -6049.611395551133, 20908.71583327244, 14764.221282508528, -13920.75585374306, 1148.8349615138725, -14226.795938825124, -11062.6606419874, 11969.649728494851, -10520.139100568187, -4897.736596791339, 1488.5814772345398, 0.17200000000000001, 0.894, -0.268, 192.0, 0.0, 0.0, 0.0, 0.0, 0.0, 0.0, 0.0, 0.0, 0.0, 1.662506445597784E9, 0.0, 2022-09-06 19:20:45.597
232.0, -14713.683988295077, -5587.466727193204, -33109.16967501279, -23480.149922388784, -9125.971391912864, -4986.025987389802, 9576.940188043141, 15020.461680944167, -14506.7738898723, 943.8694648587067, -14473.916825523, -11634.328858176334, 11492.618798329688, -10583.036909465422, -5724.237051515228, 332.8398266839775, 0.168, 0.906, -0.268, 192.0, 2.5, 32.0, 14.0, 40.0, 123.5, 80.0, 0.0, 0.0, 0.0, 1.66250644559779E9, 0.0, 2022-09-06 19:20:45.597
234.0, -15397.468554671832, -6636.992888092147, -33896.532225195435, -24663.518329086106, -10186.87459073956, -6025.024476650296, 20328.777471635043, 14860.892577277731, -13844.581108639373, 1240.9912039031035, -14111.9303240693, -10963.6871175393, 12039.387171195409, -10420.785596464348, -4843.734782187317, 1528.0770096870674, 0.168, 0.906, -0.268, 192.0, 0.0, 0.0, 0.0, 0.0, 0.0, 0.0, 0.0, 0.0, 0.0, 1.662506445597796E9, 0.0, 2022-09-06 19:20:45.597
236.0, -14834.517518820468, -5651.25860586865, -33173.92267869981, -23512.582303593434, -9172.932407013466, -5054.556435889774, 10812.835194210435, 14914.514412226012, -14616.409196425582, 751.286834631781, -14607.781423065833, -11728.809681988918, 11354.417962362524, -10778.145286815798, -5763.777287456666, 341.22173085471763, 0.168, 0.906, -0.268, 192.0, 0.0, 0.0, 0.0, 0.0, 0.0, 0.0, 0.0, 0.0, 0.0, 1.662506445597802E9, 0.0, 2022-09-06 19:20:45.597
238.0, -15267.269643219668, -6526.888194905305, -33754.129261270675, -24569.462188418172, -10096.573543140119, -5905.710864747866, 19414.2334955017, 14977.702793801165, -13788.187657378634, 1305.16306223429, -13996.796488380014, -10874.01191878461, 12146.608489347516, -10326.505938351864, -4821.785369132205, 1493.6553232258946, 0.168, 0.906, -0.268, 192.0, 0.0, 0.0, 0.0, 0.0, 0.0, 0.0, 0.0, 0.0, 0.0, 1.662506445597808E9, 0.0, 2022-09-06 19:20:45.597
240.0, -14949.986630676583, -5735.748199909711, -33261.34035126452, -23565.935917608254, -9282.791231011299, -5115.219070341476, 12419.009199024344, 14827.901402461697, -14655.591804455735, 615.2541178767822, -14683.777354213877, -11749.328583398888, 11333.586136530177, -10893.703805649735, -5729.780284140144, 411.8532433334879, 0.168, 0.906, -0.268, 192.0, 0.0, 0.0, 0.0, 0.0, 0.0, 0.0, 0.0, 0.0, 0.0, 1.662506445597814E9, 0.0, 2022-09-06 19:20:45.597
242.0, -15133.919135799306, -6416.872908696283, -33610.16167523404, -24451.288515482967, -9980.769155117174, -5820.371904417504, 18296.936845414264, 15085.125277653371, -13735.459892208564, 1348.83837089996, -13889.709280694638, -10808.990694164122, 12222.22444083982, -10174.335262100132, -4811.280049238211, 1463.771040889149, 0.17400000000000002, 0.922, -0.27, 192.0, 2.5, 56.0, 14.0, 104.0, 123.5, 72.0, 0.0, 0.0, 0.0, 1.6625064455978332E9, 0.0, 2022-09-06 19:20:45.597
244.0, -15102.246713906135, -5867.958768362852, -33389.43819873789, -23682.008526564663, -9427.71994205951, -5209.297562753864, 14277.534398738671, 14751.011401535441, -14695.132040397173, 482.6188662789901, -14777.118239059238, -11791.439269952687, 11293.129479066072, -11014.47028094176, -5711.4071501978815, 492.0065989502191, 0.17400000000000002, 0.922, -0.27, 192.0, 0.0, 0.0, 0.0, 0.0, 0.0, 0.0, 0.0, 0.0, 0.0, 1.6625064455978427E9, 0.0, 2022-09-06 19:20:45.597
246.0, -15056.984431384139, -6319.374599382234, -33496.32424072317, -24349.789243911415, -9844.4235139398, -5681.925199261332, 16938.97896277654, 15175.694546186274, -13760.560901231875, 1399.5991825579624, -13846.682172618172, -10811.158813376285, 12256.221444156343, -10103.212011243346, -4865.393622564509, 1371.3242258219989, 0.17400000000000002, 0.922, -0.27, 192.0, 0.0, 0.0, 0.0, 0.0, 0.0, 0.0, 0.0, 0.0, 0.0, 1.6625064455978513E9, 0.0, 2022-09-06 19:20:45.597
248.0, -15234.971372481748, -5975.068327792684, -33497.24066224583, -23803.691423379354, -9528.012219430473, -5323.447921687117, 16141.535775844548, 14687.554799026824, -14710.91237198262, 419.56459517056885, -14838.250260144505, -11805.90084861527, 11342.48213082339, -11081.257293374216, -5622.782483432589, 613.6671440204555, 0.17400000000000002, 0.922, -0.27, 192.0, 0.0, 0.0, 0.0, 0.0, 0.0, 0.0, 0.0, 0.0, 0.0, 1.6625064455978582E9, 0.0, 2022-09-06 19:20:45.597
250.0, -14954.747552245564, -6168.79089698683, -33400.099980843064, -24250.61455376322, -9763.867826922873, -5550.251072675118, 15462.266261847766, 15262.933404795338, -13773.882540927238, 1446.2249214917329, -13816.2614484145, -10826.737979261636, 12337.693552695937, -10004.50670772871, -4918.657829601506, 1255.4527825656871, 0.17400000000000002, 0.922, -0.27, 192.0, 0.0, 0.0, 0.0, 0.0, 0.0, 0.0, 0.0, 0.0, 0.0, 1.662506445597865E9, 0.0, 2022-09-06 19:20:45.597
252.0, -15393.869923814527, -6123.9980010983945, -33660.63191421413, -23985.835788945653, -9681.322834649425, -5455.636138395803, 17991.500257432494, 14621.103062761196, -14674.702545965023, 423.2749847501498, -14866.525216880467, -11779.391679691278, 11422.143748062104, -11126.20665147384, -5565.763183327101, 727.8175029537085, 0.168, 0.868, -0.28, 192.0, 2.5, 32.0, 13.5, 16.0, 123.5, 32.0, 0.0, 0.0, 0.0, 1.6625064455978734E9, 0.0, 2022-09-06 19:20:45.597
254.0, -14891.492115437046, -6067.381032393102, -33283.647392230916, -24098.75680193386, -9630.897299158252, -5440.191082977186, 13996.595322679917, 15284.50283819471, -13856.114608778313, 1435.9431190422915, -13848.112684263311, -10908.858288390433, 12405.799318051259, -9972.364899201977, -5047.985023019913, 1078.9634083465826, 0.168, 0.868, -0.28, 192.0, 0.0, 0.0, 0.0, 0.0, 0.0, 0.0, 0.0, 0.0, 0.0, 1.662506445597882E9, 0.0, 2022-09-06 19:20:45.597
0.0, -15498.140811698535, -6281.689558230586, -33714.47726660696, -24117.644025998597, -9790.488754569144, -5636.30528882805, 19682.43207722093, 14578.83591399621, -14630.736664621434, 463.3069590696048, -14844.978135225552, -11724.071112164393, 11649.997431039505, -11093.170773168895, -5450.964623804644, 879.3399786162352, 0.168, 0.868, -0.28, 192.0, 0.0, 0.0, 0.0, 0.0, 0.0, 0.0, 0.0, 0.0, 0.0, 1.6625064455978918E9, 0.0, 2022-09-06 19:20:45.597
2.0, -14809.93059991963, -5947.083943734639, -33126.08994556546, -23944.127433792048, -9502.26300981796, -5312.629677370748, 12664.833684543812, 15295.276379022167, -13952.718848314149, 1332.9462805922367, -13873.772486898004, -10981.568513103546, 12539.261584193897, -9965.994652032216, -5135.201529884521, 937.4992176889441, 0.168, 0.868, -0.28, 192.0, 0.0, 0.0, 0.0, 0.0, 0.0, 0.0, 0.0, 0.0, 0.0, 1.6625064455979004E9, 0.0, 2022-09-06 19:20:45.597
4.0, -15589.402984309554, -6419.89039419775, -33785.68992444157, -24277.74957153196, -9954.192930959813, -5767.33121482506, 21186.548016851906, 14549.800997948767, -14561.133332387608, 402.04082751760814, -14796.899532902185, -11645.147102492703, 11869.759782524085, -11042.789941166633, -5344.078581819365, 1014.948012226583, 0.168, 0.868, -0.28, 192.0, 0.0, 0.0, 0.0, 0.0, 0.0, 0.0, 0.0, 0.0, 0.0, 1.6625064455979075E9, 0.0, 2022-09-06 19:20:45.597
6.0, -14764.78007611991, -5842.835407595087, -33030.46918278565, -23827.071348079604, -9384.357557816214, -5180.284998450876, 11645.102399003792, 15288.54850394112, -14089.93620752528, 1136.429743341177, -13958.440894894708, -11119.545831626157, 12519.636752562137, -10009.446443253331, -5283.61711306776, 757.3218056347139, 0.182, 0.906, -0.302, 192.0, 2.5, 88.0, 14.0, 40.0, 123.0, 72.0, 0.0, 0.0, 0.0, 1.6625064455979145E9, 0.0, 2022-09-06 19:20:45.597
8.0, -15674.652537662094, -6565.914340724271, -33857.237858443004, -24432.624808862784, -10095.657121617453, -5879.984006879808, 22388.267205747034, 14551.11975087163, -14478.029546502776, 380.337283651505, -14726.648000079156, -11563.76440093093, 11983.127830401401, -10966.97282397423, -5241.305260813864, 1152.455944115632, 0.182, 0.906, -0.302, 192.0, 0.0, 0.0, 0.0, 0.0, 0.0, 0.0, 0.0, 0.0, 0.0, 1.662506445597922E9, 0.0, 2022-09-06 19:20:45.597
10.0, -14755.437046937592, -5767.487677036247, -32975.59565014787, -23712.473954257246, -9285.138164179107, -5108.312381304787, 10994.443117909805, 15255.333811680533, -14225.410130668895, 946.372860237701, -14069.752582282137, -11250.705868089899, 12442.61264116915, -10070.936092249882, -5430.1775014612085, 610.4931963078018, 0.182, 0.906, -0.302, 192.0, 0.0, 0.0, 0.0, 0.0, 0.0, 0.0, 0.0, 0.0, 0.0, 1.6625064455979297E9, 0.0, 2022-09-06 19:20:45.597
12.0, -15708.247209578421, -6659.501094758642, -33914.994766115524, -24561.840243558916, -10168.546160286209, -5952.56012112619, 23331.33200780535, 14567.950614446476, -14371.434077195416, 382.10307146347424, -14633.37417046716, -11461.907501448095, 12139.388875888453, -10877.7670118531, -5140.051858431323, 1267.1427449158127, 0.182, 0.906, -0.302, 192.0, 0.0, 0.0, 0.0, 0.0, 0.0, 0.0, 0.0, 0.0, 0.0, 1.6625064455979357E9, 0.0, 2022-09-06 19:20:45.597
14.0, -14765.338869731293, -5697.0796820020305, -32987.10679854236, -23635.4274911198, -9231.829253653199, -5042.575900861729, 10838.696162545224, 15194.782935951107, -14346.824806550123, 716.0828371146723, -14196.196400665809, -11391.767727347342, 12325.891831623536, -10192.440175108932, -5555.48138087766, 477.03093016516334, 0.182, 0.906, -0.302, 192.0, 0.0, 0.0, 0.0, 0.0, 0.0, 0.0, 0.0, 0.0, 0.0, 1.662506445597942E9, 0.0, 2022-09-06 19:20:45.597
16.0, -15719.177212617065, -6722.555365867062, -33988.35319141784, -24687.144122975365, -10241.390495466054, -6068.118639960127, 23819.874086365, 14610.485984144925, -14249.43825595835, 420.34690622650464, -14528.186861060485, -11352.406305361546, 12235.479025301818, -10739.990859030588, -5059.295005714298, 1354.5604174805187, 0.186, 0.878, -0.318, 192.0, 2.5, 104.0, 13.5, 56.0, 123.0, 8.0, 0.0, 0.0, 0.0, 1.66250644559795E9, 0.0, 2022-09-06 19:20:45.597
18.0, -14804.789698694909, -5669.36351887745, -33056.7548342651, -23605.543208783056, -9198.815727092711, -5020.537080828796, 11005.015493037165, 15117.244734435646, -14466.741915552846, 526.9200237894087, -14343.762617559745, -11534.081284294281, 12187.266312511721, -10317.341723125188, -5672.179838678818, 365.4733735887258, 0.186, 0.878, -0.318, 192.0, 0.0, 0.0, 0.0, 0.0, 0.0, 0.0, 0.0, 0.0, 0.0, 1.662506445597958E9, 0.0, 2022-09-06 19:20:45.597
20.0, -15674.831351617737, -6752.90903483737, -34029.01101458204, -24753.79702494109, -10282.473001774908, -6094.136070506104, 23812.632121161478, 14676.75890645491, -14122.010960818645, 547.7518496217549, -14406.682778201435, -11233.6514870705, 12348.020058634289, -10584.601531577293, -4991.971551414914, 1416.1841769438001, 0.186, 0.878, -0.318, 192.0, 0.0, 0.0, 0.0, 0.0, 0.0, 0.0, 0.0, 0.0, 0.0, 1.6625064455979679E9, 0.0, 2022-09-06 19:20:45.597
22.0, -14898.13058354027, -5717.933859578831, -33165.96545767372, -23616.987301944173, -9224.989619849875, -5077.757546634382, 11622.616544081753, 14989.102183473371, -14597.521972360848, 355.61625428393535, -14518.374445244604, -11697.137260095747, 12023.919764032336, -10458.35887889372, -5792.454575592826, 275.17232598928524, 0.186, 0.878, -0.318, 192.0, 0.0, 0.0, 0.0, 0.0, 0.0, 0.0, 0.0, 0.0, 0.0, 1.6625064455979755E9, 0.0, 2022-09-06 19:20:45.597
24.0, -15613.922847977025, -6759.81572387406, -34003.95470904764, -24775.075885662543, -10278.69555696196, -6109.312904991259, 23362.311525620407, 14750.519663157424, -14044.763331981103, 561.5205242062241, -14310.302056110151, -11160.963614101842, 12418.562164135237, -10445.528977576372, -4968.658681948028, 1432.322136440532, 0.186, 0.878, -0.318, 192.0, 0.0, 0.0, 0.0, 0.0, 0.0, 0.0, 0.0, 0.0, 0.0, 1.662506445597983E9, 0.0, 2022-09-06 19:20:45.597
26.0, -14986.062346227449, -5764.492543279236, -33246.07410980155, -23646.44690113627, -9281.248960643883, -5108.625305727161, 12626.008704424943, 14888.407574702213, -14709.52656382639, 117.14549269026432, -14661.202092314017, -11816.249706298078, 11867.59166331192, -10615.223421481065, -5849.138599531484, 243.7010697962129, 0.18, 0.872, -0.328, 192.0, 2.5, 80.0, 13.5, 32.0, 122.5, 96.0, 0.0, 0.0, 0.0, 1.6625064455979888E9, 0.0, 2022-09-06 19:20:45.597
28.0, -15505.293369924233, -6699.622476055918, -33904.48944622152, -24727.75724265066, -10196.709358299895, -6019.972982403396, 22569.919832935317, 14839.904289234197, -13957.926804772236, 610.7390654968102, -14188.239179639719, -11072.584816525557, 12467.423077514539, -10294.811164714238, -4936.628632143573, 1419.447531634275, 0.18, 0.872, -0.328, 192.0, 0.0, 0.0, 0.0, 0.0, 0.0, 0.0, 0.0, 0.0, 0.0, 1.6625064455979948E9, 0.0, 2022-09-06 19:20:45.597
30.0, -15106.851173263929, -5857.453448468858, -33343.72888132678, -23692.133866802917, -9350.293499266327, -5206.861222608236, 13982.603130650894, 14774.994823335985, -14774.346622746782, -12.114645494776427, -14766.903491843164, -11892.871486290871, 11732.65418203523, -10716.812100030435, -5851.664346654934, 272.5124683991037, 0.18, 0.872, -0.328, 192.0, 0.0, 0.0, 0.0, 0.0, 0.0, 0.0, 0.0, 0.0, 0.0, 1.6625064455980008E9, 0.0, 2022-09-06 19:20:45.598
32.0, -15423.95537185137, -6652.057963855024, -33817.16118063464, -24674.336573402474, -10116.71246489435, -5988.3452639991365, 21459.932203284767, 14958.726162758609, -13935.530356828018, 637.3152896541703, -14110.902143824356, -11053.943461649831, 12493.03817666032, -10171.63070102104, -4950.464361961408, 1361.6682722173064, 0.18, 0.872, -0.328, 192.0, 0.0, 0.0, 0.0, 0.0, 0.0, 0.0, 0.0, 0.0, 0.0, 1.6625064455980067E9, 0.0, 2022-09-06 19:20:45.598
34.0, -15241.431026629332, -5966.105278266105, -33447.35156862158, -23776.243481188238, -9440.862767799232, -5282.767746778459, 15619.399025368575, 14709.48186033748, -14830.673018774156, -142.47001915812723, -14870.056792504407, -11956.752771944139, 11630.886689530218, -10823.832252482445, -5829.20084347735, 347.5025710466589, 0.18, 0.872, -0.328, 192.0, 0.0, 0.0, 0.0, 0.0, 0.0, 0.0, 0.0, 0.0, 0.0, 1.662506445598014E9, 0.0, 2022-09-06 19:20:45.598
36.0, -15326.635876492963, -6565.735526768628, -33705.00012695791, -24590.87515960636, -10061.883635745482, -5892.366873308048, 20167.196710967626, 15019.254686743581, -13934.993914961091, 653.2520834508042, -14057.704992020726, -11030.205909038295, 12434.387199209596, -10068.097420704058, -4988.9987694023575, 1287.8181085369717, 0.184, 0.885, -0.321, 192.0, 2.5, 112.0, 14.0, 8.0, 123.0, 24.0, 0.0, 0.0, 0.0, 1.6625064455980217E9, 0.0, 2022-09-06 19:20:45.598
38.0, -15357.70480128584, -6073.125430718116, -33534.21044757491, -23873.92060445793, -9546.184187672638, -5379.774317714491, 17420.569648810586, 14645.242946772927, -14867.307527936404, -253.26761642308432, -14961.296613370969, -11982.412574578831, 11487.164972682593, -10922.78342518609, -5796.835517506065, 432.5509586991023, 0.184, 0.885, -0.321, 192.0, 0.0, 0.0, 0.0, 0.0, 0.0, 0.0, 0.0, 0.0, 0.0, 1.6625064455980291E9, 0.0, 2022-09-06 19:20:45.598
40.0, -15205.757642478662, -6430.79804549194, -33555.39990131854, -24450.796777104948, -9924.129834667425, -5754.993051885731, 18723.81046102172, 15106.13591744136, -13949.299031412487, 660.158772487494, -14010.140479819833, -11013.75502511919, 12377.54671305975, -9965.726431098752, -5020.894708740081, 1204.5355086964976, 0.184, 0.885, -0.321, 192.0, 0.0, 0.0, 0.0, 0.0, 0.0, 0.0, 0.0, 0.0, 0.0, 1.6625064455980368E9, 0.0, 2022-09-06 19:20:45.598
42.0, -15503.952265256914, -6224.200871491536, -33658.508498490875, -24012.546123569744, -9685.323796906925, -5506.061673886976, 19252.898604023292, 14592.26931241385, -14855.7069725641, -317.7076956877346, -15001.663863857255, -11964.285309825578, 11395.031082037816, -10971.800800776578, -5708.389664696416, 571.5564574666569, 0.184, 0.885, -0.321, 192.0, 0.0, 0.0, 0.0, 0.0, 0.0, 0.0, 0.0, 0.0, 0.0, 1.6625064455980444E9, 0.0, 2022-09-06 19:20:45.598
44.0, -15083.851228219419, -6278.716776218031, -33415.99207115079, -24276.85550175375, -9793.148612159326, -5588.472555693693, 17257.35721079793, 15198.694491230786, -13991.186200521732, 631.1685599289608, -14001.19978203771, -11046.030944112652, 12253.740400521803, -9883.04732835857, -5097.717654432971, 1077.0858618123368, 0.184, 0.885, -0.321, 192.0, 0.0, 0.0, 0.0, 0.0, 0.0, 0.0, 0.0, 0.0, 0.0, 1.6625064455980513E9, 0.0, 2022-09-06 19:20:45.598
0.0, -7443.644993739724, -2457.7754685611094, -16517.89444898301, -11759.811551548428, -4635.7518000306845, -2388.1944880717383, 12878.181085369717, 7354.372126385228, -7177.145144599098, 202.26093557607362, -7074.841210227158, -5695.179783723329, 5943.977051255352, -4956.6557951755285, -2797.4325773039554, 197.03062737353176, 0.188, 0.8785000000000001, -0.2895, 192.0, 3.0, 0.0, 13.5, 32.0, 123.5, 120.0, 0.0, 0.0, 0.0, 1.6625064461767864E9, 0.0, 2022-09-06 19:20:46.176
2.0, -15254.305631435589, -5809.039569978663, -33508.125961795566, -24565.975316283148, -10158.48787528132, -5640.328602830005, 33824.93958770509, 14899.561095185412, -13890.46924000612, 621.646716791, -14005.96070360669, -11032.7540079062, 12754.95591818761, -10061.66011830093, -5060.591406892706, 1235.358564300366, 0.188, 0.8785000000000001, -0.2895, 192.0, 0.0, 0.0, 0.0, 0.0, 0.0, 0.0, 0.0, 0.0, 0.0, 1.662506446176914E9, 0.0, 2022-09-06 19:20:46.176
4.0, -15450.509244264274, -5452.752763361069, -33484.85779581759, -24022.80557427473, -9711.430634430722, -5316.518880905972, 33445.11639417605, 14347.60711760606, -14814.736224977521, -268.8467823084334, -14943.214052106627, -11960.619623734907, 11786.09720302787, -11052.110618604496, -5810.3136194126155, 547.5283321772018, 0.188, 0.8785000000000001, -0.2895, 192.0, 0.0, 0.0, 0.0, 0.0, 0.0, 0.0, 0.0, 0.0, 0.0, 1.6625064461769817E9, 0.0, 2022-09-06 19:20:46.176
6.0, -15076.922187438273, -5599.335503498973, -33299.69594474983, -24347.844642143806, -9855.442923956267, -5435.117236985831, 32479.364571495604, 14994.243084698091, -13889.709280694638, 729.6279942545884, -13893.352615040854, -10983.893094526898, 12772.546741073937, -9972.208436990792, -5115.420236041575, 1142.4200108551993, 0.188, 0.8785000000000001, -0.2895, 192.0, 0.0, 0.0, 0.0, 0.0, 0.0, 0.0, 0.0, 0.0, 0.0, 1.6625064461769967E9, 0.0, 2022-09-06 19:20:46.176
8.0, -15550.957983846425, -5563.0139187590985, -33619.10237301617, -24142.78973851082, -9840.646069126853, -5422.935536257689, 35310.68239339381, 14326.507070840249, -14715.740348784966, -192.80614767147873, -14880.495057165035, -11868.038698201026, 11865.714116777674, -11018.091263543518, -5664.31202463055, 744.0001659393508, 0.222, 0.914, -0.242, 192.0, 3.0, 120.0, 14.0, 72.0, 124.0, 56.0, 0.0, 0.0, 0.0, 1.6625064461770055E9, 0.0, 2022-09-06 19:20:46.177
10.0, -15011.632741884321, -5506.687522731724, -33288.609479499995, -24228.061643607813, -9754.614204718377, -5359.769506426991, 31248.4763560863, 15005.977750537128, -13970.53318864503, 679.224810507871, -13950.304859912976, -11084.498296320236, 12681.329271951829, -9977.885780082439, -5269.446107083096, 989.4446718030778, 0.222, 0.914, -0.242, 192.0, 0.0, 0.0, 0.0, 0.0, 0.0, 0.0, 0.0, 0.0, 0.0, 1.6625064461770136E9, 0.0, 2022-09-06 19:20:46.177
12.0, -15635.67109533204, -5704.813385583567, -33777.71035167103, -24286.936138503093, -9893.999683141672, -5559.415287901794, 37099.87248180777, 14330.753902286757, -14671.863874419198, -187.12880457983073, -14902.489173709057, -11837.372104808344, 11840.546052520998, -11016.906621087388, -5599.581372687981, 879.0717576827715, 0.222, 0.914, -0.242, 192.0, 0.0, 0.0, 0.0, 0.0, 0.0, 0.0, 0.0, 0.0, 0.0, 1.6625064461770227E9, 0.0, 2022-09-06 19:20:46.177
14.0, -14906.110156310817, -5356.036765102955, -33195.15683593236, -24077.075609812215, -9592.742871373042, -5191.662036378627, 30214.12702967251, 15053.095227848915, -14025.898459660824, 657.4095079194914, -13983.072517284456, -11139.841215591576, 12662.397344398183, -9947.107427967481, -5344.190340541642, 869.281693611347, 0.222, 0.914, -0.242, 192.0, 0.0, 0.0, 0.0, 0.0, 0.0, 0.0, 0.0, 0.0, 0.0, 1.6625064461770308E9, 0.0, 2022-09-06 19:20:46.177
16.0, -15700.513505996885, -5842.969518061819, -33887.23389950203, -24462.620849921805, -10026.098492872536, -5692.721091833245, 38636.84548578805, 14293.49354427976, -14567.257710368362, -97.99004769206616, -14830.471853074057, -11729.837862233862, 11964.531179014586, -10965.587015818002, -5501.680731973735, 1040.4737043945438, 0.222, 0.914, -0.242, 192.0, 0.0, 0.0, 0.0, 0.0, 0.0, 0.0, 0.0, 0.0, 0.0, 1.6625064461770408E9, 0.0, 2022-09-06 19:20:46.177
18.0, -14860.780818555453, -5274.162325163165, -33137.75755617113, -23986.4616377904, -9422.91431700162, -5106.792462681826, 29474.21723296848, 14994.86893354284, -14141.23346105021, 556.4019747259587, -14060.566015311006, -11273.99638581233, 12519.368531628674, -10035.84385345505, -5497.880935416333, 697.3073717722144, 0.292, 0.98, -0.244, 192.0, 4.5, 16.0, 15.0, 80.0, 124.0, 48.0, 0.0, 0.0, 0.0, 1.6625064461770504E9, 0.0, 2022-09-06 19:20:46.177
20.0, -15726.01684642039, -5956.270510705771, -33940.83338270585, -24589.556406683496, -10095.925342550916, -5766.683014235856, 39880.87652693707, 14273.980471370278, -14453.844959002134, -30.398372459217605, -14745.289354954883, -11658.580500910342, 12040.840034585004, -10931.657067734846, -5391.821907975902, 1125.3432780913447, 0.292, 0.98, -0.244, 192.0, 0.0, 0.0, 0.0, 0.0, 0.0, 0.0, 0.0, 0.0, 0.0, 1.6625064461770587E9, 0.0, 2022-09-06 19:20:46.177
22.0, -14816.12203313375, -5178.519210638906, -33059.90643023329, -23863.035304908193, -9242.848663669665, -4998.185336373489, 29015.291215812114, 14951.528901044001, -14263.25163403173, 461.29530206862717, -14147.357839030963, -11413.158346791071, 12358.123047128087, -10142.81930241815, -5612.567736216514, 530.4739511578025, 0.292, 0.98, -0.244, 192.0, 0.0, 0.0, 0.0, 0.0, 0.0, 0.0, 0.0, 0.0, 0.0, 1.6625064461770673E9, 0.0, 2022-09-06 19:20:46.177
24.0, -15723.424044063575, -6041.520064058312, -33932.1609058572, -24674.35892514693, -10052.071219929603, -5819.00844800573, 40806.19404389788, 14310.056186921143, -14328.921059241422, 85.07073939689867, -14612.609399868179, -11532.717827882509, 12154.588062118062, -10823.228755382152, -5261.198313379087, 1181.915543307727, 0.292, 0.98, -0.244, 192.0, 0.0, 0.0, 0.0, 0.0, 0.0, 0.0, 0.0, 0.0, 0.0, 1.6625064461770751E9, 0.0, 2022-09-06 19:20:46.177
26.0, -14816.010274411474, -5103.372645780164, -33015.80643842297, -23734.065739401074, -9104.491365491314, -4936.159245510012, 28999.26501503766, 14911.318112768902, -14358.112437500053, 360.86891423093255, -14226.706531847303, -11524.42533068959, 12333.312610782697, -10178.962073202381, -5691.737615077212, 378.4597371172592, 0.292, 0.98, -0.244, 192.0, 0.0, 0.0, 0.0, 0.0, 0.0, 0.0, 0.0, 0.0, 0.0, 1.6625064461770833E9, 0.0, 2022-09-06 19:20:46.177
28.0, -15677.804133630292, -6069.727965560909, -33973.511633099515, -24704.55613190605, -10067.113943948025, -5877.033576611707, 41290.98102938903, 14416.450490528405, -14192.240141897219, 211.1345781248305, -14468.77592429828, -11389.39844243508, 12241.692810260392, -10672.53329426447, -5147.360878868209, 1276.7539950315947, 0.372, 1.024, -0.224, 192.0, 5.5, 80.0, 16.0, 0.0, 124.5, 0.0, 0.0, 0.0, 0.0, 1.6625064461770916E9, 0.0, 2022-09-06 19:20:46.177
30.0, -14800.699329459589, -5019.039513950291, -33076.223203685666, -23628.49845033866, -9074.137696521007, -4864.946587675404, 29295.157408137016, 14878.885731564253, -14440.076284417664, 260.37547115987195, -14339.64989657997, -11618.660285313164, 12178.482076940785, -10306.322313108722, -5793.19218315985, 306.0847885709749, 0.372, 1.024, -0.224, 192.0, 0.0, 0.0, 0.0, 0.0, 0.0, 0.0, 0.0, 0.0, 0.0, 1.6625064461770997E9, 0.0, 2022-09-06 19:20:46.177
32.0, -15574.583777735685, -6013.200403833438, -33952.63510377826, -24701.628053382407, -10083.408365655943, -5844.265919240227, 41284.02963686343, 14514.373482987105, -13996.81884012447, 405.19242348580644, -14297.270989092707, -11197.843992453098, 12428.88867007359, -10488.019643785912, -5033.076409468224, 1381.4942695491636, 0.372, 1.024, -0.224, 192.0, 0.0, 0.0, 0.0, 0.0, 0.0, 0.0, 0.0, 0.0, 0.0, 1.6625064461771076E9, 0.0, 2022-09-06 19:20:46.177
34.0, -14883.534894410956, -5017.541947071784, -33143.59136147396, -23618.283703122583, -9081.200847768885, -4867.2488173543, 29902.051973587513, 14802.956855649574, -14538.423960021015, 164.15121127977505, -14471.279319677273, -11703.4628037766, 12054.295784747099, -10418.148090618623, -5853.005451322252, 257.04506123603124, 0.372, 1.024, -0.224, 192.0, 0.0, 0.0, 0.0, 0.0, 0.0, 0.0, 0.0, 0.0, 0.0, 1.662506446177116E9, 0.0, 2022-09-06 19:20:46.177
36.0, -15556.143588560057, -6055.489904342879, -33943.5602955294, -24742.844670157992, -10090.650330859462, -5878.642902212489, 40891.175376316954, 14551.298564827272, -13960.966642018157, 472.0911946405405, -14239.536433164649, -11149.094837796074, 12501.531839553338, -10359.452409678986, -5032.137636201101, 1369.0219961431023, 0.372, 1.024, -0.224, 192.0, 0.0, 0.0, 0.0, 0.0, 0.0, 0.0, 0.0, 0.0, 0.0, 1.6625064461771238E9, 0.0, 2022-09-06 19:20:46.177
38.0, -15014.359654707869, -5089.648674684605, -33253.11490930497, -23674.207767749762, -9142.623441532069, -4935.689858876451, 30902.337241451412, 14662.833769659253, -14622.712388361979, 28.83375034734611, -14610.217763211462, -11818.663694699251, 11980.311510600033, -10559.61228127626, -5898.044216399696, 231.60877604589177, 0.388, 0.996, -0.166, 192.0, 6.0, 16.0, 15.5, 16.0, 125.0, 104.0, 0.0, 0.0, 0.0, 1.662506446177134E9, 0.0, 2022-09-06 19:20:46.177
40.0, -15449.056380874681, -5980.94683658443, -33872.3923411837, -24703.863227827936, -10038.548414534142, -5808.570183345102, 40114.98869836196, 14663.459618504003, -13908.529449526008, 546.9024833324532, -14162.132342115921, -11104.234886674272, 12581.796953892346, -10241.92693733298, -5031.936470501002, 1343.0045655971248, 0.388, 0.996, -0.166, 192.0, 0.0, 0.0, 0.0, 0.0, 0.0, 0.0, 0.0, 0.0, 0.0, 1.6625064461771424E9, 0.0, 2022-09-06 19:20:46.177
42.0, -15108.147574442337, -5143.337564866253, -33358.570439645104, -23733.641056256423, -9202.213192249917, -5000.487566052386, 32180.588803361516, 14585.832010010721, -14667.23706331695, -46.87160812277891, -14711.38175861618, -11882.343814652422, 11912.250448733623, -10673.337957064863, -5907.186079881916, 265.00228226212056, 0.388, 0.996, -0.166, 192.0, 0.0, 0.0, 0.0, 0.0, 0.0, 0.0, 0.0, 0.0, 0.0, 1.6625064461771505E9, 0.0, 2022-09-06 19:20:46.177
44.0, -15324.914792169904, -5888.634131984011, -33772.100063812744, -24637.143270628843, -9957.657451350386, -5704.1875367388175, 39059.09229029325, 14794.083213100817, -13833.181718967167, 631.5261878402457, -14048.20550062722, -11033.782188151145, 12654.574233838825, -10145.903843152983, -5025.007429719857, 1317.4788734291642, 0.388, 0.996, -0.166, 192.0, 0.0, 0.0, 0.0, 0.0, 0.0, 0.0, 0.0, 0.0, 0.0, 1.6625064461771588E9, 0.0, 2022-09-06 19:20:46.177
46.0, -15249.142378466413, -5256.124467387733, -33497.15125526801, -23833.642760949464, -9353.623909190168, -5131.289974604842, 33700.48507457794, 14494.972168799899, -14716.947342985553, -150.87427507332268, -14818.223097112548, -11942.760579915117, 11805.856145126361, -10805.257952840086, -5890.042291884696, 321.64160271186864, 0.388, 0.996, -0.166, 192.0, 0.0, 0.0, 0.0, 0.0, 0.0, 0.0, 0.0, 0.0, 0.0, 1.6625064461771672E9, 0.0, 2022-09-06 19:20:46.177
48.0, -15267.604919386498, -5843.193035506372, -33703.94959496851, -24578.24642398911, -9884.947226637272, -5628.146902101863, 37723.19557943292, 14858.389181898736, -13846.011620284513, 645.6077868470892, -14019.0588258575, -11045.874481901465, 12682.715080108057, -10071.919569005915, -5098.991703866924, 1210.3246105104222, 0.371, 0.976, -0.167, 192.0, 5.5, 8.0, 14.5, 112.0, 125.0, 96.0, 0.0, 0.0, 0.0, 1.6625064461771755E9, 0.0, 2022-09-06 19:20:46.177
50.0, -15393.28877845869, -5408.11632968382, -33606.183064721, -23955.146843808514, -9437.510006130935, -5209.543431942872, 35383.102045429, 14426.084092388643, -14735.409883905637, -225.19382538721865, -14899.404632974225, -11974.947091930759, 11807.979560849615, -10916.234364060685, -5845.0035268072525, 414.06606603456333, 0.371, 0.976, -0.167, 192.0, 0.0, 0.0, 0.0, 0.0, 0.0, 0.0, 0.0, 0.0, 0.0, 1.662506446177184E9, 0.0, 2022-09-06 19:20:46.177
52.0, -15129.292324697057, -5684.182725451318, -33556.58454377467, -24440.671436866694, -9776.65302475131, -5480.871257885845, 36226.07573581645, 14949.561947531933, -13869.905635107236, 656.2695689522707, -13993.488430200628, -11065.700479233323, 12677.954158539076, -9980.478582439255, -5144.1422276666435, 1092.6650276976857, 0.371, 0.976, -0.167, 192.0, 0.0, 0.0, 0.0, 0.0, 0.0, 0.0, 0.0, 0.0, 0.0, 1.6625064461771917E9, 0.0, 2022-09-06 19:20:46.177
54.0, -15507.30502692521, -5522.825482228456, -33762.13118578568, -24134.25137212889, -9601.57181043289, -5360.06007910491, 37143.63719745126, 14353.038591508699, -14687.018357159897, -206.6642292337691, -14907.38420574477, -11930.333009997967, 11803.218639280634, -10964.447076850782, -5748.488694249237, 560.6041026835564, 0.371, 0.976, -0.167, 192.0, 0.0, 0.0, 0.0, 0.0, 0.0, 0.0, 0.0, 0.0, 0.0, 1.6625064461771996E9, 0.0, 2022-09-06 19:20:46.177
56.0, -15039.371256753357, -5565.025575760076, -33465.03179848573, -24334.29948500389, -9662.569721051423, -5381.964788671111, 34714.471961792944, 14997.01470101055, -13941.386513875308, 637.7399727988211, -14011.995674609623, -11134.275631222205, 12619.59375376627, -9965.63702412093, -5273.223551896042, 910.7441795759415, 0.371, 0.976, -0.167, 192.0, 0.0, 0.0, 0.0, 0.0, 0.0, 0.0, 0.0, 0.0, 0.0, 1.662506446177208E9, 0.0, 2022-09-06 19:20:46.177
58.0, -15581.043431883269, -5654.723126259223, -33823.39731733767, -24272.586318562786, -9766.259463579592, -5498.104452860886, 38869.325979867695, 14310.816146232624, -14622.6006296397, -179.57391495393694, -14895.180153272171, -11867.859884245383, 11875.772401782562, -10954.768771501635, -5642.541425531081, 728.5327587762785, 0.3345, 0.958, -0.1605, 192.0, 4.5, 40.0, 14.5, 48.0, 125.5, 24.0, 0.0, 0.0, 0.0, 1.6625064461772163E9, 0.0, 2022-09-06 19:20:46.177
60.0, -14968.136247174294, -5451.74693486058, -33346.38873891696, -24206.291044508343, -9577.454278165613, -5259.968967434045, 33275.71252294928, 15005.173087736737, -14005.603075695406, 604.2570596047711, -14035.107378376411, -11190.087937127106, 12600.393605279161, -9991.341530244534, -5356.573206969882, 772.0739569752166, 0.3345, 0.958, -0.1605, 192.0, 0.0, 0.0, 0.0, 0.0, 0.0, 0.0, 0.0, 0.0, 0.0, 1.6625064461772244E9, 0.0, 2022-09-06 19:20:46.177
62.0, -15648.121016993646, -5798.24367740675, -33922.840228419336, -24452.249640494545, -9950.415486146867, -5641.580300519503, 40690.121434941466, 14305.429375818894, -14545.777683946812, -156.6633768872472, -14869.56505412639, -11793.629740909308, 11954.875225409893, -10967.464562352248, -5543.031459216054, 889.0182839653831, 0.3345, 0.958, -0.1605, 192.0, 0.0, 0.0, 0.0, 0.0, 0.0, 0.0, 0.0, 0.0, 0.0, 1.6625064461772325E9, 0.0, 2022-09-06 19:20:46.177
64.0, -14911.18400230217, -5248.8601504397575, -33261.22859254225, -23995.245873361335, -9424.34482864676, -5106.345427792719, 31294.34213570859, 14950.210148121138, -14139.266507538141, 469.52074402818016, -14146.262603552654, -11346.997183203363, 12472.362813039163, -10072.903045761948, -5532.414380599783, 575.7585854242546, 0.3345, 0.958, -0.1605, 192.0, 0.0, 0.0, 0.0, 0.0, 0.0, 0.0, 0.0, 0.0, 0.0, 1.6625064461772404E9, 0.0, 2022-09-06 19:20:46.177
66.0, -15507.103861225112, -5833.470026668314, -33872.23587897252, -24570.937403552223, -9941.765361042662, -5671.576341578525, 39792.67654331643, 14533.975962874409, -14290.20783784483, 125.46034162763854, -14575.393745350093, -11509.360254926713, 12200.833821396092, -10655.925948134178, -5318.597593140315, 1108.7806354499621, 0.3345, 0.958, -0.1605, 192.0, 0.0, 0.0, 0.0, 0.0, 0.0, 0.0, 0.0, 0.0, 0.0, 1.6625064461772485E9, 0.0, 2022-09-06 19:20:46.177
68.0, -15295.276379022167, -5598.530840698581, -33641.27530351583, -24335.975865838038, -9792.053376681015, -5448.416524936739, 36902.283060822854, 14610.754205078389, -14410.169650336464, 110.01528620902137, -14558.36171607515, -11651.271480473457, 12154.431599906875, -10531.426731518119, -5665.876646742421, 539.7052216178444, 0.28025, 0.9179999999999999, -0.16725, 192.0, 3.5, 8.0, 13.5, 56.0, 125.0, 72.0, 0.0, 0.0, 0.0, 1.6625064461772566E9, 0.0, 2022-09-06 19:20:46.177
70.0, -15425.47529047433, -5710.356618208482, -33804.890072928676, -24472.61207969333, -9939.35137264149, -5612.232460049684, 39698.88862358197, 14533.104244840652, -14397.85383914159, 72.21848633509713, -14600.159478206573, -11617.162718434658, 12197.212838794332, -10627.650991398215, -5491.913019646767, 833.250681549392, 0.28025, 0.9179999999999999, -0.16725, 192.0, 0.0, 0.0, 0.0, 0.0, 0.0, 0.0, 0.0, 0.0, 0.0, 1.662506446177366E9, 0.0, 2022-09-06 19:20:46.177
72.0, -15248.82945404404, -5523.294868862017, -33617.805971837755, -24286.958490247547, -9772.540303771533, -5419.582774589393, 36739.62941642159, 14639.90087984811, -14358.850045067078, 162.22896125661867, -14516.765119643822, -11596.95674144706, 12162.45587616633, -10489.07017577531, -5637.065248139531, 595.361065311559, 0.28025, 0.9179999999999999, -0.16725, 192.0, 0.0, 0.0, 0.0, 0.0, 0.0, 0.0, 0.0, 0.0, 0.0, 1.6625064461773748E9, 0.0, 2022-09-06 19:20:46.177
74.0, -15392.19354298038, -5700.521850648147, -33765.68511315407, -24456.921155085704, -9914.026846173627, -5509.772063466557, 39461.0660625775, 14598.393690394603, -14338.599364590571, 120.36414389182853, -14523.314180769228, -11550.912147869129, 12297.19219174292, -10596.224438694053, -5432.770303818024, 885.7772810193636, 0.28025, 0.9179999999999999, -0.16725, 192.0, 0.0, 0.0, 0.0, 0.0, 0.0, 0.0, 0.0, 0.0, 0.0, 1.6625064461773832E9, 0.0, 2022-09-06 19:20:46.177
76.0, -15246.549576109599, -5527.184072397241, -33641.007082582364, -24251.50862354143, -9797.306036628013, -5382.4565270491275, 36750.40295724904, 14632.770673366866, -14370.003565550276, 133.9093010317446, -14528.8797651386, -11601.650607782676, 12199.760937662237, -10520.519080223929, -5628.929213157799, 631.0120977177737, 0.28025, 0.9179999999999999, -0.16725, 192.0, 0.0, 0.0, 0.0, 0.0, 0.0, 0.0, 0.0, 0.0, 0.0, 1.6625064461773913E9, 0.0, 2022-09-06 19:20:46.177
78.0, -15348.652344781442, -5676.381966636416, -33740.47234540848, -24386.49080830703, -9889.708148206253, -5561.561055369503, 39253.418356587696, 14627.830937842244, -14314.437128834383, 138.26789120052948, -14498.481392679381, -11502.922952523584, 12271.510037363772, -10509.544373696372, -5422.376742646306, 935.4205054546005, 0.241125, 0.8939999999999999, -0.184625, 192.0, 3.0, 40.0, 13.5, 24.0, 124.5, 88.0, 0.0, 0.0, 0.0, 1.6625064461773999E9, 0.0, 2022-09-06 19:20:46.177
80.0, -15203.142488377393, -5500.317275561962, -33605.646622854074, -24184.095762264224, -9751.149684327804, -5373.3593670558175, 36908.25097659242, 14627.406254697593, -14355.519635143237, 126.73439106159104, -14514.641703920568, -11550.889796124673, 12227.588859509095, -10498.279094490897, -5582.728157368679, 695.3627700046027, 0.241125, 0.8939999999999999, -0.184625, 192.0, 0.0, 0.0, 0.0, 0.0, 0.0, 0.0, 0.0, 0.0, 0.0, 1.662506446177408E9, 0.0, 2022-09-06 19:20:46.177
82.0, -15318.432786277866, -5679.488859115703, -33728.29064468034, -24358.864052160272, -9905.555535025065, -5543.120866193875, 39072.905668366635, 14626.221612241461, -14268.839570145557, 177.5622579529593, -14450.223976400373, -11442.796759938808, 12306.423462202962, -10503.352940482253, -5404.40594010424, 959.7392034219747, 0.241125, 0.8939999999999999, -0.184625, 192.0, 0.0, 0.0, 0.0, 0.0, 0.0, 0.0, 0.0, 0.0, 0.0, 1.662506446177538E9, 0.0, 2022-09-06 19:20:46.177
84.0, -15229.651657301387, -5551.279252920062, -33661.32481829224, -24193.572901913274, -9777.122411384871, -5395.286428366474, 37114.42346744817, 14555.053657895764, -14372.730478373824, 102.8850797277784, -14547.118788614129, -11567.586549232788, 12230.606345010561, -10537.349943798774, -5620.748474687157, 690.2442205243374, 0.241125, 0.8939999999999999, -0.184625, 192.0, 0.0, 0.0, 0.0, 0.0, 0.0, 0.0, 0.0, 0.0, 0.0, 1.6625064461775465E9, 0.0, 2022-09-06 19:20:46.177
86.0, -15296.773945900673, -5686.417899896848, -33738.05835700731, -24322.1401360202, -9915.569116541043, -5527.295831119518, 38890.49308186687, 14620.767786594366, -14301.920151939412, 176.75759515256826, -14468.57475859818, -11448.831730941742, 12297.86274407658, -10473.893341290157, -5433.306745684951, 948.0268893273937, 0.241125, 0.8939999999999999, -0.184625, 192.0, 0.0, 0.0, 0.0, 0.0, 0.0, 0.0, 0.0, 0.0, 0.0, 1.662506446177555E9, 0.0, 2022-09-06 19:20:46.177
88.0, -15220.710959519263, -5575.597950887436, -33676.50165277739, -24197.88678859315, -9735.369352742357, -5384.557591027927, 37444.13404990841, 14540.189747832985, -14379.011318565765, 114.2621176555297, -14544.570689746224, -11549.459284479533, 12186.305187500142, -10546.42475204763, -5591.981779573176, 749.8116194977307, 0.2345625, 0.887, -0.1983125, 192.0, 3.5, 16.0, 13.5, 64.0, 124.5, 48.0, 0.0, 0.0, 0.0, 1.6625064461775632E9, 0.0, 2022-09-06 19:20:46.177
90.0, -15282.893512593928, -5716.793920611611, -33709.82810376026, -24330.544391935397, -9833.739380090163, -5469.2707025135405, 38789.5079004178, 14627.22744074195, -14305.16115488543, 180.51268822105985, -14466.853674275122, -11448.295289074815, 12280.070755490156, -10507.17508878411, -5449.98114704861, 920.5789471362767, 0.2345625, 0.887, -0.1983125, 192.0, 0.0, 0.0, 0.0, 0.0, 0.0, 0.0, 0.0, 0.0, 0.0, 1.662506446177571E9, 0.0, 2022-09-06 19:20:46.177
92.0, -15220.420386841344, -5615.451111251248, -33657.860297901665, -24204.88288460766, -9788.454745823712, -5422.6673153242255, 37964.6614747836, 14569.06820166924, -14400.267827542762, 103.66739078371415, -14561.98269867691, -11553.974336859506, 12230.494586288285, -10556.818313219346, -5562.723346081179, 776.7678233108311, 0.2345625, 0.887, -0.1983125, 192.0, 0.0, 0.0, 0.0, 0.0, 0.0, 0.0, 0.0, 0.0, 0.0, 1.6625064461775787E9, 0.0, 2022-09-06 19:20:46.177
94.0, -15235.083131204026, -5694.553934878581, -33660.00606536938, -24297.32969967481, -9838.23208072568, -5484.134612576319, 38686.08637882309, 14706.218505647006, -14298.96972167131, 210.26286009107355, -14444.591336797635, -11428.715160931964, 12339.504043996816, -10486.857353074236, -5440.16873123273, 923.439970426556, 0.2345625, 0.887, -0.1983125, 192.0, 0.0, 0.0, 0.0, 0.0, 0.0, 0.0, 0.0, 0.0, 0.0, 1.662506446177587E9, 0.0, 2022-09-06 19:20:46.177
96.0, -15222.543802564598, -5647.749381989167, -33661.146004336595, -24225.379434273178, -9774.104925883405, -5456.351394218373, 38336.81801996446, 14539.630954221602, -14418.104519618097, 91.59744877784834, -14564.530797544814, -11546.575909444799, 12163.148780244444, -10606.372130676762, -5534.895424234322, 816.9339080970178, 0.2345625, 0.887, -0.1983125, 192.0, 0.0, 0.0, 0.0, 0.0, 0.0, 0.0, 0.0, 0.0, 0.0, 1.6625064461775951E9, 0.0, 2022-09-06 19:20:46.177
98.0, -15207.3893198239, -5688.407205153371, -33614.74378284738, -24268.406542349643, -9794.534420315555, -5460.017080309043, 38509.32878367052, 14689.678214750078, -14317.387559102484, 188.5593162249704, -14450.827473500667, -11433.632544712133, 12284.205828214388, -10486.276207718398, -5455.256158740063, 895.3214759017796, 0.24028125, 0.9005000000000001, -0.19715625, 192.0, 3.5, 88.0, 14.0, 72.0, 124.5, 112.0, 0.0, 0.0, 0.0, 1.6625064461776035E9, 0.0, 2022-09-06 19:20:46.177
100.0, -15200.572037765032, -5648.554044789558, -33617.47069567093, -24205.2628642634, -9738.476245221646, -5442.113333000342, 38577.70276995931, 14554.718381728933, -14396.490382729815, 94.99491393505501, -14535.898212897566, -11515.685798607565, 12225.376036808018, -10586.032043222433, -5491.04130161301, 856.3623853161795, 0.24028125, 0.9005000000000001, -0.19715625, 192.0, 0.0, 0.0, 0.0, 0.0, 0.0, 0.0, 0.0, 0.0, 0.0, 1.6625064461776116E9, 0.0, 2022-09-06 19:20:46.177
102.0, -15171.917101373328, -5660.087544928497, -33570.912011970526, -24211.23078003297, -9754.211873318181, -5435.765437575035, 38159.90396260071, 14686.43721180406, -14291.392480300961, 213.28034559254, -14422.530165020247, -11405.648160654087, 12344.86846266609, -10440.633945540661, -5451.210492993652, 868.3876238331347, 0.24028125, 0.9005000000000001, -0.19715625, 192.0, 0.0, 0.0, 0.0, 0.0, 0.0, 0.0, 0.0, 0.0, 0.0, 1.662506446177622E9, 0.0, 2022-09-06 19:20:46.177
104.0, -15187.160991091847, -5650.252777368161, -33612.39684967957, -24198.736154882452, -9733.581213185933, -5419.471015867116, 38464.580591271, 14572.800942993277, -14378.631338910025, 113.41275136622804, -14513.434709719982, -11481.867609246685, 12228.639391498495, -10571.570464559849, -5464.330966988918, 884.7043972855089, 0.24028125, 0.9005000000000001, -0.19715625, 192.0, 0.0, 0.0, 0.0, 0.0, 0.0, 0.0, 0.0, 0.0, 0.0, 1.66250644617763E9, 0.0, 2022-09-06 19:20:46.177
106.0, -15126.587763617965, -5631.656125981346, -33537.29498830974, -24176.227948215957, -9714.559878654467, -5374.9686926566, 37528.64599569392, 14712.812270261322, -14277.847323161046, 225.10441840939743, -14413.47770851585, -11392.460631425456, 12319.409825731496, -10434.241346626442, -5451.590472649393, 863.1126121416822, 0.24028125, 0.9005000000000001, -0.19715625, 192.0, 0.0, 0.0, 0.0, 0.0, 0.0, 0.0, 0.0, 0.0, 0.0, 1.6625064461776383E9, 0.0, 2022-09-06 19:20:46.177
108.0, -15212.552572793076, -5703.405225682882, -33650.528925720326, -24235.147146600146, -9762.705536211197, -5471.7964496369905, 38917.069306024234, 14579.439411096504, -14358.157140988964, 115.26794615601852, -14513.658227164535, -11460.611100269689, 12257.42843835693, -10544.234281091009, -5418.040504221976, 943.1318572916815, 0.256140625, 0.9092500000000001, -0.194578125, 192.0, 4.0, 64.0, 14.0, 88.0, 125.0, 0.0, 0.0, 0.0, 0.0, 1.6625064461776466E9, 0.0, 2022-09-06 19:20:46.177
110.0, -15141.205804491736, -5646.184759877296, -33564.87704096759, -24172.852834803205, -9697.706663335164, -5372.845276933346, 37650.30654076416, 14688.135944382662, -14316.515841068727, 177.38344399731685, -14462.271566661784, -11433.923117390052, 12303.093052279122, -10475.92735003559, -5479.373691007339, 827.3721727576462, 0.256140625, 0.9092500000000001, -0.194578125, 192.0, 0.0, 0.0, 0.0, 0.0, 0.0, 0.0, 0.0, 0.0, 0.0, 1.6625064461776552E9, 0.0, 2022-09-06 19:20:46.177
112.0, -15241.676895818342, -5736.619917943468, -33691.969059940464, -24259.555251545342, -9831.817130067007, -5503.535926763526, 39235.5593127679, 14573.471495326936, -14379.771277877246, 87.86470745381206, -14537.127558842607, -11480.638263301644, 12266.033859972224, -10558.204121375577, -5423.941364758178, 941.2319590129804, 0.256140625, 0.9092500000000001, -0.194578125, 192.0, 0.0, 0.0, 0.0, 0.0, 0.0, 0.0, 0.0, 0.0, 0.0, 1.6625064461776633E9, 0.0, 2022-09-06 19:20:46.177
114.0, -15224.220183398747, -5706.132138506429, -33639.978902337425, -24220.4173470041, -9701.171183725737, -5435.318402685929, 38346.49632531361, 14626.154557008096, -14357.441885166394, 120.36414389182853, -14522.844794135666, -11475.765583010387, 12211.316789545632, -10508.449138218062, -5523.250165373107, 800.9524108114733, 0.256140625, 0.9092500000000001, -0.194578125, 192.0, 0.0, 0.0, 0.0, 0.0, 0.0, 0.0, 0.0, 0.0, 0.0, 1.662506446177672E9, 0.0, 2022-09-06 19:20:46.177
116.0, -15325.250068336734, -5784.564409800102, -33742.68516810956, -24306.471563157033, -9851.62077565441, -5503.737092463624, 40179.13820494869, 14576.511332572858, -14405.788708423222, 48.63739593474817, -14574.656137783068, -11504.04053974635, 12246.207862640365, -10604.136956231232, -5431.02686775051, 916.1085982452153, 0.256140625, 0.9092500000000001, -0.194578125, 192.0, 0.0, 0.0, 0.0, 0.0, 0.0, 0.0, 0.0, 0.0, 0.0, 1.6625064461776812E9, 0.0, 2022-09-06 19:20:46.177
118.0, -15326.054731137125, -5774.170848628384, -33709.58223457125, -24273.212167407535, -9817.780234549075, -5475.752708405579, 39432.83580933044, 14560.999221920876, -14413.321246304662, 67.54697174393795, -14602.014672996364, -11536.830548862285, 12200.0291585957, -10575.23615065052, -5567.90895079481, 742.0332124272838, 0.256140625, 0.9092500000000001, -0.194578125, 192.0, 0.0, 0.0, 0.0, 0.0, 0.0, 0.0, 0.0, 0.0, 0.0, 1.662506446177689E9, 0.0, 2022-09-06 19:20:46.177
120.0, -15353.480321583787, -5809.508956612224, -33731.9116272821, -24298.58139736431, -9853.05128729955, -5510.844947200411, 40754.96384560631, 14563.033230666308, -14458.561177082203, 24.408104945195312, -14611.670626601057, -11540.607993675232, 12150.475341138284, -10611.37892143475, -5483.329949775929, 876.1436791591262, 0.278, 0.896, -0.152, 192.0, 4.0, 88.0, 14.0, 0.0, 125.5, 32.0, 0.0, 0.0, 0.0, 1.662506446657555E9, 0.0, 2022-09-06 19:20:46.657
122.0, -15297.757422656707, -5757.2505780757165, -33663.51528924886, -24260.494024812466, -9819.791891550052, -5458.2959959859845, 39923.79187629126, 14566.050716167774, -14399.127888575542, 80.62274225029257, -14573.471495326936, -11520.379664943179, 12197.972798105813, -10576.420793106652, -5538.628165558358, 765.6813580609987, 0.278, 0.896, -0.152, 192.0, 0.0, 0.0, 0.0, 0.0, 0.0, 0.0, 0.0, 0.0, 0.0, 1.6625064466577055E9, 0.0, 2022-09-06 19:20:46.657
124.0, -15352.69801052785, -5816.43799739337, -33691.29850760681, -24307.209170724058, -9853.788894866573, -5536.214177157185, 41309.84590170931, 14566.855378968166, -14442.736142007845, 44.994061588533114, -14585.429678610526, -11532.382551715678, 12231.388656066496, -10589.250694423998, -5471.707042659169, 864.2749028533582, 0.278, 0.896, -0.152, 192.0, 0.0, 0.0, 0.0, 0.0, 0.0, 0.0, 0.0, 0.0, 0.0, 1.6625064466577115E9, 0.0, 2022-09-06 19:20:46.657
126.0, -15331.50855678422, -5790.509973825214, -33678.02157140036, -24287.450228625567, -9864.80830488304, -5526.468816574671, 40739.09410704304, 14523.045959835765, -14416.294028317217, 61.80257341892403, -14587.798963522788, -11533.924822083096, 12212.724949446316, -10582.455764109583, -5544.283156905551, 747.0623549297279, 0.278, 0.896, -0.152, 192.0, 0.0, 0.0, 0.0, 0.0, 0.0, 0.0, 0.0, 0.0, 0.0, 1.6625064466577177E9, 0.0, 2022-09-06 19:20:46.657
128.0, -15383.968101020826, -5836.4875121697805, -33707.41411535908, -24324.352958721276, -9829.760769577118, -5527.295831119518, 42125.12578071663, 14582.903931487077, -14461.891587006045, 17.903747308700957, -14607.244981198906, -11549.481636223989, 12147.413152147908, -10634.177700779164, -5496.048092370998, 847.086411367227, 0.278, 0.896, -0.152, 192.0, 0.0, 0.0, 0.0, 0.0, 0.0, 0.0, 0.0, 0.0, 0.0, 1.6625064466577237E9, 0.0, 2022-09-06 19:20:46.657
130.0, -15375.876769528006, -5834.475855168803, -33709.045792704324, -24330.276171001933, -9863.601310682454, -5516.276421103051, 41988.48956686134, 14528.946820371964, -14439.338676850639, 30.331317225851684, -14619.60549588269, -11556.544787471867, 12125.73196002626, -10645.174759051175, -5534.493092834126, 763.5355905932893, 0.262, 0.878, -0.158, 192.0, 4.0, 24.0, 13.5, 56.0, 125.5, 8.0, 0.0, 0.0, 0.0, 1.6625064466577296E9, 0.0, 2022-09-06 19:20:46.657
132.0, -15441.590898226608, -5896.412539054459, -33750.26240947991, -24383.003936172, -9947.018020989659, -5590.908895839321, 43614.914252151764, 14536.300544297761, -14504.158735771029, -39.31671849688512, -14658.922214379576, -11595.481526313011, 12175.442239694863, -10673.337957064863, -5528.212252642185, 814.0952365511938, 0.262, 0.878, -0.158, 192.0, 0.0, 0.0, 0.0, 0.0, 0.0, 0.0, 0.0, 0.0, 0.0, 1.6625064466577356E9, 0.0, 2022-09-06 19:20:46.657
134.0, -15424.156537551467, -5903.386283324514, -33756.94558107205, -24393.129276410258, -9924.576869556531, -5600.922477355299, 44264.67946346754, 14473.20156970043, -14476.420220901993, -36.61215741779297, -14663.481970248458, -11590.988825677494, 12094.506573022196, -10676.713070477614, -5567.305453694517, 746.2576921293369, 0.262, 0.878, -0.158, 192.0, 0.0, 0.0, 0.0, 0.0, 0.0, 0.0, 0.0, 0.0, 0.0, 1.6625064466577463E9, 0.0, 2022-09-06 19:20:46.657
136.0, -15521.341922443144, -5970.977958557362, -33785.35464827474, -24452.69667538365, -9978.73514637174, -5657.137114660396, 45971.257504374684, 14467.05483997522, -14563.279099855317, -130.24361494107424, -14722.53527909938, -11650.779742095441, 12029.865328057449, -10737.912146796245, -5590.43950920576, 749.319881119714, 0.262, 0.878, -0.158, 192.0, 0.0, 0.0, 0.0, 0.0, 0.0, 0.0, 0.0, 0.0, 0.0, 1.662506446657752E9, 0.0, 2022-09-06 19:20:46.657
138.0, -15466.736610738828, -5939.171426197461, -33766.80270037684, -24428.243866949542, -9993.3084837566, -5636.282937083595, 46475.669321497604, 14420.987894652832, -14564.73196324491, -159.5244001775265, -14735.812215305832, -11669.175227782158, 11979.79742047756, -10758.185179017208, -5634.1595213603405, 677.7495953738207, 0.262, 0.878, -0.158, 192.0, 0.0, 0.0, 0.0, 0.0, 0.0, 0.0, 0.0, 0.0, 0.0, 1.662506446657758E9, 0.0, 2022-09-06 19:20:46.657
140.0, -15519.956114286913, -5989.2840372662595, -33766.46742421001, -24450.573259660396, -9987.720547642773, -5680.405280638371, 47973.39266221436, 14451.140397923042, -14570.051678425274, -171.12495554983087, -14725.016322733918, -11655.87593983125, 11987.352310103453, -10744.237690477097, -5610.86900363791, 729.5385872767672, 0.25, 0.912, -0.154, 192.0, 3.5, 104.0, 14.0, 64.0, 125.5, 24.0, 0.0, 0.0, 0.0, 1.662506446657764E9, 0.0, 2022-09-06 19:20:46.657
142.0, -15501.627683833562, -6006.159604330016, -33785.71227618602, -24468.49935871355, -9988.50285869871, -5694.956266278776, 48921.41955154175, 14382.297025000695, -14581.026384952831, -197.56706924045912, -14747.837453822787, -11679.680547676153, 11939.139597313357, -10769.584568689415, -5629.555062002548, 694.3345897596586, 0.25, 0.912, -0.154, 192.0, 0.0, 0.0, 0.0, 0.0, 0.0, 0.0, 0.0, 0.0, 0.0, 1.66250644665777E9, 0.0, 2022-09-06 19:20:46.657
144.0, -15599.729490247904, -6089.643369870588, -33821.96680569253, -24537.9909322251, -10037.967269178303, -5744.443028502826, 50548.98417579939, 14386.61091168057, -14629.37320820966, -272.7583375881121, -14798.464155014057, -11737.348048370844, 11907.176602742267, -10840.57370907947, -5655.483085570703, 665.0091010342958, 0.25, 0.912, -0.154, 192.0, 0.0, 0.0, 0.0, 0.0, 0.0, 0.0, 0.0, 0.0, 0.0, 1.6625064466577759E9, 0.0, 2022-09-06 19:20:46.657
146.0, -15589.201818609456, -6103.63556189961, -33852.7898612964, -24556.676990589738, -10072.56776959512, -5787.38072960147, 52034.279946599, 14293.82882044659, -14677.451810533024, -300.9885908351649, -14846.810978270887, -11771.345051687367, 11809.745348661585, -10889.166401525308, -5692.989312766709, 622.8313592471313, 0.25, 0.912, -0.154, 192.0, 0.0, 0.0, 0.0, 0.0, 0.0, 0.0, 0.0, 0.0, 0.0, 1.6625064466577816E9, 0.0, 2022-09-06 19:20:46.657
148.0, -15721.457090551507, -6222.703304613031, -33972.170528432194, -24683.187864206775, -10169.127305642045, -5885.013149382252, 53855.857712728706, 14295.952236169844, -14727.34090415727, -350.7435739926784, -14894.531952682968, -11815.735616175607, 11707.195545100636, -10947.839730720489, -5745.493560492225, 577.4349662584027, 0.25, 0.912, -0.154, 192.0, 0.0, 0.0, 0.0, 0.0, 0.0, 0.0, 0.0, 0.0, 0.0, 1.6625064466577876E9, 0.0, 2022-09-06 19:20:46.657
150.0, -15742.82535825078, -6264.501066744455, -34063.343294065395, -24742.151766079878, -10272.41471677002, -5941.987745998829, 56252.94819509366, 14182.383022592428, -14987.068174727938, -521.6450120979563, -15080.207893873203, -11958.362097544921, 11701.987588642549, -10981.009719492164, -5869.858666641554, 498.1309769309732, 0.24, 0.936, -0.162, 192.0, 3.5, 64.0, 14.5, 32.0, 125.0, 120.0, 0.0, 0.0, 0.0, 1.6625064466577952E9, 0.0, 2022-09-06 19:20:46.657
152.0, -15757.756323546926, -6273.7993924378625, -33964.03449345046, -24722.482230959205, -10288.642083244573, -5936.019830229263, 58490.76014647009, 14216.268267186675, -14808.701253974588, -385.1205569649407, -14995.092450987393, -11899.621713116374, 11631.467834886054, -10963.50830358366, -5860.11330605904, 482.7306250012666, 0.24, 0.936, -0.162, 192.0, 0.0, 0.0, 0.0, 0.0, 0.0, 0.0, 0.0, 0.0, 0.0, 1.6625064466578012E9, 0.0, 2022-09-06 19:20:46.657
154.0, -15777.828190067792, -6306.052959686871, -34025.05475581345, -24791.61617655947, -10303.528345051807, -5953.3647839265805, 60830.630163029455, 14159.360725803463, -14999.339282433903, -534.2737477152048, -15108.728719798175, -11988.04521418157, 11590.653549510664, -11094.042491202652, -5906.582582781623, 452.68988045333396, 0.24, 0.936, -0.162, 192.0, 0.0, 0.0, 0.0, 0.0, 0.0, 0.0, 0.0, 0.0, 0.0, 1.662506446657807E9, 0.0, 2022-09-06 19:20:46.657
156.0, -15789.160524506633, -6298.810994483351, -33933.56906575788, -24800.512170852682, -10285.669301232017, -5958.282167706749, 62605.492783247566, 14190.586112807527, -14827.901402461697, -401.70555135077853, -14994.801878309474, -11937.46321647921, 11561.328060785301, -11031.926993361354, -5871.512695731247, 412.6802578783343, 0.24, 0.936, -0.162, 192.0, 0.0, 0.0, 0.0, 0.0, 0.0, 0.0, 0.0, 0.0, 0.0, 1.6625064466578133E9, 0.0, 2022-09-06 19:20:46.657
158.0, -15810.953475350558, -6315.887727247206, -34064.70675047717, -24869.802578664134, -10381.044194822813, -5961.411411930491, 64709.060157425425, 14127.688303910292, -14944.421046307212, -449.3594705294932, -15078.732678739152, -11999.399900364864, 11537.679915151586, -11063.353546065515, -5905.040312414207, 392.04959774608585, 0.24, 0.936, -0.162, 192.0, 0.0, 0.0, 0.0, 0.0, 0.0, 0.0, 0.0, 0.0, 0.0, 1.662506446657819E9, 0.0, 2022-09-06 19:20:46.657
160.0, -15816.69787367557, -6318.659343559664, -34045.4842502456, -24891.282605085686, -10382.228837278943, -5986.378310487069, 66149.94301199233, 14142.015772106144, -14868.022783758974, -444.06210709358544, -15075.871655448873, -11999.869286998426, 11524.42533068959, -11090.823840001089, -5966.105278266105, 328.3471260484607, 0.214, 0.898, -0.17400000000000002, 192.0, 3.0, 88.0, 14.0, 8.0, 125.0, 72.0, 0.0, 0.0, 0.0, 1.6625064466578248E9, 0.0, 2022-09-06 19:20:46.657
162.0, -15804.449117714063, -6320.514538349455, -34067.9924569121, -24902.994919180266, -10418.617477252183, -6009.355903787125, 68248.4588919233, 14106.655312377849, -14881.009147287506, -480.58485753355717, -15083.784172986052, -12036.928479305325, 11596.129726902214, -11064.582892010558, -5925.201585912894, 375.26343766015026, 0.214, 0.898, -0.17400000000000002, 192.0, 0.0, 0.0, 0.0, 0.0, 0.0, 0.0, 0.0, 0.0, 0.0, 1.6625064466578307E9, 0.0, 2022-09-06 19:20:46.657
164.0, -15818.664827187638, -6334.909061778672, -34034.330729762405, -24892.064916141622, -10404.781747434348, -6026.075008639695, 69274.98510777773, 14113.629056647904, -14879.489228664546, -396.8775745484322, -15080.006728173106, -12018.197717451778, 11596.53205830241, -11101.440918617358, -5948.849731546608, 324.5473294910586, 0.214, 0.898, -0.17400000000000002, 192.0, 0.0, 0.0, 0.0, 0.0, 0.0, 0.0, 0.0, 0.0, 0.0, 1.6625064466578364E9, 0.0, 2022-09-06 19:20:46.657
166.0, -15814.216830041032, -6338.284175191424, -34037.191753052684, -24888.01925039521, -10432.788483236847, -6056.29456714327, 71130.2916562905, 14097.826373318003, -14942.923479428708, -434.2943947666162, -15095.854114991918, -12056.754476637183, 11602.231753138514, -11115.567221113113, -5900.681722245422, 380.51609760714746, 0.214, 0.898, -0.17400000000000002, 192.0, 0.0, 0.0, 0.0, 0.0, 0.0, 0.0, 0.0, 0.0, 0.0, 1.6625064466578438E9, 0.0, 2022-09-06 19:20:46.657
168.0, -15799.621140911717, -6325.230756429524, -34023.95952033514, -24848.523717942684, -10414.68357022805, -6014.608563734122, 71753.32418123772, 14116.087748537988, -14899.516391696501, -337.7348587196897, -15081.928978196262, -12023.316266932043, 11634.932355276627, -11103.698444807345, -5968.832191089653, 335.94671916326513, 0.214, 0.898, -0.17400000000000002, 192.0, 0.0, 0.0, 0.0, 0.0, 0.0, 0.0, 0.0, 0.0, 0.0, 1.6625064466578496E9, 0.0, 2022-09-06 19:20:46.657
170.0, -15846.537452523406, -6373.421117475166, -34080.397675084794, -24873.088285099064, -10389.873133882658, -6018.5201190138005, 73388.13077069889, 14096.462916906228, -14974.864122255341, -431.7239441542559, -15097.709309781709, -12065.181084296833, 11664.838989357828, -11132.554546899146, -5922.78759751172, 401.9737722842422, 0.222, 0.9420000000000001, -0.154, 192.0, 3.0, 120.0, 14.5, 56.0, 125.5, 24.0, 0.0, 0.0, 0.0, 1.6625064466578555E9, 0.0, 2022-09-06 19:20:46.657
172.0, -15785.003100037946, -6317.541756336899, -34043.22672405562, -24826.596656632028, -10382.072375067757, -6018.028380635784, 73706.35255650908, 14081.286082421075, -15025.602582168887, -358.09729791847445, -15160.875339612407, -12057.894415604404, 11701.294684564435, -11101.619732573, -6018.43071203598, 309.61636419491344, 0.222, 0.9420000000000001, -0.154, 192.0, 0.0, 0.0, 0.0, 0.0, 0.0, 0.0, 0.0, 0.0, 0.0, 1.6625064466578617E9, 0.0, 2022-09-06 19:20:46.657
174.0, -15749.285012398364, -6277.040395383882, -33939.06759489389, -24803.797877287612, -10382.966444845968, -6011.8816509105745, 75269.25358405753, 14103.79428908757, -14826.359132094281, -253.04409897853125, -15012.482108173623, -11997.432946852798, 11663.900216090706, -11093.841325502555, -5892.948018663886, 417.30706898058287, 0.222, 0.9420000000000001, -0.154, 192.0, 0.0, 0.0, 0.0, 0.0, 0.0, 0.0, 0.0, 0.0, 0.0, 1.6625064466578677E9, 0.0, 2022-09-06 19:20:46.657
176.0, -15721.054759151311, -6247.580796191788, -33954.87027822379, -24779.456827575785, -10358.133656756123, -5971.112069024095, 75480.812845327, 14111.326826969007, -14797.234809069016, -194.5942872279033, -14999.227523711626, -11952.572995730996, 11645.214157726068, -11093.304883635627, -5944.871121033564, 344.68625124529024, 0.222, 0.9420000000000001, -0.154, 192.0, 0.0, 0.0, 0.0, 0.0, 0.0, 0.0, 0.0, 0.0, 0.0, 1.6625064466578732E9, 0.0, 2022-09-06 19:20:46.657
178.0, -15774.318966188308, -6290.160869379148, -34016.80696210945, -24819.06411875059, -10382.184133790033, -6000.750482171832, 76938.81713614668, 14151.336449544007, -14867.933376781151, -316.09837008695246, -15021.981599567129, -11991.107403171945, 11677.780649397451, -11119.143500225962, -5905.375588581037, 406.17590024183994, 0.222, 0.9420000000000001, -0.154, 192.0, 0.0, 0.0, 0.0, 0.0, 0.0, 0.0, 0.0, 0.0, 0.0, 1.662506446657879E9, 0.0, 2022-09-06 19:20:46.657
180.0, -15741.350143116731, -6269.731374946997, -34045.104270589865, -24812.358595413996, -10344.56614787175, -5945.832246045143, 77139.13346995515, 14128.940001599789, -14835.478643832046, -264.0635089949976, -15022.339227478413, -11985.161839146835, 11692.197524571124, -11094.891857491953, -5949.877911791553, 340.7299924767009, 0.226, 0.914, -0.14, 192.0, 3.5, 8.0, 14.0, 72.0, 125.5, 80.0, 0.0, 0.0, 0.0, 1.662506446657885E9, 0.0, 2022-09-06 19:20:46.657
182.0, -15770.69798358655, -6280.124936118715, -34049.66402645875, -24789.157484669387, -10376.283273253832, -5966.46290617739, 78495.75024792555, 14161.081810126521, -14869.095667492827, -338.9642046647316, -15046.769684168064, -12017.080130229013, 11698.701882207619, -11098.110508693519, -5905.241478114304, 404.83479557452154, 0.226, 0.914, -0.14, 192.0, 0.0, 0.0, 0.0, 0.0, 0.0, 0.0, 0.0, 0.0, 0.0, 1.662506446657891E9, 0.0, 2022-09-06 19:20:46.657
184.0, -15718.372549816675, -6244.049220567849, -34043.83022115591, -24786.0505921901, -10357.463104422462, -5951.107257736595, 78722.57575065801, 14120.826318362513, -14818.737187235021, -248.7749157875676, -15020.171108266248, -11946.739190428161, 11692.108117593303, -11087.649892288435, -5928.710809792377, 386.32755116552727, 0.226, 0.914, -0.14, 192.0, 0.0, 0.0, 0.0, 0.0, 0.0, 0.0, 0.0, 0.0, 0.0, 1.662506446657897E9, 0.0, 2022-09-06 19:20:46.657
186.0, -15801.498687445963, -6323.062637217359, -34092.57937581294, -24858.984334347766, -10379.256055266387, -6014.072121867195, 79871.99185752773, 14152.766961189147, -14848.286193404938, -451.14761008591773, -15031.861070616374, -12000.830412010004, 11780.755136103051, -11080.877313718476, -5892.970370408341, 413.9543073122868, 0.226, 0.914, -0.14, 192.0, 0.0, 0.0, 0.0, 0.0, 0.0, 0.0, 0.0, 0.0, 0.0, 1.6625064466579027E9, 0.0, 2022-09-06 19:20:46.657
188.0, -15789.093469273266, -6274.961683149539, -34160.08164406796, -24823.9591507863, -10398.366796775676, -5968.474563178368, 80144.8172503492, 14099.435698918785, -14904.389071987758, -446.02906060565243, -15077.302167094012, -12047.500854432685, 11697.27137056248, -11074.395307826437, -5951.107257736595, 343.1886843667846, 0.226, 0.914, -0.14, 192.0, 0.0, 0.0, 0.0, 0.0, 0.0, 0.0, 0.0, 0.0, 0.0, 1.662506446657909E9, 0.0, 2022-09-06 19:20:46.657
190.0, -15814.932085863602, -6333.970288511549, -34206.01447892362, -24849.57424993208, -10448.904090989125, -5989.619313433089, 81156.07722474066, 14144.452112251773, -15182.377717778412, -456.82495317756576, -15177.125057831414, -12027.071360000535, 11834.734598962617, -11128.687695108378, -5978.75636562781, 390.3061616785719, 0.225, 0.901, -0.14900000000000002, 192.0, 3.5, 0.0, 13.5, 96.0, 125.5, 8.0, 0.0, 0.0, 0.0, 1.6625064466579149E9, 0.0, 2022-09-06 19:20:46.657
192.0, -15649.037438516312, -6200.060987479805, -33958.3124468699, -24766.0457809026, -10307.931638709502, -5908.370722338048, 81622.73694547855, 14131.219879534232, -14608.876658544143, -591.8518414320757, -14974.662956555243, -12012.207449937756, 11782.364461703834, -11108.079386720585, -5917.199661397894, 405.3935891859042, 0.225, 0.901, -0.14900000000000002, 192.0, 0.0, 0.0, 0.0, 0.0, 0.0, 0.0, 0.0, 0.0, 0.0, 1.6625064466579208E9, 0.0, 2022-09-06 19:20:46.657
194.0, -15740.567832060795, -6259.4272207531, -34070.473500546635, -24785.201225900797, -10395.595180463217, -5982.5338104407565, 82438.46385937498, 14148.922461142834, -14710.599447560246, -547.6847943883889, -14956.155712146248, -11921.481719193664, 11711.97881841407, -10982.88726602641, -5850.390297220981, 447.6607379508898, 0.225, 0.901, -0.14900000000000002, 192.0, 0.0, 0.0, 0.0, 0.0, 0.0, 0.0, 0.0, 0.0, 0.0, 1.6625064466579268E9, 0.0, 2022-09-06 19:20:46.657
196.0, -15680.709860409483, -6215.617801620699, -34062.27041033154, -24754.378170296928, -10361.821694591248, -5960.494990407824, 83103.83058832058, 14115.283085737598, -14833.042303686418, -666.6184266350779, -15047.060256845984, -11982.345519345465, 11826.665619214251, -11064.202912354816, -5931.750647038299, 409.8415863325103, 0.225, 0.901, -0.14900000000000002, 192.0, 0.0, 0.0, 0.0, 0.0, 0.0, 0.0, 0.0, 0.0, 0.0, 1.6625064466579325E9, 0.0, 2022-09-06 19:20:46.657
198.0, -15687.907122124092, -6208.688760839554, -33996.73509558858, -24757.216841842754, -10338.441769890997, -5936.891548263019, 83822.75209698107, 14182.159505147876, -14728.39143614667, -670.2170574923823, -14951.90888069974, -11916.899611580326, 11808.67246492773, -11050.277775559161, -5885.750756949277, 451.59464497502387, 0.225, 0.901, -0.14900000000000002, 192.0, 0.0, 0.0, 0.0, 0.0, 0.0, 0.0, 0.0, 0.0, 0.0, 1.66250644665794E9, 0.0, 2022-09-06 19:20:46.657
200.0, -15672.260901005377, -6207.168842216593, -34045.81952641243, -24782.85429273299, -10360.972328301947, -5941.227786687349, 84644.49163013598, 14122.457995707751, -14784.44961124058, -766.1954481834708, -14999.406337667268, -11996.337711374488, 11721.768882485496, -11073.47888630377, -5886.30955056066, 439.79292390262174, 0.21650000000000003, 0.8945000000000001, -0.1705, 192.0, 3.0, 64.0, 13.5, 96.0, 125.0, 0.0, 0.0, 0.0, 0.0, 1.6625064466579459E9, 0.0, 2022-09-06 19:20:46.657
202.0, -15707.219029333477, -6253.6604706836315, -34046.557133979455, -24796.131228939445, -10358.603043389683, -5970.285054479248, 85204.42518048586, 14153.66103096736, -14772.759648890455, -728.28688958727, -14995.763003321053, -11984.535990302085, 11799.843525867884, -11022.248688012205, -5917.825510242643, 416.658868391379, 0.21650000000000003, 0.8945000000000001, -0.1705, 192.0, 0.0, 0.0, 0.0, 0.0, 0.0, 0.0, 0.0, 0.0, 0.0, 1.6625064466579518E9, 0.0, 2022-09-06 19:20:46.657
204.0, -15681.469819720964, -6239.042429809861, -34040.18688680969, -24794.611310316483, -10363.676889381039, -5961.32200495267, 86399.41649429995, 14111.192716502275, -14814.624466255245, -801.5782596562219, -15019.746425121597, -12019.47176688573, 11781.649205881264, -11106.537116353169, -5892.903315174975, 430.3604877424822, 0.21650000000000003, 0.8945000000000001, -0.1705, 192.0, 0.0, 0.0, 0.0, 0.0, 0.0, 0.0, 0.0, 0.0, 0.0, 1.6625064466579576E9, 0.0, 2022-09-06 19:20:46.657
206.0, -15681.179247043045, -6237.790732120363, -34019.377412721806, -24800.71333655278, -10367.856665594181, -5966.46290617739, 86945.06727994292, 14140.160577316354, -14781.856808883764, -781.1934687129818, -14997.662901599753, -12024.478557643719, 11769.087525497382, -11006.915391315866, -5905.330885092126, 405.88532756392095, 0.21650000000000003, 0.8945000000000001, -0.1705, 192.0, 0.0, 0.0, 0.0, 0.0, 0.0, 0.0, 0.0, 0.0, 0.0, 1.6625064466579635E9, 0.0, 2022-09-06 19:20:46.657
208.0, -15655.519444408352, -6181.6431500486315, -34026.440563969685, -24744.543402736595, -10412.940134160535, -5944.871121033564, 88432.10648681004, 14093.467783149217, -14822.984018681529, -604.2347078603158, -15015.901925075284, -11976.288196598078, 11733.3694378578, -11061.654813486912, -5885.080204615618, 438.2506535352056, 0.21650000000000003, 0.8945000000000001, -0.1705, 192.0, 0.0, 0.0, 0.0, 0.0, 0.0, 0.0, 0.0, 0.0, 0.0, 1.6625064466579692E9, 0.0, 2022-09-06 19:20:46.657
210.0, -15626.730397549916, -6174.021205189372, -33982.36292390381, -24736.80969915506, -10371.991738318413, -5934.142283695017, 88881.91299222864, 14150.598841976982, -14763.193102263584, -553.6080066690454, -14967.353936118358, -11910.775233599572, 11729.3684756003, -11051.060086615096, -5916.238536386316, 406.3547141974824, 0.20525000000000002, 0.9012500000000001, -0.21325, 192.0, 3.0, 8.0, 14.0, 48.0, 124.0, 0.0, 0.0, 0.0, 0.0, 1.6625064466579752E9, 0.0, 2022-09-06 19:20:46.657
212.0, -15653.731304851926, -6212.734426585964, -34006.48045617109, -24790.76681027017, -10391.303645527798, -5979.404566217014, 90550.22484662829, 14106.342387955474, -14789.970492121041, -586.2639053182489, -14971.131380931305, -11942.894690381849, 11703.93219041016, -11044.689839445335, -5851.641994910478, 466.9279416713645, 0.20525000000000002, 0.9012500000000001, -0.21325, 192.0, 0.0, 0.0, 0.0, 0.0, 0.0, 0.0, 0.0, 0.0, 0.0, 1.6625064466579812E9, 0.0, 2022-09-06 19:20:46.657
214.0, -15632.743016808394, -6204.330170670769, -33967.94604873014, -24783.793066000115, -10389.984892604934, -5941.294841920715, 91011.27427950791, 14126.12368179842, -14810.779966208931, -575.8703441465311, -15005.39660518129, -11974.410650063832, 11684.93320762315, -11080.586741040557, -5944.759362311288, 343.27809134460585, 0.20525000000000002, 0.9012500000000001, -0.21325, 192.0, 0.0, 0.0, 0.0, 0.0, 0.0, 0.0, 0.0, 0.0, 0.0, 1.662506446657987E9, 0.0, 2022-09-06 19:20:46.657
216.0, -15605.13861240609, -6186.962865228995, -33958.15598465872, -24777.154597896886, -10407.195735835521, -5952.7165833373765, 93175.92897128213, 14155.560929246061, -14777.632329181712, -523.5449103766573, -14964.090581427883, -11941.218309547701, 11692.018710615483, -11032.150510805906, -5841.784875605688, 461.4070607909037, 0.20525000000000002, 0.9012500000000001, -0.21325, 192.0, 0.0, 0.0, 0.0, 0.0, 0.0, 0.0, 0.0, 0.0, 0.0, 1.662506446657993E9, 0.0, 2022-09-06 19:20:46.657
218.0, -15585.312615074232, -6167.539199297333, -33931.356243056805, -24753.1935278408, -10376.037404064824, -5947.1957024569165, 93792.4347868484, 14149.503606498673, -14754.67708762611, -430.58400518703525, -14955.999249935061, -11913.300980723023, 11652.031439784938, -11025.735560147234, -5917.333771864626, 379.9349522513094, 0.20525000000000002, 0.9012500000000001, -0.21325, 192.0, 0.0, 0.0, 0.0, 0.0, 0.0, 0.0, 0.0, 0.0, 0.0, 1.662506446657999E9, 0.0, 2022-09-06 19:20:46.657
220.0, -15734.108177913211, -6315.574802824832, -34053.8885061608, -24889.717982973812, -10503.352940482253, -6076.67935808651, 96089.32239882022, 14027.843061428435, -14868.872150048275, -501.9978287217413, -15038.879518375341, -12002.484441099698, 11612.670017799142, -11142.992811559774, -5919.948925965897, 373.0059114701643, 0.18962500000000002, 0.9256250000000001, -0.259625, 192.0, 2.5, 56.0, 14.5, 88.0, 123.0, 56.0, 0.0, 0.0, 0.0, 1.6625064466580048E9, 0.0, 2022-09-06 19:20:46.658
222.0, -15654.424208930042, -6258.488447485977, -34004.96053754813, -24846.936744086357, -10466.897245275646, -6044.358735604136, 96775.47625010923, 14050.038343672555, -14896.722423639587, -445.49261873872507, -15067.98148965615, -12021.930458775814, 11544.676011166099, -11132.889823065976, -6030.411247064024, 240.12479068336378, 0.18962500000000002, 0.9256250000000001, -0.259625, 192.0, 0.0, 0.0, 0.0, 0.0, 0.0, 0.0, 0.0, 0.0, 0.0, 1.6625064466580107E9, 0.0, 2022-09-06 19:20:46.658
224.0, -15658.983964798925, -6259.315462030824, -34011.599005651355, -24869.891985641956, -10472.507533133929, -6049.097305428661, 99104.97505724133, 14088.393937157864, -14882.260844977003, -421.39743821590406, -15039.348905008901, -12009.346426647477, 11564.859636409241, -11132.018105032219, -5943.485312877335, 333.2645098286283, 0.18962500000000002, 0.9256250000000001, -0.259625, 192.0, 0.0, 0.0, 0.0, 0.0, 0.0, 0.0, 0.0, 0.0, 0.0, 1.6625064466580167E9, 0.0, 2022-09-06 19:20:46.658
226.0, -15608.647836285572, -6220.08815051176, -34008.91679631672, -24844.05336905162, -10461.30930916182, -6023.884537683075, 99587.41510956468, 14055.849797230936, -14880.89738856523, -394.2624204471613, -15044.981544611639, -12016.610743595451, 11506.879211292173, -11127.883032307987, -6026.209119106426, 243.11992444037492, 0.18962500000000002, 0.9256250000000001, -0.259625, 192.0, 0.0, 0.0, 0.0, 0.0, 0.0, 0.0, 0.0, 0.0, 0.0, 1.6625064466580224E9, 0.0, 2022-09-06 19:20:46.658
228.0, -15638.018028499846, -6255.783886406885, -34053.86615441634, -24876.843378167556, -10507.644475417672, -6055.19933166496, 101668.07194567585, 14080.235550431677, -14873.65542336171, -365.71924277773417, -15027.770701381052, -12006.172478934823, 11529.052141791839, -11097.350549382038, -5955.46584790538, 328.39182953737134, 0.18962500000000002, 0.9256250000000001, -0.259625, 192.0, 0.0, 0.0, 0.0, 0.0, 0.0, 0.0, 0.0, 0.0, 0.0, 1.6625064466580284E9, 0.0, 2022-09-06 19:20:46.658
230.0, -15593.292187844776, -6232.828644851285, -34070.9428871802, -24869.556709475128, -10487.907885063636, -6048.493808328368, 102682.41646080214, 14045.54564303704, -14898.085880051362, -370.14488817988496, -15061.767704697575, -12032.771054836638, 11519.954981798528, -11108.459366376324, -6028.198424362949, 262.342424671939, 0.1698125, 0.9218125000000001, -0.3148125, 192.0, 2.0, 88.0, 14.0, 88.0, 122.0, 56.0, 0.0, 0.0, 0.0, 1.6625064466580355E9, 0.0, 2022-09-06 19:20:46.658
232.0, -15697.406613517596, -6319.262840659958, -34149.106937540404, -24957.019085528744, -10562.160380144165, -6131.865815146663, 105215.24908724417, 14023.529174748563, -14920.079996595383, -409.05927527657457, -15080.677280506765, -12063.57175869605, 11526.839319090763, -11177.950939887874, -5981.32681624017, 312.47738748519276, 0.1698125, 0.9218125000000001, -0.3148125, 192.0, 0.0, 0.0, 0.0, 0.0, 0.0, 0.0, 0.0, 0.0, 0.0, 1.662506446658042E9, 0.0, 2022-09-06 19:20:46.658
234.0, -15647.04813325979, -6241.0987902997485, -34129.92914079775, -24877.849206668045, -10527.85045240527, -6068.498619615868, 105967.29588118743, 13998.227000025154, -14953.898185956263, -432.9309383548425, -15116.283609424068, -12105.458927805297, 11460.78991422533, -11185.88580916951, -6063.20125617996, 222.55631954149243, 0.1698125, 0.9218125000000001, -0.3148125, 192.0, 0.0, 0.0, 0.0, 0.0, 0.0, 0.0, 0.0, 0.0, 0.0, 1.6625064466580489E9, 0.0, 2022-09-06 19:20:46.658
236.0, -15680.084011564733, -6274.022909882416, -34167.010684849105, -24897.49639004426, -10540.590946744795, -6080.210933710448, 107395.3935379259, 14035.68852373225, -14905.23843827706, -378.593847583991, -15055.620974972366, -12061.20247378379, 11538.350467485247, -11118.763520570223, -6004.28205779577, 304.6766286702906, 0.1698125, 0.9218125000000001, -0.3148125, 192.0, 0.0, 0.0, 0.0, 0.0, 0.0, 0.0, 0.0, 0.0, 0.0, 1.6625064466580555E9, 0.0, 2022-09-06 19:20:46.658
238.0, -15589.335929076187, -6179.899713981118, -34149.889248596344, -24807.66472907838, -10463.700945818538, -6034.1886918769715, 107523.379626677, 14016.264857800586, -14928.216031577114, -388.0262837441306, -15080.431411317757, -12091.779660198648, 11502.364158912202, -11126.720741596311, -6050.86309324063, 249.64663382132457, 0.1698125, 0.9218125000000001, -0.3148125, 192.0, 0.0, 0.0, 0.0, 0.0, 0.0, 0.0, 0.0, 0.0, 0.0, 1.662506446658062E9, 0.0, 2022-09-06 19:20:46.658
240.0, -15619.175507924023, -6199.815118290797, -34160.14869930133, -24821.075775751564, -10458.314175404808, -6028.868976696608, 108166.282852445, 14093.356024426941, -14842.251222402005, -307.80587289403354, -14991.806744552463, -12005.546630090073, 11581.66814823963, -11045.606260968001, -5958.6397956180335, 351.3023676040611, 0.15890625, 0.89490625, -0.36440625000000004, 192.0, 2.0, 80.0, 13.5, 16.0, 121.5, 8.0, 0.0, 0.0, 0.0, 1.662506447136962E9, 0.0, 2022-09-06 19:20:47.136
242.0, -15550.823873379693, -6097.153556007571, -34135.338262955935, -24723.622169926428, -10401.831317166248, -5938.143245952517, 108156.47043662911, 14085.242341189665, -14862.971289512074, -315.40546600883795, -15017.377140209335, -12031.049970513579, 11598.34254960329, -11061.677165231367, -5984.456060463913, 325.888434158377, 0.15890625, 0.89490625, -0.36440625000000004, 192.0, 0.0, 0.0, 0.0, 0.0, 0.0, 0.0, 0.0, 0.0, 0.0, 1.6625064471371388E9, 0.0, 2022-09-06 19:20:47.137
244.0, -15545.638268666062, -6075.829991797208, -34134.26537922208, -24701.35983244894, -10369.130715028134, -5914.897431718998, 108289.28450218255, 14169.866045697458, -14743.34475318727, -159.27853098851813, -14898.510563196012, -11906.886030064348, 11734.151748913735, -10938.004963160154, -5888.231800583816, 432.5956621880129, 0.15890625, 0.89490625, -0.36440625000000004, 192.0, 0.0, 0.0, 0.0, 0.0, 0.0, 0.0, 0.0, 0.0, 0.0, 1.6625064471372006E9, 0.0, 2022-09-06 19:20:47.137
246.0, -15499.124288454568, -6028.578404018689, -34128.208056474694, -24641.658323008814, -10325.410702873553, -5874.396070765981, 108270.33022288445, 14130.236402778197, -14782.482657728513, -161.87133334533374, -14941.314153827925, -11960.932548157281, 11709.274257334979, -10969.632681564413, -5913.712789262866, 421.64330740491243, 0.15890625, 0.89490625, -0.36440625000000004, 192.0, 0.0, 0.0, 0.0, 0.0, 0.0, 0.0, 0.0, 0.0, 0.0, 1.6625064471372085E9, 0.0, 2022-09-06 19:20:47.137
248.0, -15506.634474591552, -6045.498674571357, -34098.90491949379, -24643.73703524316, -10293.380653069098, -5875.245437055282, 108008.7924610129, 14206.299389159607, -14690.818153717299, -5.8338053028351435, -14845.93926023713, -11865.803523755494, 11838.377933308833, -10851.10138071792, -5832.978288290297, 499.00269496473015, 0.15890625, 0.89490625, -0.36440625000000004, 192.0, 0.0, 0.0, 0.0, 0.0, 0.0, 0.0, 0.0, 0.0, 0.0, 1.6625064471372163E9, 0.0, 2022-09-06 19:20:47.137
250.0, -15472.63747127503, -6010.205270076427, -34096.46857934816, -24612.913979639292, -10269.687803946472, -5842.29896572816, 108126.27322987, 14174.783429477624, -14731.945363515064, -80.89096318375626, -14894.151973027227, -11928.544870441541, 11855.96875619516, -10943.905823696354, -5830.005506277741, 500.74613103224414, 0.163453125, 0.874453125, -0.405203125, 192.0, 2.5, 32.0, 13.0, 88.0, 121.0, 8.0, 0.0, 0.0, 0.0, 1.6625064471372242E9, 0.0, 2022-09-06 19:20:47.137
252.0, -15490.340052883632, -6037.854377967641, -34070.764073224556, -24611.34935752742, -10235.489634929852, -5796.38848261696, 107370.56074983606, 14214.323665419062, -14668.198188328528, -17.88139556424565, -14835.299829876403, -11878.007576228092, 11925.080350050968, -10849.827331283966, -5821.936526529375, 503.40598862242564, 0.163453125, 0.874453125, -0.405203125, 192.0, 0.0, 0.0, 0.0, 0.0, 0.0, 0.0, 0.0, 0.0, 0.0, 1.662506447137231E9, 0.0, 2022-09-06 19:20:47.137
254.0, -15438.14872958049, -5975.872990593075, -34051.47451775963, -24561.460263903173, -10210.209811950901, -5785.681997022867, 107578.92371164844, 14216.111804975488, -14716.924991241098, -76.53237301497138, -14883.557246155411, -11920.900573837826, 11888.043509488525, -10891.893314348856, -5801.752901286233, 533.1114570035287, 0.163453125, 0.874453125, -0.405203125, 192.0, 0.0, 0.0, 0.0, 0.0, 0.0, 0.0, 0.0, 0.0, 0.0, 1.6625064471372387E9, 0.0, 2022-09-06 19:20:47.137
0.0, -15401.268351229233, -5955.979938027852, -33999.59611887886, -24539.309685147964, -10161.304195082688, -5746.789961670633, 106487.51038164026, 14289.961968655822, -14599.80185029529, 63.50130599752737, -14760.39913420667, -11798.90475260076, 11990.593313049474, -10757.536978428005, -5756.110639108496, 568.3378062650927, 0.163453125, 0.874453125, -0.405203125, 192.0, 0.0, 0.0, 0.0, 0.0, 0.0, 0.0, 0.0, 0.0, 0.0, 1.662506447137246E9, 0.0, 2022-09-06 19:20:47.137
2.0, -15402.743566363284, -5956.963414783885, -34008.29094747197, -24543.891792761304, -10151.20120658889, -5753.026098373663, 106746.47769289944, 14259.854168874523, -14666.90178715012, -45.39639298872864, -14835.255126387494, -11884.73545130914, 11883.21553268618, -10863.506598890615, -5752.08732510654, 574.1939633123832, 0.163453125, 0.874453125, -0.405203125, 192.0, 0.0, 0.0, 0.0, 0.0, 0.0, 0.0, 0.0, 0.0, 0.0, 1.6625064471372533E9, 0.0, 2022-09-06 19:20:47.137
4.0, -15349.144083159457, -5904.973257180841, -33911.06085909138, -24479.541120474474, -10082.179019710902, -5683.825097540033, 105249.53666323861, 14329.12222494152, -14553.35492531716, 66.13881184325359, -14715.874459251698, -11780.62102563632, 12012.833298782505, -10741.622536375826, -5690.485917387715, 588.3649692970478, 0.163453125, 0.874453125, -0.405203125, 192.0, 0.0, 0.0, 0.0, 0.0, 0.0, 0.0, 0.0, 0.0, 0.0, 1.6625064471372793E9, 0.0, 2022-09-06 19:20:47.137
6.0, -15380.145952718969, -5942.6135948435785, -33986.20742395013, -24508.24076035509, -10148.407238531976, -5709.395493196905, 105554.50386458682, 14316.426434090905, -14611.670626601057, -40.09902955282087, -14779.778096649421, -11838.646154242297, 11983.463106568232, -10782.012138606566, -5667.485972343204, 651.1733712164606, 0.182, 0.85, -0.456, 192.0, 2.5, 88.0, 13.0, 72.0, 120.5, 96.0, 0.0, 0.0, 0.0, 1.662506447137292E9, 0.0, 2022-09-06 19:20:47.137
8.0, -15324.043074136147, -5888.276504072726, -33968.79541501944, -24464.096065055855, -10048.383182094478, -5630.8291114365, 103821.57311696686, 14377.446696453893, -14551.298564827272, 21.725895610558464, -14721.171822687606, -11773.84844706636, 11965.984042404181, -10688.961826439123, -5681.74638530569, 618.226899889338, 0.182, 0.85, -0.456, 192.0, 0.0, 0.0, 0.0, 0.0, 0.0, 0.0, 0.0, 0.0, 0.0, 1.662506447137299E9, 0.0, 2022-09-06 19:20:47.137
10.0, -15333.60962076302, -5921.1335684220285, -34035.582427451904, -24504.306853330952, -10115.214898015845, -5677.365443392449, 104130.25070789465, 14362.649841624481, -14575.751373261379, -52.571302958882214, -14768.155189532661, -11808.76187190555, 11949.823731162995, -10756.84407434989, -5640.127437129908, 677.9507610739186, 0.182, 0.85, -0.456, 192.0, 0.0, 0.0, 0.0, 0.0, 0.0, 0.0, 0.0, 0.0, 0.0, 1.6625064471373057E9, 0.0, 2022-09-06 19:20:47.137
12.0, -15223.3931688539, -5849.987965820786, -33944.8119932189, -24423.058262235914, -10044.69514425935, -5620.63671596488, 102228.18430998139, 14393.674062928447, -14531.941954128975, 0.6258488447485977, -14713.371063872704, -11753.687173567674, 11937.105588567923, -10676.53425652197, -5666.591902564991, 624.6194988035559, 0.182, 0.85, -0.456, 192.0, 0.0, 0.0, 0.0, 0.0, 0.0, 0.0, 0.0, 0.0, 0.0, 1.662506447137313E9, 0.0, 2022-09-06 19:20:47.137
14.0, -15278.087887536036, -5949.341469924626, -33996.77979907749, -24491.14167584678, -10129.38590400051, -5681.299350416583, 102515.6500954211, 14363.812132336156, -14538.02162862082, -36.90273009571196, -14731.163052459127, -11771.61327262083, 11919.939448826248, -10686.145506637753, -5606.242192535662, 719.3685435496025, 0.182, 0.85, -0.456, 192.0, 0.0, 0.0, 0.0, 0.0, 0.0, 0.0, 0.0, 0.0, 0.0, 1.6625064471373196E9, 0.0, 2022-09-06 19:20:47.137
16.0, -15186.110459102449, -5866.058870084152, -33926.68472846565, -24403.746355026527, -10071.159609694436, -5578.011939288609, 100523.43911211958, 14415.131737605541, -14554.092532884186, -51.565474458393396, -14733.062950737829, -11761.443228893666, 11865.378840610843, -10696.203791642642, -5669.810553766555, 638.6340425770334, 0.18, 0.856, -0.446, 192.0, 2.5, 80.0, 13.0, 96.0, 121.0, 8.0, 0.0, 0.0, 0.0, 1.662506447137327E9, 0.0, 2022-09-06 19:20:47.137
18.0, -15248.20360519929, -5949.766153069277, -33992.26474669752, -24491.81222818044, -10072.165438194925, -5646.475332555215, 100806.5463073905, 14418.99858939631, -14527.44925349346, -85.67423649719197, -14722.557630843834, -11735.336391369867, 11870.385631368832, -10683.619759514304, -5584.58335215847, 754.0137474553285, 0.18, 0.856, -0.446, 192.0, 0.0, 0.0, 0.0, 0.0, 0.0, 0.0, 0.0, 0.0, 0.0, 1.6625064471373343E9, 0.0, 2022-09-06 19:20:47.137
20.0, -15152.04640055256, -5857.5652071911345, -33927.84701917732, -24404.483962593553, -10023.349228304533, -5569.518276395593, 98822.09137941497, 14423.133662120541, -14547.990506647886, -129.7965800519681, -14737.332133928792, -11765.04185975097, 11825.883308158316, -10663.972576138089, -5643.010812164643, 637.7176210543658, 0.18, 0.856, -0.446, 192.0, 0.0, 0.0, 0.0, 0.0, 0.0, 0.0, 0.0, 0.0, 0.0, 1.6625064471373413E9, 0.0, 2022-09-06 19:20:47.137
22.0, -15199.230933097713, -5933.047048216707, -33977.423188379194, -24471.4274372372, -10101.513278664743, -5624.1235880999075, 98955.9112734689, 14453.710848535402, -14513.97115158691, -140.5254173905155, -14709.817136504309, -11723.55702204192, 11833.996991395592, -10651.634413198759, -5560.890503035844, 753.7008230329542, 0.18, 0.856, -0.446, 192.0, 0.0, 0.0, 0.0, 0.0, 0.0, 0.0, 0.0, 0.0, 0.0, 1.6625064471373484E9, 0.0, 2022-09-06 19:20:47.137
24.0, -15103.99014997365, -5833.179453990395, -33894.94525133911, -24352.650267201694, -10008.373559519478, -5552.553302354015, 97136.79219922927, 14436.164729137985, -14537.932221643, -176.2658567745515, -14719.786014531377, -11735.068170436403, 11761.778505060496, -10618.822052338368, -5627.811625935034, 676.7884703622426, 0.18, 0.856, -0.446, 192.0, 0.0, 0.0, 0.0, 0.0, 0.0, 0.0, 0.0, 0.0, 0.0, 1.6625064471373556E9, 0.0, 2022-09-06 19:20:47.137
26.0, -15171.760639162141, -5934.276394161749, -33951.29399911094, -24452.182585261176, -10088.862191303038, -5622.581317732492, 97167.39173738859, 14455.275470647273, -14489.674805363991, -178.05399633097605, -14676.200112843528, -11682.69803317762, 11781.246874481069, -10590.368281646763, -5546.361869139894, 791.2741054623253, 0.184, 0.862, -0.436, 192.0, 2.5, 96.0, 13.0, 120.0, 121.0, 48.0, 0.0, 0.0, 0.0, 1.6625064471373625E9, 0.0, 2022-09-06 19:20:47.137
28.0, -15079.671452006276, -5829.133788243984, -33881.33303896583, -24327.839830856305, -9989.084004054548, -5532.928470722255, 95560.32366279647, 14460.8634067611, -14548.482245025903, -244.68454655224642, -14731.00659024794, -11745.528786841487, 11678.808829642396, -10610.507203400994, -5634.4500940382595, 696.5921159496446, 0.184, 0.862, -0.436, 192.0, 0.0, 0.0, 0.0, 0.0, 0.0, 0.0, 0.0, 0.0, 0.0, 1.6625064471373694E9, 0.0, 2022-09-06 19:20:47.137
30.0, -15148.023086550606, -5930.856577260087, -33942.0627286509, -24414.25167492052, -10081.240246443778, -5580.738852112157, 95310.27469757495, 14517.368616744116, -14459.298784649229, -177.2716852750403, -14649.154502052606, -11654.512483419478, 11666.090687047326, -10533.483092008006, -5525.3288776074505, 818.6773441645317, 0.184, 0.862, -0.436, 192.0, 0.0, 0.0, 0.0, 0.0, 0.0, 0.0, 0.0, 0.0, 0.0, 1.6625064471373768E9, 0.0, 2022-09-06 19:20:47.137
32.0, -15085.281739864558, -5855.151218789962, -33885.08813203432, -24339.038054828412, -9952.963585014772, -5555.347270410928, 93942.01266074332, 14433.862499459088, -14548.526948514815, -290.5279744300812, -14732.459453637535, -11752.748400300552, 11617.475642857033, -10631.316677488885, -5612.29951528305, 715.7922644367534, 0.184, 0.862, -0.436, 192.0, 0.0, 0.0, 0.0, 0.0, 0.0, 0.0, 0.0, 0.0, 0.0, 1.662506447137384E9, 0.0, 2022-09-06 19:20:47.137
34.0, -15072.474190291667, -5876.988873122797, -33866.11150099176, -24357.21002307058, -10045.008068681725, -5556.666023333791, 93389.2987238525, 14539.183919332496, -14446.312421120694, -206.44071178921604, -14626.467481430469, -11640.475587901545, 11699.618303730287, -10530.577365228817, -5511.023761156054, 804.5510416687778, 0.184, 0.862, -0.436, 192.0, 0.0, 0.0, 0.0, 0.0, 0.0, 0.0, 0.0, 0.0, 0.0, 1.662506447137391E9, 0.0, 2022-09-06 19:20:47.137
36.0, -15062.482960520145, -5844.087105284585, -33854.77916655292, -24306.851542812772, -10025.226774838779, -5540.840988259433, 92308.8377486274, 14474.72148832339, -14513.859392864633, -271.5513433875255, -14683.6655954916, -11692.845725160329, 11547.38057224519, -10574.833819250325, -5557.805962301012, 784.5909338701886, 0.214, 0.902, -0.41400000000000003, 192.0, 3.0, 88.0, 14.0, 24.0, 121.5, 8.0, 0.0, 0.0, 0.0, 1.6625064471373987E9, 0.0, 2022-09-06 19:20:47.137
38.0, -15040.108864320382, -5860.135657803495, -33811.88616894319, -24323.660054643162, -9996.661245424897, -5491.644798713302, 91467.69690128528, 14587.061355955764, -14441.350333851617, -225.84202597642255, -14611.335350434227, -11621.655419070175, 11581.86931393973, -10523.424807003119, -5525.1500636518085, 822.3430302552022, 0.214, 0.902, -0.41400000000000003, 192.0, 0.0, 0.0, 0.0, 0.0, 0.0, 0.0, 0.0, 0.0, 0.0, 1.6625064471374083E9, 0.0, 2022-09-06 19:20:47.137
40.0, -15059.97956514115, -5848.177474519905, -33846.73253854901, -24302.180028221614, -9983.943102829828, -5541.869168504378, 90779.5760964842, 14476.688441835457, -14492.15584899853, -309.8175298950112, -14669.338127295749, -11682.765088410984, 11549.727505412997, -10600.493621885016, -5540.081028947953, 799.4548439329677, 0.214, 0.902, -0.41400000000000003, 192.0, 0.0, 0.0, 0.0, 0.0, 0.0, 0.0, 0.0, 0.0, 0.0, 1.6625064471374156E9, 0.0, 2022-09-06 19:20:47.137
42.0, -15003.608465624866, -5824.506977141736, -33770.75895914542, -24271.066399939824, -9921.335866610512, -5498.395025538805, 89636.17260887296, 14613.03408301283, -14403.866458400067, -228.27836612205104, -14569.336422602704, -11587.636064009199, 11602.432918838611, -10455.49785560344, -5488.716720189657, 833.4071437605792, 0.214, 0.902, -0.41400000000000003, 192.0, 0.0, 0.0, 0.0, 0.0, 0.0, 0.0, 0.0, 0.0, 0.0, 1.662506447137423E9, 0.0, 2022-09-06 19:20:47.137
44.0, -15016.237201242115, -5810.4253781348925, -33795.97172689101, -24253.386170075675, -9963.379497930944, -5511.336685578428, 89345.17524780933, 14537.21696582043, -14465.803142285722, -318.57941372149156, -14637.933926336042, -11647.78460833843, 11492.529391351867, -10532.27609780742, -5493.388234780817, 855.1106876266823, 0.214, 0.902, -0.41400000000000003, 192.0, 0.0, 0.0, 0.0, 0.0, 0.0, 0.0, 0.0, 0.0, 0.0, 1.6625064471374304E9, 0.0, 2022-09-06 19:20:47.137
46.0, -14966.526921573512, -5791.448747092337, -33730.68228133706, -24242.590277503765, -9924.576869556531, -5466.990824579099, 87845.75317451396, 14621.7512633504, -14362.247510224284, -223.0927614084198, -14519.715549911924, -11541.613822175721, 11560.568101473822, -10411.956657404502, -5457.267815741041, 871.6956820125201, 0.252, 0.91, -0.396, 192.0, 3.5, 112.0, 14.0, 56.0, 121.5, 80.0, 0.0, 0.0, 0.0, 1.6625064471374395E9, 0.0, 2022-09-06 19:20:47.137
48.0, -15026.340189735913, -5826.786855076177, -33795.97172689101, -24270.731123772995, -9935.283355150623, -5510.688484989225, 87956.08138514536, 14555.746561973878, -14446.111255420597, -329.4200097823155, -14620.588972638723, -11620.58253533632, 11485.823868015274, -10522.50838548045, -5465.135629789309, 889.2418014099362, 0.252, 0.91, -0.396, 192.0, 0.0, 0.0, 0.0, 0.0, 0.0, 0.0, 0.0, 0.0, 0.0, 1.662506447137447E9, 0.0, 2022-09-06 19:20:47.137
50.0, -14934.653333980243, -5752.512008251191, -33716.08659220774, -24214.65059693463, -9886.154220837858, -5418.934574000189, 86274.02320790569, 14661.872644647676, -14371.456428939871, -236.30264238150627, -14532.813672162732, -11542.753761142942, 11487.835525016251, -10436.1635966496, -5462.498123943583, 856.0271091493499, 0.252, 0.91, -0.396, 192.0, 0.0, 0.0, 0.0, 0.0, 0.0, 0.0, 0.0, 0.0, 0.0, 1.6625064471374552E9, 0.0, 2022-09-06 19:20:47.137
52.0, -15007.743538349097, -5812.973477002797, -33787.85804365374, -24252.827376464295, -9912.931610695316, -5482.033548597521, 86796.83051071531, 14585.139105932607, -14389.650748926491, -318.0206201101089, -14579.372355863137, -11573.710927213542, 11461.46046655899, -10457.576567837783, -5428.858748538345, 931.5089501749219, 0.252, 0.91, -0.396, 192.0, 0.0, 0.0, 0.0, 0.0, 0.0, 0.0, 0.0, 0.0, 0.0, 1.662506447137463E9, 0.0, 2022-09-06 19:20:47.137
54.0, -14943.191700362171, -5759.373993798971, -33710.05162120481, -24200.25607350541, -9836.04160976906, -5432.524434629016, 85090.6324494639, 14647.23225202945, -14350.110512985053, -257.6262065918692, -14517.77094814431, -11529.677990636586, 11511.573077627789, -10398.947942131514, -5448.796504592479, 868.7228999999643, 0.252, 0.91, -0.396, 192.0, 0.0, 0.0, 0.0, 0.0, 0.0, 0.0, 0.0, 0.0, 0.0, 1.6625064471374707E9, 0.0, 2022-09-06 19:20:47.137
56.0, -15072.451838547211, -5929.113141192573, -33827.97942495101, -24371.15751161069, -9942.614727331964, -5568.601854872925, 85985.55159396549, 14558.138198630597, -14417.031635884243, -458.18840958933947, -14605.054510242286, -11631.758407563973, 11375.897988784074, -10555.745429485492, -5425.438931636683, 918.3437726907459, 0.256, 0.902, -0.404, 192.0, 4.0, 0.0, 14.0, 24.0, 121.5, 48.0, 0.0, 0.0, 0.0, 1.6625064471374788E9, 0.0, 2022-09-06 19:20:47.137
58.0, -14979.848561268875, -5857.3863932354925, -33752.13995601415, -24326.588133166806, -9866.99877583966, -5500.831365684434, 84258.81227955966, 14610.664798100568, -14427.179327866952, -727.3481163201471, -14598.058414227775, -11730.195490145146, 11353.143912928572, -10553.599662017783, -5505.480528531138, 787.7201780939315, 0.256, 0.902, -0.404, 192.0, 0.0, 0.0, 0.0, 0.0, 0.0, 0.0, 0.0, 0.0, 0.0, 1.662506447137486E9, 0.0, 2022-09-06 19:20:47.137
60.0, -15125.760749073119, -5994.715511168899, -33893.17946352714, -24477.440056495674, -9988.324044743067, -5645.4248005658155, 85329.68435641342, 14505.812764860722, -14453.174406668473, -675.7826418617537, -14633.016542555875, -11730.933097712172, 11326.232412604382, -10645.174759051175, -5460.3523564758725, 887.2748478978691, 0.256, 0.902, -0.404, 192.0, 0.0, 0.0, 0.0, 0.0, 0.0, 0.0, 0.0, 0.0, 0.0, 1.6625064471374934E9, 0.0, 2022-09-06 19:20:47.137
62.0, -15033.090416561416, -5852.089029799585, -33828.35940460675, -24255.04019916537, -9895.76547095364, -5472.824629881934, 83564.45533805554, 14548.683410726002, -14611.737681834422, -645.8760077805529, -14688.828848460776, -11750.714391555119, 11208.751643747288, -10245.570271679197, -5594.641637163358, 749.2751776308033, 0.256, 0.902, -0.404, 192.0, 0.0, 0.0, 0.0, 0.0, 0.0, 0.0, 0.0, 0.0, 0.0, 1.6625064471375003E9, 0.0, 2022-09-06 19:20:47.137
64.0, -15050.033038858539, -5879.6934342018885, -33782.650087195645, -24269.524129572408, -9952.762419314673, -5535.565976567981, 84734.74797424651, 14548.012858392342, -14439.115159406087, -474.5051830417136, -14623.472347673458, -11586.317311086335, 11338.615279032621, -10477.78254482538, -5468.555446690971, 961.4826394894886, 0.256, 0.902, -0.404, 192.0, 0.0, 0.0, 0.0, 0.0, 0.0, 0.0, 0.0, 0.0, 0.0, 1.6625064471375084E9, 0.0, 2022-09-06 19:20:47.137
66.0, -15015.097262274894, -5866.461201484347, -33749.591857146246, -24374.44321804562, -9873.011395098138, -5539.723401036668, 83079.3107246531, 14536.524061742313, -14386.99089133631, -546.522503676713, -14572.040983681796, -11623.354151648778, 11237.60774583909, -10649.578052708872, -5528.3240113644615, 819.9290418540289, 0.274, 0.9, -0.426, 192.0, 4.0, 72.0, 14.0, 16.0, 121.0, 88.0, 0.0, 0.0, 0.0, 1.6625064471375165E9, 0.0, 2022-09-06 19:20:47.137
68.0, -15128.532365385578, -5976.387080715547, -33899.72852465254, -24415.525724354473, -9962.954814786293, -5592.182945273274, 84203.35760156604, 14507.48914569487, -14540.882651911099, -985.9577996680498, -14661.112685336197, -11769.288691197478, 11241.139321463028, -10407.598067235716, -5499.199688339197, 854.6636527375762, 0.274, 0.9, -0.426, 192.0, 0.0, 0.0, 0.0, 0.0, 0.0, 0.0, 0.0, 0.0, 0.0, 1.6625064471375237E9, 0.0, 2022-09-06 19:20:47.137
70.0, -14927.120796098805, -5693.525754633636, -33719.953443998515, -24116.48173528692, -9870.306834019046, -5440.347545188373, 82876.35688499891, 14517.949762099954, -14509.567857929214, -307.6047071939358, -14641.845481615721, -11612.558259076866, 11235.551385349201, -10382.407651234586, -5585.879753336877, 779.9194192790293, 0.274, 0.9, -0.426, 192.0, 0.0, 0.0, 0.0, 0.0, 0.0, 0.0, 0.0, 0.0, 0.0, 1.6625064471375349E9, 0.0, 2022-09-06 19:20:47.137
72.0, -15051.798826670507, -5875.111326588551, -33868.27962020393, -24266.305478370843, -9997.443556480832, -5526.848796230412, 83949.21826710919, 14538.893346654577, -14241.72690412127, -365.2275043997174, -14518.039169077776, -11453.190321110525, 11310.04974961874, -10331.579784343217, -5465.56031293396, 966.824706414307, 0.274, 0.9, -0.426, 192.0, 0.0, 0.0, 0.0, 0.0, 0.0, 0.0, 0.0, 0.0, 0.0, 1.662506447137543E9, 0.0, 2022-09-06 19:20:47.137
74.0, -15055.531567994543, -5833.738247601777, -33968.683656297166, -24310.316063203343, -9918.161918897858, -5544.461970861194, 82866.74563488313, 14446.647697287524, -14580.244073896894, -526.2047679668389, -14721.887078510175, -11666.694184147618, 11138.611869646535, -10525.056484348355, -5656.332451860006, 744.5366078062783, 0.274, 0.9, -0.426, 192.0, 0.0, 0.0, 0.0, 0.0, 0.0, 0.0, 0.0, 0.0, 0.0, 1.6625064471375506E9, 0.0, 2022-09-06 19:20:47.137
76.0, -15033.649210172798, -5831.905404556443, -33938.486449538046, -24376.030191901948, -10029.741827218751, -5610.801948404544, 83774.06999755741, 14488.91484605251, -14399.75373742029, -336.9078441748434, -14627.629772142145, -11575.789639447885, 11354.730886784899, -10406.234610823944, -5511.984886167632, 843.6889462100204, 0.27, 0.859, -0.444, 192.0, 4.0, 40.0, 12.5, 72.0, 120.5, 72.0, 0.0, 0.0, 0.0, 1.6625064471375577E9, 0.0, 2022-09-06 19:20:47.137
78.0, -15039.483015475633, -5799.875354751987, -33997.94208978917, -24341.362636251764, -10008.284152541657, -5574.301549709028, 82986.64039214139, 14404.738176433824, -14463.38915388455, -234.73802026963477, -14725.10572971174, -11692.622207715774, 11316.643514233056, -10558.56174928686, -5644.217806365229, 716.351058048136, 0.27, 0.859, -0.444, 192.0, 0.0, 0.0, 0.0, 0.0, 0.0, 0.0, 0.0, 0.0, 0.0, 1.6625064471375656E9, 0.0, 2022-09-06 19:20:47.137
80.0, -15082.733640996652, -5891.40574829647, -33985.51451987201, -24442.057245022923, -10081.486115632786, -5650.610405279446, 83383.428559712, 14458.7623427823, -14493.742822854856, -105.14260591776443, -14705.43619459107, -11668.3035097484, 11357.055468208251, -10493.831097344291, -5552.709764565202, 816.2410040189034, 0.27, 0.859, -0.444, 192.0, 0.0, 0.0, 0.0, 0.0, 0.0, 0.0, 0.0, 0.0, 0.0, 1.6625064471375728E9, 0.0, 2022-09-06 19:20:47.137
82.0, -15018.137099520816, -5808.704293811834, -33914.95006262661, -24367.313011564376, -10034.815673210105, -5599.626076176891, 82674.52063256748, 14396.445679240906, -14544.458931023948, -50.649052935725805, -14799.939370148108, -11781.872723325816, 11425.652971941588, -10601.991188763523, -5634.807721949544, 721.0002208948399, 0.27, 0.859, -0.444, 192.0, 0.0, 0.0, 0.0, 0.0, 0.0, 0.0, 0.0, 0.0, 0.0, 1.66250644713758E9, 0.0, 2022-09-06 19:20:47.137
84.0, -15108.79577503154, -5922.6981905339, -34008.22389223861, -24468.74522790256, -10141.791122173205, -5668.044765954586, 82422.46001034499, 14404.42525201145, -14359.498245656283, 230.6700027787689, -14645.868795617676, -11678.630015686753, 11530.169729014604, -10572.643348293705, -5543.187921427241, 803.5452131682889, 0.27, 0.859, -0.444, 192.0, 0.0, 0.0, 0.0, 0.0, 0.0, 0.0, 0.0, 0.0, 0.0, 1.6625064471375873E9, 0.0, 2022-09-06 19:20:47.137
86.0, -15071.22249260217, -5871.78091666471, -33908.982146857044, -24389.307128108398, -10063.202388668346, -5625.1741200893075, 81824.93082582127, 14346.668344338936, -14631.116644277174, 219.20355787319636, -14851.571899839868, -11848.749142736095, 11449.390524553124, -10805.079138884443, -5691.827022055033, 683.8963250990302, 0.251, 0.8534999999999999, -0.458, 192.0, 3.5, 32.0, 13.0, 64.0, 120.5, 32.0, 0.0, 0.0, 0.0, 1.6625064471375947E9, 0.0, 2022-09-06 19:20:47.137
88.0, -15036.97962009664, -5870.283349786205, -33763.49464219745, -24379.986450670534, -10024.824443438583, -5633.108989370941, 80992.55186230563, 14445.418351342483, -14345.21548094934, 534.4302099263919, -14594.146858948096, -11682.832143644351, 11505.024016502382, -10682.30100659144, -5490.37074927935, 816.9786115859284, 0.251, 0.8534999999999999, -0.458, 192.0, 0.0, 0.0, 0.0, 0.0, 0.0, 0.0, 0.0, 0.0, 0.0, 1.662506447137602E9, 0.0, 2022-09-06 19:20:47.137
90.0, -15066.059239632994, -5862.951977604864, -33806.722915974016, -24356.09243584781, -9958.640928106419, -5604.543459957059, 80580.78802594997, 14367.969556804843, -14451.565081067693, 597.5738880126344, -14708.945418470554, -11767.589958618875, 11438.92990814804, -10834.248165398618, -5552.57565409847, 758.6852620464877, 0.251, 0.8534999999999999, -0.458, 192.0, 0.0, 0.0, 0.0, 0.0, 0.0, 0.0, 0.0, 0.0, 0.0, 1.6625064471376092E9, 0.0, 2022-09-06 19:20:47.137
92.0, -15033.179823539236, -5873.323187032126, -33803.63837523918, -24357.902927148694, -9964.653547364896, -5614.78055891759, 79403.76751467795, 14440.232746628852, -14384.643958168503, 740.1556658930381, -14614.598705124701, -11692.465745504589, 11646.041172270916, -10787.600074720393, -5518.355133337394, 782.6463321025768, 0.251, 0.8534999999999999, -0.458, 192.0, 0.0, 0.0, 0.0, 0.0, 0.0, 0.0, 0.0, 0.0, 0.0, 1.6625064471376169E9, 0.0, 2022-09-06 19:20:47.137
94.0, -15084.968815442184, -5909.130681649528, -33902.09780956481, -24377.080723891348, -10000.997483849225, -5642.988460420187, 79438.47977381705, 14349.417608906939, -14459.365839882594, 665.7243568568656, -14724.099901211252, -11781.13511575879, 11685.64846344572, -10892.697977149246, -5579.263636978107, 765.7260615499093, 0.251, 0.8534999999999999, -0.458, 192.0, 0.0, 0.0, 0.0, 0.0, 0.0, 0.0, 0.0, 0.0, 0.0, 1.6625064471376243E9, 0.0, 2022-09-06 19:20:47.137
96.0, -15011.49863141759, -5847.5292739307015, -33878.717884864556, -24316.0381097839, -9940.200738930791, -5585.879753336877, 78148.06886292325, 14441.640906529536, -14392.064737327664, 723.9730029073958, -14634.000019311909, -11684.776745411962, 11782.051537281459, -10769.159885544765, -5580.694148623246, 769.8164307852305, 0.2445, 0.8527499999999999, -0.469, 192.0, 3.5, 56.0, 13.0, 80.0, 120.5, 0.0, 0.0, 0.0, 0.0, 1.6625064471376317E9, 0.0, 2022-09-06 19:20:47.137
98.0, -15021.467509444656, -5823.478796896791, -33947.42714732017, -24297.977900264013, -10026.903155672928, -5636.238233594684, 78639.44961302873, 14375.74796387529, -14516.116919054619, 877.7306530154531, -14746.87632881121, -11702.144050853736, 11821.189441822702, -10915.742625682667, -5598.0614540650195, 789.7541868393645, 0.2445, 0.8527499999999999, -0.469, 192.0, 0.0, 0.0, 0.0, 0.0, 0.0, 0.0, 0.0, 0.0, 0.0, 1.6625064471376395E9, 0.0, 2022-09-06 19:20:47.137
100.0, -14975.691136800187, -5815.521575870702, -33887.25625124649, -24302.694118344083, -9958.640928106419, -5562.2539594476175, 77196.97978460549, 14462.651546317524, -14406.146336334508, 902.7199033164864, -14618.979647037942, -11585.982034919505, 12013.70501681626, -10804.766214462068, -5558.700032079224, 789.7988903282751, 0.2445, 0.8527499999999999, -0.469, 192.0, 0.0, 0.0, 0.0, 0.0, 0.0, 0.0, 0.0, 0.0, 0.0, 1.662506447137647E9, 0.0, 2022-09-06 19:20:47.137
102.0, -15018.226506498637, -5840.220253493817, -33989.314316429416, -24387.675450763163, -10065.415211369422, -5647.324698844516, 77876.4281125579, 14361.50990265726, -14534.132425085596, 699.6766566844769, -14733.062950737829, -11727.245059877047, 11861.981375453637, -10947.370344086927, -5587.757299871123, 770.285817418792, 0.2445, 0.8527499999999999, -0.469, 192.0, 0.0, 0.0, 0.0, 0.0, 0.0, 0.0, 0.0, 0.0, 0.0, 1.662506447137656E9, 0.0, 2022-09-06 19:20:47.137
104.0, -14874.884769306753, -5695.962094779265, -33848.56538159435, -24265.70198127055, -9972.387250946433, -5548.597043585425, 76187.82087419282, 14447.139435665542, -14331.245640664774, 897.0425602248383, -14616.833879570233, -11595.079194912816, 12052.932328335326, -10810.421205809262, -5587.176154515285, 736.5346832912784, 0.2445, 0.8527499999999999, -0.469, 192.0, 0.0, 0.0, 0.0, 0.0, 0.0, 0.0, 0.0, 0.0, 0.0, 1.6625064476172788E9, 0.0, 2022-09-06 19:20:47.617
106.0, -14970.237311153092, -5790.979360458775, -33885.490463434515, -24334.679464659628, -10046.505635560232, -5611.763073416123, 76712.81864795908, 14405.408728767483, -14283.926997652889, 762.8873900040853, -14613.99520802441, -11604.82455549533, 11975.572940775508, -10903.24800053215, -5492.248295813596, 831.4848937374227, 0.23625000000000002, 0.834375, -0.4785, 192.0, 3.5, 16.0, 12.5, 64.0, 120.0, 96.0, 0.0, 0.0, 0.0, 1.662506447617399E9, 0.0, 2022-09-06 19:20:47.617
108.0, -14927.925458899195, -5744.2195110582725, -33836.02605295492, -24285.57268209132, -9976.388213203933, -5561.918683280788, 74716.76316461124, 14423.580697009647, -14322.327294627106, 744.9389392064738, -14619.627847627145, -11626.639858083709, 11915.849079590927, -10804.140365617319, -5576.447317176738, 743.8437037281637, 0.23625000000000002, 0.834375, -0.4785, 192.0, 0.0, 0.0, 0.0, 0.0, 0.0, 0.0, 0.0, 0.0, 0.0, 1.6625064476175075E9, 0.0, 2022-09-06 19:20:47.617
110.0, -14976.294633900481, -5819.097854983551, -33840.45169835707, -24336.512307704965, -10040.738885490762, -5620.68141945379, 75139.25583830546, 14389.315472759661, -14447.608822299102, 675.223848250371, -14647.142845051629, -11673.01972782847, 11880.935654751738, -10881.209180499218, -5496.204554582186, 840.6938124530093, 0.23625000000000002, 0.834375, -0.4785, 192.0, 0.0, 0.0, 0.0, 0.0, 0.0, 0.0, 0.0, 0.0, 0.0, 1.6625064476175144E9, 0.0, 2022-09-06 19:20:47.617
112.0, -14880.718574609587, -5696.364426179461, -33773.68703766907, -24232.107309354225, -9992.034434322648, -5533.800188756012, 73016.75653657396, 14409.163821835975, -14342.779140803712, 709.1537963335272, -14596.158515949073, -11650.064486272871, 11877.471134361165, -10768.154057044276, -5540.1257324368635, 768.1847534399931, 0.23625000000000002, 0.834375, -0.4785, 192.0, 0.0, 0.0, 0.0, 0.0, 0.0, 0.0, 0.0, 0.0, 0.0, 1.6625064476175215E9, 0.0, 2022-09-06 19:20:47.617
114.0, -14967.778619263008, -5813.621677592001, -33824.62666328272, -24307.835019568804, -10043.577557036586, -5619.0720938530085, 73284.41867642626, 14386.65561516948, -14221.520927133672, 715.836967925664, -14587.284873400316, -11606.97032296304, 11804.112709058847, -10818.04315066852, -5466.387327478806, 877.1271559151597, 0.23625000000000002, 0.834375, -0.4785, 192.0, 0.0, 0.0, 0.0, 0.0, 0.0, 0.0, 0.0, 0.0, 0.0, 1.662506447617529E9, 0.0, 2022-09-06 19:20:47.617
116.0, -14922.561040229923, -5759.217531587784, -33827.42063133963, -24246.501832783444, -9980.947969072815, -5511.895479189811, 71200.83376179145, 14407.42038576846, -14416.808118439689, 547.2377594992828, -14659.033973101852, -11669.30933824889, 11822.396436023288, -10822.334685603939, -5557.157761711808, 768.9670644959289, 0.22312500000000002, 0.8311875, -0.49624999999999997, 192.0, 3.0, 72.0, 12.5, 112.0, 119.5, 120.0, 0.0, 0.0, 0.0, 1.6625064476175375E9, 0.0, 2022-09-06 19:20:47.617
118.0, -15027.100149047394, -5909.6894752609105, -33916.98407137204, -24427.908590782714, -10093.913685549938, -5658.50057107217, 71307.96567296573, 14379.525408688238, -14577.494809328891, 358.2761118741169, -14722.937610499575, -11769.892188297772, 11855.499369561598, -10787.443612509205, -5504.429996541739, 852.2049608474924, 0.22312500000000002, 0.8311875, -0.49624999999999997, 192.0, 0.0, 0.0, 0.0, 0.0, 0.0, 0.0, 0.0, 0.0, 0.0, 1.662506447617545E9, 0.0, 2022-09-06 19:20:47.617
120.0, -14855.550510352912, -5708.166147251863, -33725.58608360125, -24200.68075665006, -9965.368803187466, -5506.776929709546, 69420.02557754822, 14419.289162074228, -14418.171574851463, 339.50064653165896, -14662.543196981336, -11764.259548695034, 11843.563538022463, -10802.821612694457, -5569.361814184405, 746.5482648072559, 0.22312500000000002, 0.8311875, -0.49624999999999997, 192.0, 0.0, 0.0, 0.0, 0.0, 0.0, 0.0, 0.0, 0.0, 0.0, 1.6625064476175513E9, 0.0, 2022-09-06 19:20:47.617
122.0, -14984.229503182114, -5879.02288186823, -33933.591417502335, -24325.582304666317, -10079.072127231613, -5597.055625564531, 69320.78383216665, 14417.746891706813, -14355.36317293205, 673.0780807826616, -14577.114829673152, -11562.177427074603, 11804.403281736766, -10718.466129120128, -5446.561330146948, 912.4205604100896, 0.22312500000000002, 0.8311875, -0.49624999999999997, 192.0, 0.0, 0.0, 0.0, 0.0, 0.0, 0.0, 0.0, 0.0, 0.0, 1.6625064476175573E9, 0.0, 2022-09-06 19:20:47.617
124.0, -14775.39715473618, -5663.708527530257, -33598.874044284115, -24156.200785184003, -9887.897656905372, -5462.855751854868, 67808.33069185384, 14455.8119125142, -14403.41942351096, 532.910291303431, -14694.170915385595, -11732.430664590676, 11842.937689177716, -10796.8984004138, -5531.699124777213, 794.8503845751744, 0.22312500000000002, 0.8311875, -0.49624999999999997, 192.0, 0.0, 0.0, 0.0, 0.0, 0.0, 0.0, 0.0, 0.0, 0.0, 1.6625064476175632E9, 0.0, 2022-09-06 19:20:47.617
126.0, -14845.51457709248, -5774.751993984222, -33721.24984517692, -24259.71171375653, -9977.59520740452, -5545.870130761878, 67626.8121751323, 14485.763250084312, -14139.80294940507, 582.1288325940171, -14482.924578538488, -11526.99578130195, 11658.982832310538, -10639.698581659626, -5379.975483414589, 917.8296825682739, 0.21256250000000002, 0.84259375, -0.5021249999999999, 192.0, 3.0, 40.0, 13.0, 88.0, 120.0, 16.0, 0.0, 0.0, 0.0, 1.662506447617569E9, 0.0, 2022-09-06 19:20:47.617
128.0, -14762.96958481903, -5628.6386404798795, -33636.201457524476, -24097.639214711096, -9934.277526650134, -5443.40973417875, 66474.0880100832, 14485.852657062132, -14363.543911402692, 684.6339326660553, -14558.942861430987, -11562.780924174896, 11554.399020004157, -10796.920752158256, -5451.657527882759, 852.1155538696712, 0.21256250000000002, 0.84259375, -0.5021249999999999, 192.0, 0.0, 0.0, 0.0, 0.0, 0.0, 0.0, 0.0, 0.0, 0.0, 1.6625064476175747E9, 0.0, 2022-09-06 19:20:47.617
130.0, -14678.994080900442, -5530.71564802118, -33534.23279931937, -24080.85305462516, -9896.10074712047, -5432.077399739909, 66180.45314317383, 14544.59304149068, -14120.714559640237, 888.7724147763747, -14380.620644166547, -11355.87082575212, 11686.609588457297, -10678.657672245226, -5340.167026539687, 989.7128927365414, 0.21256250000000002, 0.84259375, -0.5021249999999999, 192.0, 0.0, 0.0, 0.0, 0.0, 0.0, 0.0, 0.0, 0.0, 0.0, 1.662506447617581E9, 0.0, 2022-09-06 19:20:47.617
132.0, -14726.402130890148, -5591.400634217338, -33595.83420703819, -24108.77038344984, -9886.556552238055, -5424.3660479028285, 65351.65045877105, 14495.843886833656, -14137.165443559343, 855.0212806488611, -14442.937307707944, -11442.84146342772, 11557.930595628095, -10701.009416700534, -5357.3331662813625, 920.08720875826, 0.21256250000000002, 0.84259375, -0.5021249999999999, 192.0, 0.0, 0.0, 0.0, 0.0, 0.0, 0.0, 0.0, 0.0, 0.0, 1.6625064476175869E9, 0.0, 2022-09-06 19:20:47.617
134.0, -14775.128933802716, -5694.710397089768, -33705.44716184702, -24169.522424879364, -9946.414523889367, -5415.492405354072, 64922.31815127351, 14631.13899602163, -14261.77641889768, 791.5646781402443, -14455.946022980932, -11454.285556588837, 11714.616324259798, -10583.215723421064, -5338.356535238807, 973.2173053285248, 0.21256250000000002, 0.84259375, -0.5021249999999999, 192.0, 0.0, 0.0, 0.0, 0.0, 0.0, 0.0, 0.0, 0.0, 0.0, 1.6625064476175983E9, 0.0, 2022-09-06 19:20:47.617
