%OpenBCI Raw EEG Data
%Number of channels = 16
%Sample Rate = 125 Hz
%Board = OpenBCI_GUI$BoardCytonSerialDaisy
Sample Index, EXG Channel 0, EXG Channel 1, EXG Channel 2, EXG Channel 3, EXG Channel 4, EXG Channel 5, EXG Channel 6, EXG Channel 7, EXG Channel 8, EXG Channel 9, EXG Channel 10, EXG Channel 11, EXG Channel 12, EXG Channel 13, EXG Channel 14, EXG Channel 15, Accel Channel 0, Accel Channel 1, Accel Channel 2, Other, Other, Other, Other, Other, Other, Other, Analog Channel 0, Analog Channel 1, Analog Channel 2, Timestamp, Other, Timestamp (Formatted)
44.0, -20862.403018761044, -26792.164360542818, -31952.109271539364, -21032.231573132467, -7470.824714997378, -5489.454327756683, -17711.41054766304, -6870.993300794757, -22538.2697627866, 10301.293170606277, -20913.029719952312, -24659.0703319395, -13762.661965210673, -5477.809068895468, -9167.43387787746, -14953.697020256164, 0.0, 0.0, 0.0, 192.0, 0.0, 0.0, 0.0, 0.0, 0.0, 0.0, 0.0, 0.0, 0.0, 1.6730444805467982E9, 0.0, 2023-01-06 17:34:40.546
46.0, -20873.51183575533, -26801.216817047218, -31970.32594327044, -21043.29568663784, -7492.595314096847, -5485.498068988093, -17731.41535895054, -6881.342158477564, -22536.816899397007, 10307.618714287128, -20901.920902958027, -24638.998465418634, -13767.467590268565, -5494.259952814574, -9160.415430118494, -14940.353028816347, -0.084, 0.41000000000000003, 0.28200000000000003, 192.0, 125.0, 96.0, 12.5, 80.0, 8.5, 80.0, 0.0, 0.0, 0.0, 1.6730444805468044E9, 0.0, 2023-01-06 17:34:40.546
48.0, -20864.258213550835, -26790.867959364412, -31953.51743144005, -21030.510488809407, -7473.730441776567, -5485.542772477004, -17706.13553597159, -6880.179867765888, -22532.50301271713, 10295.325254836709, -20908.559371061252, -24654.041189437055, -13775.760087461484, -5483.687577687214, -9161.756534785813, -14950.366610332325, -0.084, 0.41000000000000003, 0.28200000000000003, 192.0, 0.0, 0.0, 0.0, 0.0, 0.0, 0.0, 0.0, 0.0, 0.0, 1.6730444805468097E9, 0.0, 2023-01-06 17:34:40.546
50.0, -20872.237786321377, -26801.216817047218, -31967.062588579967, -21052.526957097885, -7473.283406887461, -5493.365883036361, -17726.22975423691, -6865.248902469743, -22532.70417841723, 10305.294132863777, -20898.65754826755, -24648.87793646788, -13744.400589990688, -5486.660359699769, -9148.546653812726, -14946.410351563734, -0.084, 0.41000000000000003, 0.28200000000000003, 192.0, 0.0, 0.0, 0.0, 0.0, 0.0, 0.0, 0.0, 0.0, 0.0, 1.6730444805468154E9, 0.0, 2023-01-06 17:34:40.546
52.0, -20878.47392302441, -26806.335366527484, -31973.90222238329, -21060.484178123974, -7478.357252878815, -5506.419301798261, -17761.23258605392, -6915.585030983095, -22540.32612327649, 10287.65860648854, -20911.778022262817, -24658.042151694557, -13777.838799695826, -5521.596136283414, -9158.247310906328, -14962.123627915817, -0.084, 0.41000000000000003, 0.28200000000000003, 192.0, 0.0, 0.0, 0.0, 0.0, 0.0, 0.0, 0.0, 0.0, 0.0, 1.6730444805468223E9, 0.0, 2023-01-06 17:34:40.546
54.0, -20893.181370876002, -26820.282855067595, -32002.914786686277, -21090.681384883093, -7513.337732951371, -5492.8964964028, -17802.89623771861, -6878.503486931741, -22559.146292107856, 10284.395251798065, -20925.345531147188, -24680.46095138323, -13785.460744555086, -5531.162682910286, -9187.841020565154, -14986.464677627646, -0.084, 0.41000000000000003, 0.28200000000000003, 192.0, 0.0, 0.0, 0.0, 0.0, 0.0, 0.0, 0.0, 0.0, 0.0, 1.6730444805468295E9, 0.0, 2023-01-06 17:34:40.546
56.0, -20902.233827380398, -26829.82704995001, -32003.29476634202, -21082.61240513473, -7484.459279115114, -5499.043226128009, -17775.202426338485, -6783.553276485596, -22571.1268271359, 10268.614920212618, -20942.0422842553, -24684.461913640727, -13796.234285382545, -5540.818636514979, -9182.543657129247, -14971.19843616467, -0.127, 0.6060000000000001, 0.42700000000000005, 192.0, 125.0, 88.0, 12.5, 8.0, 8.5, 112.0, 0.0, 0.0, 0.0, 1.6730444805468364E9, 0.0, 2023-01-06 17:34:40.546
58.0, -20942.355208677676, -26869.233175424717, -32056.87189780139, -21134.714321460047, -7533.677820405701, -5573.318072952995, -17743.351190489673, -6873.630806640484, -22586.907158721348, 10254.55567295023, -20954.96159255047, -24721.454050714263, -13846.637469129262, -5527.228775886152, -9207.756424874833, -14977.34516588988, -0.127, 0.6060000000000001, 0.42700000000000005, 192.0, 0.0, 0.0, 0.0, 0.0, 0.0, 0.0, 0.0, 0.0, 0.0, 1.6730444805468433E9, 0.0, 2023-01-06 17:34:40.546
60.0, -20953.888708816616, -26877.011582495164, -32055.173165222786, -21148.23712685551, -7565.97609114362, -5555.168456455285, -17747.0392283248, -6835.051695710623, -22626.42504291833, 10206.49942237132, -20999.374508783163, -24749.550193494582, -13842.569451638396, -5576.96140729921, -9222.173300048507, -15029.380026981835, -0.127, 0.6060000000000001, 0.42700000000000005, 192.0, 0.0, 0.0, 0.0, 0.0, 0.0, 0.0, 0.0, 0.0, 0.0, 1.6730444805468495E9, 0.0, 2023-01-06 17:34:40.546
62.0, -20930.66524632755, -26853.45284383927, -32039.973978993177, -21145.979600665523, -7561.326928296916, -5535.454217845705, -17790.13339163463, -6864.980681536279, -22618.04313874759, 10221.944477789937, -20978.654441673094, -24764.1458826239, -13818.563678093396, -5567.2383984611515, -9205.364788218116, -15015.164317508259, -0.127, 0.6060000000000001, 0.42700000000000005, 192.0, 0.0, 0.0, 0.0, 0.0, 0.0, 0.0, 0.0, 0.0, 0.0, 1.673044480546856E9, 0.0, 2023-01-06 17:34:40.546
64.0, -20939.181260965022, -26868.56262309106, -32073.25572648713, -21177.897891747703, -7553.772038671022, -5584.3821864583715, -17840.424816659073, -6894.753205150749, -22614.04217649009, 10215.149547475523, -20997.832238415747, -24756.94862090929, -13847.375076696288, -5601.548326200048, -9257.64551849908, -15069.344946067924, -0.127, 0.6060000000000001, 0.42700000000000005, 192.0, 0.0, 0.0, 0.0, 0.0, 0.0, 0.0, 0.0, 0.0, 0.0, 1.6730444805468624E9, 0.0, 2023-01-06 17:34:40.546
66.0, -20945.32799069023, -26864.36049513346, -32050.278133187072, -21161.402304339685, -7556.186027072195, -5582.05760503502, -17765.09943784469, -6818.489053069241, -22609.01303398765, 10217.697646343428, -20989.897369134113, -24784.95535671179, -13863.915367593214, -5592.473517951193, -9237.104265344651, -15043.953364366695, -0.14550000000000002, 0.686, 0.48650000000000004, 192.0, 125.0, 112.0, 11.5, 120.0, 8.5, 8.0, 0.0, 0.0, 0.0, 1.6730444805468693E9, 0.0, 2023-01-06 17:34:40.546
68.0, -20989.517389478373, -26903.878379330443, -32080.318877735008, -21184.737525551027, -7580.348262828382, -5622.1789863322965, -17806.830144742748, -6835.1858061773555, -22646.161633272368, 10207.237029938344, -21001.699090206515, -24756.434530786817, -13869.615062429317, -5576.872000321388, -9223.760273904834, -15044.646268444809, -0.14550000000000002, 0.686, 0.48650000000000004, 192.0, 0.0, 0.0, 0.0, 0.0, 0.0, 0.0, 0.0, 0.0, 0.0, 1.673044480546876E9, 0.0, 2023-01-06 17:34:40.546
70.0, -21027.78357598586, -26929.13585056494, -32091.852377873944, -21195.24284544502, -7581.711719240156, -5552.016860487087, -17836.42385440157, -6841.73486730276, -22663.90891836988, 10181.465468581375, -21023.06735790579, -24812.24683669172, -13864.876492604792, -5597.703826153735, -9239.205329323451, -15053.810483671485, -0.14550000000000002, 0.686, 0.48650000000000004, 192.0, 0.0, 0.0, 0.0, 0.0, 0.0, 0.0, 0.0, 0.0, 0.0, 1.6730444805468822E9, 0.0, 2023-01-06 17:34:40.546
72.0, -21070.542463128862, -26960.71886548029, -32103.452933246248, -21196.025156500957, -7575.207361603661, -5603.247058778651, -17796.436583571027, -6843.970041748291, -22704.812610723093, 10172.43536382143, -21062.182910702577, -24797.941720240324, -13884.188399814178, -5605.3928262463605, -9254.583329508701, -15061.924166908762, -0.14550000000000002, 0.686, 0.48650000000000004, 192.0, 0.0, 0.0, 0.0, 0.0, 0.0, 0.0, 0.0, 0.0, 0.0, 1.6730444805468888E9, 0.0, 2023-01-06 17:34:40.546
74.0, -21096.626948908204, -26986.177502414885, -32106.716287936724, -21208.2068572291, -7584.7739082305325, -5604.1634803013185, -17799.029385927843, -6860.890312300959, -22713.798011994128, 10166.57920677414, -21062.361724658218, -24835.023264291678, -13899.968731399624, -5580.716500367702, -9246.648460227068, -15052.022344115061, -0.14550000000000002, 0.686, 0.48650000000000004, 192.0, 0.0, 0.0, 0.0, 0.0, 0.0, 0.0, 0.0, 0.0, 0.0, 1.6730444805468953E9, 0.0, 2023-01-06 17:34:40.546
76.0, -21137.84356568379, -27023.549619144156, -32141.40619533136, -21238.180546543666, -7602.40943460577, -5605.951619857743, -17856.451017433526, -6864.868922814003, -22757.383913681977, 10152.989346145314, -21094.32471922931, -24824.54029614214, -13923.773339244526, -5617.0157333631205, -9288.401518869581, -15077.570388027478, -0.16475, 0.7330000000000001, 0.51325, 192.0, 125.0, 32.0, 12.0, 48.0, 8.0, 112.0, 0.0, 0.0, 0.0, 1.673044480546906E9, 0.0, 2023-01-06 17:34:40.546
78.0, -21134.066120870844, -27020.95681678734, -32125.469401534727, -21224.233058003552, -7628.583327362934, -5598.48613720967, -17880.099163067243, -6869.518085660707, -22774.192425512367, 10136.829034904127, -21106.41701297963, -24871.367200776007, -13887.317644037921, -5629.622117235914, -9307.065225489763, -15080.967853184684, -0.16475, 0.7330000000000001, 0.51325, 192.0, 0.0, 0.0, 0.0, 0.0, 0.0, 0.0, 0.0, 0.0, 0.0, 1.6730444805469124E9, 0.0, 2023-01-06 17:34:40.546
80.0, -21159.927089205634, -27046.191936277384, -32157.767672272646, -21257.850081664335, -7651.22564449616, -5656.98065244921, -17881.39556424565, -6928.258470089254, -22781.0767628046, 10144.272165807744, -21112.65314968266, -24840.275924238675, -13917.157222885755, -5621.664896209824, -9335.94367932602, -15100.100946438426, -0.16475, 0.7330000000000001, 0.51325, 192.0, 0.0, 0.0, 0.0, 0.0, 0.0, 0.0, 0.0, 0.0, 0.0, 1.673044480546919E9, 0.0, 2023-01-06 17:34:40.546
82.0, -21113.815440394337, -27000.527322355192, -32102.223587301207, -21206.9551595396, -7585.131536141817, -5597.8826401093775, -17782.980833408932, -6867.4170216819075, -22776.98639356928, 10138.058380849168, -21111.826135137813, -24871.9706978763, -13940.246574908087, -5609.237326292673, -9299.577391097235, -15088.455687577212, -0.16475, 0.7330000000000001, 0.51325, 192.0, 0.0, 0.0, 0.0, 0.0, 0.0, 0.0, 0.0, 0.0, 0.0, 1.6730444805469255E9, 0.0, 2023-01-06 17:34:40.546
84.0, -21120.632722453203, -27006.182313702386, -32122.87659917791, -21223.853078347813, -7604.0187602065525, -5606.890393124866, -17893.53256148488, -6902.755129665748, -22736.97677099428, 10165.796895718206, -21085.74164935847, -24815.890171037936, -13898.89584766577, -5607.58329720298, -9277.091536175196, -15071.289547835535, -0.16475, 0.7330000000000001, 0.51325, 192.0, 0.0, 0.0, 0.0, 0.0, 0.0, 0.0, 0.0, 0.0, 0.0, 1.673044480546932E9, 0.0, 2023-01-06 17:34:40.546
86.0, -21109.590960692283, -26996.95104324234, -32094.288718019572, -21201.367223425776, -7574.313291825449, -5573.5192386530925, -17758.773894163834, -6863.4831146577735, -22747.280925188177, 10151.625889733541, -21096.626948908204, -24849.44013946535, -13897.107708109344, -5587.8690585934, -9294.212972427962, -15086.242864876136, -0.174375, 0.7635000000000001, 0.523625, 192.0, 125.0, 32.0, 12.0, 104.0, 8.0, 88.0, 0.0, 0.0, 0.0, 1.6730444805469394E9, 0.0, 2023-01-06 17:34:40.546
88.0, -21114.061309583343, -27003.455400878836, -32115.656985718848, -21220.030930045956, -7587.858448965365, -5623.385980532883, -17832.62405784417, -6864.868922814003, -22731.858221514016, 10170.446058564909, -21083.66293712413, -24813.766755314682, -13898.135888354289, -5585.678587636779, -9251.543492262781, -15064.382858798846, -0.174375, 0.7635000000000001, 0.523625, 192.0, 0.0, 0.0, 0.0, 0.0, 0.0, 0.0, 0.0, 0.0, 0.0, 1.6730444805469456E9, 0.0, 2023-01-06 17:34:40.546
90.0, -21091.687213383582, -26983.987031458266, -32096.859168631934, -21200.540208880928, -7564.187951587195, -5581.878791079377, -17819.637694315636, -6836.1916346778435, -22737.513212861206, 10152.028221133736, -21090.904902327646, -24841.63938065045, -13918.006589175056, -5592.5405731845585, -9261.825294712222, -15066.17099835527, -0.174375, 0.7635000000000001, 0.523625, 192.0, 0.0, 0.0, 0.0, 0.0, 0.0, 0.0, 0.0, 0.0, 0.0, 1.6730444805469503E9, 0.0, 2023-01-06 17:34:40.546
92.0, -21112.56374270484, -27006.562293358125, -32139.863924963945, -21234.58191568636, -7604.644609051301, -5614.646448450858, -17853.835863332257, -6872.334405462076, -22728.4160528679, 10158.24200609231, -21089.966129060525, -24826.10491825401, -13889.575170227907, -5607.069207080509, -9265.69214650299, -15053.385800526834, -0.174375, 0.7635000000000001, 0.523625, 192.0, 0.0, 0.0, 0.0, 0.0, 0.0, 0.0, 0.0, 0.0, 0.0, 1.6730444805469556E9, 0.0, 2023-01-06 17:34:40.546
94.0, -21088.870893582214, -26983.741162269256, -32114.807619429546, -21208.43037467365, -7590.920637955742, -5602.375340744894, -17839.977781769965, -6859.772725078193, -22742.855279786025, 10125.742569654294, -21104.897094356667, -24853.10582555602, -13914.1844408732, -5614.981724617687, -9293.207143927473, -15072.295376336024, -0.174375, 0.7635000000000001, 0.523625, 192.0, 0.0, 0.0, 0.0, 0.0, 0.0, 0.0, 0.0, 0.0, 0.0, 1.6730444805469608E9, 0.0, 2023-01-06 17:34:40.546
96.0, -21078.74555334396, -26971.023019674187, -32114.6288054739, -21203.84826706031, -7595.368635102348, -5587.712596382213, -17896.795916175357, -6885.745452135259, -22710.713471259292, 10174.715241755872, -21067.659088094126, -24815.19726695982, -13870.084449062879, -5579.062471278009, -9272.17415239503, -15033.202175283692, -0.1861875, 0.7827500000000001, 0.5248125, 192.0, 124.5, 104.0, 12.5, 8.0, 8.0, 56.0, 0.0, 0.0, 0.0, 1.6730444805469658E9, 0.0, 2023-01-06 17:34:40.546
98.0, -21086.613367392227, -26978.48850232226, -32104.883444891388, -21200.62961585875, -7566.087849865896, -5566.321976938484, -17837.608496857705, -6870.278044972187, -22744.486957131263, 10146.77556118674, -21093.31889072882, -24836.811403848104, -13926.679066023717, -5612.947715872254, -9304.695940577501, -15060.158379096792, -0.1861875, 0.7827500000000001, 0.5248125, 192.0, 0.0, 0.0, 0.0, 0.0, 0.0, 0.0, 0.0, 0.0, 0.0, 1.6730444805469708E9, 0.0, 2023-01-06 17:34:40.546
100.0, -21082.522998156906, -26976.18627264336, -32098.937880866277, -21200.58491236984, -7626.325801172949, -5616.523994985103, -17897.421765020106, -6934.2710893477315, -22712.859238727004, 10177.1515819015, -21056.103236210733, -24810.369290157472, -13861.479027447585, -5595.446299963749, -9249.531835261803, -15026.027265313538, -0.1861875, 0.7827500000000001, 0.5248125, 192.0, 0.0, 0.0, 0.0, 0.0, 0.0, 0.0, 0.0, 0.0, 0.0, 1.6730444805469759E9, 0.0, 2023-01-06 17:34:40.546
102.0, -21060.484178123974, -26954.929763666365, -32071.154662508332, -21180.177769682145, -7566.8701609218315, -5595.803927875034, -17866.732819882967, -6882.012710811224, -22723.02928245417, 10161.818285205161, -21072.822341063304, -24818.14769722792, -13894.917237152726, -5585.119794025397, -9287.17217292454, -15072.809466458497, -0.1861875, 0.7827500000000001, 0.5248125, 192.0, 0.0, 0.0, 0.0, 0.0, 0.0, 0.0, 0.0, 0.0, 0.0, 1.6730444805469809E9, 0.0, 2023-01-06 17:34:40.546
104.0, -21056.952602500034, -26950.995856642232, -32076.40732245533, -21187.91147326368, -7580.616483761845, -5616.412236262827, -17901.378023788693, -6953.247720390287, -22677.901110398903, 10204.286599670244, -21031.605724287718, -24793.359612626984, -13864.138885037766, -5552.709764565202, -9253.756314963855, -15042.679314932742, -0.1861875, 0.7827500000000001, 0.5248125, 192.0, 0.0, 0.0, 0.0, 0.0, 0.0, 0.0, 0.0, 0.0, 0.0, 1.673044480546986E9, 0.0, 2023-01-06 17:34:40.546
106.0, -21075.750419586948, -26965.47978704927, -32083.693991147757, -21194.63934834473, -7608.422053864248, -5615.451111251248, -17860.899014580133, -6911.360551281042, -22712.92629396037, 10167.428573063442, -21069.84955905075, -24805.943644755323, -13884.41191725873, -5596.832108119978, -9285.495792090393, -15100.726795283175, -0.19709375, 0.7973750000000001, 0.52640625, 192.0, 124.5, 64.0, 12.5, 48.0, 8.0, 64.0, 0.0, 0.0, 0.0, 1.6730444805469909E9, 0.0, 2023-01-06 17:34:40.546
108.0, -21082.143018501167, -26970.41952257389, -32104.34700302446, -21210.598493885816, -7591.144155400295, -5620.63671596488, -17872.67838390808, -6902.710426176838, -22705.77373573467, 10166.243930607312, -21059.83597753477, -24815.621950104472, -13877.237007288577, -5580.24711373414, -9255.477399286914, -15057.677335462253, -0.19709375, 0.7973750000000001, 0.52640625, 192.0, 0.0, 0.0, 0.0, 0.0, 0.0, 0.0, 0.0, 0.0, 0.0, 1.6730444805469973E9, 0.0, 2023-01-06 17:34:40.546
110.0, -21086.68042262559, -26971.380647585473, -32101.843607645467, -21211.224342730566, -7614.859356267376, -5617.887451396877, -17869.705601895526, -6932.840577702592, -22734.562782593108, 10159.225482848346, -21089.630852893693, -24816.024281504666, -13925.695589267683, -5616.322829285005, -9295.26350441736, -15091.786097501052, -0.19709375, 0.7973750000000001, 0.52640625, 192.0, 0.0, 0.0, 0.0, 0.0, 0.0, 0.0, 0.0, 0.0, 0.0, 1.6730444805470023E9, 0.0, 2023-01-06 17:34:40.547
112.0, -21079.349050444252, -26960.785920713657, -32100.9271861228, -21208.653892118204, -7613.026513222041, -5593.456994707227, -17907.770622702912, -6936.238042859798, -22718.827154496572, 10171.809514976683, -21069.670745095103, -24835.693816625335, -13879.427478245198, -5594.284009252073, -9287.775670024834, -15062.348850053413, -0.19709375, 0.7973750000000001, 0.52640625, 192.0, 0.0, 0.0, 0.0, 0.0, 0.0, 0.0, 0.0, 0.0, 0.0, 1.6730444805470076E9, 0.0, 2023-01-06 17:34:40.547
114.0, -21096.246969252465, -26972.654697019425, -32112.84066591748, -21215.940560810635, -7617.630972579834, -5618.4238932638045, -17889.531599227383, -6979.868648036558, -22743.145852463946, 10162.600596261096, -21089.519094171417, -24818.214752461285, -13927.819004990937, -5605.035198335076, -9319.738664595921, -15077.928015938762, -0.19709375, 0.7973750000000001, 0.52640625, 192.0, 0.0, 0.0, 0.0, 0.0, 0.0, 0.0, 0.0, 0.0, 0.0, 1.6730444805470126E9, 0.0, 2023-01-06 17:34:40.547
116.0, -21096.269320996922, -26970.53128129617, -32102.581215212493, -21220.790889357435, -7649.817484595476, -5622.402503776849, -17892.437326006573, -6963.842447262103, -22733.020512225692, 10166.690965496418, -21079.661974866627, -24843.092244040043, -13871.73847815257, -5584.896276580844, -9287.932132236021, -15061.812408186486, -0.19709375, 0.7973750000000001, 0.52640625, 192.0, 0.0, 0.0, 0.0, 0.0, 0.0, 0.0, 0.0, 0.0, 0.0, 1.6730444805470176E9, 0.0, 2023-01-06 17:34:40.547
118.0, -21114.530696216905, -26986.49042683726, -32112.55009323956, -21235.945372098133, -7604.689312540211, -5611.427797249294, -17905.334282557284, -6989.211677218876, -22752.913564790913, 10138.997154116292, -21100.51615244343, -24831.7599096012, -13926.746121257082, -5673.431536368315, -9317.436434917026, -15093.395423101834, -0.244, 0.8140000000000001, 0.532, 192.0, 124.0, 48.0, 12.5, 56.0, 8.0, 80.0, 0.0, 0.0, 0.0, 1.673044480547024E9, 0.0, 2023-01-06 17:34:40.547
120.0, -21103.93596934509, -26971.00066792973, -32098.289680277074, -21212.990130542534, -7625.36467616137, -5645.961242432742, -17895.745384185957, -6988.675235351949, -22724.280980143667, 10156.744439213806, -21084.40054469115, -24851.943534844344, -13905.80253670246, -5618.714465941724, -9296.984588740419, -15071.110733879894, -0.244, 0.8140000000000001, 0.532, 192.0, 0.0, 0.0, 0.0, 0.0, 0.0, 0.0, 0.0, 0.0, 0.0, 1.6730444805470293E9, 0.0, 2023-01-06 17:34:40.547
122.0, -21123.158469576654, -26989.01617396071, -32107.811523415035, -21229.999808073022, -7622.593059848912, -5657.137114660396, -17923.79682347737, -7019.475939211362, -22746.990352510256, 10147.110837353568, -21099.398565220665, -24822.48393565225, -13908.283580336998, -5620.860233409433, -9317.347027939204, -15098.13399292636, -0.244, 0.8140000000000001, 0.532, 192.0, 0.0, 0.0, 0.0, 0.0, 0.0, 0.0, 0.0, 0.0, 0.0, 1.6730444805470343E9, 0.0, 2023-01-06 17:34:40.547
124.0, -21105.2323705235, -26971.04537141864, -32095.942747109268, -21213.884200320746, -7605.046940451496, -5636.081771383497, -17898.6734627096, -7045.381611035063, -22739.010779739714, 10146.328526297633, -21084.780524346894, -24846.98144757527, -13905.936647169192, -5608.902050125844, -9309.546269124303, -15083.493600308133, -0.244, 0.8140000000000001, 0.532, 192.0, 0.0, 0.0, 0.0, 0.0, 0.0, 0.0, 0.0, 0.0, 0.0, 1.6730444805470393E9, 0.0, 2023-01-06 17:34:40.547
126.0, -21116.587056706794, -26979.203758144828, -32111.253692061153, -21232.547906940927, -7612.959457988675, -5647.25764361115, -17913.425614050106, -7041.403000522018, -22741.514175118707, 10139.801816916683, -21090.74844011646, -24812.67151983637, -13900.572228499917, -5645.693021499279, -9323.113778008674, -15107.387615130856, -0.244, 0.8140000000000001, 0.532, 192.0, 0.0, 0.0, 0.0, 0.0, 0.0, 0.0, 0.0, 0.0, 0.0, 1.6730444805470445E9, 0.0, 2023-01-06 17:34:40.547
128.0, -21093.542408173373, -26960.405941057914, -32087.806712127534, -21207.804525828902, -7626.392856406314, -5626.805797434545, -17921.673407754115, -6998.6664651234705, -22740.10601521802, 10133.252755791278, -21080.488989411475, -24845.14860452993, -13888.390527771775, -5617.529823485592, -9306.685245834024, -15073.211797858692, -0.252, 0.804, 0.53, 192.0, 124.0, 16.0, 12.5, 16.0, 8.0, 72.0, 0.0, 0.0, 0.0, 1.6730444805470493E9, 0.0, 2023-01-06 17:34:40.547
130.0, -21117.79405090738, -26985.506950081224, -32126.40817480185, -21245.02018034699, -7651.426810196258, -5637.489931284182, -17987.387536452716, -7060.178465864476, -22726.98554122276, 10143.802779174182, -21078.87966381069, -24812.068022736075, -13886.155353326245, -5620.793178176067, -9315.804757571788, -15084.834704975452, -0.252, 0.804, 0.53, 192.0, 0.0, 0.0, 0.0, 0.0, 0.0, 0.0, 0.0, 0.0, 0.0, 1.6730444805470543E9, 0.0, 2023-01-06 17:34:40.547
132.0, -21106.70758565755, -26975.023981931685, -32108.482075748692, -21228.703406894616, -7619.1061877138845, -5608.63382919238, -17858.239156989952, -7022.359314246097, -22745.44808214284, 10115.036084060202, -21102.013719321934, -24864.929898372877, -13900.974559900113, -5661.7862775071, -9321.03506577433, -15098.513972582099, -0.252, 0.804, 0.53, 192.0, 0.0, 0.0, 0.0, 0.0, 0.0, 0.0, 0.0, 0.0, 0.0, 1.6730444805470593E9, 0.0, 2023-01-06 17:34:40.547
134.0, -21115.000082850467, -26980.43310408987, -32119.725003209714, -21237.130014554266, -7638.641612367823, -5669.497629344181, -17965.572233864335, -7052.333003560663, -22721.151735919924, 10142.349915784587, -21086.300442969852, -24819.734671084247, -13892.0785656069, -5629.219785835718, -9287.641559558102, -15070.015498401583, -0.252, 0.804, 0.53, 192.0, 0.0, 0.0, 0.0, 0.0, 0.0, 0.0, 0.0, 0.0, 0.0, 1.673044480547064E9, 0.0, 2023-01-06 17:34:40.547
136.0, -21098.41508846463, -26965.30097309363, -32109.55495948255, -21223.67426439217, -7580.705890739667, -5637.042896395075, -17893.01847136241, -7031.076494583666, -22732.081738958568, 10139.15361632748, -21094.861161096236, -24851.317685999595, -13896.906542409248, -5597.435605220271, -9317.7493593394, -15091.719042267687, -0.252, 0.804, 0.53, 192.0, 0.0, 0.0, 0.0, 0.0, 0.0, 0.0, 0.0, 0.0, 0.0, 1.6730444805470693E9, 0.0, 2023-01-06 17:34:40.547
138.0, -21114.84362063928, -26980.790732001155, -32134.16423012784, -21247.8141484039, -7600.55423981598, -5664.580245564013, -17911.68217798259, -7045.940404646445, -22731.411186624908, 10133.923308124937, -21098.124515786712, -24834.19624974683, -13899.231123832598, -5646.587091277492, -9308.495737134903, -15092.993091701639, -0.242, 0.802, 0.516, 192.0, 124.0, 56.0, 12.5, 8.0, 8.0, 16.0, 0.0, 0.0, 0.0, 1.6730444805470743E9, 0.0, 2023-01-06 17:34:40.547
140.0, -21094.50353318495, -26958.57309801258, -32102.715325679223, -21210.397328185718, -7632.897214042809, -5628.370419546416, -17898.002910375944, -7027.72373291537, -22729.01954996819, 10124.043837075691, -21094.816457607325, -24853.798729634134, -13902.941513412181, -5654.186684392296, -9309.389806913116, -15094.781231258063, -0.242, 0.802, 0.516, 192.0, 0.0, 0.0, 0.0, 0.0, 0.0, 0.0, 0.0, 0.0, 0.0, 1.6730444805470805E9, 0.0, 2023-01-06 17:34:40.547
142.0, -21098.79506812037, -26959.400112557425, -32122.295453822073, -21220.0085783015, -7625.834062794932, -5614.177061817296, -17930.077663669308, -7047.460323269406, -22715.764965506194, 10151.849407178093, -21078.589091132773, -24817.72301408327, -13871.93964385267, -5606.86804138041, -9299.59974284169, -15065.343983810424, -0.242, 0.802, 0.516, 192.0, 0.0, 0.0, 0.0, 0.0, 0.0, 0.0, 0.0, 0.0, 0.0, 1.6730444805470853E9, 0.0, 2023-01-06 17:34:40.547
144.0, -21093.49770468446, -26951.979333398263, -32111.253692061153, -21198.550903624404, -7610.500766098591, -5615.227593806696, -17894.53838998537, -7031.4788259838615, -22734.719244804295, 10135.510281981264, -21093.162428517633, -24837.549011415125, -13886.378870770797, -5620.256736309139, -9314.575411626747, -15074.821123459475, -0.242, 0.802, 0.516, 192.0, 0.0, 0.0, 0.0, 0.0, 0.0, 0.0, 0.0, 0.0, 0.0, 1.6730444805470903E9, 0.0, 2023-01-06 17:34:40.547
146.0, -21095.218789007522, -26958.57309801258, -32112.058354861543, -21219.740357368035, -7623.151853460295, -5635.612384749936, -17916.241933851474, -7045.716887201892, -22712.16633464889, 10146.216767575355, -21070.363649173218, -24818.550028628117, -13889.910446394737, -5598.262619765118, -9290.390824126103, -15050.770646425564, -0.242, 0.802, 0.516, 192.0, 0.0, 0.0, 0.0, 0.0, 0.0, 0.0, 0.0, 0.0, 0.0, 1.6730444805470953E9, 0.0, 2023-01-06 17:34:40.547
148.0, -21093.0283180509, -26959.62363000198, -32108.102096092953, -21217.840459089337, -7562.243349819583, -5588.718424882702, -17920.578172275804, -7037.1114655865995, -22731.232372669267, 10121.67455216343, -21089.720259871516, -24836.811403848104, -13943.755798787572, -5642.11674238643, -9316.98940002792, -15089.349757355423, -0.24, 0.808, 0.51, 192.0, 124.0, 64.0, 12.5, 32.0, 7.5, 120.0, 0.0, 0.0, 0.0, 1.6730444805471003E9, 0.0, 2023-01-06 17:34:40.547
150.0, -21105.053556567855, -26974.085208664565, -32112.63950021738, -21226.468232449082, -7683.099232089428, -5666.368385120438, -17940.582983563305, -7092.119108691109, -22707.897151457924, 10136.873738393038, -21070.0730764953, -24830.575267145072, -13883.115516080323, -5610.354913515439, -9313.435472659525, -15076.050469404516, -0.24, 0.808, 0.51, 192.0, 0.0, 0.0, 0.0, 0.0, 0.0, 0.0, 0.0, 0.0, 0.0, 1.6730444805471053E9, 0.0, 2023-01-06 17:34:40.547
152.0, -21102.840733866782, -26972.85586271952, -32102.424753001305, -21219.002749801013, -7633.165434976272, -5661.4510013402705, -17902.58501798928, -7053.1376663610545, -22726.82907901157, 10109.85047934657, -21092.46952443952, -24838.688950382348, -13903.61206574584, -5641.133265630397, -9321.213879729972, -15098.93865572675, -0.24, 0.808, 0.51, 192.0, 0.0, 0.0, 0.0, 0.0, 0.0, 0.0, 0.0, 0.0, 0.0, 1.67304448054711E9, 0.0, 2023-01-06 17:34:40.547
154.0, -21106.46171646854, -26972.43117957487, -32108.236206559686, -21221.327331224362, -7641.301469958004, -5655.751306504168, -17922.813346721334, -7058.815009452702, -22723.610427810007, 10128.491834222297, -21075.057515508834, -24838.197212004332, -13886.289463792977, -5664.334376375005, -9286.993358968897, -15072.340079824935, -0.24, 0.808, 0.51, 192.0, 0.0, 0.0, 0.0, 0.0, 0.0, 0.0, 0.0, 0.0, 0.0, 1.673044480547115E9, 0.0, 2023-01-06 17:34:40.547
156.0, -21110.239161281486, -26973.794635986644, -32102.044773345566, -21209.212685729588, -7638.552205390001, -5679.891190515899, -17909.290541325874, -7083.625445798093, -22730.472413357784, 10121.562793441153, -21091.106068027744, -24825.456717664805, -13875.068888076412, -5653.359669847449, -9316.27414420535, -15092.724870768176, -0.24, 0.808, 0.51, 192.0, 0.0, 0.0, 0.0, 0.0, 0.0, 0.0, 0.0, 0.0, 0.0, 1.67304448054712E9, 0.0, 2023-01-06 17:34:40.547
158.0, -21102.728975144502, -26965.837414960555, -32100.234282044687, -21206.239903717033, -7622.526004615546, -5640.4403615522815, -17913.73853847248, -7068.962701435412, -22720.905866730915, 10141.679363450929, -21075.1245707422, -24835.58205790306, -13892.771469685016, -5608.834994892478, -9298.54921085229, -15072.965928669684, -0.24, 0.8160000000000001, 0.512, 192.0, 124.0, 64.0, 12.5, 64.0, 8.0, 0.0, 0.0, 0.0, 0.0, 1.673044480547125E9, 0.0, 2023-01-06 17:34:40.547
160.0, -21105.567646690328, -26967.7149614948, -32099.094343077464, -21199.690842591626, -7610.79133877651, -5634.226576593706, -17919.773509475413, -7083.893666731557, -22743.12350071949, 10123.574450442131, -21093.788277362382, -24820.71814784028, -13939.598374318884, -5649.336355845494, -9321.571507641258, -15095.541190569544, -0.24, 0.8160000000000001, 0.512, 192.0, 0.0, 0.0, 0.0, 0.0, 0.0, 0.0, 0.0, 0.0, 0.0, 1.67304448054713E9, 0.0, 2023-01-06 17:34:40.547
162.0, -21078.007945776935, -26942.345731538026, -32070.282944474573, -21176.869711502757, -7628.471568640658, -5641.870873197422, -17923.662713010635, -7085.0112539543225, -22697.749459475217, 10148.943680398903, -21044.279163393876, -24814.794935559625, -13887.809382415937, -5589.3666254719055, -9286.591027568702, -15048.937803380228, -0.24, 0.8160000000000001, 0.512, 192.0, 0.0, 0.0, 0.0, 0.0, 0.0, 0.0, 0.0, 0.0, 0.0, 1.673044480547135E9, 0.0, 2023-01-06 17:34:40.547
164.0, -21107.959283347045, -26972.654697019425, -32101.44127624527, -21203.512990893483, -7647.6940688722225, -5642.094390641974, -17946.41678886614, -7119.052960759755, -22714.669730027883, 10129.944697611892, -21068.441399150062, -24803.507304609695, -13877.773449155504, -5634.539501016081, -9316.408254672082, -15082.17484738527, -0.24, 0.8160000000000001, 0.512, 192.0, 0.0, 0.0, 0.0, 0.0, 0.0, 0.0, 0.0, 0.0, 0.0, 1.6730444805471408E9, 0.0, 2023-01-06 17:34:40.547
0.0, -10773.093792568898, -13534.54006129981, -16237.223593857718, -10860.220892455685, -4049.1079150566957, -3199.942791455125, -9231.24810829736, -4326.537767235967, -11355.602604818656, 5073.689529143516, -10532.052580362866, -12391.0248149663, -6940.75309523977, -2805.322743096679, -4643.77607629014, -7531.867329104821, -0.26, 0.834, 0.47600000000000003, 192.0, 123.5, 112.0, 13.0, 8.0, 7.0, 112.0, 0.0, 0.0, 0.0, 1.67304448063382E9, 0.0, 2023-01-06 17:34:40.633
2.0, -21543.63948626989, -27063.49218648579, -32474.201318526426, -21720.06180525563, -8057.423896482456, -6371.565922685376, -18453.399056601414, -8633.115426673345, -23102.38308934964, 9306.305266178282, -21134.51315575995, -25107.222808268405, -13972.85777006838, -6071.314939417236, -9816.170908948292, -15923.606267405305, -0.26, 0.834, 0.47600000000000003, 192.0, 0.0, 0.0, 0.0, 0.0, 0.0, 0.0, 0.0, 0.0, 0.0, 1.6730444811140206E9, 0.0, 2023-01-06 17:34:41.114
4.0, -21543.773596736624, -27060.564107962145, -32471.317943491693, -21718.474831399304, -8082.5919607391315, -6354.086858521326, -18463.457341606303, -8620.330228844909, -23099.455010825994, 9319.202222728994, -21137.195365094587, -25058.227784422375, -13992.259084255587, -6088.615189625644, -9817.444958382244, -15916.990151046533, -0.26, 0.834, 0.47600000000000003, 192.0, 0.0, 0.0, 0.0, 0.0, 0.0, 0.0, 0.0, 0.0, 0.0, 1.6730444811140733E9, 0.0, 2023-01-06 17:34:41.114
6.0, -21543.41596882534, -27062.374599263025, -32476.79412088324, -21718.58659012158, -8085.005949140304, -6380.104289067303, -18462.65267880591, -8628.0862841709, -23094.135295645632, 9312.206126714484, -21131.965056892044, -25095.890473829568, -13979.987976549624, -6079.920361032529, -9815.545060103543, -15901.992130517023, -0.26, 0.834, 0.47600000000000003, 192.0, 0.0, 0.0, 0.0, 0.0, 0.0, 0.0, 0.0, 0.0, 0.0, 1.6730444811141036E9, 0.0, 2023-01-06 17:34:41.114
8.0, -21552.535480563103, -27071.069427856142, -32498.676478704987, -21740.021913054217, -8071.706661189397, -6387.413309504189, -18482.076344737572, -8671.158095736277, -23106.361699862686, 9311.446167403003, -21145.75608322097, -25061.491139112848, -13997.757613391592, -6091.990303038395, -9837.539176647566, -15917.392482446729, -0.256, 0.836, 0.454, 192.0, 124.0, 0.0, 13.0, 16.0, 7.0, 24.0, 0.0, 0.0, 0.0, 1.673044481114164E9, 0.0, 2023-01-06 17:34:41.114
10.0, -21528.283837829094, -27048.695331656378, -32478.38109473957, -21712.082232485085, -8075.595864724621, -6365.352137726801, -18463.636155561944, -8608.863783939336, -23095.386993335127, 9300.40440564208, -21137.08360637231, -25099.10912503113, -14003.479659972152, -6073.2818929293035, -9836.578051635988, -15907.96004628659, -0.256, 0.836, 0.454, 192.0, 0.0, 0.0, 0.0, 0.0, 0.0, 0.0, 0.0, 0.0, 0.0, 1.673044481114172E9, 0.0, 2023-01-06 17:34:41.114
12.0, -21545.986419437697, -27066.286154542704, -32487.72412392189, -21725.78385183619, -8092.538487021743, -6390.140222327736, -18494.481562910267, -8622.297182356975, -23093.755315989893, 9318.755187839888, -21134.55785924886, -25045.509641827302, -14007.190049551733, -6072.67839582901, -9837.740342347663, -15907.513011397483, -0.256, 0.836, 0.454, 192.0, 0.0, 0.0, 0.0, 0.0, 0.0, 0.0, 0.0, 0.0, 0.0, 1.6730444811141791E9, 0.0, 2023-01-06 17:34:41.114
14.0, -21557.9893062102, -27082.491169272802, -32488.10410357763, -21729.047206526662, -8082.211981083391, -6386.9662746150825, -18514.128746286482, -8620.821967222926, -23101.131391660143, 9301.074957975741, -21138.71528371755, -25092.33654646117, -14003.479659972152, -6087.452898913968, -9836.689810358264, -15914.419700434173, -0.256, 0.836, 0.454, 192.0, 0.0, 0.0, 0.0, 0.0, 0.0, 0.0, 0.0, 0.0, 0.0, 1.6730444811141872E9, 0.0, 2023-01-06 17:34:41.114
16.0, -21558.279878888115, -27083.429942539926, -32502.655089218035, -21735.909192074443, -8082.949588650416, -6396.108138097303, -18507.870257838997, -8634.14360691829, -23113.223685410463, 9302.907801021076, -21152.439254813107, -25067.503758371327, -14005.848944884414, -6096.773576351831, -9860.025031569605, -15944.795721148936, -0.256, 0.836, 0.454, 192.0, 0.0, 0.0, 0.0, 0.0, 0.0, 0.0, 0.0, 0.0, 0.0, 1.6730444811141944E9, 0.0, 2023-01-06 17:34:41.114
18.0, -21556.692905031792, -27084.055791384675, -32495.05549610323, -21733.852831584554, -8089.275132331269, -6393.180059573658, -18490.86058030851, -8614.116443886334, -23104.215932394975, 9302.416062643058, -21138.603524995273, -25091.97891854989, -13986.782906864037, -6093.689035616999, -9848.178607008293, -15934.066883810388, -0.258, 0.84, 0.448, 192.0, 123.5, 120.0, 13.0, 32.0, 7.0, 0.0, 0.0, 0.0, 0.0, 1.6730444811142027E9, 0.0, 2023-01-06 17:34:41.114
20.0, -21564.583070824512, -27090.180169365427, -32510.880531177587, -21752.82946262711, -8093.946646922428, -6413.207222605613, -18532.5242319732, -8641.787903522003, -23112.843705754723, 9296.179925940029, -21151.701647246082, -25080.803046322235, -14001.445651226719, -6115.124358549638, -9854.012412311127, -15949.467235740094, -0.258, 0.84, 0.448, 192.0, 0.0, 0.0, 0.0, 0.0, 0.0, 0.0, 0.0, 0.0, 0.0, 1.6730444811142108E9, 0.0, 2023-01-06 17:34:41.114
22.0, -21570.17100693834, -27098.226797369338, -32513.13805736757, -21752.650648671468, -8079.21684732638, -6410.949696415627, -18500.94121705785, -8621.827795723415, -23117.604627323704, 9284.221742656438, -21157.066065915355, -25114.35301474965, -14012.263895543087, -6106.317771234247, -9858.750982135653, -15948.72962817307, -0.258, 0.84, 0.448, 192.0, 0.0, 0.0, 0.0, 0.0, 0.0, 0.0, 0.0, 0.0, 0.0, 1.6730444811142185E9, 0.0, 2023-01-06 17:34:41.114
24.0, -21556.7376085207, -27080.188939593907, -32503.929138651987, -21749.45434921436, -8068.845637899118, -6399.684417210152, -18516.98976957676, -8655.33306066192, -23115.48121160045, 9278.320882120239, -21154.495615302996, -25093.320023217206, -14021.472814258674, -6119.371189996146, -9854.526502433599, -15941.018276335988, -0.258, 0.84, 0.448, 192.0, 0.0, 0.0, 0.0, 0.0, 0.0, 0.0, 0.0, 0.0, 0.0, 1.673044481114226E9, 0.0, 2023-01-06 17:34:41.114
26.0, -21568.226405170728, -27089.88959668751, -32490.831016401175, -21742.63706715549, -8080.803821182707, -6377.667948921675, -18504.00340604823, -8646.90645300227, -23112.70959528799, 9294.056510216775, -21142.0903971303, -25093.25296798384, -13997.802316880503, -6107.547117179289, -9838.299135959047, -15937.620811178782, -0.258, 0.84, 0.448, 192.0, 0.0, 0.0, 0.0, 0.0, 0.0, 0.0, 0.0, 0.0, 0.0, 1.6730444811142335E9, 0.0, 2023-01-06 17:34:41.114
28.0, -21568.539329593103, -27086.64859374149, -32502.990365384863, -21740.848927599065, -8084.603617740109, -6403.014827133993, -18536.324028530602, -8635.574118563429, -23125.070109971777, 9288.826202014232, -21151.813405968358, -25086.927424302987, -13987.520514431062, -6113.895012604597, -9842.322449961, -15921.95223831561, -0.266, 0.8260000000000001, 0.428, 192.0, 123.5, 88.0, 12.5, 104.0, 6.5, 48.0, 0.0, 0.0, 0.0, 1.673044481114241E9, 0.0, 2023-01-06 17:34:41.114
30.0, -21576.921233763842, -27098.98675668082, -32509.807647443733, -21745.386331723494, -8086.190591596436, -6406.948734158127, -18520.47664171179, -8645.341830890398, -23129.20518269601, 9284.579370567724, -21159.927089205634, -25096.359860463126, -14001.423299482263, -6087.2517332138705, -9855.33116523399, -15922.980418560555, -0.266, 0.8260000000000001, 0.428, 192.0, 0.0, 0.0, 0.0, 0.0, 0.0, 0.0, 0.0, 0.0, 0.0, 1.6730444811142488E9, 0.0, 2023-01-06 17:34:41.114
32.0, -21562.772579523633, -27081.306526816672, -32515.10501087964, -21753.07533181612, -8087.978731152861, -6409.943867915138, -18539.63208670999, -8626.65577252576, -23129.071072229275, 9282.12067867764, -21167.414923598164, -25109.234465269383, -14009.425223997263, -6086.447070413479, -9859.71210714723, -15934.156290788209, -0.266, 0.8260000000000001, 0.428, 192.0, 0.0, 0.0, 0.0, 0.0, 0.0, 0.0, 0.0, 0.0, 0.0, 1.673044481114257E9, 0.0, 2023-01-06 17:34:41.114
34.0, -21545.852308970967, -27066.509671987256, -32494.5190542363, -21752.471834715823, -8073.584207723643, -6373.622283175264, -18518.66615041091, -8615.256382853555, -23096.52693230235, 9313.815452315266, -21137.485937772508, -25076.95854627592, -13997.57879943595, -6067.157514948549, -9841.696601116253, -15911.983360288545, -0.266, 0.8260000000000001, 0.428, 192.0, 0.0, 0.0, 0.0, 0.0, 0.0, 0.0, 0.0, 0.0, 0.0, 1.6730444811142647E9, 0.0, 2023-01-06 17:34:41.114
36.0, -21570.59569008299, -27091.7447914773, -32519.39654581506, -21804.573751041145, -8081.139097349536, -6430.060437924914, -18544.817691423617, -8639.865653498848, -23114.05069995531, 9281.651292044078, -21151.589888523806, -25101.768982621314, -13995.455383712697, -6107.882393346119, -9844.647031384353, -15939.386598990752, -0.266, 0.8260000000000001, 0.428, 192.0, 0.0, 0.0, 0.0, 0.0, 0.0, 0.0, 0.0, 0.0, 0.0, 1.6730444811142724E9, 0.0, 2023-01-06 17:34:41.114
38.0, -21569.612213326956, -27090.135465876516, -32513.093353878663, -21807.50182956479, -8084.715376462385, -6441.012792708015, -18553.668982227922, -8641.318516888443, -23140.515165390392, 9263.993413924387, -21169.650098043694, -25102.372479721605, -13999.881029114847, -6146.506207764889, -9869.256302029646, -15970.813151694912, -0.298, 0.8180000000000001, 0.39, 192.0, 123.0, 88.0, 12.5, 72.0, 6.0, 24.0, 0.0, 0.0, 0.0, 1.6730444811142805E9, 0.0, 2023-01-06 17:34:41.114
40.0, -21576.541254108102, -27091.78949496621, -32512.065173633717, -21808.88763772102, -8116.432501844467, -6467.141981976269, -18576.803037739162, -8657.054144984979, -23145.141976492643, 9258.271367343828, -21166.744371264504, -25115.20238103895, -13998.24935176961, -6144.986289141928, -9872.162028808836, -15974.724706974592, -0.298, 0.8180000000000001, 0.39, 192.0, 0.0, 0.0, 0.0, 0.0, 0.0, 0.0, 0.0, 0.0, 0.0, 1.673044481114286E9, 0.0, 2023-01-06 17:34:41.114
42.0, -21593.19330372731, -27106.675756773446, -32505.650222975044, -21811.45808833338, -8116.32074312219, -6490.320740976423, -18587.710689033353, -8661.613900853861, -23161.48110168947, 9270.40836458306, -21172.17584516714, -25087.553273147736, -13999.523401203562, -6134.749190181397, -9877.213523055736, -15979.329166332385, -0.298, 0.8180000000000001, 0.39, 192.0, 0.0, 0.0, 0.0, 0.0, 0.0, 0.0, 0.0, 0.0, 0.0, 1.6730444811142914E9, 0.0, 2023-01-06 17:34:41.114
44.0, -21597.909521807378, -27112.196637653906, -32525.96795868492, -21813.55915231218, -8119.0476559457375, -6487.258551986045, -18596.897256004486, -8682.445726686206, -23184.749267667445, 9254.203349852962, -21194.19231345562, -25121.77379390881, -14028.021875384078, -6122.768655153353, -9894.469069775232, -15991.756736249536, -0.298, 0.8180000000000001, 0.39, 192.0, 0.0, 0.0, 0.0, 0.0, 0.0, 0.0, 0.0, 0.0, 0.0, 1.673044481114297E9, 0.0, 2023-01-06 17:34:41.114
46.0, -21601.910484064876, -27117.628111556543, -32538.328473368703, -21808.865285976564, -8132.70457180793, -6480.597732138363, -18616.656198102977, -8699.857735616892, -23192.7735439269, 9264.865131958144, -21200.450801903105, -25080.378363177584, -14045.63505001486, -6143.220501329959, -9910.271753105135, -15993.790744994969, -0.298, 0.8180000000000001, 0.39, 192.0, 0.0, 0.0, 0.0, 0.0, 0.0, 0.0, 0.0, 0.0, 0.0, 1.6730444811143024E9, 0.0, 2023-01-06 17:34:41.114
48.0, -21613.55574292609, -27128.826335528654, -32559.808499790255, -21823.192754172418, -8171.104868782148, -6485.336301962889, -18637.800948357697, -8727.283326063553, -23201.893055664666, 9248.481303272403, -21215.359415454797, -25111.402584481548, -14032.045189386034, -6147.020297887361, -9922.20758464427, -15998.037576441477, -0.33, 0.856, 0.362, 192.0, 122.5, 88.0, 13.0, 96.0, 5.5, 40.0, 0.0, 0.0, 0.0, 1.673044481114308E9, 0.0, 2023-01-06 17:34:41.114
50.0, -21604.369175954962, -27124.89242850452, -32560.903735268563, -21823.885658250532, -8148.976641771394, -6486.118613018824, -18635.252849489792, -8694.001578569601, -23208.151544112152, 9263.278158101817, -21225.86473534879, -25072.644659596048, -14049.97128843919, -6172.344824355224, -9935.05983770607, -15999.132811919788, -0.33, 0.856, 0.362, 192.0, 0.0, 0.0, 0.0, 0.0, 0.0, 0.0, 0.0, 0.0, 0.0, 1.6730444811143134E9, 0.0, 2023-01-06 17:34:41.114
52.0, -21619.188382528828, -27143.913763035987, -32581.802616334277, -21858.687324367445, -8178.324482241212, -6505.0058370835595, -18639.4996809363, -8706.67501767576, -23202.58595974278, 9252.526969018814, -21230.424491217673, -25110.374404236605, -14077.486285863673, -6187.007568717906, -9944.358163399478, -16001.412689854229, -0.33, 0.856, 0.362, 192.0, 0.0, 0.0, 0.0, 0.0, 0.0, 0.0, 0.0, 0.0, 0.0, 1.6730444811143188E9, 0.0, 2023-01-06 17:34:41.114
54.0, -21616.23795226073, -27144.27139094727, -32580.863843067153, -21868.00800180531, -8195.37886326061, -6507.844508629383, -18669.49572199532, -8707.054997331501, -23210.8784569357, 9244.614451481635, -21241.73447391206, -25090.995441793853, -14083.185980699776, -6195.992969988939, -9945.721619811251, -16020.523431363516, -0.33, 0.856, 0.362, 192.0, 0.0, 0.0, 0.0, 0.0, 0.0, 0.0, 0.0, 0.0, 0.0, 1.6730444811143243E9, 0.0, 2023-01-06 17:34:41.114
56.0, -21632.912353624386, -27165.594955157634, -32607.283605013326, -21888.415144493003, -8183.487735210388, -6528.676334461729, -18672.334393541147, -8724.087026606445, -23211.705471480545, 9226.040151839275, -21247.21065130361, -25139.11874760613, -14085.354099911941, -6194.94243799954, -9960.272605451657, -16032.280448947007, -0.33, 0.856, 0.362, 192.0, 0.0, 0.0, 0.0, 0.0, 0.0, 0.0, 0.0, 0.0, 0.0, 1.67304448111433E9, 0.0, 2023-01-06 17:34:41.114
58.0, -21645.85401366401, -27179.922423353484, -32625.813201166777, -21910.319854059202, -8202.218497063936, -6528.989258884104, -18691.46748679489, -8734.949974411724, -23232.537297312894, 9205.029512051286, -21271.216424848608, -25117.906942118043, -14119.619324161928, -6216.064836509805, -9988.793431376629, -16057.649678903781, -0.326, 0.859, 0.356, 192.0, 122.5, 120.0, 13.0, 120.0, 5.0, 120.0, 0.0, 0.0, 0.0, 1.6730444811143353E9, 0.0, 2023-01-06 17:34:41.114
60.0, -21657.834548692055, -27189.600728702633, -32627.578988978745, -21918.500592529846, -8206.755901188362, -6539.7627997115615, -18680.22455933387, -8748.383372829363, -23242.863803251246, 9191.663168867013, -21284.62747152179, -25157.35777108166, -14108.488155423183, -6229.699400627542, -9981.149134772913, -16068.646737175792, -0.326, 0.859, 0.356, 192.0, 0.0, 0.0, 0.0, 0.0, 0.0, 0.0, 0.0, 0.0, 0.0, 1.6730444811143408E9, 0.0, 2023-01-06 17:34:41.114
62.0, -21668.697496497334, -27194.808685160722, -32643.113451375182, -21922.792127465265, -8218.490567027398, -6572.977491972148, -18702.084565411158, -8779.899332511346, -23255.291373168395, 9193.406604934527, -21302.285349641486, -25135.341302793182, -14124.022617819623, -6253.57106370581, -9984.770117374674, -16083.823571660945, -0.326, 0.859, 0.356, 192.0, 0.0, 0.0, 0.0, 0.0, 0.0, 0.0, 0.0, 0.0, 0.0, 1.6730444811143465E9, 0.0, 2023-01-06 17:34:41.114
64.0, -21675.738296000756, -27203.168237587004, -32652.054149157306, -21920.311083830726, -8268.714936818473, -6591.752957314606, -18717.395510363043, -8785.241399436165, -23258.8900040257, 9186.030529264275, -21303.15706767524, -25162.141044395095, -14112.93615256979, -6236.941365831061, -9987.385271475945, -16087.980996129632, -0.326, 0.859, 0.356, 192.0, 0.0, 0.0, 0.0, 0.0, 0.0, 0.0, 0.0, 0.0, 0.0, 1.673044481114352E9, 0.0, 2023-01-06 17:34:41.114
66.0, -21668.786903475157, -27191.500626981335, -32657.12799514866, -21905.80480167923, -8265.071602472259, -6592.289399181534, -18724.346902888647, -8783.095631968456, -23269.708248342067, 9188.265703709807, -21311.002529979054, -25126.825288155713, -14156.65616472437, -6254.867464884218, -10009.781719420162, -16106.689406238725, -0.326, 0.859, 0.356, 192.0, 0.0, 0.0, 0.0, 0.0, 0.0, 0.0, 0.0, 0.0, 0.0, 1.6730444811143575E9, 0.0, 2023-01-06 17:34:41.114
68.0, -21686.757706017223, -27214.05353713674, -32664.526422563365, -21908.419955780504, -8268.44671588501, -6603.845251064927, -18712.254609138323, -8801.960504288734, -23263.114483727753, 9185.091755997153, -21302.55357057495, -25138.5823057392, -14134.952620858268, -6257.013232351927, -10002.98678910575, -16091.289054309018, -0.326, 0.8815, 0.34199999999999997, 192.0, 122.5, 104.0, 14.0, 32.0, 5.0, 32.0, 0.0, 0.0, 0.0, 1.673044481114364E9, 0.0, 2023-01-06 17:34:41.114
70.0, -21698.82764802309, -27223.933008185984, -32677.736303536454, -21915.125479117094, -8279.600236368207, -6583.818088032972, -18733.75698730433, -8805.156803745844, -23289.55659741838, 9158.895511495533, -21327.676931342714, -25133.44140451448, -14167.22853985173, -6300.286209617402, -10034.055713898626, -16107.114089383376, -0.326, 0.8815, 0.34199999999999997, 192.0, 0.0, 0.0, 0.0, 0.0, 0.0, 0.0, 0.0, 0.0, 0.0, 1.6730444811143708E9, 0.0, 2023-01-06 17:34:41.114
72.0, -21707.43306963838, -27229.520944299813, -32676.261088402403, -21905.82715342369, -8285.858724815695, -6611.131919757357, -18732.281772170278, -8821.294763242575, -23290.338908474318, 9171.121915712585, -21326.000550508565, -25140.482204017902, -14167.89909218539, -6259.203703308547, -10036.156777877424, -16097.815763689969, -0.326, 0.8815, 0.34199999999999997, 192.0, 0.0, 0.0, 0.0, 0.0, 0.0, 0.0, 0.0, 0.0, 0.0, 1.6730444811143763E9, 0.0, 2023-01-06 17:34:41.114
74.0, -21716.083194742587, -27240.562706060733, -32695.52829212288, -21940.315895118227, -8306.064701803292, -6628.0968937989355, -18760.489673672877, -8840.293746029585, -23304.152286547698, 9167.120953455085, -21335.678855857714, -25126.758232922344, -14196.196400665809, -6272.547694748366, -10041.834120969072, -16111.673845252259, -0.326, 0.8815, 0.34199999999999997, 192.0, 0.0, 0.0, 0.0, 0.0, 0.0, 0.0, 0.0, 0.0, 0.0, 1.673044481114382E9, 0.0, 2023-01-06 17:34:41.114
76.0, -21731.12591876101, -27260.142834203583, -32703.686678849066, -21974.156436223562, -8303.248382001922, -6641.485588727664, -18766.94932782046, -8874.313101090564, -23310.343719761815, 9146.534996811748, -21345.826547840425, -25156.284887347807, -14193.670653542358, -6309.003389954972, -10058.262653143724, -16142.228679922662, -0.326, 0.8815, 0.34199999999999997, 192.0, 0.0, 0.0, 0.0, 0.0, 0.0, 0.0, 0.0, 0.0, 0.0, 1.6730444811143875E9, 0.0, 2023-01-06 17:34:41.114
78.0, -21721.961703534333, -27248.67638929801, -32700.937414281063, -21983.007727027863, -8292.184268496547, -6624.632373408363, -18763.887138830083, -8862.936063162811, -23318.882086143745, 9141.438799075937, -21357.56121367946, -25162.69983800648, -14196.375214621452, -6335.758428067974, -10064.029403213191, -16162.05467725452, -0.325, 0.89175, 0.32499999999999996, 192.0, 122.5, 112.0, 14.0, 24.0, 4.5, 80.0, 0.0, 0.0, 0.0, 1.6730444811143928E9, 0.0, 2023-01-06 17:34:41.114
80.0, -21727.25906697024, -27251.939743988485, -32706.726516094986, -21982.7395060944, -8309.59627742723, -6648.928719631282, -18767.3293074762, -8883.387909339417, -23311.9530453626, 9147.630232290057, -21357.85178635738, -25154.69791349148, -14199.884438500934, -6324.180224440125, -10060.006089211236, -16161.026497009576, -0.325, 0.89175, 0.32499999999999996, 192.0, 0.0, 0.0, 0.0, 0.0, 0.0, 0.0, 0.0, 0.0, 0.0, 1.6730444811143985E9, 0.0, 2023-01-06 17:34:41.114
82.0, -21733.11522401753, -27252.25266841086, -32719.176437756592, -21986.069916018238, -8341.246347575945, -6674.074432143501, -18781.254444271857, -8904.823232272058, -23315.931655875644, 9145.707982266902, -21363.953812593678, -25160.732884494413, -14209.04865372761, -6335.132579223226, -10064.632900313485, -16163.90987204431, -0.325, 0.89175, 0.32499999999999996, 192.0, 0.0, 0.0, 0.0, 0.0, 0.0, 0.0, 0.0, 0.0, 0.0, 1.6730444811144037E9, 0.0, 2023-01-06 17:34:41.114
84.0, -21739.284305487196, -27253.616124822634, -32712.739135353466, -21974.737581579397, -8320.45922523251, -6639.764504404606, -18776.5829296807, -8904.353845638496, -23327.599266481313, 9129.637078003536, -21372.961565609166, -25163.616259529146, -14225.05250275761, -6342.77687582694, -10073.260673673234, -16166.68148835677, -0.325, 0.89175, 0.32499999999999996, 192.0, 0.0, 0.0, 0.0, 0.0, 0.0, 0.0, 0.0, 0.0, 0.0, 1.6730444811144092E9, 0.0, 2023-01-06 17:34:41.114
86.0, -21714.786793564177, -27223.553028530245, -32694.70127757803, -21946.373217865614, -8322.269716533388, -6630.108550799912, -18760.020287039315, -8893.222676899753, -23317.183353565142, 9149.284261379751, -21362.545652692992, -25169.83004448772, -14209.942723505823, -6307.81874749884, -10056.139237420468, -16142.38514213385, -0.325, 0.89175, 0.32499999999999996, 192.0, 0.0, 0.0, 0.0, 0.0, 0.0, 0.0, 0.0, 0.0, 0.0, 1.6730444811144147E9, 0.0, 2023-01-06 17:34:41.114
88.0, -21711.94812201835, -27223.418918063515, -32687.772236796885, -21937.946610205963, -8320.593335699241, -6633.617774679396, -18750.006705523338, -8909.450043374305, -23307.907379616187, 9167.880912766566, -21348.396998452783, -25138.425843528017, -14218.838717799035, -6301.224982884524, -10051.735943762773, -16135.299639141518, -0.3215, 0.899875, 0.3115, 192.0, 123.0, 8.0, 14.0, 48.0, 4.5, 40.0, 0.0, 0.0, 0.0, 1.6730444811144202E9, 0.0, 2023-01-06 17:34:41.114
90.0, -21706.851924282542, -27218.859162194633, -32689.359210653212, -21938.617162539624, -8312.770225139884, -6641.463236983209, -18747.36919967761, -8925.47624414876, -23296.172713777152, 9165.109296454108, -21336.66233261375, -25150.54048902279, -14189.222656395754, -6311.238564400503, -10039.733056990273, -16135.836081008445, -0.3215, 0.899875, 0.3115, 192.0, 0.0, 0.0, 0.0, 0.0, 0.0, 0.0, 0.0, 0.0, 0.0, 1.6730444811144257E9, 0.0, 2023-01-06 17:34:41.114
92.0, -21729.20366873785, -27240.76387176083, -32696.355306667723, -21946.77554926581, -8326.248327046434, -6657.2212168242, -18772.827836612207, -8935.892157064935, -23301.157152790685, 9172.775944802279, -21337.154070991764, -25106.82047686821, -14198.342168133518, -6304.600096297276, -10046.952670449338, -16151.974040505176, -0.3215, 0.899875, 0.3115, 192.0, 0.0, 0.0, 0.0, 0.0, 0.0, 0.0, 0.0, 0.0, 0.0, 1.6730444811144311E9, 0.0, 2023-01-06 17:34:41.114
94.0, -21761.92662262042, -27272.033962253805, -32721.880998835684, -21965.64042158609, -8335.211376573012, -6674.409708310332, -18846.096854936703, -8961.462552721805, -23334.595362495824, 9138.600127530113, -21358.03060031302, -25150.02639890032, -14235.066084273587, -6333.411494900167, -10077.753374308752, -16162.725229588179, -0.3215, 0.899875, 0.3115, 192.0, 0.0, 0.0, 0.0, 0.0, 0.0, 0.0, 0.0, 0.0, 0.0, 1.6730444811144369E9, 0.0, 2023-01-06 17:34:41.114
96.0, -21779.60685248457, -27290.898834574087, -32723.49032443647, -21977.665660103045, -8376.94208347107, -6690.458260829242, -18790.82099089873, -8987.122355356498, -23355.494243561538, 9127.178386113452, -21375.822588899446, -25131.49680274687, -14271.834703902568, -6359.07129753486, -10119.752302140272, -16192.274235758096, -0.3215, 0.899875, 0.3115, 192.0, 0.0, 0.0, 0.0, 0.0, 0.0, 0.0, 0.0, 0.0, 0.0, 1.673044481114442E9, 0.0, 2023-01-06 17:34:41.114
98.0, -21769.056829101664, -27282.360468192157, -32707.508827150923, -21976.369258924635, -8353.60686225973, -6678.32126359001, -18776.404115725054, -8968.05631733612, -23355.09191216134, 9092.711996163369, -21382.46105700267, -25187.331460396228, -14261.262328775209, -6375.432774476144, -10089.666854103429, -16176.180979750274, -0.31675, 0.9029375, 0.30774999999999997, 192.0, 123.0, 32.0, 14.0, 40.0, 4.5, 64.0, 0.0, 0.0, 0.0, 1.6730444811144476E9, 0.0, 2023-01-06 17:34:41.114
100.0, -21746.235698012795, -27262.06508422674, -32701.004469514428, -21969.619032099134, -8335.859577162217, -6638.758675904117, -18772.224339511915, -8974.180695316874, -23331.175545594164, 9125.032618645742, -21364.110274804865, -25136.816517927233, -14243.67150588888, -6370.984777329538, -10075.451144629855, -16166.547377890038, -0.31675, 0.9029375, 0.30774999999999997, 192.0, 0.0, 0.0, 0.0, 0.0, 0.0, 0.0, 0.0, 0.0, 0.0, 1.6730444811144753E9, 0.0, 2023-01-06 17:34:41.114
102.0, -21740.647761898967, -27259.092302214183, -32713.700260365044, -21982.31482294975, -8342.922728410093, -6657.400030779842, -18781.679127416508, -8983.009634376722, -23329.007426382, 9116.963638897376, -21365.876062616833, -25188.516102852358, -14233.546165650627, -6355.8526463332955, -10073.238321928779, -16166.100343000931, -0.31675, 0.9029375, 0.30774999999999997, 192.0, 0.0, 0.0, 0.0, 0.0, 0.0, 0.0, 0.0, 0.0, 0.0, 1.6730444811144822E9, 0.0, 2023-01-06 17:34:41.114
104.0, -21719.14538373296, -27239.10984267114, -32713.700260365044, -21982.583043883213, -8315.094806563236, -6639.205710793222, -18775.733563391397, -8984.127221599487, -23331.935504905643, 9126.150205868507, -21370.32405976344, -25154.31793383574, -14235.758988351703, -6347.157817740181, -10077.842781286572, -16186.77570662209, -0.31675, 0.9029375, 0.30774999999999997, 192.0, 0.0, 0.0, 0.0, 0.0, 0.0, 0.0, 0.0, 0.0, 0.0, 1.6730444811144876E9, 0.0, 2023-01-06 17:34:41.114
106.0, -21703.09683121405, -27222.23427560738, -32710.90629230813, -21979.811427570752, -8325.130739823668, -6627.3369344874545, -18770.726772633407, -8977.779326174179, -23302.56531269137, 9138.577775785658, -21342.65260012777, -25185.610376073168, -14203.058386213588, -6321.386256383212, -10050.41719083991, -16173.096439015442, -0.31675, 0.9029375, 0.30774999999999997, 192.0, 0.0, 0.0, 0.0, 0.0, 0.0, 0.0, 0.0, 0.0, 0.0, 1.6730444811144931E9, 0.0, 2023-01-06 17:34:41.114
108.0, -21714.183296463885, -27226.97284543191, -32728.85474310574, -21986.427543929523, -8302.913105835094, -6639.988021849159, -18779.443952970978, -8989.424585035395, -23317.004539609497, 9139.740066497334, -21354.923707833732, -25150.54048902279, -14219.86689804398, -6343.313317693868, -10067.94095849287, -16184.451125198739, -0.30437499999999995, 0.87746875, 0.294875, 192.0, 123.0, 112.0, 13.0, 80.0, 4.0, 104.0, 0.0, 0.0, 0.0, 1.6730444811144989E9, 0.0, 2023-01-06 17:34:41.114
110.0, -21723.995712279764, -27237.34405485917, -32742.936342112585, -22000.240922002904, -8316.704132164017, -6640.41270499381, -18774.683031401997, -8977.242884307252, -23317.42922275415, 9133.749798983312, -21358.03060031302, -25202.84357104821, -14229.254630715208, -6338.038306002415, -10066.018708469714, -16170.660098869814, -0.30437499999999995, 0.87746875, 0.294875, 192.0, 0.0, 0.0, 0.0, 0.0, 0.0, 0.0, 0.0, 0.0, 0.0, 1.673044481114504E9, 0.0, 2023-01-06 17:34:41.114
112.0, -21739.06078804264, -27250.978618976907, -32764.416368534134, -22015.753032654888, -8358.948929184548, -6650.940376632259, -18792.81029615525, -8991.659759480925, -23336.450557285614, 9128.966525669877, -21380.404696512785, -25180.961213226466, -14244.699686133825, -6338.865320547262, -10094.673644861417, -16185.702822888235, -0.30437499999999995, 0.87746875, 0.294875, 192.0, 0.0, 0.0, 0.0, 0.0, 0.0, 0.0, 0.0, 0.0, 0.0, 1.6730444811145096E9, 0.0, 2023-01-06 17:34:41.114
114.0, -21739.641933398478, -27256.6336103241, -32768.01499939144, -22014.434279732024, -8331.143359082145, -6645.0618678405135, -18784.24957802887, -8979.835686664068, -23332.404891539205, 9114.192022584919, -21385.635004715325, -25228.928056827554, -14223.890212045933, -6333.63501234472, -10090.47151690382, -16180.517218174604, -0.30437499999999995, 0.87746875, 0.294875, 192.0, 0.0, 0.0, 0.0, 0.0, 0.0, 0.0, 0.0, 0.0, 0.0, 1.6730444811145153E9, 0.0, 2023-01-06 17:34:41.114
116.0, -21748.940259091887, -27264.322610416726, -32779.77201697493, -22022.3467972692, -8361.519379796908, -6655.790705179061, -18794.03964210029, -8997.739433972769, -23344.85481320081, 9122.819795944666, -21396.85558043189, -25199.423754146548, -14237.189499996843, -6338.954727525083, -10103.167307754435, -16181.29952923054, -0.30437499999999995, 0.87746875, 0.294875, 192.0, 0.0, 0.0, 0.0, 0.0, 0.0, 0.0, 0.0, 0.0, 0.0, 1.6730444811145215E9, 0.0, 2023-01-06 17:34:41.114
118.0, -21728.64487512647, -27251.24683991037, -32745.10446132475, -21990.853189331676, -8330.159882326112, -6649.889844642859, -18766.72581037591, -8988.552867001637, -23336.875240430265, 9113.923801651456, -21387.780772183036, -25228.168097516074, -14229.165223737387, -6336.428980401633, -10096.260618717744, -16178.438505940261, -0.29718749999999994, 0.8747343750000001, 0.2864375, 192.0, 123.0, 120.0, 13.5, 32.0, 4.0, 88.0, 0.0, 0.0, 0.0, 1.6730444811145272E9, 0.0, 2023-01-06 17:34:41.114
120.0, -21729.136613504485, -27250.01749396533, -32735.269693764414, -21983.275947961327, -8329.779902670372, -6633.684829912762, -18781.76853439433, -8994.029044393188, -23320.04437685542, 9131.559328026691, -21366.300745761484, -25179.664812048057, -14228.181746981354, -6338.3959339137, -10082.693109833373, -16166.279156956572, -0.29718749999999994, 0.8747343750000001, 0.2864375, 192.0, 0.0, 0.0, 0.0, 0.0, 0.0, 0.0, 0.0, 0.0, 0.0, 1.6730444811145327E9, 0.0, 2023-01-06 17:34:41.114
122.0, -21718.228962210294, -27244.4295578515, -32703.843141060253, -21964.41107564105, -8318.425216487076, -6639.652745682329, -18747.41390316652, -8994.744300215758, -23308.957911605587, 9118.349447053606, -21359.438760213707, -25203.268254192863, -14199.392700122919, -6328.8517390312845, -10074.601778340553, -16162.14408423234, -0.29718749999999994, 0.8747343750000001, 0.2864375, 192.0, 0.0, 0.0, 0.0, 0.0, 0.0, 0.0, 0.0, 0.0, 0.0, 1.6730444815943394E9, 0.0, 2023-01-06 17:34:41.594
124.0, -21682.287357126163, -27199.949586385443, -32662.693579518032, -21919.484069285878, -8287.982140538948, -6602.504146397609, -18720.61416156461, -8973.77836391668, -23280.548844402892, 9161.95770048591, -21330.44854765517, -25162.722189750933, -14187.792144750614, -6291.010235668449, -10037.587289522564, -16133.153871673809, -0.29718749999999994, 0.8747343750000001, 0.2864375, 192.0, 0.0, 0.0, 0.0, 0.0, 0.0, 0.0, 0.0, 0.0, 0.0, 1.6730444815943785E9, 0.0, 2023-01-06 17:34:41.594
126.0, -21664.361258073004, -27174.222728517383, -32639.64893098461, -21883.94479560194, -8260.802419281295, -6553.8443987184055, -18692.69683273993, -8962.736602155757, -23256.855995280268, 9205.610657407124, -21290.371869846807, -25125.50653523285, -14148.877757653923, -6239.131836787682, -10000.17046930438, -16084.874103650345, -0.29718749999999994, 0.8747343750000001, 0.2864375, 192.0, 0.0, 0.0, 0.0, 0.0, 0.0, 0.0, 0.0, 0.0, 0.0, 1.6730444815944314E9, 0.0, 2023-01-06 17:34:41.594
128.0, -21640.936629883843, -27142.88558279104, -32625.813201166777, -21864.47642618137, -8262.881131515638, -6528.206947828168, -18690.148733872025, -8965.217645790297, -23248.719960298535, 9234.332649032194, -21279.598329019347, -25106.30638674574, -14134.304420269063, -6223.284449968869, -9978.623387649464, -16059.057838804465, -0.29718749999999994, 0.8747343750000001, 0.2864375, 192.0, 0.0, 0.0, 0.0, 0.0, 0.0, 0.0, 0.0, 0.0, 0.0, 1.6730444815944374E9, 0.0, 2023-01-06 17:34:41.594
130.0, -21620.305969751593, -27123.260751159283, -32615.330233017237, -21847.757321328798, -8220.882203684116, -6495.707511390151, -18676.961204643394, -8972.213741804808, -23234.21367814704, 9263.367565079638, -21263.035686377967, -25085.787485335768, -14123.374417230418, -6200.08333922426, -9960.384364173933, -16037.17548098272, -0.278, 0.872, 0.252, 192.0, 123.5, 40.0, 13.5, 32.0, 3.5, 112.0, 0.0, 0.0, 0.0, 1.673044481594443E9, 0.0, 2023-01-06 17:34:41.594
132.0, -21610.202981257797, -27112.286044631728, -32635.98324489394, -21867.493911682835, -8233.242718367901, -6497.160374779746, -18694.663786251996, -8998.275875839696, -23225.898829209666, 9273.135277406607, -21258.945317142647, -25090.079020271187, -14118.389978216885, -6203.391397403646, -9961.88193105244, -16032.54866988047, -0.278, 0.872, 0.252, 192.0, 0.0, 0.0, 0.0, 0.0, 0.0, 0.0, 0.0, 0.0, 0.0, 1.6730444815944488E9, 0.0, 2023-01-06 17:34:41.594
134.0, -21573.166140695354, -27074.556299991167, -32605.674279412542, -21842.169385214973, -8191.221438791924, -6462.939854018671, -18649.334448496636, -8979.813334919612, -23212.711299981034, 9292.491888104903, -21246.741264670047, -25063.301630413727, -14104.84482107697, -6198.138737456648, -9955.377573415944, -16027.899507033768, -0.278, 0.872, 0.252, 192.0, 0.0, 0.0, 0.0, 0.0, 0.0, 0.0, 0.0, 0.0, 0.0, 1.673044481594463E9, 0.0, 2023-01-06 17:34:41.594
136.0, -21557.855195743465, -27057.948953860876, -32599.572253176244, -21845.589202116633, -8185.946427100472, -6449.998193979049, -18650.697904908408, -8996.73360547228, -23192.818247415813, 9307.869888290154, -21229.999808073022, -25069.9177467725, -14083.968291755713, -6169.975539442961, -9937.898509251894, -16014.086128960387, -0.278, 0.872, 0.252, 192.0, 0.0, 0.0, 0.0, 0.0, 0.0, 0.0, 0.0, 0.0, 0.0, 1.6730444815944688E9, 0.0, 2023-01-06 17:34:41.594
138.0, -21525.847497683466, -27029.226962235807, -32564.681180081512, -21806.78657374222, -8155.168074985514, -6418.482234297066, -18624.412253428967, -9002.58976251957, -23178.803703642334, 9321.325638452248, -21209.033871773943, -25029.03640616374, -14073.619434072905, -6155.5810160137435, -9922.185232899814, -15995.623588040304, -0.278, 0.872, 0.252, 192.0, 0.0, 0.0, 0.0, 0.0, 0.0, 0.0, 0.0, 0.0, 0.0, 1.6730444815944743E9, 0.0, 2023-01-06 17:34:41.594
140.0, -21517.443241768273, -27022.141459243474, -32569.576212117223, -21811.301626122193, -8181.587836931687, -6405.942905657638, -18628.055587775183, -9029.970649477322, -23147.57831663827, 9344.638507919135, -21182.390592383217, -25037.03833067874, -14039.175395867276, -6130.032972101328, -9889.61874122843, -15968.287404571463, -0.268, 0.864, 0.212, 192.0, 123.5, 80.0, 13.5, 0.0, 3.0, 80.0, 0.0, 0.0, 0.0, 1.6730444815944803E9, 0.0, 2023-01-06 17:34:41.594
142.0, -21499.8747706264, -27005.10942996853, -32552.566534586735, -21780.7914949407, -8162.90177856705, -6379.16551580018, -18599.11007870556, -9035.938565246888, -23146.594839882237, 9352.193397545028, -21179.730734793036, -25004.60594947409, -14052.094704162444, -6156.966824169973, -9886.24362781568, -15971.64016623976, -0.268, 0.864, 0.212, 192.0, 0.0, 0.0, 0.0, 0.0, 0.0, 0.0, 0.0, 0.0, 0.0, 1.673044481594486E9, 0.0, 2023-01-06 17:34:41.594
144.0, -21485.659061152826, -26986.95981347082, -32531.95822619894, -21754.30467776116, -8129.061237461715, -6358.780724856941, -18579.06056392915, -9047.025030496721, -23118.43164186855, 9369.739516942444, -21151.768702479447, -25018.7546037143, -13999.903380859303, -6100.059282786761, -9842.85889182793, -15929.350665730319, -0.268, 0.864, 0.212, 192.0, 0.0, 0.0, 0.0, 0.0, 0.0, 0.0, 0.0, 0.0, 0.0, 1.6730444815944915E9, 0.0, 2023-01-06 17:34:41.594
146.0, -21492.811619378524, -26996.10167695304, -32531.019452931818, -21748.694389902877, -8114.309086121212, -6360.390050457722, -18570.276328358214, -9054.870492800534, -23114.38597612214, 9385.341034572248, -21148.840623955803, -24967.65851588947, -14010.520459475572, -6084.256599456859, -9838.366191192412, -15919.046511536422, -0.268, 0.864, 0.212, 192.0, 0.0, 0.0, 0.0, 0.0, 0.0, 0.0, 0.0, 0.0, 0.0, 1.6730444815944972E9, 0.0, 2023-01-06 17:34:41.594
148.0, -21486.709593142223, -26989.57496757209, -32528.24783661936, -21740.73716887679, -8108.229411629369, -6339.848797303295, -18562.989659665785, -9040.02893448221, -23114.43067961105, 9370.298310553826, -21154.18269088062, -25012.496115266815, -14008.508802474595, -6071.896084773074, -9823.792853807552, -15904.540229384927, -0.268, 0.864, 0.212, 192.0, 0.0, 0.0, 0.0, 0.0, 0.0, 0.0, 0.0, 0.0, 0.0, 1.6730444815945027E9, 0.0, 2023-01-06 17:34:41.594
150.0, -21482.59687216245, -26984.724639025288, -32519.91063593753, -21736.423282196916, -8101.255667359313, -6325.856605274273, -18546.315258302126, -9033.971611734822, -23110.586179564736, 9393.164145131606, -21167.996068954002, -24972.486492691816, -14018.544735735028, -6073.192485951482, -9834.164063234814, -15897.678243837148, -0.274, 0.854, 0.17400000000000002, 192.0, 123.5, 56.0, 13.0, 88.0, 2.5, 56.0, 0.0, 0.0, 0.0, 1.673044481594509E9, 0.0, 2023-01-06 17:34:41.594
152.0, -21475.891348825855, -26980.7683802567, -32516.691984735968, -21737.07148278612, -8086.3470538076235, -6315.5300993359215, -18546.33761004658, -9048.723763075324, -23096.839856724724, 9394.95228468803, -21153.46743505805, -25014.574827501157, -13972.701307857193, -6065.324671903214, -9813.13107170237, -15885.585950086826, -0.274, 0.854, 0.17400000000000002, 192.0, 0.0, 0.0, 0.0, 0.0, 0.0, 0.0, 0.0, 0.0, 0.0, 1.6730444815945144E9, 0.0, 2023-01-06 17:34:41.594
154.0, -21469.29758421154, -26974.15226389793, -32510.85817943313, -21739.664285142935, -8108.676446518475, -6306.656456787165, -18552.640801982976, -9074.428269198927, -23095.834028224235, 9400.875496968687, -21156.171996137142, -24979.057905561676, -13989.755688876592, -6091.5879716382, -9832.241813211658, -15899.801659560402, -0.274, 0.854, 0.17400000000000002, 192.0, 0.0, 0.0, 0.0, 0.0, 0.0, 0.0, 0.0, 0.0, 0.0, 1.67304448159452E9, 0.0, 2023-01-06 17:34:41.594
156.0, -21467.464741166204, -26972.632345274968, -32507.39365904256, -21740.804224110154, -8079.753289193308, -6308.824575999329, -18572.131523148004, -9076.305815733172, -23082.490036784417, 9395.488726554959, -21139.855222684768, -25019.134583370043, -13985.330043474441, -6058.5520933332555, -9823.055246240527, -15891.777383300947, -0.274, 0.854, 0.17400000000000002, 192.0, 0.0, 0.0, 0.0, 0.0, 0.0, 0.0, 0.0, 0.0, 0.0, 1.673044481594526E9, 0.0, 2023-01-06 17:34:41.594
158.0, -21454.880709037865, -26957.880193934467, -32490.071057089695, -21735.998599052265, -8123.853281003629, -6335.691372834608, -18575.707802260855, -9205.58830566267, -23082.08770538422, 9401.121366157695, -21142.89505993069, -24982.388315485518, -13967.828627565936, -6058.6638520555325, -9843.060057528026, -15911.20104923261, -0.274, 0.854, 0.17400000000000002, 192.0, 0.0, 0.0, 0.0, 0.0, 0.0, 0.0, 0.0, 0.0, 0.0, 1.6730444815945315E9, 0.0, 2023-01-06 17:34:41.594
160.0, -21470.77279934559, -26978.086170922063, -32501.24692931735, -21742.39119796648, -8111.6492285310305, -6325.387218640712, -18608.63192184352, -9124.80910120119, -23069.727190700436, 9399.109709156717, -21133.12734760372, -25022.263827593786, -13966.018136265056, -6057.76978227732, -9844.848197084451, -15936.950258845123, -0.266, 0.848, 0.168, 192.0, 123.5, 88.0, 13.0, 64.0, 2.5, 32.0, 0.0, 0.0, 0.0, 1.6730444815945375E9, 0.0, 2023-01-06 17:34:41.594
162.0, -21439.279191408063, -26942.837469916045, -32463.271315487782, -21696.14543868845, -8095.533620778754, -6274.626406982709, -18515.71572014281, -9032.943431489877, -23079.539606516315, 9400.294351612849, -21138.402359295174, -24989.674984177946, -13995.142459290322, -6056.160456676538, -9847.172778507804, -15881.339118640319, -0.266, 0.848, 0.168, 192.0, 0.0, 0.0, 0.0, 0.0, 0.0, 0.0, 0.0, 0.0, 0.0, 1.6730444815945432E9, 0.0, 2023-01-06 17:34:41.594
164.0, -21431.657246548803, -26934.835545401045, -32454.978818294865, -21695.497238099248, -8047.1420940330145, -6267.943235390572, -18516.274513754193, -9090.834449629123, -23039.820556619234, 9428.144625204162, -21103.533637944896, -24999.196827315907, -13944.471054610141, -6032.042924409262, -9779.849324208419, -15841.910641421156, -0.266, 0.848, 0.168, 192.0, 0.0, 0.0, 0.0, 0.0, 0.0, 0.0, 0.0, 0.0, 0.0, 1.6730444815945487E9, 0.0, 2023-01-06 17:34:41.594
166.0, -21432.596019815926, -26927.07949007505, -32473.061379559207, -21699.20762767883, -8069.896169888517, -6265.484543500489, -18544.5271187457, -9055.921024789934, -23047.80012938978, 9431.028000238895, -21121.37033002023, -24972.642954903004, -13962.464208896663, -6048.382049606091, -9800.278818640569, -15857.780379984426, -0.266, 0.848, 0.168, 192.0, 0.0, 0.0, 0.0, 0.0, 0.0, 0.0, 0.0, 0.0, 0.0, 1.673044481594556E9, 0.0, 2023-01-06 17:34:41.594
168.0, -21404.410470057785, -26899.98917579522, -32449.815565325687, -21671.49146455425, -8063.123591318559, -6244.451551968044, -18521.52717370119, -9041.951184505366, -23028.577629158215, 9427.71994205951, -21118.866934641235, -24996.17934181444, -13944.76162728806, -6022.074046382195, -9795.339083115947, -15852.28185084842, -0.266, 0.848, 0.168, 192.0, 0.0, 0.0, 0.0, 0.0, 0.0, 0.0, 0.0, 0.0, 0.0, 1.6730444815945616E9, 0.0, 2023-01-06 17:34:41.594
170.0, -21377.096638333398, -26873.61411733796, -32432.269445928272, -21654.325324812573, -8034.580413649132, -6219.75287434493, -18511.535943929666, -9030.887070999988, -22999.810934044235, 9463.035698298896, -21089.2285214935, -24954.806262827668, -13928.623667791328, -5991.85448787862, -9775.088402639438, -15833.618144228238, -0.24, 0.8200000000000001, 0.148, 192.0, 124.0, 64.0, 12.5, 80.0, 2.0, 80.0, 0.0, 0.0, 0.0, 1.6730444815945673E9, 0.0, 2023-01-06 17:34:41.594
172.0, -21364.870234116344, -26864.80753002257, -32424.89337025802, -21648.312705554094, -8014.508547128266, -6218.300010955336, -18501.477658924778, -9024.427416852406, -22980.923709979503, 9458.67710813011, -21076.130399242687, -24978.365001483562, -13915.860821707347, -5990.982769844863, -9779.871675952874, -15838.80374894187, -0.24, 0.8200000000000001, 0.148, 192.0, 0.0, 0.0, 0.0, 0.0, 0.0, 0.0, 0.0, 0.0, 0.0, 1.6730444815945733E9, 0.0, 2023-01-06 17:34:41.594
174.0, -21347.614687396846, -26842.96987568973, -32407.347250860603, -21633.42644374686, -8003.757358045264, -6206.967676516495, -18503.086984525562, -9007.998884677754, -22970.843073230157, 9472.334023992304, -21067.949660772047, -24961.824710586636, -13902.114498867333, -5987.2276767763715, -9767.399402546813, -15831.695894205082, -0.24, 0.8200000000000001, 0.148, 192.0, 0.0, 0.0, 0.0, 0.0, 0.0, 0.0, 0.0, 0.0, 0.0, 1.6730444815945787E9, 0.0, 2023-01-06 17:34:41.594
176.0, -21348.061722285955, -26856.023294451632, -32405.626166537546, -21637.896792637923, -8046.404486465989, -6203.637266592654, -18501.298844969137, -9017.610134793536, -22955.085093389167, 9454.877311572709, -21063.45696013653, -24967.725571122835, -13882.422612002209, -5988.948761099429, -9748.802751159996, -15829.058388359355, -0.24, 0.8200000000000001, 0.148, 192.0, 0.0, 0.0, 0.0, 0.0, 0.0, 0.0, 0.0, 0.0, 0.0, 1.6730444815945845E9, 0.0, 2023-01-06 17:34:41.594
178.0, -21308.901466000258, -26812.750317186157, -32385.531948272223, -21614.405109215393, -7968.3074913391465, -6190.427385619568, -18468.88881550894, -8979.58981747506, -22970.418390085506, 9455.056125528352, -21041.44049184805, -24973.38056247003, -13846.995097040546, -5961.836095075142, -9736.330477753936, -15824.006894112455, -0.24, 0.8200000000000001, 0.148, 192.0, 0.0, 0.0, 0.0, 0.0, 0.0, 0.0, 0.0, 0.0, 0.0, 1.6730444815945902E9, 0.0, 2023-01-06 17:34:41.594
180.0, -21276.245567351052, -26777.479264435682, -32349.76915714373, -21577.07769597503, -7919.200708770837, -6121.181681297026, -18431.382588312936, -8980.05920410862, -22927.54774422023, 9496.02687311493, -20993.183075569043, -24936.54488760768, -13835.126320734778, -5945.072286733662, -9703.20519247117, -15797.095393788266, -0.234, 0.8180000000000001, 0.116, 192.0, 124.0, 88.0, 12.5, 72.0, 1.5, 80.0, 0.0, 0.0, 0.0, 1.673044481594596E9, 0.0, 2023-01-06 17:34:41.594
182.0, -21259.705276454126, -26756.133348480864, -32334.34645346957, -21559.375114366427, -7951.186055086381, -6167.449792319512, -18433.32719008055, -9014.749111503257, -22901.86558984108, 9507.895649420698, -20984.756467909392, -24946.446710401382, -13815.54619259193, -5906.537879292712, -9679.780564282008, -15781.046841269355, -0.234, 0.8180000000000001, 0.116, 192.0, 0.0, 0.0, 0.0, 0.0, 0.0, 0.0, 0.0, 0.0, 0.0, 1.6730444815946016E9, 0.0, 2023-01-06 17:34:41.594
184.0, -21206.82104907287, -26706.266606601075, -32273.884984717966, -21496.946692102756, -7932.611755444022, -6072.141953962083, -18430.84614644601, -8806.006170035145, -22858.994943975802, 9535.656516034189, -20945.596211623695, -24930.39815788247, -13783.87377069876, -5870.439811997391, -9643.436627797679, -15732.565907545795, -0.234, 0.8180000000000001, 0.116, 192.0, 0.0, 0.0, 0.0, 0.0, 0.0, 0.0, 0.0, 0.0, 0.0, 1.673044481594607E9, 0.0, 2023-01-06 17:34:41.594
186.0, -21135.94366740509, -26629.957751030655, -32200.99594604921, -21424.638798789838, -7837.728600231243, -5989.641665177544, -18257.150740283818, -8760.1180386684, -22817.443051033384, 9577.320167698881, -20897.875237211614, -24922.686806045393, -13716.818537332838, -5797.260200650716, -9587.311397470403, -15659.967441554958, -0.234, 0.8180000000000001, 0.116, 192.0, 0.0, 0.0, 0.0, 0.0, 0.0, 0.0, 0.0, 0.0, 0.0, 1.6730444815946128E9, 0.0, 2023-01-06 17:34:41.594
188.0, -21113.21194329404, -26607.717765297624, -32173.100968968985, -21404.969263669165, -7789.270018252137, -5956.382269428047, -18259.810597874, -8728.467968519684, -22753.561765380116, 9640.329735318392, -20828.003684044324, -24845.05919755211, -13622.181251309068, -5718.313839234572, -9493.456422502568, -15591.101716888157, -0.234, 0.8180000000000001, 0.116, 192.0, 0.0, 0.0, 0.0, 0.0, 0.0, 0.0, 0.0, 0.0, 0.0, 1.6730444815946188E9, 0.0, 2023-01-06 17:34:41.594
190.0, -21156.551975792885, -26636.439756922693, -32215.61398692298, -21449.53864211305, -7824.898698913897, -6003.209174061915, -18287.8173336765, -8766.868265493902, -22767.576309153596, 9617.195679807148, -20853.59643144565, -24872.86476765451, -13666.594167541763, -5748.935729138342, -9535.410646845181, -15611.486507831396, -0.256, 0.8140000000000001, 0.08, 192.0, 124.0, 0.0, 12.5, 56.0, 1.0, 64.0, 0.0, 0.0, 0.0, 1.6730444815946243E9, 0.0, 2023-01-06 17:34:41.594
192.0, -21162.43048458463, -26626.828506806913, -32211.165989776375, -21444.57655484397, -7806.570268460545, -6010.697008454444, -18286.230359820172, -8775.004300475633, -22768.582137654084, 9594.933342329663, -20873.020097377314, -24846.646171408436, -13693.460964377042, -5774.3273108395715, -9540.12686492525, -15640.342609923198, -0.256, 0.8140000000000001, 0.08, 192.0, 0.0, 0.0, 0.0, 0.0, 0.0, 0.0, 0.0, 0.0, 0.0, 1.67304448159463E9, 0.0, 2023-01-06 17:34:41.594
194.0, -21203.155362982197, -26656.712789143658, -32256.562382765103, -21490.263520510616, -7801.429367235824, -6021.425845792991, -18335.560659833034, -8801.35700718844, -22806.26717880573, 9560.578711101856, -20881.84903643716, -24879.413828779918, -13700.52411562492, -5803.228116420283, -9564.870246037275, -15657.106418264679, -0.256, 0.8140000000000001, 0.08, 192.0, 0.0, 0.0, 0.0, 0.0, 0.0, 0.0, 0.0, 0.0, 0.0, 1.6730444815946355E9, 0.0, 2023-01-06 17:34:41.594
196.0, -21231.162098784698, -26671.710809673168, -32260.496289789236, -21495.8738083689, -7883.817897298086, -6083.139012234094, -18364.327354947014, -8839.89141462939, -22831.56935352914, 9535.388295100725, -20913.923789730525, -24851.474148210782, -13742.500691711986, -5855.531198445702, -9609.23845878106, -15694.970273371968, -0.256, 0.8140000000000001, 0.08, 192.0, 0.0, 0.0, 0.0, 0.0, 0.0, 0.0, 0.0, 0.0, 0.0, 1.6730444815946424E9, 0.0, 2023-01-06 17:34:41.594
198.0, -21277.743134229557, -26717.733051506646, -32294.985031483775, -21543.818300225532, -7960.797305202163, -6093.979608294918, -18447.855823976497, -8905.359674138985, -22857.51972884175, 9463.996823310474, -20952.43584542702, -24902.54788429116, -13742.098360311791, -5908.92951594943, -9643.615441753322, -15749.083846698268, -0.256, 0.8140000000000001, 0.08, 192.0, 0.0, 0.0, 0.0, 0.0, 0.0, 0.0, 0.0, 0.0, 0.0, 1.6730444815946498E9, 0.0, 2023-01-06 17:34:41.594
200.0, -21297.34561411686, -26733.893362747833, -32306.920863022908, -21532.77653846461, -7965.044136648672, -6199.9492287575285, -18389.71893664824, -8924.33630518154, -22888.09691525661, 9453.290337716382, -20993.428944758052, -24883.705363715337, -13790.735756246539, -5918.630173043033, -9702.311122692958, -15773.335489432275, -0.27, 0.8660000000000001, 0.078, 192.0, 123.5, 16.0, 14.0, 88.0, 1.0, 48.0, 0.0, 0.0, 0.0, 1.6730444815946555E9, 0.0, 2023-01-06 17:34:41.594
202.0, -21320.949056261667, -26764.96228754071, -32327.864447577533, -21565.767713280646, -7967.14520062747, -6200.977409002472, -18368.440075926792, -8933.81344483059, -22915.522505703273, 9416.789939020866, -21022.64267476114, -24923.714986290335, -13828.644314842739, -5940.423123886958, -9684.005043984062, -15799.151754278155, -0.27, 0.8660000000000001, 0.078, 192.0, 0.0, 0.0, 0.0, 0.0, 0.0, 0.0, 0.0, 0.0, 0.0, 1.6730444815946612E9, 0.0, 2023-01-06 17:34:41.594
204.0, -21334.36010293485, -26775.668773134803, -32335.665206392434, -21572.495588361693, -7974.968311186828, -6150.730687466942, -18468.66529806439, -8797.803079820047, -22943.39513103904, 9421.930840245586, -21035.383169100664, -24895.976471421298, -13837.607364369318, -5969.301577723215, -9699.427747658223, -15779.571626135306, -0.27, 0.8660000000000001, 0.078, 192.0, 0.0, 0.0, 0.0, 0.0, 0.0, 0.0, 0.0, 0.0, 0.0, 1.6730444815946667E9, 0.0, 2023-01-06 17:34:41.594
206.0, -21359.014077069056, -26797.81935189001, -32342.951875084866, -21599.854123574987, -8046.158617276981, -6206.721807327486, -18365.69081135879, -8911.23818293073, -22970.59720404115, 9391.711281742011, -21072.35295442974, -24949.12891973602, -13843.59763188334, -6011.389912532558, -9747.819274403962, -15810.931123606102, -0.27, 0.8660000000000001, 0.078, 192.0, 0.0, 0.0, 0.0, 0.0, 0.0, 0.0, 0.0, 0.0, 0.0, 1.6730444815946724E9, 0.0, 2023-01-06 17:34:41.594
208.0, -21368.51356846256, -26793.326651254494, -32342.504840195757, -21594.6461671169, -8000.292837654691, -6210.923935285085, -18376.59846265298, -8874.290749346108, -22992.97130024091, 9400.182592890573, -21085.89811156966, -24908.538151805184, -13842.50239640503, -5988.5240779547785, -9716.30331472198, -15823.85043190127, -0.27, 0.8660000000000001, 0.078, 192.0, 0.0, 0.0, 0.0, 0.0, 0.0, 0.0, 0.0, 0.0, 0.0, 1.673044481594678E9, 0.0, 2023-01-06 17:34:41.594
210.0, -21379.354164523385, -26804.30135778205, -32355.960590357852, -21594.42264967235, -8036.435608438923, -6208.80051956183, -18419.31264630707, -8868.076964387532, -23002.22492244541, 9393.588828276257, -21098.124515786712, -24919.06582344363, -13853.924137821692, -5994.894325124541, -9739.102094066393, -15814.328588763308, -0.316, 0.923, 0.096, 192.0, 122.0, 88.0, 15.0, 80.0, 1.5, 72.0, 0.0, 0.0, 0.0, 1.6730444815946836E9, 0.0, 2023-01-06 17:34:41.594
212.0, -21360.26577475855, -26794.44423847726, -32348.7856803877, -21577.725896564236, -8066.11872507557, -6212.645019608142, -18418.396224784403, -8792.438661150773, -22995.60880608664, 9400.920200457598, -21101.790201877382, -24880.799636936146, -13857.209844256622, -5985.417185475491, -9739.482073722134, -15816.072024830823, -0.316, 0.923, 0.096, 192.0, 0.0, 0.0, 0.0, 0.0, 0.0, 0.0, 0.0, 0.0, 0.0, 1.6730444815946891E9, 0.0, 2023-01-06 17:34:41.594
214.0, -21376.873120888846, -26830.989340661687, -32377.708837712868, -21611.61114115848, -8080.133268849047, -6238.058953053827, -18366.629584625913, -8810.610629392939, -22999.609768344137, 9393.208848620516, -21107.959283347045, -24891.64023299697, -13862.775428625993, -5994.4472902354355, -9764.985414145638, -15821.861126644746, -0.316, 0.923, 0.096, 192.0, 0.0, 0.0, 0.0, 0.0, 0.0, 0.0, 0.0, 0.0, 0.0, 1.6730444815946949E9, 0.0, 2023-01-06 17:34:41.594
216.0, -21378.638908700814, -26862.46059685476, -32397.713649000365, -21628.240839033228, -8083.329568306157, -6228.872386082696, -18450.292164122126, -8813.941039316778, -23023.280265722307, 9384.893999683143, -21133.440272026095, -24881.760761947724, -13833.516995133996, -6045.498674571357, -9778.083536396449, -15854.159397382666, -0.316, 0.923, 0.096, 192.0, 0.0, 0.0, 0.0, 0.0, 0.0, 0.0, 0.0, 0.0, 0.0, 1.6730444815947003E9, 0.0, 2023-01-06 17:34:41.594
218.0, -21400.208342100184, -26902.38081245194, -32415.438582353425, -21628.93374311134, -8066.409297753489, -6323.532023850921, -18340.969781991218, -8815.46095793974, -23037.808899618256, 9366.90084539662, -21157.066065915355, -24912.628521040504, -13875.627681687794, -6052.8523984971525, -9820.976534006184, -15891.24094143402, -0.316, 0.923, 0.096, 192.0, 0.0, 0.0, 0.0, 0.0, 0.0, 0.0, 0.0, 0.0, 0.0, 1.673044481594706E9, 0.0, 2023-01-06 17:34:41.594
220.0, -21383.89156864781, -26881.817207553057, -32404.93326245943, -21609.197152757308, -8093.432556799956, -6344.229739216536, -18375.078544030017, -8765.571864315494, -23037.18305077351, 9378.344938557737, -21147.879498944225, -24901.16207613493, -13875.828847387893, -6034.278098854792, -9803.229248908669, -15884.021327974955, -0.385, 0.9935, 0.115, 192.0, 120.5, 104.0, 16.5, 32.0, 2.0, 24.0, 0.0, 0.0, 0.0, 1.6730444815947115E9, 0.0, 2023-01-06 17:34:41.594
222.0, -21371.709867919668, -26870.88720451441, -32392.662154753467, -21612.594617914514, -8101.523888292777, -6328.985849498016, -18344.635468081888, -8727.506843508107, -23032.690350137993, 9382.6141217487, -21132.52385050343, -24913.477887329806, -13846.369248195799, -6039.24018612387, -9802.022254708083, -15884.423659375152, -0.385, 0.9935, 0.115, 192.0, 0.0, 0.0, 0.0, 0.0, 0.0, 0.0, 0.0, 0.0, 0.0, 1.6730444815947175E9, 0.0, 2023-01-06 17:34:41.594
224.0, -21343.814890839447, -26851.374131604927, -32354.954761857363, -21594.154428738886, -8076.177010080459, -6280.035529140893, -18284.688089452757, -8670.95693003618, -23023.97316980042, 9413.280715141382, -21108.003986835956, -24896.535265032682, -13825.962105508102, -6029.7853982192755, -9771.713289226685, -15859.970850941045, -0.385, 0.9935, 0.115, 192.0, 0.0, 0.0, 0.0, 0.0, 0.0, 0.0, 0.0, 0.0, 0.0, 1.673044481594723E9, 0.0, 2023-01-06 17:34:41.594
226.0, -21377.342507522408, -26888.142751233907, -32376.434788278915, -21635.795728659123, -8070.924350133461, -6284.7740989654185, -18274.294528281036, -8660.85394154238, -23017.714681352936, 9418.376912877193, -21103.019547822423, -24885.091171871565, -13798.87179122827, -6026.365581317614, -9756.469399508167, -15850.13608338071, -0.385, 0.9935, 0.115, 192.0, 0.0, 0.0, 0.0, 0.0, 0.0, 0.0, 0.0, 0.0, 0.0, 1.6730444815947287E9, 0.0, 2023-01-06 17:34:41.594
228.0, -21380.67291744625, -26891.026126268644, -32393.958555931877, -21654.548842257125, -8085.430632284955, -6283.0083111534495, -18272.75225791362, -8657.948214763192, -23041.541640942294, 9408.38568310567, -21129.729882446514, -24883.50419801524, -13850.25845173102, -6048.471456583912, -9783.738527743642, -15878.0981156943, -0.385, 0.9935, 0.115, 192.0, 0.0, 0.0, 0.0, 0.0, 0.0, 0.0, 0.0, 0.0, 0.0, 1.6730444815947342E9, 0.0, 2023-01-06 17:34:41.594
230.0, -21387.311385549474, -26899.31862346156, -32408.196617149904, -21667.7140197413, -8079.954454893405, -6306.29882887588, -18271.18763580175, -8660.228092697633, -23040.80403337527, 9410.598505806745, -21133.596734237282, -24872.082456598575, -13837.786178324961, -6045.945709460462, -9796.233152894158, -15884.423659375152, -0.4325, 1.05275, 0.1465, 192.0, 120.5, 0.0, 17.0, 96.0, 2.5, 72.0, 0.0, 0.0, 0.0, 1.673044481594741E9, 0.0, 2023-01-06 17:34:41.594
232.0, -21394.84392343091, -26906.649995642903, -32421.31709114517, -21682.265005381705, -8088.515173019788, -6310.702122533575, -18270.628842190366, -8658.484656630118, -23054.483300981916, 9391.890095697654, -21150.494653045494, -24892.936634175378, -13873.236045031077, -6068.833895782697, -9811.879374012873, -15903.757918328993, -0.4325, 1.05275, 0.1465, 192.0, 0.0, 0.0, 0.0, 0.0, 0.0, 0.0, 0.0, 0.0, 0.0, 1.6730444815947468E9, 0.0, 2023-01-06 17:34:41.594
234.0, -21407.740879981626, -26917.065908559074, -32423.820486524164, -21697.39713637795, -8107.357693595612, -6328.807035542373, -18263.498635709126, -8664.631386355328, -23060.585327218214, 9390.14665963014, -21162.050504928888, -24881.760761947724, -13885.663614948227, -6068.029232982306, -9806.872583254884, -15914.039720778434, -0.4325, 1.05275, 0.1465, 192.0, 0.0, 0.0, 0.0, 0.0, 0.0, 0.0, 0.0, 0.0, 0.0, 1.6730444815947523E9, 0.0, 2023-01-06 17:34:41.594
236.0, -21431.254915148606, -26939.03767335864, -32441.768937321776, -21733.33874146208, -8082.010815383293, -6307.930506221117, -18252.300411737015, -8647.889929758303, -23065.48035925393, 9371.23708382095, -21173.71811553456, -24908.85107622756, -13904.550839012962, -6095.052492028773, -9807.721949544186, -15916.677226624159, -0.4325, 1.05275, 0.1465, 192.0, 0.0, 0.0, 0.0, 0.0, 0.0, 0.0, 0.0, 0.0, 0.0, 1.673044481594758E9, 0.0, 2023-01-06 17:34:41.594
238.0, -21470.370467945395, -26982.33300236857, -32476.972934838886, -21780.97030889634, -8146.5179498813095, -6352.455181176088, -18289.38195578837, -8672.454496914685, -23101.824295738257, 9348.371249243171, -21213.72773810956, -24933.415643383938, -13908.708263481649, -6107.435358457013, -9817.646124082343, -15936.212651278098, -0.4325, 1.05275, 0.1465, 192.0, 0.0, 0.0, 0.0, 0.0, 0.0, 0.0, 0.0, 0.0, 0.0, 1.6730444815947635E9, 0.0, 2023-01-06 17:34:41.594
240.0, -21481.568691917502, -26985.261080892218, -32501.023411872797, -21822.36573962757, -8147.032040003782, -6336.272518190446, -18287.43735402076, -8657.1435519628, -23118.789269779834, 9323.180833242039, -21251.30102053893, -24999.28623429373, -13931.685856781705, -6132.603422713688, -9844.445865684256, -15961.179549834676, -0.42925, 1.037375, 0.18725, 192.0, 121.0, 88.0, 15.5, 120.0, 3.5, 16.0, 0.0, 0.0, 0.0, 1.6730444815947695E9, 0.0, 2023-01-06 17:34:41.594
242.0, -21503.20518055024, -27003.09777296755, -32537.8814384796, -21875.898167598032, -8168.3556042141445, -6331.511596621465, -18305.162287373816, -8642.749028533583, -23124.131336704653, 9316.65412386109, -21265.87435792379, -24985.539911453714, -13950.215452935154, -6156.005699158394, -9863.757772893641, -15973.696526729647, -0.42925, 1.037375, 0.18725, 192.0, 0.0, 0.0, 0.0, 0.0, 0.0, 0.0, 0.0, 0.0, 0.0, 1.6730444820747519E9, 0.0, 2023-01-06 17:34:42.074
244.0, -21507.764936419124, -27007.25519743624, -32561.6860463245, -21914.946665161453, -8217.19416584899, -6349.281233463435, -18332.00673246464, -8624.688819013694, -23148.382979438662, 9291.039024715308, -21302.50886708604, -25041.262810380795, -13981.373784705853, -6181.12905992616, -9894.87140117543, -16011.336864392384, -0.42925, 1.037375, 0.18725, 192.0, 0.0, 0.0, 0.0, 0.0, 0.0, 0.0, 0.0, 0.0, 0.0, 1.6730444820748637E9, 0.0, 2023-01-06 17:34:42.074
246.0, -21527.725044217714, -27028.310540713137, -32586.317668714248, -21955.895061003575, -8215.048398381281, -6348.5212741519545, -18370.183511994306, -8610.294295584476, -23118.990435479933, 9307.445205145503, -21301.97242521911, -24995.978176114342, -13988.414584209275, -6171.048423176816, -9907.142508881392, -16017.260076673041, -0.42925, 1.037375, 0.18725, 192.0, 0.0, 0.0, 0.0, 0.0, 0.0, 0.0, 0.0, 0.0, 0.0, 1.6730444820748703E9, 0.0, 2023-01-06 17:34:42.074
248.0, -21571.735629050214, -27080.300698316183, -32628.160134334583, -22009.695709907497, -8265.384526894633, -6391.704844439608, -18412.98710262622, -8641.340868632897, -23194.74049743897, 9232.566861220224, -21359.997553825087, -25069.224842694384, -14034.414474298297, -6240.115313543715, -9955.846960049506, -16082.460115249172, -0.42925, 1.037375, 0.18725, 192.0, 0.0, 0.0, 0.0, 0.0, 0.0, 0.0, 0.0, 0.0, 0.0, 1.6730444820748773E9, 0.0, 2023-01-06 17:34:42.074
250.0, -21594.98144328373, -27109.55913180818, -32648.500221788912, -22027.755919427385, -8259.483666358432, -6401.919591655683, -18467.391248630436, -8641.05029595498, -23212.040747647377, 9214.372541233604, -21381.589338968915, -25047.163670916998, -14079.609701586927, -6279.454383785055, -9980.07625103906, -16106.018853905065, -0.369625, 0.9576875, 0.210625, 192.0, 123.0, 40.0, 13.5, 56.0, 3.5, 40.0, 0.0, 0.0, 0.0, 1.6730444820748837E9, 0.0, 2023-01-06 17:34:42.074
252.0, -21624.217525031272, -27157.14599575353, -32685.067675717793, -22057.08140815275, -8302.130794779157, -6442.46565609761, -18528.120938315504, -8650.303918159476, -23239.287524138395, 9182.297787940239, -21409.059632904486, -25090.213130737917, -14125.028446320111, -6307.8410992432955, -10017.493071257242, -16136.305467642007, -0.369625, 0.9576875, 0.210625, 192.0, 0.0, 0.0, 0.0, 0.0, 0.0, 0.0, 0.0, 0.0, 0.0, 1.6730444820748904E9, 0.0, 2023-01-06 17:34:42.074
254.0, -21666.238804607252, -27207.951510900442, -32717.969443556005, -22090.921949258085, -8340.59814698674, -6458.916540016716, -18572.735020248296, -8637.071685441933, -23267.584832618813, 9151.921767225476, -21441.447310620228, -25085.429857424482, -14162.691135727304, -6328.069427975349, -10052.965289707816, -16172.96232854871, -0.369625, 0.9576875, 0.210625, 192.0, 0.0, 0.0, 0.0, 0.0, 0.0, 0.0, 0.0, 0.0, 0.0, 1.6730444820748973E9, 0.0, 2023-01-06 17:34:42.074
0.0, -21688.434086851372, -27247.33528463069, -32736.096708309262, -22097.828638294774, -8370.504781067943, -6487.482069430598, -18627.005055785783, -8633.830682495915, -23277.866635068254, 9108.313513793173, -21477.72419187119, -25148.08179713271, -14198.09629894451, -6358.825428345851, -10086.738775579784, -16207.562828965525, -0.369625, 0.9576875, 0.210625, 192.0, 0.0, 0.0, 0.0, 0.0, 0.0, 0.0, 0.0, 0.0, 0.0, 1.6730444820749037E9, 0.0, 2023-01-06 17:34:42.074
2.0, -21684.61193854951, -27257.05829346875, -32724.384394214678, -22062.378771588657, -8381.211266662034, -6472.461697156632, -18625.798061585196, -8583.583960960385, -23299.79369637891, 9106.503022492292, -21484.094439040953, -25123.249009042862, -14231.780377838657, -6359.205408001591, -10090.538572137186, -16199.784421895078, -0.369625, 0.9576875, 0.210625, 192.0, 0.0, 0.0, 0.0, 0.0, 0.0, 0.0, 0.0, 0.0, 0.0, 1.6730444820749104E9, 0.0, 2023-01-06 17:34:42.074
4.0, -21693.127953186984, -27284.081552515217, -32733.548609441354, -22052.208727861493, -8376.27153113741, -6484.28576997349, -18617.036177758717, -8561.768658372004, -23306.901551115698, 9099.194002055407, -21482.01572680661, -25152.39568381258, -14195.078813443044, -6357.30550972289, -10079.072127231613, -16189.7708403791, -0.3008125, 0.89584375, 0.21431250000000002, 192.0, 124.0, 96.0, 13.0, 8.0, 3.0, 104.0, 0.0, 0.0, 0.0, 1.673044482074917E9, 0.0, 2023-01-06 17:34:42.074
6.0, -21681.77326700369, -27274.045619254783, -32730.70993789553, -22023.55379146979, -8405.038226251392, -6499.484956203099, -18618.667855103955, -8546.524768653486, -23303.414678980673, 9099.216353799862, -21483.602700662937, -25123.517229976325, -14223.465528901283, -6352.9245678096495, -10086.112926735035, -16177.857360584423, -0.3008125, 0.89584375, 0.21431250000000002, 192.0, 0.0, 0.0, 0.0, 0.0, 0.0, 0.0, 0.0, 0.0, 0.0, 1.6730444820749314E9, 0.0, 2023-01-06 17:34:42.074
8.0, -21672.653755265925, -27283.701572859478, -32735.33674899778, -22022.100928080195, -8367.152019399646, -6519.914450635249, -18664.041896348226, -8558.88528333727, -23302.65471966919, 9101.47387998985, -21471.264537723608, -25130.759195179846, -14227.801767325613, -6347.314279951368, -10086.828182557605, -16178.05852628452, -0.3008125, 0.89584375, 0.21431250000000002, 192.0, 0.0, 0.0, 0.0, 0.0, 0.0, 0.0, 0.0, 0.0, 0.0, 1.673044482074938E9, 0.0, 2023-01-06 17:34:42.074
10.0, -21673.458418066315, -27303.16994228005, -32750.67004569412, -22035.869602664665, -8413.330723444311, -6537.549977010486, -18696.586036275155, -8574.419745733709, -23309.874333128257, 9088.576923439137, -21484.228549507687, -25121.617331697624, -14237.658886630403, -6363.228722003547, -10101.088595520092, -16202.73485216318, -0.3008125, 0.89584375, 0.21431250000000002, 192.0, 0.0, 0.0, 0.0, 0.0, 0.0, 0.0, 0.0, 0.0, 0.0, 1.6730444820749445E9, 0.0, 2023-01-06 17:34:42.074
12.0, -21659.823853948576, -27309.11550630516, -32752.145260828172, -22034.103814852693, -8404.702950084562, -6525.167110582246, -18755.102903259147, -8518.83095727336, -23321.43018501165, 9064.168818493941, -21501.394689249362, -25143.96907615293, -14263.452799731827, -6379.947826856116, -10107.168270011935, -16213.508392990638, -0.3008125, 0.89584375, 0.21431250000000002, 192.0, 0.0, 0.0, 0.0, 0.0, 0.0, 0.0, 0.0, 0.0, 0.0, 1.6730444820749512E9, 0.0, 2023-01-06 17:34:42.074
14.0, -21634.633437947447, -27296.21854975445, -32736.454336220544, -22010.50037270789, -8402.624237850217, -6506.682217917707, -18667.372306272067, -8476.988491653025, -23297.89379810021, 9090.588580440115, -21496.946692102756, -25123.696043931966, -14256.233186272764, -6389.894353138728, -10122.970953341837, -16202.421927740805, -0.3008125, 0.89584375, 0.21431250000000002, 192.0, 0.0, 0.0, 0.0, 0.0, 0.0, 0.0, 0.0, 0.0, 0.0, 1.673044482074958E9, 0.0, 2023-01-06 17:34:42.074
16.0, -21589.12528623644, -27260.120482459126, -32705.340707938758, -21961.505348861858, -8391.80599353385, -6458.737726061074, -18754.409999181033, -8383.066461451825, -23295.815085865866, 9122.976258155853, -21479.48997968316, -25097.67861338599, -14253.685087404858, -6360.412402202178, -10086.448202901865, -16170.34717444744, -0.088, 0.8260000000000001, 0.164, 192.0, 126.5, 32.0, 12.5, 104.0, 2.5, 16.0, 0.0, 0.0, 0.0, 1.6730444820749657E9, 0.0, 2023-01-06 17:34:42.074
18.0, -21588.544140880604, -27253.146738189072, -32713.744963853955, -21956.498558103867, -8392.118917956224, -6463.364537163322, -18647.389846729024, -8369.23073163399, -23292.730545131035, 9146.155017156008, -21457.92054628379, -25065.357990903616, -14252.165168781898, -6316.290058647402, -10109.291685735188, -16155.192691706741, -0.088, 0.8260000000000001, 0.164, 192.0, 0.0, 0.0, 0.0, 0.0, 0.0, 0.0, 0.0, 0.0, 0.0, 1.673044482074973E9, 0.0, 2023-01-06 17:34:42.074
20.0, -21539.07973040101, -27200.173103829995, -32658.245582371426, -21877.70865889891, -8316.011228085903, -6403.685379467653, -18616.566791125155, -8301.16966976758, -23286.784981105924, 9148.323136368172, -21419.6543597763, -25024.633112506046, -14237.614183141493, -6306.321180620334, -10042.348211091545, -16122.313275612983, -0.088, 0.8260000000000001, 0.164, 192.0, 0.0, 0.0, 0.0, 0.0, 0.0, 0.0, 0.0, 0.0, 0.0, 1.67304448207498E9, 0.0, 2023-01-06 17:34:42.074
22.0, -21540.68905600179, -27198.273205551293, -32660.03372192785, -21872.07601929617, -8344.621460988696, -6373.331710497345, -18610.39770965549, -8295.805251098305, -23253.79380628989, 9178.922674527488, -21382.058725602477, -24988.1997690439, -14199.258589656185, -6266.311558045335, -10035.12859763248, -16084.091792594409, -0.088, 0.8260000000000001, 0.164, 192.0, 0.0, 0.0, 0.0, 0.0, 0.0, 0.0, 0.0, 0.0, 0.0, 1.6730444820749867E9, 0.0, 2023-01-06 17:34:42.074
24.0, -21494.666814168315, -27147.646504360022, -32598.70053514249, -21811.771012755755, -8315.050103074325, -6308.176375410125, -18517.3697492325, -8248.687773786518, -23258.353562158773, 9189.807974077223, -21355.817777611945, -24947.810166813157, -14183.724127259748, -6260.276587042402, -10013.022722366182, -16067.909129608766, -0.088, 0.8260000000000001, 0.164, 192.0, 0.0, 0.0, 0.0, 0.0, 0.0, 0.0, 0.0, 0.0, 0.0, 1.6730444820749936E9, 0.0, 2023-01-06 17:34:42.074
26.0, -21459.932203284767, -27102.428925326938, -32563.49653762538, -21782.289061819203, -8266.569169350763, -6269.261988313436, -18472.241577177236, -8242.272823127845, -23213.203038359054, 9226.420131495015, -21300.966596718623, -24912.963797207332, -14121.139242784888, -6206.945324772039, -9966.240521221223, -16015.717806305625, -0.11800000000000001, 0.88, 0.096, 192.0, 126.0, 40.0, 13.5, 64.0, 1.5, 0.0, 0.0, 0.0, 0.0, 1.6730444820750003E9, 0.0, 2023-01-06 17:34:42.075
28.0, -21444.9118310108, -27067.761369676755, -32520.8270574602, -21747.30858174665, -8247.681945286029, -6241.970508333506, -18457.958812470297, -8308.54574543783, -23176.92615710809, 9264.440448813493, -21266.58961374636, -24856.168014546398, -14069.529064837583, -6188.929818741062, -9938.63611681892, -15990.259169371031, -0.11800000000000001, 0.88, 0.096, 192.0, 0.0, 0.0, 0.0, 0.0, 0.0, 0.0, 0.0, 0.0, 0.0, 1.6730444820750067E9, 0.0, 2023-01-06 17:34:42.075
30.0, -21433.110109938396, -27031.953875059353, -32497.827112415685, -21718.050148254653, -8194.507145226855, -6233.029810551383, -18445.151262897405, -8386.978016731504, -23177.283785019376, 9281.517181577346, -21245.690732680647, -24854.87161336799, -14037.476663288673, -6139.755980939386, -9905.466128047245, -15967.035706881967, -0.11800000000000001, 0.88, 0.096, 192.0, 0.0, 0.0, 0.0, 0.0, 0.0, 0.0, 0.0, 0.0, 0.0, 1.6730444820750136E9, 0.0, 2023-01-06 17:34:42.075
32.0, -21404.14224912432, -26979.09199942255, -32456.342274706636, -21674.665412266902, -8180.939636342483, -6177.597484302221, -18385.02507031263, -8464.76208743597, -23141.900973546624, 9338.268260749372, -21213.168944498175, -24779.9485659538, -14000.037491326035, -6089.464555914946, -9883.181438825302, -15931.474081453573, -0.11800000000000001, 0.88, 0.096, 192.0, 0.0, 0.0, 0.0, 0.0, 0.0, 0.0, 0.0, 0.0, 0.0, 1.6730444820750203E9, 0.0, 2023-01-06 17:34:42.075
34.0, -21388.943062894712, -26941.04933035962, -32424.692204557923, -21650.637286977446, -8156.062144763726, -6150.8200944447635, -18316.606380534933, -8544.960146541613, -23134.167269965088, 9360.284729037849, -21188.71613606407, -24775.23234787373, -13965.638156609317, -6060.5413985897785, -9839.66259237082, -15900.092232238321, -0.11800000000000001, 0.88, 0.096, 192.0, 0.0, 0.0, 0.0, 0.0, 0.0, 0.0, 0.0, 0.0, 0.0, 1.6730444820750272E9, 0.0, 2023-01-06 17:34:42.075
36.0, -21373.56506270946, -26908.773411366157, -32393.80209372069, -21628.643170433425, -8117.505385578322, -6124.221518542948, -18269.064220078497, -8658.261139185564, -23101.220798637965, 9387.844429951243, -21164.66565903016, -24719.17417277982, -13947.913223256259, -6024.823310950197, -9802.89397274184, -15880.154476184187, -0.25, 0.9520000000000001, 0.06, 192.0, 124.0, 24.0, 14.5, 96.0, 0.5, 112.0, 0.0, 0.0, 0.0, 1.673044482075034E9, 0.0, 2023-01-06 17:34:42.075
38.0, -21368.066533573456, -26865.768655034146, -32366.108282340563, -21613.443984203815, -8103.468490060389, -6091.856192571663, -18258.022458317573, -8756.295890366542, -23089.799057221302, 9400.830793479776, -21149.399417567187, -24734.8874491319, -13908.954132670659, -6007.098377597139, -9770.17101885927, -15856.685144506115, -0.25, 0.9520000000000001, 0.06, 192.0, 0.0, 0.0, 0.0, 0.0, 0.0, 0.0, 0.0, 0.0, 0.0, 1.673044482075042E9, 0.0, 2023-01-06 17:34:42.075
40.0, -21354.543728177992, -26829.20120110526, -32344.11416579654, -21601.083469520032, -8072.936007134439, -6053.254729897348, -18241.95155405421, -8848.072153100033, -23069.101341855687, 9422.467282112513, -21144.683199487114, -24687.613509608927, -13903.61206574584, -5995.006083846818, -9762.526722255556, -15841.061275131855, -0.25, 0.9520000000000001, 0.06, 192.0, 0.0, 0.0, 0.0, 0.0, 0.0, 0.0, 0.0, 0.0, 0.0, 1.6730444820750504E9, 0.0, 2023-01-06 17:34:42.075
42.0, -21335.053007012964, -26789.705668652736, -32321.8294765746, -21581.950376266286, -8051.657146412987, -6017.76015970232, -18229.948667281707, -8939.088456522042, -23056.338495771706, 9446.763628335433, -21124.790146921892, -24699.661099870336, -13881.03680384598, -5966.03822303274, -9747.618108703866, -15825.66092320215, -0.25, 0.9520000000000001, 0.06, 192.0, 0.0, 0.0, 0.0, 0.0, 0.0, 0.0, 0.0, 0.0, 0.0, 1.6730444820750573E9, 0.0, 2023-01-06 17:34:42.075
44.0, -21329.21920171013, -26764.448197418238, -32309.603072357546, -21580.27399543214, -8073.941835634928, -6008.193613075449, -18214.704777563187, -9012.871564969011, -23028.75644311386, 9465.606148911256, -21111.021472337423, -24644.385235832364, -13875.113591565323, -5948.17917921295, -9738.945631855206, -15810.305274761353, -0.25, 0.9520000000000001, 0.06, 192.0, 0.0, 0.0, 0.0, 0.0, 0.0, 0.0, 0.0, 0.0, 0.0, 1.6730444820750637E9, 0.0, 2023-01-06 17:34:42.075
46.0, -21333.108405245355, -26758.68144734877, -32312.240578203273, -21592.008661271175, -8063.9282541189505, -5942.568891354667, -18194.990538953607, -9071.924873819933, -23021.715643610438, 9470.456477458058, -21116.27413228442, -24675.588271091972, -13841.943602793646, -5940.93721400943, -9715.766872855052, -15807.198382282066, -0.326, 0.914, 0.026000000000000002, 192.0, 122.5, 104.0, 14.0, 72.0, 0.0, 104.0, 0.0, 0.0, 0.0, 1.6730444820750704E9, 0.0, 2023-01-06 17:34:42.075
48.0, -21344.08311177291, -26757.04977000353, -32335.68755813689, -21597.864818318467, -8031.205300236381, -5962.104316008606, -18205.853486758886, -9182.297787940239, -23034.299675738774, 9470.21060826905, -21146.69485648809, -24656.745750516147, -13868.542178695463, -5965.725298610366, -9743.617146446366, -15809.65707417215, -0.326, 0.914, 0.026000000000000002, 192.0, 0.0, 0.0, 0.0, 0.0, 0.0, 0.0, 0.0, 0.0, 0.0, 1.6730444820750773E9, 0.0, 2023-01-06 17:34:42.075
50.0, -21323.340692918384, -26739.593057583937, -32322.92471205291, -21582.93385302232, -8090.4597747873995, -6022.118749871105, -18190.341376106906, -9242.580442736202, -23002.806067801248, 9467.930730334609, -21144.973772165034, -24679.79039904957, -13857.656879145728, -5915.277411374737, -9720.125463023838, -15783.997271537457, -0.326, 0.914, 0.026000000000000002, 192.0, 0.0, 0.0, 0.0, 0.0, 0.0, 0.0, 0.0, 0.0, 0.0, 1.6730444820750837E9, 0.0, 2023-01-06 17:34:42.075
52.0, -21332.639018611793, -26744.77866229757, -32349.009197832253, -21612.84048710352, -8087.1740683524695, -6029.964212174918, -18193.291806375004, -9312.966086025965, -23016.79825983027, 9470.054146057862, -21149.55587977837, -24661.1713959183, -13828.554907864918, -5913.3328096071255, -9735.034076575528, -15793.40735595314, -0.326, 0.914, 0.026000000000000002, 192.0, 0.0, 0.0, 0.0, 0.0, 0.0, 0.0, 0.0, 0.0, 0.0, 1.6730444820750904E9, 0.0, 2023-01-06 17:34:42.075
54.0, -21343.546669905983, -26757.317990936994, -32361.235602049306, -21636.08630133704, -8082.748422950319, -6036.177997133494, -18191.41425984076, -9371.281787309861, -23021.290960465787, 9445.757799834944, -21164.352734607786, -24704.1314487614, -13835.305134690421, -5943.530016366246, -9749.83093140494, -15825.28094354641, -0.326, 0.914, 0.026000000000000002, 192.0, 0.0, 0.0, 0.0, 0.0, 0.0, 0.0, 0.0, 0.0, 0.0, 1.6730444820750978E9, 0.0, 2023-01-06 17:34:42.075
56.0, -21351.570946165437, -26767.175110241787, -32373.149081843985, -21651.75487420021, -8058.563835449677, -6043.822293737208, -18187.435649327716, -9417.438139610069, -23033.137385027097, 9419.29333439986, -21183.843455772814, -24712.021614554124, -13850.034934286468, -5967.4463829334245, -9771.93680667124, -15852.639478759704, -0.404, 0.886, 0.052000000000000005, 192.0, 121.5, 48.0, 13.5, 88.0, 0.5, 80.0, 0.0, 0.0, 0.0, 1.6730444820751045E9, 0.0, 2023-01-06 17:34:42.075
58.0, -21375.174388310243, -26791.739677398167, -32392.572747775645, -21683.449647837835, -8101.590943526143, -6056.540436332279, -18217.9010770203, -9467.01430881194, -23019.83809707619, 9400.070834168297, -21184.96104299558, -24736.630885199414, -13854.818207599905, -5974.509534181301, -9783.939693443739, -15860.663755019159, -0.404, 0.886, 0.052000000000000005, 192.0, 0.0, 0.0, 0.0, 0.0, 0.0, 0.0, 0.0, 0.0, 0.0, 1.6730444820751112E9, 0.0, 2023-01-06 17:34:42.075
60.0, -21423.498859822615, -26832.576314518014, -32444.294684445227, -21737.25029674176, -8165.204008245946, -6106.429529956524, -18251.85337684791, -9530.247393876005, -23080.679545483537, 9356.283766780349, -21244.193165802142, -24786.117647423467, -13895.31956855292, -6030.612412764122, -9842.523615661099, -15917.77246210247, -0.404, 0.886, 0.052000000000000005, 192.0, 0.0, 0.0, 0.0, 0.0, 0.0, 0.0, 0.0, 0.0, 0.0, 1.6730444820751178E9, 0.0, 2023-01-06 17:34:42.075
62.0, -21452.422017147783, -26858.616096808448, -32469.395693468538, -21775.896462904988, -8185.85702012265, -6105.378997967124, -18261.88931010834, -9578.147182243727, -23104.19358065052, 9322.286763463828, -21273.138674871767, -24823.109784497, -13928.690723024694, -6060.809619523242, -9860.360307736435, -15951.054209596421, -0.404, 0.886, 0.052000000000000005, 192.0, 0.0, 0.0, 0.0, 0.0, 0.0, 0.0, 0.0, 0.0, 0.0, 1.6730444820751245E9, 0.0, 2023-01-06 17:34:42.075
64.0, -21488.698898398747, -26893.864797814465, -32516.06613589122, -21802.74090799581, -8241.334049860723, -6157.480914292445, -18310.102022898438, -9634.875909671297, -23151.311057962306, 9275.526914063325, -21323.51950687403, -24871.948346131845, -13960.497255384596, -6103.434396199513, -9904.884982691407, -15991.667329271715, -0.404, 0.886, 0.052000000000000005, 192.0, 0.0, 0.0, 0.0, 0.0, 0.0, 0.0, 0.0, 0.0, 0.0, 1.673044482075131E9, 0.0, 2023-01-06 17:34:42.075
66.0, -21487.35779373143, -26892.344879191507, -32522.86106620563, -21801.243341117304, -8227.610078765163, -6170.064946420783, -18289.87369416639, -9638.742761462065, -23157.63660164316, 9271.12362040563, -21345.535975162504, -24884.085343371076, -13952.80825529197, -6108.530593935322, -9929.136625425414, -15995.578884551393, -0.43, 0.838, 0.074, 192.0, 121.0, 72.0, 13.0, 24.0, 1.0, 40.0, 0.0, 0.0, 0.0, 1.6730444820751376E9, 0.0, 2023-01-06 17:34:42.075
68.0, -21509.284855042086, -26910.963882322776, -32528.87368546411, -21810.541666810714, -8227.252450853879, -6186.225257661969, -18341.506223858145, -9655.864197714829, -23171.517034949906, 9260.573597022725, -21352.621478154837, -24897.8763697, -13995.656549412794, -6134.279803547836, -9924.465110834255, -15989.119230403809, -0.43, 0.838, 0.074, 192.0, 0.0, 0.0, 0.0, 0.0, 0.0, 0.0, 0.0, 0.0, 0.0, 1.6730444820751452E9, 0.0, 2023-01-06 17:34:42.075
70.0, -21500.63472993788, -26897.08344901603, -32509.96410965492, -21795.58834977011, -8238.830654481728, -6177.977463957962, -18330.062130697028, -9641.737895219076, -23179.16133155362, 9252.750486463367, -21368.71473416266, -24900.804448223647, -14010.833383897947, -6138.034896616327, -9929.851881247983, -16002.396166610262, -0.43, 0.838, 0.074, 192.0, 0.0, 0.0, 0.0, 0.0, 0.0, 0.0, 0.0, 0.0, 0.0, 1.6730444820751534E9, 0.0, 2023-01-06 17:34:42.075
72.0, -21483.96032857422, -26873.27884117113, -32494.5190542363, -21774.778875682223, -8215.115453614648, -6150.104838622194, -18282.47526675168, -9613.731159416577, -23162.799854612334, 9279.371414109637, -21350.83333859841, -24893.093096386565, -13998.741090147627, -6102.294457232292, -9889.954017395261, -15973.361250562819, -0.43, 0.838, 0.074, 192.0, 0.0, 0.0, 0.0, 0.0, 0.0, 0.0, 0.0, 0.0, 0.0, 1.67304448207516E9, 0.0, 2023-01-06 17:34:42.075
74.0, -21458.367581172894, -26842.053454167064, -32474.268373759794, -21754.215270783337, -8204.945409887483, -6119.080617318227, -18265.085609565453, -9591.737042872554, -23152.942735307544, 9313.614286615168, -21334.80713782396, -24851.9658865888, -13988.839267353926, -6068.565674849234, -9879.940435879284, -15950.87539564078, -0.43, 0.838, 0.074, 192.0, 0.0, 0.0, 0.0, 0.0, 0.0, 0.0, 0.0, 0.0, 0.0, 1.6730444820751667E9, 0.0, 2023-01-06 17:34:42.075
76.0, -21433.19951691622, -26813.867904408922, -32457.90689681851, -21734.612790896033, -8167.461534435933, -6098.181736252515, -18235.00016152861, -9550.4533708636, -23127.506450117406, 9343.498568951914, -21305.682814798693, -24844.47805219627, -13951.757723302571, -6040.871863469108, -9854.66061290033, -15929.976514575066, -0.418, 0.792, 0.078, 192.0, 121.0, 120.0, 12.0, 96.0, 1.0, 56.0, 0.0, 0.0, 0.0, 1.6730444820751731E9, 0.0, 2023-01-06 17:34:42.075
78.0, -21389.412449528274, -26767.465682919705, -32423.820486524164, -21701.800430035644, -8120.098187935137, -6031.260613353326, -18189.581416795423, -9516.411664058169, -23104.57356030626, 9388.716147985, -21280.000660419544, -24790.453885847794, -13889.306949294443, -6011.993409632852, -9831.973592278195, -15900.38280491624, -0.418, 0.792, 0.078, 192.0, 0.0, 0.0, 0.0, 0.0, 0.0, 0.0, 0.0, 0.0, 0.0, 1.6730444820751798E9, 0.0, 2023-01-06 17:34:42.075
80.0, -21379.532978479026, -26753.473490890683, -32418.83604751063, -21682.130894914975, -8125.484958348866, -6046.593910049666, -18191.637777285312, -9509.5943819993, -23075.538644258817, 9420.14270068916, -21249.69169493815, -24782.697830521804, -13880.902693379247, -5993.150889057028, -9802.22342040818, -15877.405211616186, -0.418, 0.792, 0.078, 192.0, 0.0, 0.0, 0.0, 0.0, 0.0, 0.0, 0.0, 0.0, 0.0, 1.6730444820751865E9, 0.0, 2023-01-06 17:34:42.075
82.0, -21371.352240008386, -26741.694121562734, -32411.07999218464, -21659.980316159763, -8106.262458117302, -6053.902930486552, -18206.41228037027, -9490.774213167932, -23069.101341855687, 9439.454607898548, -21245.333104769365, -24743.492870747195, -13863.13305653728, -5967.267568977782, -9803.966856475694, -15865.75995275497, -0.418, 0.792, 0.078, 192.0, 0.0, 0.0, 0.0, 0.0, 0.0, 0.0, 0.0, 0.0, 0.0, 1.6730444820751932E9, 0.0, 2023-01-06 17:34:42.075
84.0, -21366.9936498396, -26737.044958716033, -32398.540663545213, -21643.28356305165, -8090.348016065123, -6043.24114838137, -18198.276245388537, -9469.24948325747, -23063.200481319487, 9447.568291135824, -21233.2631627635, -24756.90391742038, -13867.64810891725, -5971.51440042429, -9792.70157727022, -15845.509272278461, -0.418, 0.792, 0.078, 192.0, 0.0, 0.0, 0.0, 0.0, 0.0, 0.0, 0.0, 0.0, 0.0, 1.6730444820751996E9, 0.0, 2023-01-06 17:34:42.075
86.0, -21361.830396870424, -26728.886571989846, -32391.566919275156, -21627.9055628664, -8103.870821460584, -6031.215909864415, -18196.532809321023, -9454.564387150334, -23057.433731250017, 9469.808276868855, -21222.62373240277, -24717.050757056568, -13868.497475206552, -5944.625251844555, -9787.761841745596, -15834.758083195458, -0.426, 0.799, 0.08499999999999999, 192.0, 121.0, 56.0, 12.5, 24.0, 1.0, 112.0, 0.0, 0.0, 0.0, 1.6730444820752065E9, 0.0, 2023-01-06 17:34:42.075
88.0, -21370.882853374824, -26745.695083820236, -32402.36281184707, -21631.772414657167, -8105.949533694928, -6050.617224051622, -18201.47254484565, -9480.470058974035, -23049.811786390757, 9475.843247871786, -21217.527534666962, -24735.33448402101, -13848.112684263311, -5927.503815591791, -9768.248768836114, -15827.873745903224, -0.426, 0.799, 0.08499999999999999, 192.0, 0.0, 0.0, 0.0, 0.0, 0.0, 0.0, 0.0, 0.0, 0.0, 1.6730444820752132E9, 0.0, 2023-01-06 17:34:42.075
90.0, -21411.406566072295, -26790.19740703075, -32429.967216249373, -21659.645039992934, -8103.759062738307, -6071.180828950504, -18239.492862164123, -9507.985056398518, -23073.348173302194, 9452.128047004706, -21251.435131005663, -24732.69697817528, -13858.260376246022, -5953.096562993117, -9793.662702281797, -15851.94657468159, -0.426, 0.799, 0.08499999999999999, 192.0, 0.0, 0.0, 0.0, 0.0, 0.0, 0.0, 0.0, 0.0, 0.0, 1.6730444820752199E9, 0.0, 2023-01-06 17:34:42.075
92.0, -21443.81659553249, -26824.30616906955, -32454.531783405757, -21680.9686042033, -8144.774513813796, -6110.631657914121, -18271.545263713037, -9538.02580094645, -23101.064336426778, 9399.422633579092, -21292.45058208115, -24791.459714348282, -13890.826867917403, -5982.980845329863, -9814.069844969494, -15876.466438349062, -0.426, 0.799, 0.08499999999999999, 192.0, 0.0, 0.0, 0.0, 0.0, 0.0, 0.0, 0.0, 0.0, 0.0, 1.6730444820752263E9, 0.0, 2023-01-06 17:34:42.075
94.0, -21459.708685840214, -26838.968913432233, -32472.793158625744, -21704.125011458997, -8151.234167961379, -6138.951318138996, -18276.932034126763, -9551.280385408449, -23109.580351064247, 9387.620912506689, -21311.65073056826, -24777.825150230547, -13913.357426328354, -6010.965229387907, -9831.75007483364, -15895.599531602806, -0.426, 0.799, 0.08499999999999999, 192.0, 0.0, 0.0, 0.0, 0.0, 0.0, 0.0, 0.0, 0.0, 0.0, 1.6730444820752327E9, 0.0, 2023-01-06 17:34:42.075
96.0, -21504.658043939835, -26880.587861608015, -32511.10404862214, -21743.531136933703, -8204.67718895402, -6193.3778158876685, -18323.669531782813, -9593.94986557363, -23134.234325198453, 9359.390659259638, -21342.294972216485, -24816.851296049514, -13942.191176675698, -6043.442314081468, -9859.555644936043, -15925.126186028265, -0.435, 0.8105, 0.1015, 192.0, 121.0, 16.0, 12.5, 88.0, 1.5, 88.0, 0.0, 0.0, 0.0, 1.6730444820752397E9, 0.0, 2023-01-06 17:34:42.075
98.0, -21528.77557620711, -26903.43134444134, -32549.30317989626, -21775.36002103806, -8225.240793852901, -6217.540051643855, -18341.461520369234, -9613.909973372218, -23165.482063946973, 9331.428626946048, -21374.95087086569, -24821.38870017394, -13973.28245321303, -6083.228419211915, -9885.640130715386, -15957.49151199955, -0.435, 0.8105, 0.1015, 192.0, 0.0, 0.0, 0.0, 0.0, 0.0, 0.0, 0.0, 0.0, 0.0, 1.673044482075246E9, 0.0, 2023-01-06 17:34:42.075
100.0, -21576.7424198082, -26952.13579560945, -32606.50129395739, -21822.94688498341, -8268.647881585108, -6281.95777916405, -18391.82000062704, -9663.329680362902, -23194.874607905702, 9308.920420279554, -21413.552333540003, -24841.840546350544, -14021.24929681412, -6118.6559341735765, -9922.766378255652, -15994.953035706645, -0.435, 0.8105, 0.1015, 192.0, 0.0, 0.0, 0.0, 0.0, 0.0, 0.0, 0.0, 0.0, 0.0, 1.6730444820752528E9, 0.0, 2023-01-06 17:34:42.075
102.0, -21602.715146865266, -26973.437008075358, -32635.335044304735, -21845.008056760795, -8290.619646384674, -6276.86158142824, -18413.59059972651, -9681.635759071798, -23243.13202418471, 9269.268425615839, -21457.04882825003, -24856.59269769105, -14043.556337780517, -6184.7500425279195, -9985.105393541502, -16038.740103094591, -0.435, 0.8105, 0.1015, 192.0, 0.0, 0.0, 0.0, 0.0, 0.0, 0.0, 0.0, 0.0, 0.0, 1.6730444820752609E9, 0.0, 2023-01-06 17:34:42.075
104.0, -21586.107800734975, -26963.691647492844, -32591.413866450057, -21815.92843722444, -8265.362175150178, -6286.405776310656, -18397.98908209671, -9686.508439363055, -23225.049462920364, 9261.06533540074, -21456.95942127221, -24883.21362533732, -14032.782796953059, -6174.26707437838, -9977.572855660064, -16038.784806583502, -0.435, 0.8105, 0.1015, 192.0, 0.0, 0.0, 0.0, 0.0, 0.0, 0.0, 0.0, 0.0, 0.0, 1.6730444820752673E9, 0.0, 2023-01-06 17:34:42.075
106.0, -21573.88139651792, -26952.71694096529, -32586.809407092263, -21803.925550451942, -8226.850119453684, -6278.135630862193, -18382.812247611553, -9683.625064328322, -23194.0252416164, 9276.041004185798, -21425.532868568047, -24872.976526376788, -14009.894610630825, -6147.489684520922, -9937.250308662691, -16021.350445908362, -0.4375, 0.8242499999999999, 0.11975000000000001, 192.0, 121.0, 32.0, 13.0, 24.0, 2.0, 40.0, 0.0, 0.0, 0.0, 1.6730444825565927E9, 0.0, 2023-01-06 17:34:42.556
108.0, -21541.583125780002, -26926.990083097233, -32550.286656652293, -21773.59423322609, -8222.402122307078, -6247.245520024958, -18362.472160157224, -9598.599028420333, -23172.746380894947, 9298.213934685462, -21394.106315863886, -24883.16892184841, -13980.591473649916, -6123.014524342361, -9900.973427411727, -15994.349538606351, -0.4375, 0.8242499999999999, 0.11975000000000001, 192.0, 0.0, 0.0, 0.0, 0.0, 0.0, 0.0, 0.0, 0.0, 0.0, 1.6730444825566337E9, 0.0, 2023-01-06 17:34:42.556
110.0, -21550.993210195687, -26937.920086135877, -32565.77641555982, -21786.871169432543, -8241.49051207191, -6243.222206023002, -18382.275805744626, -9609.529031458978, -23177.462598975017, 9303.287780676816, -21382.818684913957, -24877.0221921232, -13994.874238356859, -6118.5441754513, -9902.001607656672, -15984.11243964582, -0.4375, 0.8242499999999999, 0.11975000000000001, 192.0, 0.0, 0.0, 0.0, 0.0, 0.0, 0.0, 0.0, 0.0, 0.0, 1.6730444825566397E9, 0.0, 2023-01-06 17:34:42.556
112.0, -21567.108817947963, -26956.203813100317, -32592.374991461635, -21807.479477820336, -8258.254320413389, -6268.0996976017595, -18418.64209397341, -9667.062421686938, -23157.10015977623, 9304.070091732752, -21392.049955373997, -24872.373029276496, -13956.920976271747, -6136.514977993367, -9933.472863849744, -16006.710053290137, -0.4375, 0.8242499999999999, 0.11975000000000001, 192.0, 0.0, 0.0, 0.0, 0.0, 0.0, 0.0, 0.0, 0.0, 0.0, 1.673044482556645E9, 0.0, 2023-01-06 17:34:42.556
114.0, -21579.80460879858, -26966.820891716587, -32613.430334738536, -21816.733100024834, -8254.789800022818, -6283.231828598003, -18446.31355360908, -9651.080924401394, -23179.451904231537, 9286.926303735532, -21403.6505107463, -24885.44879978285, -14012.398006009818, -6136.35851578218, -9957.54569262811, -16023.607972098349, -0.4375, 0.8242499999999999, 0.11975000000000001, 192.0, 0.0, 0.0, 0.0, 0.0, 0.0, 0.0, 0.0, 0.0, 0.0, 1.673044482556652E9, 0.0, 2023-01-06 17:34:42.556
116.0, -21590.04170775911, -26980.9695459568, -32609.876407370142, -21812.441565089415, -8285.2552277154, -6270.223113325013, -18471.682783565855, -9649.583357522888, -23195.79102942837, 9262.674661001523, -21417.57564754196, -24886.901663172444, -14017.650665956817, -6147.31087056528, -9981.774983617663, -16025.373759910317, -0.42874999999999996, 0.8411249999999999, 0.12687500000000002, 192.0, 121.0, 112.0, 13.0, 104.0, 2.0, 24.0, 0.0, 0.0, 0.0, 1.6730444825566585E9, 0.0, 2023-01-06 17:34:42.556
118.0, -21575.401315140884, -26969.368990584495, -32587.077628025727, -21774.26478555975, -8257.15908493508, -6278.806183195852, -18429.572097012056, -9625.71169444462, -23233.900753724665, 9248.30248931676, -21413.597037028914, -24904.98422443679, -14015.415491511285, -6175.384661601146, -9961.59135837452, -16017.796518539968, -0.42874999999999996, 0.8411249999999999, 0.12687500000000002, 192.0, 0.0, 0.0, 0.0, 0.0, 0.0, 0.0, 0.0, 0.0, 0.0, 1.6730444825566642E9, 0.0, 2023-01-06 17:34:42.556
120.0, -21565.70065804728, -26964.362199826504, -32582.786093090308, -21745.095759045573, -8221.86568044015, -6263.606996966243, -18423.917105664863, -9601.594162177344, -23200.462544019527, 9277.896198975588, -21385.836170415423, -24862.068875082598, -13919.526507798018, -6144.002812385895, -9914.831508974017, -15977.898654687246, -0.42874999999999996, 0.8411249999999999, 0.12687500000000002, 192.0, 0.0, 0.0, 0.0, 0.0, 0.0, 0.0, 0.0, 0.0, 0.0, 1.6730444825566697E9, 0.0, 2023-01-06 17:34:42.556
122.0, -21567.667611559347, -26978.734371511266, -32575.49942439788, -21742.77117762222, -8228.995886921393, -6280.124936118715, -18433.617762758466, -9585.635016636255, -23165.72793313598, 9264.59691102468, -21414.33464459594, -24874.608203722026, -13928.176632902221, -6167.829771975252, -9916.954924697271, -15976.937529675668, -0.42874999999999996, 0.8411249999999999, 0.12687500000000002, 192.0, 0.0, 0.0, 0.0, 0.0, 0.0, 0.0, 0.0, 0.0, 0.0, 1.6730444825566752E9, 0.0, 2023-01-06 17:34:42.556
124.0, -21556.625849798424, -26980.209586645316, -32561.239011435395, -21732.48937517278, -8204.274857553823, -6262.578816721299, -18422.01720738616, -9543.814902760376, -23192.974709627, 9253.01870739683, -21371.486350475116, -24849.48484295426, -13907.61302800334, -6164.074678906761, -9911.881078705917, -15977.630433753782, -0.42874999999999996, 0.8411249999999999, 0.12687500000000002, 192.0, 0.0, 0.0, 0.0, 0.0, 0.0, 0.0, 0.0, 0.0, 0.0, 1.673044482556681E9, 0.0, 2023-01-06 17:34:42.556
126.0, -21572.7414575507, -26980.7683802567, -32596.77828511933, -21732.556430406148, -8185.186467788991, -6236.896662342151, -18411.400128769892, -9505.705178464077, -23170.041819815855, 9251.543492262781, -21362.52330094854, -24858.29143026965, -13900.03578663299, -6134.9727076259505, -9892.256247074158, -15962.855930668824, -0.401375, 0.8765624999999999, 0.1574375, 192.0, 122.0, 40.0, 14.0, 64.0, 2.5, 112.0, 0.0, 0.0, 0.0, 1.6730444825566862E9, 0.0, 2023-01-06 17:34:42.556
128.0, -21517.219724323717, -26940.646998959422, -32521.29644409376, -21710.003520250742, -8210.667456468042, -6223.865595324707, -18429.03565514513, -9478.92778860662, -23290.964757319067, 9298.325693407738, -21435.09941519492, -24845.10390104102, -13907.456565792152, -6141.4994170069, -9919.055988676071, -15979.597387265849, -0.401375, 0.8765624999999999, 0.1574375, 192.0, 0.0, 0.0, 0.0, 0.0, 0.0, 0.0, 0.0, 0.0, 0.0, 1.673044482556692E9, 0.0, 2023-01-06 17:34:42.556
