%OpenBCI Raw EEG Data
%Number of channels = 16
%Sample Rate = 125 Hz
%Board = OpenBCI_GUI$BoardCytonSerialDaisy
Sample Index, EXG Channel 0, EXG Channel 1, EXG Channel 2, EXG Channel 3, EXG Channel 4, EXG Channel 5, EXG Channel 6, EXG Channel 7, EXG Channel 8, EXG Channel 9, EXG Channel 10, EXG Channel 11, EXG Channel 12, EXG Channel 13, EXG Channel 14, EXG Channel 15, Accel Channel 0, Accel Channel 1, Accel Channel 2, Other, Other, Other, Other, Other, Other, Other, Analog Channel 0, Analog Channel 1, Analog Channel 2, Timestamp, Other, Timestamp (Formatted)
62.0, -5429.506949127549, -6516.3381715223995, -28199.43019144895, -27109.626187041544, -15262.396962928411, 5323.962011809589, 57544.78961763259, 19654.201823973875, -15141.719894614209, -6518.886270390305, -20428.443900161255, -27258.06412196924, 6333.992640256005, -11531.644944148653, -10451.139265434655, -9812.147594946337, 0.0, 0.0, 0.0, 192.0, 0.0, 0.0, 0.0, 0.0, 0.0, 0.0, 0.0, 0.0, 0.0, 1.662677933418259E9, 0.0, 2022-09-08 18:58:53.418
64.0, -5304.985380767033, -6420.3150773424, -27996.811627961593, -26975.068685420596, -15161.76940939062, 5391.173707386698, 57534.3290012275, 19728.81194696569, -14511.065424807719, -6135.777370426342, -20168.224891212572, -27083.809922195665, 6363.385184214733, -11455.35844032269, -10356.054944521778, -9726.942745082706, 0.0, 0.0, 0.0, 192.0, 0.0, 0.0, 0.0, 0.0, 0.0, 0.0, 0.0, 0.0, 0.0, 1.662677933418265E9, 0.0, 2022-09-08 18:58:53.418
66.0, -5388.11151839632, -6498.859107358349, -28099.584948967095, -27053.612715436546, -15220.666256030352, 5362.0270326169775, 57566.090830098496, 19704.828525165143, -14761.44966619607, -6387.972103115571, -20242.835014204386, -27148.18294622695, 6297.96162819405, -11472.435173086546, -10344.968479271947, -9722.695913636198, 0.0, 0.0, 0.0, 192.0, 0.0, 0.0, 0.0, 0.0, 0.0, 0.0, 0.0, 0.0, 0.0, 1.6626779334182703E9, 0.0, 2022-09-08 18:58:53.418
68.0, -5358.987195371055, -6464.0350894969815, -28077.300259745152, -27012.284339938684, -15211.05500591457, 5372.822925188891, 57524.44953017826, 19680.822751620144, -14718.869593008709, -6289.020930411927, -20231.05564487644, -27134.66014083149, 6311.573840567332, -11462.26512935938, -10373.28813949682, -9732.485977707622, 0.0, 0.0, 0.0, 192.0, 0.0, 0.0, 0.0, 0.0, 0.0, 0.0, 0.0, 0.0, 0.0, 1.6626779334182758E9, 0.0, 2022-09-08 18:58:53.418
70.0, -5397.521602812005, -6490.320740976423, -28109.17384733842, -27055.199689292873, -15252.808064557084, 5355.075640091377, 57582.653472739876, 19639.181451699907, -14719.875421509198, -6349.057716018881, -20249.71935149662, -27151.5580596397, 6287.635122255698, -11401.267218740848, -10376.730308142938, -9747.819274403962, 0.224, 0.9500000000000001, 0.134, 192.0, 3.5, 0.0, 14.5, 88.0, 2.0, 24.0, 0.0, 0.0, 0.0, 1.6626779334182813E9, 0.0, 2022-09-08 18:58:53.418
72.0, -5444.8849493128, -6511.532546464508, -28170.171757956956, -27044.917886843432, -15246.191948198313, 5358.338994781851, 57515.50883239613, 19599.820029714112, -14822.425225070147, -6237.164883275615, -20274.52978784201, -27106.228721884338, 6337.255994946479, -11400.77548036283, -10377.646729665605, -9743.25951853508, 0.224, 0.9500000000000001, 0.134, 192.0, 0.0, 0.0, 0.0, 0.0, 0.0, 0.0, 0.0, 0.0, 0.0, 1.662677933418303E9, 0.0, 2022-09-08 18:58:53.418
74.0, -5380.802497959435, -6471.969958778615, -28125.021234157233, -27042.705064142356, -15219.615724040954, 5359.881265149268, 57624.384179637935, 19594.768535467214, -14887.938188068652, -6343.670945605153, -20337.137024061325, -27174.468597706393, 6452.3227754024, -11394.271122726337, -10403.44064276703, -9765.812428690486, 0.224, 0.9500000000000001, 0.134, 192.0, 0.0, 0.0, 0.0, 0.0, 0.0, 0.0, 0.0, 0.0, 0.0, 1.6626779334183092E9, 0.0, 2022-09-08 18:58:53.418
76.0, -5363.077564606377, -6458.178932449691, -28117.17577185342, -27047.510689200248, -15235.641924815409, 5359.34482328234, 57556.03254509361, 19594.902645933944, -14571.88452147061, -6290.317331590335, -20239.325790324903, -27162.353952211615, 6286.137555377192, -11365.325613656714, -10355.697316610494, -9744.153588313293, 0.224, 0.9500000000000001, 0.134, 192.0, 0.0, 0.0, 0.0, 0.0, 0.0, 0.0, 0.0, 0.0, 0.0, 1.6626779334183156E9, 0.0, 2022-09-08 18:58:53.418
78.0, -5316.049494272411, -6389.7825944164515, -28032.93204700137, -26979.650793033936, -15194.157087106358, 5366.810305930413, 57658.98468005475, 19582.430372527884, -14544.056599623753, -6104.104948533171, -20208.681548676675, -27091.901253688487, 6373.130544797247, -11241.631059841045, -10352.90334855358, -9730.988410829117, 0.224, 0.9500000000000001, 0.134, 192.0, 0.0, 0.0, 0.0, 0.0, 0.0, 0.0, 0.0, 0.0, 0.0, 1.662677933418321E9, 0.0, 2022-09-08 18:58:53.418
80.0, -5368.374928042284, -6457.910711516227, -28097.46153324384, -27039.397005962972, -15211.904372203873, 5363.658709962215, 57569.26477781115, 19542.2642877417, -14536.16643383103, -6135.7326669374315, -20169.476588902067, -27065.861471398053, 6305.58357305331, -11301.310217536715, -10337.033609990312, -9724.707570637176, 0.226, 0.931, 0.128, 192.0, 3.5, 16.0, 14.0, 64.0, 1.5, 104.0, 0.0, 0.0, 0.0, 1.6626779334183264E9, 0.0, 2022-09-08 18:58:53.418
82.0, -5347.565453954394, -6412.424911549677, -28105.79873392567, -27006.919921269407, -15248.985916255227, 5365.446849518639, 57627.89340351742, 19540.20792725181, -14610.955370778487, -6198.205792690014, -20249.71935149662, -27131.62030358557, 6355.15974225518, -11282.04301381624, -10380.083069811233, -9761.766762944075, 0.226, 0.931, 0.128, 192.0, 0.0, 0.0, 0.0, 0.0, 0.0, 0.0, 0.0, 0.0, 0.0, 1.662677933418332E9, 0.0, 2022-09-08 18:58:53.418
84.0, -5408.943344228666, -6499.909639347749, -28142.410891343465, -27070.868262156044, -15258.060724504081, 5315.066017516377, 57537.79352161808, 19463.51909202565, -14528.700951182956, -6066.218741681426, -20207.273388775993, -27077.573785492634, 6340.117018236759, -11192.278408083726, -10368.661328394572, -9752.69195469522, 0.226, 0.931, 0.128, 192.0, 0.0, 0.0, 0.0, 0.0, 0.0, 0.0, 0.0, 0.0, 0.0, 1.6626779334183376E9, 0.0, 2022-09-08 18:58:53.418
86.0, -5438.537053887493, -6540.8133317009615, -28224.464145238897, -27157.838899831644, -15274.846884590017, 5288.489793359017, 57563.65448995287, 19420.201411271264, -14707.403148103136, -6247.156113047137, -20318.20509650768, -27232.829002479197, 6294.6312182702095, -11169.725497928323, -10422.953715676513, -9811.901725757329, 0.226, 0.931, 0.128, 192.0, 0.0, 0.0, 0.0, 0.0, 0.0, 0.0, 0.0, 0.0, 0.0, 1.6626779334183435E9, 0.0, 2022-09-08 18:58:53.418
88.0, -5377.337977568863, -6439.984612463071, -28177.883109794035, -27029.338720958083, -15242.056875474082, 5334.176759025665, 57545.0801903105, 19467.00596416068, -14614.531649891336, -6151.334184567236, -20314.718224372653, -27208.331490556182, 6392.59891421782, -11156.292099510682, -10443.897300231136, -9810.001827478627, 0.226, 0.931, 0.128, 192.0, 0.0, 0.0, 0.0, 0.0, 0.0, 0.0, 0.0, 0.0, 0.0, 1.6626779334183493E9, 0.0, 2022-09-08 18:58:53.418
90.0, -5376.555666512927, -6465.1526767197465, -28138.499336063785, -27043.867354854032, -15256.518454136665, 5324.319639720874, 57573.64571972439, 19457.238251833707, -14484.422145416993, -5995.341360013647, -20262.4821975806, -27142.37149266857, 6257.370860263212, -11148.714858140333, -10387.86147688168, -9751.909643639285, 0.23299999999999998, 0.9215, 0.124, 192.0, 3.5, 64.0, 14.0, 64.0, 1.5, 96.0, 0.0, 0.0, 0.0, 1.6626779334183545E9, 0.0, 2022-09-08 18:58:53.418
92.0, -5397.901582467745, -6489.739595620585, -28172.876319036048, -27089.777837965234, -15269.214244987279, 5300.962066765078, 57532.71967562672, 19453.259641320663, -14468.373592898082, -6070.622035339122, -20260.850520235363, -27173.418065716993, 6224.357333702724, -11102.178526184383, -10406.569886990774, -9781.324539342468, 0.23299999999999998, 0.9215, 0.124, 192.0, 0.0, 0.0, 0.0, 0.0, 0.0, 0.0, 0.0, 0.0, 0.0, 1.6626779334183607E9, 0.0, 2022-09-08 18:58:53.418
94.0, -5443.566196389937, -6528.162244339257, -28191.58472914514, -27097.399782824494, -15272.052916533105, 5329.147616523221, 57535.737161128185, 19486.586092303525, -14547.49876826987, -6036.557976789234, -20298.960244531663, -27194.920443883, 6245.90441535764, -11100.546848839147, -10406.100500357212, -9781.212780620192, 0.23299999999999998, 0.9215, 0.124, 192.0, 0.0, 0.0, 0.0, 0.0, 0.0, 0.0, 0.0, 0.0, 0.0, 1.6626779334183702E9, 0.0, 2022-09-08 18:58:53.418
96.0, -5450.875216826823, -6518.461587245654, -28291.161750693533, -27145.79130957023, -15305.021739604681, 5280.465517099562, 57490.13960243936, 19446.487062750704, -14677.04947913283, -6204.508984626411, -20406.650949317333, -27308.824933627242, 6196.6635223225985, -11003.048539525098, -10455.699021303537, -9816.819109537497, 0.23299999999999998, 0.9215, 0.124, 192.0, 0.0, 0.0, 0.0, 0.0, 0.0, 0.0, 0.0, 0.0, 0.0, 1.6626779334183764E9, 0.0, 2022-09-08 18:58:53.418
98.0, -5328.298250233919, -6411.463786538099, -28068.672486385407, -27004.483581123783, -15237.944154494306, 5349.10772432181, 57526.26002147914, 19494.990348218722, -14170.80481896458, -5843.461256439836, -20233.514336766522, -27116.84580050061, 6204.7101503265085, -11078.150400894929, -10398.143279331121, -9756.044716363516, 0.23299999999999998, 0.9215, 0.124, 192.0, 0.0, 0.0, 0.0, 0.0, 0.0, 0.0, 0.0, 0.0, 0.0, 1.6626779334183817E9, 0.0, 2022-09-08 18:58:53.418
100.0, -5446.248405724574, -6517.165186067246, -28303.499913632862, -27118.298663890204, -15342.32680110059, 5276.866886242257, 57472.95111095323, 19434.595934700483, -14418.417444040471, -6064.520009102823, -20369.345887821422, -27235.265342624825, 6210.432196907067, -11102.446747117847, -10457.68832656006, -9788.968835946183, 0.23349999999999999, 0.92875, 0.125, 192.0, 3.5, 40.0, 14.5, 32.0, 1.5, 120.0, 0.0, 0.0, 0.0, 1.662677933418388E9, 0.0, 2022-09-08 18:58:53.418
102.0, -5403.087187181376, -6489.918409576227, -28230.45441275292, -27107.32395736265, -15275.673899134863, 5307.578183123849, 57481.422422101794, 19455.69598146629, -14239.648191886925, -5943.239443688327, -20268.517168583534, -27182.269356521294, 6147.601443243199, -11017.979504821242, -10411.554326004307, -9754.703611696197, 0.23349999999999999, 0.92875, 0.125, 192.0, 0.0, 0.0, 0.0, 0.0, 0.0, 0.0, 0.0, 0.0, 0.0, 1.662677933418394E9, 0.0, 2022-09-08 18:58:53.418
104.0, -5367.972596642089, -6452.903920758238, -28208.39324097553, -27094.427000811935, -15298.517381968188, 5312.182642481643, 57497.53802985407, 19435.221783545232, -14089.489172636173, -6040.961270446929, -20322.139003531815, -27230.169144889016, 6347.560149140376, -11030.295316016116, -10453.888530002658, -9791.516934814088, 0.23349999999999999, 0.92875, 0.125, 192.0, 0.0, 0.0, 0.0, 0.0, 0.0, 0.0, 0.0, 0.0, 0.0, 1.6626779334184008E9, 0.0, 2022-09-08 18:58:53.418
106.0, -5363.010509373011, -6459.430630139188, -28127.05524290267, -27066.710837687355, -15250.662297089375, 5329.594651412327, 57449.191206597236, 19478.29359511061, -13921.046426420979, -5924.732199279332, -20213.442470245656, -27172.345181983135, 6218.411769677612, -11006.267190726661, -10399.842011909725, -9763.867826922873, 0.23349999999999999, 0.92875, 0.125, 192.0, 0.0, 0.0, 0.0, 0.0, 0.0, 0.0, 0.0, 0.0, 0.0, 1.6626779334184072E9, 0.0, 2022-09-08 18:58:53.418
108.0, -5502.798319196501, -6590.233038691645, -28341.43082397352, -27226.458755309435, -15359.112961186525, 5249.3295370733185, 57442.15040709382, 19398.60962612744, -14123.55323118606, -6336.764256568463, -20454.41662721832, -27333.143631594616, 6150.350707811202, -10977.41108863486, -10481.381175682685, -9822.161176462314, 0.23349999999999999, 0.92875, 0.125, 192.0, 0.0, 0.0, 0.0, 0.0, 0.0, 0.0, 0.0, 0.0, 0.0, 1.6626779334184136E9, 0.0, 2022-09-08 18:58:53.418
110.0, -5220.562841959339, -6293.133651391703, -27923.229685214723, -26934.768490167677, -15117.870583280395, 5369.805439687424, 57530.9315360703, 19486.653147536894, -13908.171821614722, -5751.237958817239, -20255.10612191035, -27198.98846137386, 6275.900456416662, -10963.105972183463, -10409.185041092043, -9796.300208127524, 0.23475000000000001, 0.932375, 0.1215, 192.0, 3.5, 48.0, 14.5, 32.0, 1.5, 88.0, 0.0, 0.0, 0.0, 1.6626779334184198E9, 0.0, 2022-09-08 18:58:53.418
112.0, -5253.866941197746, -6337.323050179845, -27929.465821917755, -26970.643040018447, -15124.196126961248, 5383.015320660511, 57560.30172828457, 19501.651168066404, -13558.545834844808, -5745.493560492225, -20022.96090399753, -26994.782924030176, 5932.443551116414, -10977.388736890405, -10217.004742265313, -9677.29952064747, 0.23475000000000001, 0.932375, 0.1215, 192.0, 0.0, 0.0, 0.0, 0.0, 0.0, 0.0, 0.0, 0.0, 0.0, 1.662677933418426E9, 0.0, 2022-09-08 18:58:53.418
114.0, -5303.085482488333, -6385.5581147143985, -28044.510250629217, -27019.883933053487, -15149.61006040693, 5352.39343075674, 57479.61193080091, 19484.976766702744, -13674.551388567852, -5897.820698955143, -20147.303658402405, -27102.138352649017, 6079.518029632334, -10986.08356548352, -10295.191144369977, -9714.559878654467, 0.23475000000000001, 0.932375, 0.1215, 192.0, 0.0, 0.0, 0.0, 0.0, 0.0, 0.0, 0.0, 0.0, 0.0, 1.6626779334184318E9, 0.0, 2022-09-08 18:58:53.418
116.0, -5303.845441799813, -6379.366681500278, -28068.001934051747, -27012.172581216408, -15183.808229423552, 5372.375890299784, 57568.8400946665, 19511.82121179357, -13700.14413596918, -5926.565042324668, -20198.064470060406, -27127.88756226153, 6095.119547262138, -10957.093352924985, -10333.81495878875, -9726.428654960235, 0.23475000000000001, 0.932375, 0.1215, 192.0, 0.0, 0.0, 0.0, 0.0, 0.0, 0.0, 0.0, 0.0, 0.0, 1.6626779334184375E9, 0.0, 2022-09-08 18:58:53.418
118.0, -5280.554924077383, -6355.249149233002, -28048.399454164442, -26984.411714602917, -15192.324244061023, 5380.1095938813205, 57511.59727711645, 19500.10889769899, -13678.552350825352, -5894.3114750756595, -20181.412420441204, -27107.189846895915, 6179.720900025475, -10930.472425278715, -10335.647801834084, -9712.794090842497, 0.23475000000000001, 0.932375, 0.1215, 192.0, 0.0, 0.0, 0.0, 0.0, 0.0, 0.0, 0.0, 0.0, 0.0, 1.6626779334184437E9, 0.0, 2022-09-08 18:58:53.418
120.0, -5326.823035099868, -6406.009960891004, -28091.493617474272, -27033.473793682315, -15222.052064186582, 5328.879395589757, 57557.64187069439, 19454.176062843333, -13662.70496400654, -5883.806155181665, -20169.18601622415, -27093.957614178376, 6221.18338599007, -10925.242117076174, -10329.299906408776, -9702.221715715137, 0.236375, 0.9291875, 0.12375, 192.0, 3.5, 56.0, 14.0, 120.0, 1.5, 120.0, 0.0, 0.0, 0.0, 1.6626779334184496E9, 0.0, 2022-09-08 18:58:53.418
122.0, -5302.079653987844, -6379.970178600572, -28071.689971886874, -27010.563255615623, -15190.379642293412, 5363.30108205093, 57513.58658237298, 19491.548179572605, -13711.252952963467, -5943.485312877335, -20220.371511026802, -27146.61832411508, 6213.829662064274, -10973.633643821913, -10380.373642489152, -9749.78622791603, 0.236375, 0.9291875, 0.12375, 192.0, 0.0, 0.0, 0.0, 0.0, 0.0, 0.0, 0.0, 0.0, 0.0, 1.662677933418456E9, 0.0, 2022-09-08 18:58:53.418
124.0, -5309.545136635917, -6386.988626359538, -28083.13406504799, -27029.53988665818, -15189.954959148761, 5356.953186625622, 57566.60492022097, 19493.33631912903, -13662.056763417337, -5888.432966283914, -20178.99843204003, -27097.489189802312, 6273.95585464905, -10962.368364616439, -10332.89853726608, -9707.809651828964, 0.236375, 0.9291875, 0.12375, 192.0, 0.0, 0.0, 0.0, 0.0, 0.0, 0.0, 0.0, 0.0, 0.0, 1.662677933418462E9, 0.0, 2022-09-08 18:58:53.418
126.0, -5312.853194815301, -6394.252943307512, -28070.482977686286, -27032.937351815388, -15216.732349006219, 5330.444017701629, 57457.08137238996, 19462.177987358333, -13701.149964469669, -5936.422161629458, -20206.401670742234, -27139.890449034032, 6287.366901322234, -11019.566478677569, -10366.560264415773, -9755.888254152329, 0.236375, 0.9291875, 0.12375, 192.0, 0.0, 0.0, 0.0, 0.0, 0.0, 0.0, 0.0, 0.0, 0.0, 1.6626779334184697E9, 0.0, 2022-09-08 18:58:53.418
128.0, -5304.940677278123, -6389.31320778289, -28044.912582029414, -27012.19493296086, -15220.509793819165, 5326.510110677495, 57522.37081794391, 19501.271188410665, -13693.23744693249, -5911.701132261888, -20177.009126783505, -27108.530951563236, 6288.484488544999, -10995.158373732374, -10339.157025713566, -9726.696875893698, 0.236375, 0.9291875, 0.12375, 192.0, 0.0, 0.0, 0.0, 0.0, 0.0, 0.0, 0.0, 0.0, 0.0, 1.6626779334184759E9, 0.0, 2022-09-08 18:58:53.418
130.0, -5327.538290922438, -6410.368551059789, -28060.06706477011, -27026.254180223248, -15216.397072839389, 5312.584973881838, 57432.472101744665, 19455.56187099956, -13740.600793433285, -5929.98485922633, -20195.985757826063, -27128.98279773984, 6249.413639237123, -11036.978487608254, -10362.134619013623, -9746.344059269913, 0.2391875, 0.93359375, 0.124875, 192.0, 3.5, 72.0, 14.5, 40.0, 1.5, 120.0, 0.0, 0.0, 0.0, 1.662677933418482E9, 0.0, 2022-09-08 18:58:53.418
132.0, -5321.436264686139, -6406.769920202484, -28055.864936812515, -27020.82270632061, -15220.599200796987, 5334.065000303388, 57484.506962836625, 19522.974732276765, -13776.810619450882, -5906.046140914696, -20196.65631015972, -27120.33267263564, 6267.540903990377, -11036.084417830041, -10366.76143011587, -9738.54330045501, 0.2391875, 0.93359375, 0.124875, 192.0, 0.0, 0.0, 0.0, 0.0, 0.0, 0.0, 0.0, 0.0, 0.0, 1.662677933418488E9, 0.0, 2022-09-08 18:58:53.418
134.0, -5286.165211935665, -6379.456088478099, -28016.12353517098, -26987.89858673794, -15200.750851720673, 5352.885169134756, 57434.05907560099, 19532.787148092648, -13823.659875829206, -5875.7371754333, -20196.47749620408, -27115.683509788934, 6256.230921295992, -11047.416752268882, -10379.390165733119, -9737.31395450997, 0.2391875, 0.93359375, 0.124875, 192.0, 0.0, 0.0, 0.0, 0.0, 0.0, 0.0, 0.0, 0.0, 0.0, 1.6626779334184935E9, 0.0, 2022-09-08 18:58:53.418
136.0, -5291.551982349394, -6392.21893456208, -28030.83098302257, -27002.404868889436, -15213.111366404459, 5360.06007910491, 57479.70133777873, 19518.034996752143, -13851.085466275868, -5801.730549541778, -20174.03634477095, -27088.101457131084, 6266.892703401173, -11032.798711395111, -10345.169644972044, -9718.560840911967, 0.2391875, 0.93359375, 0.124875, 192.0, 0.0, 0.0, 0.0, 0.0, 0.0, 0.0, 0.0, 0.0, 0.0, 1.662677933418499E9, 0.0, 2022-09-08 18:58:53.418
138.0, -5307.064093001377, -6407.552231258421, -28042.61035235052, -27008.90922652593, -15207.992816924194, 5325.057247287899, 57445.88314841785, 19481.66870852336, -13912.552763527961, -5744.577138969557, -20182.75352510852, -27093.063544400164, 6260.947139376061, -11060.42546754187, -10361.911101569069, -9726.071027048949, 0.2391875, 0.93359375, 0.124875, 192.0, 0.0, 0.0, 0.0, 0.0, 0.0, 0.0, 0.0, 0.0, 0.0, 1.6626779334185045E9, 0.0, 2022-09-08 18:58:53.418
140.0, -5279.392633365707, -6383.814678646884, -28026.91942774289, -26979.740200011754, -15224.48840433221, 5382.501230538039, 57481.89180873535, 19581.648061471948, -13981.95493006169, -5717.240955500717, -20213.6212842013, -27122.389033125524, 6224.603202891732, -11088.990996955752, -10383.547590201806, -9730.854300362385, 0.2391875, 0.93359375, 0.124875, 192.0, 0.0, 0.0, 0.0, 0.0, 0.0, 0.0, 0.0, 0.0, 0.0, 1.6626779334185095E9, 0.0, 2022-09-08 18:58:53.418
142.0, -5271.6365780397155, -6372.102364552304, -28025.220695164287, -26968.944307439844, -15228.4446631008, 5378.746137469547, 57462.62460501488, 19559.16220654991, -13972.544845646007, -5609.371436759405, -20156.691391073633, -27058.35128526107, 6271.318348803324, -11038.699571931313, -10328.875223264125, -9672.359785122846, 0.23, 0.9380000000000001, 0.124, 192.0, 3.5, 24.0, 14.5, 40.0, 1.5, 112.0, 0.0, 0.0, 0.0, 1.6626779334185157E9, 0.0, 2022-09-08 18:58:53.418
144.0, -5288.422738125651, -6388.016806604482, -28038.49763137074, -26984.61288030301, -15217.112328661959, 5366.676195463681, 57495.32520715299, 19549.215680267298, -14069.126733437388, -5630.87381492541, -20200.456106717123, -27097.980928180332, 6229.9452698165505, -11082.95602595282, -10368.594273161207, -9719.276096734537, 0.23, 0.9380000000000001, 0.124, 192.0, 0.0, 0.0, 0.0, 0.0, 0.0, 0.0, 0.0, 0.0, 0.0, 1.6626779334185216E9, 0.0, 2022-09-08 18:58:53.418
146.0, -5322.889128075734, -6435.93894671666, -28076.920280089413, -27045.186107776895, -15227.796462511596, 5291.753148049492, 57468.36900333989, 19465.866025193456, -14093.959521527235, -5637.35582081745, -20176.919719805686, -27081.775913450234, 6217.89767955514, -11102.290284906661, -10359.0947817677, -9716.124500766338, 0.23, 0.9380000000000001, 0.124, 192.0, 0.0, 0.0, 0.0, 0.0, 0.0, 0.0, 0.0, 0.0, 0.0, 1.6626779334185278E9, 0.0, 2022-09-08 18:58:53.418
148.0, -5282.343063633807, -6401.561963744398, -28027.41116612091, -26998.940348498865, -15205.042386656092, 5368.151410597731, 57479.880151734375, 19571.701535189335, -14206.56761009307, -5704.992199539209, -20218.940999381663, -27128.08872796163, 6185.800574517319, -11181.527219000724, -10397.271561297364, -9766.997071146616, 0.23, 0.9380000000000001, 0.124, 192.0, 0.0, 0.0, 0.0, 0.0, 0.0, 0.0, 0.0, 0.0, 0.0, 1.662677933418534E9, 0.0, 2022-09-08 18:58:53.418
150.0, -5291.149650949198, -6414.883603439761, -28013.843657236535, -26994.447647863348, -15221.046235686093, 5343.810360885902, 57478.87432323388, 19544.54416567614, -14238.575308153071, -5659.439344339293, -20166.548510378423, -27068.74484643279, 6227.866557582207, -11133.046285277163, -10338.642935591095, -9694.018625500039, 0.23, 0.9380000000000001, 0.124, 192.0, 0.0, 0.0, 0.0, 0.0, 0.0, 0.0, 0.0, 0.0, 0.0, 1.662677933418542E9, 0.0, 2022-09-08 18:58:53.418
152.0, -5308.248735457509, -6431.200376892135, -28028.282884154665, -27004.908264268433, -15214.743043749697, 5345.687907420148, 57454.86854968889, 19540.76672086319, -14333.92784999941, -5711.98829555372, -20181.14419950774, -27084.212253595862, 6215.483691153967, -11142.478721437303, -10354.75854334337, -9710.335398952413, 0.242, 0.9420000000000001, 0.14200000000000002, 192.0, 3.5, 72.0, 14.5, 56.0, 2.0, 56.0, 0.0, 0.0, 0.0, 1.662677933418548E9, 0.0, 2022-09-08 18:58:53.418
154.0, -5374.856933934323, -6498.702645147163, -28102.42362051292, -27068.87895689952, -15299.210286046302, 5264.7075372585705, 57446.7101629627, 19464.547272270593, -14475.414392401504, -5815.588631104068, -20252.669781764722, -27154.821414330178, 6169.8414289762295, -11237.875966772554, -10417.25402084041, -9776.809486962497, 0.242, 0.9420000000000001, 0.14200000000000002, 192.0, 0.0, 0.0, 0.0, 0.0, 0.0, 0.0, 0.0, 0.0, 0.0, 1.662677933418558E9, 0.0, 2022-09-08 18:58:53.418
156.0, -5319.156386751698, -6441.482179341577, -28071.75702712024, -27015.413584162427, -15250.796407556107, 5331.628660157759, 57430.661610443785, 19543.62774415347, -14488.713680352412, -5826.764503331721, -20231.525031510002, -27128.245190172816, 6208.6440573506425, -11226.945963733908, -10409.520317258874, -9765.834780434941, 0.242, 0.9420000000000001, 0.14200000000000002, 192.0, 0.0, 0.0, 0.0, 0.0, 0.0, 0.0, 0.0, 0.0, 0.0, 1.662677933418568E9, 0.0, 2022-09-08 18:58:53.418
158.0, -5349.666517933192, -6473.266359957023, -28089.504312217752, -27045.92371534392, -15238.659410316875, 5312.584973881838, 57458.93656717975, 19473.979708430732, -14533.014837862831, -5877.391204522992, -20235.48129027859, -27124.89242850452, 6199.8374700352515, -11238.635926084033, -10393.136488573133, -9746.388762758823, 0.242, 0.9420000000000001, 0.14200000000000002, 192.0, 0.0, 0.0, 0.0, 0.0, 0.0, 0.0, 0.0, 0.0, 0.0, 1.6626779334185762E9, 0.0, 2022-09-08 18:58:53.418
160.0, -5357.243759303541, -6486.699758374662, -28094.153475064457, -27044.917886843432, -15234.01024747017, 5339.697639906125, 57418.502261460104, 19604.826820472103, -14592.068146713753, -5944.401734400003, -20247.081845650893, -27147.13241423755, 6163.717050995476, -11276.879760847063, -10404.82645092326, -9753.496617495612, 0.242, 0.9420000000000001, 0.14200000000000002, 192.0, 0.0, 0.0, 0.0, 0.0, 0.0, 0.0, 0.0, 0.0, 0.0, 1.6626779334185824E9, 0.0, 2022-09-08 18:58:53.418
162.0, -5343.944471352634, -6469.310101188434, -28079.624841168505, -27036.670093139423, -15233.652619558887, 5322.129168764254, 57478.963730211704, 19561.710305417815, -14626.311019219283, -6001.599848461134, -20253.496796309566, -27148.51822239378, 6215.148414987138, -11277.952644580919, -10407.173384091066, -9751.015573861072, 0.23600000000000002, 0.9480000000000001, 0.146, 192.0, 3.5, 48.0, 14.5, 80.0, 2.0, 72.0, 0.0, 0.0, 0.0, 1.6626779334185882E9, 0.0, 2022-09-08 18:58:53.418
164.0, -5360.082430849366, -6484.598694395864, -28083.55874819264, -27041.319255986127, -15218.699302518286, 5330.421665957173, 57429.38756100983, 19566.87355838699, -14648.08161831875, -6043.4646658259235, -20247.52888054, -27139.711635078387, 6230.1240837721925, -11290.022586586785, -10379.81484887777, -9745.517044725066, 0.23600000000000002, 0.9480000000000001, 0.146, 192.0, 0.0, 0.0, 0.0, 0.0, 0.0, 0.0, 0.0, 0.0, 0.0, 1.662677933418594E9, 0.0, 2022-09-08 18:58:53.418
166.0, -5376.421556046195, -6497.9650375801375, -28109.19619908288, -27053.74682590328, -15255.44557040281, 5303.532517377439, 57468.86074171791, 19589.091192375567, -14678.234121588961, -6089.822183826231, -20261.05168593546, -27141.812699057187, 6262.981148121495, -11316.107072366129, -10406.458128268496, -9751.26144305008, 0.23600000000000002, 0.9480000000000001, 0.146, 192.0, 0.0, 0.0, 0.0, 0.0, 0.0, 0.0, 0.0, 0.0, 0.0, 1.6626779334185998E9, 0.0, 2022-09-08 18:58:53.418
168.0, -5353.511017979506, -6467.365499420822, -28081.725905147305, -27030.07632852511, -15246.3484104095, 5338.445942216628, 57430.728665677154, 19566.29241303115, -14715.226258662495, -6135.68796344852, -20266.237290649093, -27142.617361857578, 6240.942328088561, -11328.109959138628, -10399.037349109334, -9756.938786141729, 0.23600000000000002, 0.9480000000000001, 0.146, 192.0, 0.0, 0.0, 0.0, 0.0, 0.0, 0.0, 0.0, 0.0, 0.0, 1.6626779334186056E9, 0.0, 2022-09-08 18:58:53.418
170.0, -5385.384605572773, -6492.980598566604, -28105.150533336466, -27056.54079396019, -15244.426160386343, 5308.338142435329, 57513.51952713961, 19588.957081908833, -14736.996857761964, -6145.165103097571, -20267.64545054978, -27132.55907685269, 6277.085098872793, -11335.933069697985, -10398.456203753496, -9751.552015727999, 0.23600000000000002, 0.9480000000000001, 0.146, 192.0, 0.0, 0.0, 0.0, 0.0, 0.0, 0.0, 0.0, 0.0, 0.0, 1.6626779334186113E9, 0.0, 2022-09-08 18:58:53.418
172.0, -5365.268035562996, -6466.538484875976, -28087.60441393905, -27041.900401341965, -15213.15606989337, 5319.268145473975, 57460.4117823138, 19568.505235732227, -14765.428276709114, -6183.453641349512, -20270.35001162887, -27136.157707709994, 6262.310595787835, -11387.342081945191, -10402.144241588621, -9766.08064962395, 0.23800000000000002, 0.926, 0.126, 192.0, 3.5, 56.0, 14.0, 120.0, 1.5, 120.0, 0.0, 0.0, 0.0, 1.6626779334186156E9, 0.0, 2022-09-08 18:58:53.418
174.0, -5357.422573259184, -6450.177007934691, -28084.09519005957, -27025.985959289785, -15206.115270389948, 5342.312794007396, 57532.026771548604, 19586.990128396767, -14749.089151512284, -6166.019280674373, -20239.348142069357, -27091.163646121462, 6266.177447578603, -11355.088514696183, -10378.943130844013, -9740.711419667176, 0.23800000000000002, 0.926, 0.126, 192.0, 0.0, 0.0, 0.0, 0.0, 0.0, 0.0, 0.0, 0.0, 0.0, 1.66267793341862E9, 0.0, 2022-09-08 18:58:53.418
176.0, -5389.184402130175, -6476.864990814328, -28089.593719195575, -27030.992750047775, -15245.700209820297, 5345.017355086488, 57460.38943056935, 19580.284605060173, -14800.699329459589, -6220.8481098232405, -20272.562834329943, -27117.695166789912, 6271.452459270055, -11381.642387109088, -10401.0043026214, -9751.26144305008, 0.23800000000000002, 0.926, 0.126, 192.0, 0.0, 0.0, 0.0, 0.0, 0.0, 0.0, 0.0, 0.0, 0.0, 1.6626779334186244E9, 0.0, 2022-09-08 18:58:53.418
178.0, -5410.30680064044, -6495.036959056492, -28107.072783359625, -27039.821689107623, -15240.939288251317, 5343.340974252341, 57518.50396615315, 19592.086326132576, -14815.116204633261, -6242.149322289148, -20273.948642486175, -27106.407535839982, 6274.916979660628, -11396.953332060973, -10383.122907057155, -9731.413093973768, 0.23800000000000002, 0.926, 0.126, 192.0, 0.0, 0.0, 0.0, 0.0, 0.0, 0.0, 0.0, 0.0, 0.0, 1.6626779334186287E9, 0.0, 2022-09-08 18:58:53.418
180.0, -5385.094032894854, -6469.064231999426, -28092.164169807933, -27024.466040666826, -15264.945061796316, 5323.358514709296, 57460.92587243627, 19578.675279459392, -14836.328010121348, -6278.3815000512, -20277.659032065756, -27105.535817806223, 6287.813936211341, -11431.822053411253, -10405.497003256918, -9742.141931312315, 0.23800000000000002, 0.926, 0.126, 192.0, 0.0, 0.0, 0.0, 0.0, 0.0, 0.0, 0.0, 0.0, 0.0, 1.6626779334186337E9, 0.0, 2022-09-08 18:58:53.418
182.0, -5421.616783334825, -6513.119520320835, -28126.071766146633, -27062.151081818472, -15249.790579055618, 5343.788009141446, 57513.58658237298, 19562.53731996266, -14825.800338482899, -6315.775968524929, -20270.126494184315, -27097.042154913208, 6315.932430736117, -11456.02899265635, -10408.49213701393, -9742.87953887934, 0.244, 0.936, 0.132, 192.0, 3.5, 80.0, 14.5, 32.0, 2.0, 16.0, 0.0, 0.0, 0.0, 1.6626779334186394E9, 0.0, 2022-09-08 18:58:53.418
0.0, -2674.6544450109536, -3208.905840981703, -14060.45425658873, -13495.29039803629, -7605.493975340602, 2664.19382860587, 28762.15770985576, 9845.85402558494, -7427.998772621009, -3183.6930732361166, -10143.266337307256, -13555.997735976904, 3126.562014408352, -5743.303089535605, -5209.565783687328, -4873.507305801786, 0.244, 0.932, 0.134, 192.0, 3.5, 80.0, 14.5, 16.0, 2.0, 24.0, 0.0, 0.0, 0.0, 1.662677933971691E9, 0.0, 2022-09-08 18:58:53.971
2.0, -5368.330224553374, -6443.918519487205, -28150.770443769747, -27026.72356685681, -15223.34846536499, 5311.28857270343, 57590.94596993279, 19708.985949633832, -14680.826923945777, -6344.453256661089, -20256.15665389975, -27075.87505291403, 6455.966109748615, -11482.873437747174, -10421.478500542462, -9729.06616080596, 0.244, 0.932, 0.134, 192.0, 0.0, 0.0, 0.0, 0.0, 0.0, 0.0, 0.0, 0.0, 0.0, 1.6626779339717453E9, 0.0, 2022-09-08 18:58:53.971
4.0, -5362.898750650734, -6438.196472906647, -28142.85792623257, -27013.625444606, -15222.767320009152, 5314.0154855269775, 57539.04521930757, 19698.48062973984, -14673.47320001998, -6372.102364552304, -20272.54048258549, -27096.863340957563, 6511.6443051867855, -11499.905467022118, -10438.10819841721, -9739.817349888963, 0.244, 0.932, 0.134, 192.0, 0.0, 0.0, 0.0, 0.0, 0.0, 0.0, 0.0, 0.0, 0.0, 1.6626779339717495E9, 0.0, 2022-09-08 18:58:53.971
6.0, -5393.028902176488, -6463.543351118965, -28153.162080426468, -27037.54181117318, -15205.467069800743, 5301.386749909729, 57562.022812607625, 19689.092897068607, -14611.737681834422, -6336.8983670351945, -20269.232424406102, -27091.767143221754, 6519.1544913237685, -11452.475065287956, -10437.169425150089, -9739.102094066393, 0.244, 0.932, 0.134, 192.0, 0.0, 0.0, 0.0, 0.0, 0.0, 0.0, 0.0, 0.0, 0.0, 1.6626779339717605E9, 0.0, 2022-09-08 18:58:53.971
8.0, -5375.9968729015445, -6457.128400460291, -28140.555696553674, -27036.290113483683, -15214.765395494152, 5291.507278860483, 57512.08901549447, 19668.551643914183, -14656.865853889687, -6401.785481188951, -20311.365462704358, -27131.62030358557, 6504.804671383461, -11482.359347624702, -10447.920614233091, -9765.4548007792, 0.242, 0.936, 0.138, 192.0, 3.5, 72.0, 14.5, 32.0, 2.0, 40.0, 0.0, 0.0, 0.0, 1.6626779339717648E9, 0.0, 2022-09-08 18:58:53.971
10.0, -5305.320656933864, -6380.081937322848, -28094.019364597723, -26972.85586271952, -15181.930682889306, 5330.1534450237095, 57534.03842854958, 19659.141559498497, -14546.515291513837, -6351.739925353519, -20226.71940645211, -27079.7419047048, 6551.989203928614, -11413.940657847006, -10413.945962661024, -9735.347000997901, 0.242, 0.936, 0.138, 192.0, 0.0, 0.0, 0.0, 0.0, 0.0, 0.0, 0.0, 0.0, 0.0, 1.6626779339717696E9, 0.0, 2022-09-08 18:58:53.971
12.0, -5323.738494365036, -6395.1246613412695, -28113.71125146285, -26989.91024373892, -15204.036558155603, 5326.443055444129, 57524.44953017826, 19655.02883851872, -14480.57764537068, -6281.3095785748465, -20204.65823467472, -27034.21140124934, 6542.534416024019, -11369.863017781141, -10389.336692015731, -9708.72607335163, 0.242, 0.936, 0.138, 192.0, 0.0, 0.0, 0.0, 0.0, 0.0, 0.0, 0.0, 0.0, 0.0, 1.662677933971774E9, 0.0, 2022-09-08 18:58:53.971
14.0, -5332.992116569533, -6400.891411410739, -28120.95321666637, -27005.623520091, -15236.111311448969, 5318.150558251209, 57526.41648369032, 19643.450634890873, -14488.043128018753, -6317.63116331472, -20222.092595349863, -27058.574802705625, 6582.856963021393, -11387.744413345386, -10408.983875391947, -9731.63661141832, 0.242, 0.936, 0.138, 192.0, 0.0, 0.0, 0.0, 0.0, 0.0, 0.0, 0.0, 0.0, 0.0, 1.6626779339717784E9, 0.0, 2022-09-08 18:58:53.971
16.0, -5321.8832995752455, -6387.994454860027, -28110.067917116634, -26990.78196177268, -15242.503910363188, 5303.376055166252, 57523.98014354469, 19610.571218797115, -14470.608767343614, -6312.982000468016, -20219.365682526313, -27062.016971351743, 6565.690823279718, -11355.982584474395, -10407.39690153562, -9736.30812600948, 0.242, 0.936, 0.138, 192.0, 0.0, 0.0, 0.0, 0.0, 0.0, 0.0, 0.0, 0.0, 0.0, 1.6626779339717827E9, 0.0, 2022-09-08 18:58:53.971
18.0, -5304.806566811391, -6370.78361162944, -28093.57232970862, -26974.018153431196, -15203.835392455507, 5320.363380952284, 57522.41552143282, 19608.425451329407, -14428.654543001003, -6275.296959316369, -20189.10142053383, -27031.037453536686, 6562.695689522707, -11324.354866070136, -10395.170497318566, -9715.230430988126, 0.242, 0.9500000000000001, 0.14, 192.0, 3.5, 72.0, 14.5, 88.0, 2.0, 48.0, 0.0, 0.0, 0.0, 1.6626779339717877E9, 0.0, 2022-09-08 18:58:53.971
20.0, -5325.392523454729, -6386.9662746150825, -28089.437256984387, -26978.376743599983, -15167.022069337616, 5318.932869307145, 57518.749835342154, 19586.87836967449, -14430.889717446533, -6276.682767472597, -20192.632996157765, -27033.272627982216, 6544.411962558265, -11320.823290446198, -10385.91687511407, -9712.592925142399, 0.242, 0.9500000000000001, 0.14, 192.0, 0.0, 0.0, 0.0, 0.0, 0.0, 0.0, 0.0, 0.0, 0.0, 1.6626779339717925E9, 0.0, 2022-09-08 18:58:53.971
22.0, -5317.323543706363, -6379.992530345026, -28076.406189966943, -26977.48267382177, -15193.799459195074, 5321.570375152872, 57506.14345146936, 19580.48577076027, -14430.643848257525, -6295.39117758169, -20199.09265030535, -27050.63993342399, 6531.62676472983, -11330.09926439515, -10379.658386666582, -9723.187652014214, 0.242, 0.9500000000000001, 0.14, 192.0, 0.0, 0.0, 0.0, 0.0, 0.0, 0.0, 0.0, 0.0, 0.0, 1.6626779339717968E9, 0.0, 2022-09-08 18:58:53.971
24.0, -5314.19429948262, -6374.494001209021, -28080.094227802067, -26973.05702841962, -15233.362046880968, 5304.806566811391, 57531.87030933742, 19560.793883895145, -14408.560324735681, -6267.183276079092, -20178.19376923964, -27027.841154079575, 6591.216515447679, -11313.804842687232, -10363.90040682559, -9715.006913543571, 0.242, 0.9500000000000001, 0.14, 192.0, 0.0, 0.0, 0.0, 0.0, 0.0, 0.0, 0.0, 0.0, 0.0, 1.6626779339718013E9, 0.0, 2022-09-08 18:58:53.971
26.0, -5310.52861339195, -6368.101402294803, -28076.428541711397, -26958.34958056803, -15191.206656838258, 5325.236061243541, 57526.05885577904, 19587.43716328587, -14420.093824874619, -6260.09777308676, -20180.384240196257, -27023.10258425505, 6551.765686484062, -11301.153755325528, -10368.415459205564, -9712.324704208935, 0.242, 0.9500000000000001, 0.14, 192.0, 0.0, 0.0, 0.0, 0.0, 0.0, 0.0, 0.0, 0.0, 0.0, 1.662677933971806E9, 0.0, 2022-09-08 18:58:53.971
28.0, -5313.76961633797, -6367.341442983323, -28081.256518513743, -26959.33305732406, -15212.262000115157, 5312.227345970553, 57563.45332425277, 19530.015531780187, -14423.871269687566, -6261.751802176453, -20191.627167657276, -27030.143383758474, 6546.647137003796, -11308.28396180677, -10382.139430301122, -9725.825157859941, 0.23600000000000002, 0.928, 0.14400000000000002, 192.0, 3.5, 48.0, 14.5, 0.0, 2.0, 64.0, 0.0, 0.0, 0.0, 1.6626779339718103E9, 0.0, 2022-09-08 18:58:53.971
30.0, -5281.270179899952, -6336.227814701536, -28051.79691932165, -26925.537219707636, -15176.47685724221, 5348.77244815498, 57520.96265804323, 19548.232203511263, -14393.875228628545, -6213.203813219526, -20152.668077071678, -26991.541921084157, 6544.7472387250955, -11269.771906110276, -10361.285252724321, -9689.39181439779, 0.23600000000000002, 0.928, 0.14400000000000002, 192.0, 0.0, 0.0, 0.0, 0.0, 0.0, 0.0, 0.0, 0.0, 0.0, 1.6626779339718149E9, 0.0, 2022-09-08 18:58:53.971
32.0, -5349.375945255273, -6406.322885313379, -28094.108771575546, -26980.410752345415, -15242.63802082992, 5303.9795522665445, 57543.783789132096, 19511.57534260456, -14425.637057499536, -6238.818912365307, -20181.166551252194, -27020.889761553975, 6510.817290641939, -11293.956493610918, -10382.161782045578, -9706.312084950458, 0.23600000000000002, 0.928, 0.14400000000000002, 192.0, 0.0, 0.0, 0.0, 0.0, 0.0, 0.0, 0.0, 0.0, 0.0, 1.6626779339718192E9, 0.0, 2022-09-08 18:58:53.971
34.0, -5318.9999245405115, -6376.59506518782, -28056.893117057458, -26951.5099467647, -15183.115325345438, 5321.0562850303995, 57499.48263162168, 19529.143813746432, -14447.340601365639, -6251.648813682654, -20191.89538859074, -27031.529191914702, 6480.128345504802, -11308.485127506869, -10369.756563872883, -9715.58805889941, 0.23600000000000002, 0.928, 0.14400000000000002, 192.0, 0.0, 0.0, 0.0, 0.0, 0.0, 0.0, 0.0, 0.0, 0.0, 1.6626779339718237E9, 0.0, 2022-09-08 18:58:53.971
36.0, -5291.484927116028, -6349.795323585907, -28035.055462724624, -26928.867629631477, -15185.171685835325, 5355.321509280385, 57556.54663521608, 19556.39059023745, -14415.265848072273, -6212.712074841509, -20158.47953063006, -26991.854845506532, 6484.509287418043, -11276.097449791128, -10334.28434542231, -9678.886494503797, 0.23600000000000002, 0.928, 0.14400000000000002, 192.0, 0.0, 0.0, 0.0, 0.0, 0.0, 0.0, 0.0, 0.0, 0.0, 1.662677933971828E9, 0.0, 2022-09-08 18:58:53.971
38.0, -5326.24188974403, -6384.351120513812, -28065.096207272556, -26963.9151649374, -15193.91121791735, 5317.547061150916, 57488.50792509412, 19522.550049132115, -14444.166653652985, -6231.755761117431, -20187.626205399778, -27017.96168303033, 6419.465711053099, -11307.23342981737, -10361.017031790858, -9712.458814675667, 0.23600000000000002, 0.93, 0.138, 192.0, 3.5, 48.0, 14.5, 8.0, 2.0, 40.0, 0.0, 0.0, 0.0, 1.6626779339718337E9, 0.0, 2022-09-08 18:58:53.971
40.0, -5313.747264593514, -6380.573675700864, -28055.015570523214, -26960.115368379997, -15205.310607589558, 5317.971744295567, 57547.1812542893, 19525.232258466753, -14448.659354288502, -6236.159054775126, -20191.515408935, -27024.756613344744, 6370.873018607262, -11318.722226467398, -10362.089915524712, -9708.904887307273, 0.23600000000000002, 0.93, 0.138, 192.0, 0.0, 0.0, 0.0, 0.0, 0.0, 0.0, 0.0, 0.0, 0.0, 1.662677933971838E9, 0.0, 2022-09-08 18:58:53.971
42.0, -5293.161307950176, -6361.775858613952, -28034.78724179116, -26944.178574583362, -15204.72946223372, 5330.466369446083, 57469.06190741801, 19521.67833109836, -14426.32996157765, -6204.173708459582, -20155.462045128592, -26996.839284520065, 6371.163591285181, -11281.148944038028, -10342.845063548692, -9690.665863831742, 0.23600000000000002, 0.93, 0.138, 192.0, 0.0, 0.0, 0.0, 0.0, 0.0, 0.0, 0.0, 0.0, 0.0, 1.6626779339718423E9, 0.0, 2022-09-08 18:58:53.971
44.0, -5353.5780732128715, -6424.539557044453, -28087.112675561035, -26997.934519998376, -15233.227936414236, 5281.694863044603, 57511.574925372, 19481.489894567716, -14462.763305039802, -6237.835435609274, -20184.80988559841, -27023.460212166337, 6328.762332053463, -11314.43069153198, -10364.772124859348, -9713.77756759853, 0.23600000000000002, 0.93, 0.138, 192.0, 0.0, 0.0, 0.0, 0.0, 0.0, 0.0, 0.0, 0.0, 0.0, 1.6626779339718468E9, 0.0, 2022-09-08 18:58:53.971
46.0, -5314.551927393905, -6385.222838547568, -28053.0709687556, -26960.249478846727, -15177.460333998244, 5320.564546652383, 57487.09976519344, 19497.18081917534, -14516.228677776895, -6270.848962169763, -20214.917685379707, -27056.9878288493, 6273.665281971131, -11359.000069975862, -10391.527162972352, -9751.104980838893, 0.23600000000000002, 0.93, 0.138, 192.0, 0.0, 0.0, 0.0, 0.0, 0.0, 0.0, 0.0, 0.0, 0.0, 1.662677933971851E9, 0.0, 2022-09-08 18:58:53.971
48.0, -5309.835709313835, -6373.845800619817, -28055.104977501032, -26964.42925505987, -15213.089014660003, 5342.558663196405, 57586.29680708609, 19545.52764243217, -14473.961529011909, -6193.623685076676, -20156.020838739973, -26978.823778489088, 6275.296959316369, -11288.681481919466, -10336.1395402121, -9683.96034049515, 0.23, 0.902, 0.124, 192.0, 3.5, 24.0, 14.0, 24.0, 1.5, 112.0, 0.0, 0.0, 0.0, 1.6626779339718568E9, 0.0, 2022-09-08 18:58:53.971
50.0, -5374.432250789672, -6433.837882737861, -28100.56842572313, -27018.58753187508, -15243.599145841497, 5278.275046142941, 57496.241628675656, 19446.017676117146, -14584.289739643305, -6287.366901322234, -20257.207185889147, -27073.483416257313, 6168.477972564456, -11390.359567446658, -10436.1635966496, -9788.767670246085, 0.23, 0.902, 0.124, 192.0, 0.0, 0.0, 0.0, 0.0, 0.0, 0.0, 0.0, 0.0, 0.0, 1.6626779339718611E9, 0.0, 2022-09-08 18:58:53.971
52.0, -5325.683096132648, -6397.784518931451, -28053.585058878074, -26974.129912153472, -15248.784750555129, 5301.945543521112, 57543.582623432, 19486.273167881154, -14538.222794320918, -6232.113389028716, -20198.33269099387, -27011.14440097146, 6203.078472981271, -11329.719284739409, -10375.925645342546, -9722.159471769271, 0.23, 0.902, 0.124, 192.0, 0.0, 0.0, 0.0, 0.0, 0.0, 0.0, 0.0, 0.0, 0.0, 1.6626779339718657E9, 0.0, 2022-09-08 18:58:53.971
54.0, -5339.407067228207, -6427.892318712749, -28067.353733462543, -26994.62646181899, -15239.77699753964, 5288.221572425553, 57470.13479115186, 19461.70860072477, -14579.059431440763, -6272.748860448463, -20222.070243605405, -27046.437805466394, 6193.310760654302, -11361.078782210207, -10391.124831572155, -9741.806655145485, 0.23, 0.902, 0.124, 192.0, 0.0, 0.0, 0.0, 0.0, 0.0, 0.0, 0.0, 0.0, 0.0, 1.6626779339718702E9, 0.0, 2022-09-08 18:58:53.971
56.0, -5366.989119886055, -6459.922368517205, -28094.287585531187, -27031.596247148067, -15252.517491879165, 5255.006880164967, 57515.955867285236, 19475.27610960914, -14607.714367832466, -6324.560204095866, -20246.165424128227, -27086.581538508122, 6185.3982431171235, -11410.654951412076, -10397.070395597268, -9756.35764078589, 0.23, 0.902, 0.124, 192.0, 0.0, 0.0, 0.0, 0.0, 0.0, 0.0, 0.0, 0.0, 0.0, 1.6626779339718747E9, 0.0, 2022-09-08 18:58:53.971
58.0, -5384.937570683667, -6478.116688503825, -28090.063105829133, -27041.40866296395, -15243.465035374766, 5267.501505315484, 57460.56824452499, 19457.662934978358, -14629.440263443026, -6352.254015475991, -20257.877738222807, -27103.904140460985, 6169.819077231775, -11428.201070809493, -10399.014997364879, -9762.772591444564, 0.225, 0.918, 0.134, 192.0, 3.0, 112.0, 14.5, 24.0, 2.0, 64.0, 0.0, 0.0, 0.0, 1.662677933971879E9, 0.0, 2022-09-08 18:58:53.971
60.0, -5364.508076251516, -6461.196417951157, -28083.51404470373, -27022.63319762149, -15242.280392918634, 5291.261409671475, 57492.2183146737, 19486.675499281348, -14632.837728600232, -6382.02653909046, -20258.905918467754, -27106.65340502899, 6193.578981587766, -11431.754998177887, -10400.601971221206, -9762.79494318902, 0.225, 0.918, 0.134, 192.0, 0.0, 0.0, 0.0, 0.0, 0.0, 0.0, 0.0, 0.0, 0.0, 1.6626779339718835E9, 0.0, 2022-09-08 18:58:53.971
62.0, -5417.504062355049, -6517.031075600515, -28129.80450747067, -27063.715703930346, -15228.578773567531, 5243.205159092565, 57463.07163990398, 19489.648281293903, -14647.053438073808, -6394.610571218797, -20269.67945929521, -27105.02172768375, 6162.21948411697, -11436.918251147063, -10409.274448069866, -9748.93686162673, 0.225, 0.918, 0.134, 192.0, 0.0, 0.0, 0.0, 0.0, 0.0, 0.0, 0.0, 0.0, 0.0, 1.662677933971888E9, 0.0, 2022-09-08 18:58:53.971
64.0, -5402.438986592172, -6506.682217917707, -28118.919207920935, -27061.659343440457, -15272.321137466568, 5263.880522713724, 57484.52931458108, 19464.457865292774, -14686.571322270791, -6482.832906583894, -20316.72988137363, -27165.349085968624, 6186.694644295531, -11514.836432318263, -10457.464809115507, -9805.285609398557, 0.225, 0.918, 0.134, 192.0, 0.0, 0.0, 0.0, 0.0, 0.0, 0.0, 0.0, 0.0, 0.0, 1.662677933971892E9, 0.0, 2022-09-08 18:58:53.971
66.0, -5381.271884592997, -6484.911618818238, -28092.678259930406, -27029.24931398026, -15255.69143959182, 5270.451935583585, 57536.519472184125, 19512.022377493668, -14635.47523444596, -6433.882586226772, -20253.80972073194, -27095.79045722371, 6204.620743348688, -11453.056210643794, -10392.510639728385, -9744.801788902496, 0.225, 0.918, 0.134, 192.0, 0.0, 0.0, 0.0, 0.0, 0.0, 0.0, 0.0, 0.0, 0.0, 1.6626779339718966E9, 0.0, 2022-09-08 18:58:53.971
68.0, -5427.942327015678, -6524.407151270766, -28139.95219945338, -27062.30754402966, -15278.937253825337, 5253.978699920023, 57544.45434146575, 19503.282845411642, -14673.38379304216, -6479.502496660054, -20283.87281702433, -27124.8030215267, 6199.412786890601, -11479.051289445317, -10414.817680694781, -9771.22155084867, 0.2295, 0.918, 0.138, 192.0, 3.5, 40.0, 14.0, 88.0, 2.0, 56.0, 0.0, 0.0, 0.0, 1.6626779339719012E9, 0.0, 2022-09-08 18:58:53.971
70.0, -5401.589620302871, -6490.723072376618, -28122.85311494507, -27033.54084891568, -15245.074360975548, 5275.302264130386, 57588.57668502053, 19479.858217222478, -14698.14952589864, -6486.118613018824, -20299.92136954324, -27121.98670172533, 6154.2846148353365, -11495.435118131056, -10418.77393946337, -9766.304167068502, 0.2295, 0.918, 0.138, 192.0, 0.0, 0.0, 0.0, 0.0, 0.0, 0.0, 0.0, 0.0, 0.0, 1.662677933971909E9, 0.0, 2022-09-08 18:58:53.971
72.0, -5407.088149438876, -6492.600618910864, -28130.1397836375, -27026.880029067997, -15243.532090608132, 5303.644276099715, 57561.70988818525, 19564.34781126354, -14698.775374743389, -6477.468487914621, -20287.471447881635, -27099.858474714576, 6193.064891465294, -11506.700397336532, -10415.532936517351, -9757.721097197664, 0.2295, 0.918, 0.138, 192.0, 0.0, 0.0, 0.0, 0.0, 0.0, 0.0, 0.0, 0.0, 0.0, 1.6626779339719133E9, 0.0, 2022-09-08 18:58:53.971
74.0, -5420.990934490077, -6514.438273243699, -28125.356510324065, -27029.00344479125, -15255.423218658356, 5312.495566904016, 57567.409583021356, 19564.280756030174, -14696.674310764589, -6469.75713607754, -20278.508398355058, -27083.429942539926, 6203.503156125922, -11479.744193523431, -10400.691378199028, -9720.393683957302, 0.2295, 0.918, 0.138, 192.0, 0.0, 0.0, 0.0, 0.0, 0.0, 0.0, 0.0, 0.0, 0.0, 1.662677933971918E9, 0.0, 2022-09-08 18:58:53.971
76.0, -5425.818911292424, -6529.168072839746, -28137.13587965201, -27051.69046541339, -15241.654544073886, 5278.073880442844, 57503.573000857, 19538.39743595093, -14716.00856971843, -6512.7618924095505, -20301.240122466104, -27125.339463393626, 6197.669350823087, -11510.299028193836, -10424.45128255502, -9751.864940150374, 0.2295, 0.918, 0.138, 192.0, 0.0, 0.0, 0.0, 0.0, 0.0, 0.0, 0.0, 0.0, 0.0, 1.6626779339719224E9, 0.0, 2022-09-08 18:58:53.971
78.0, -5456.641966896292, -6562.025137189047, -28160.448749118896, -27091.92360543294, -15275.763306112685, 5251.22943535202, 57534.01607680513, 19509.273112925664, -14760.77911386241, -6641.843216638949, -20329.35861699088, -27166.913708080498, 6115.5937451832, -11562.065668352327, -10446.557157821317, -9776.675376495765, 0.23675000000000002, 0.929, 0.14100000000000001, 192.0, 3.5, 80.0, 14.5, 48.0, 2.0, 64.0, 0.0, 0.0, 0.0, 1.6626779339719267E9, 0.0, 2022-09-08 18:58:53.971
80.0, -5421.370914145818, -6534.018401386547, -28117.309882320154, -27066.040285353698, -15272.83522758904, 5267.590912293304, 57454.80149445552, 19520.896020042423, -14771.083268056307, -6621.011390806603, -20310.002006292583, -27157.28010622026, 6177.284559879847, -11524.917069067606, -10426.194718622532, -9774.12727762786, 0.23675000000000002, 0.929, 0.14100000000000001, 192.0, 0.0, 0.0, 0.0, 0.0, 0.0, 0.0, 0.0, 0.0, 0.0, 1.6626779339719312E9, 0.0, 2022-09-08 18:58:53.971
82.0, -5427.651754337759, -6527.446988516687, -28131.99497842729, -27064.632125453012, -15262.732239095241, 5257.711441244059, 57501.78486130058, 19528.585020135048, -14725.91039251213, -6673.426231554298, -20300.748384088085, -27160.789330099742, 6218.724694099987, -11530.28148773688, -10422.931363932057, -9763.778419945053, 0.23675000000000002, 0.929, 0.14100000000000001, 192.0, 0.0, 0.0, 0.0, 0.0, 0.0, 0.0, 0.0, 0.0, 0.0, 1.6626779339719355E9, 0.0, 2022-09-08 18:58:53.971
84.0, -5419.538071100482, -6517.321648278434, -28138.700501763884, -27022.543790643667, -15271.44941943281, 5261.622996523738, 57436.964802380186, 19522.415938665385, -14777.744087903988, -6596.603285861407, -20303.63175912282, -27144.427853158457, 6194.584810088255, -11540.362124486224, -10438.666992028593, -9773.747297972119, 0.23675000000000002, 0.929, 0.14100000000000001, 192.0, 0.0, 0.0, 0.0, 0.0, 0.0, 0.0, 0.0, 0.0, 0.0, 1.6626779339719403E9, 0.0, 2022-09-08 18:58:53.971
86.0, -5436.368934675328, -6512.3372092649, -28187.91904305447, -27034.032587293696, -15286.715660895785, 5256.593854021294, 57507.90923928133, 19527.221563723277, -14756.129951015706, -6411.1508621157245, -20316.10403252888, -27073.438712768402, 6194.316589154791, -11540.272717508402, -10454.983765480967, -9772.428545049257, 0.23675000000000002, 0.929, 0.14100000000000001, 192.0, 0.0, 0.0, 0.0, 0.0, 0.0, 0.0, 0.0, 0.0, 0.0, 1.6626779339719446E9, 0.0, 2022-09-08 18:58:53.971
88.0, -5392.984198687577, -6484.576342651409, -28147.395330356998, -27028.06467152413, -15264.073343762559, 5246.110885871754, 57484.19403841425, 19501.360595388483, -14872.806057072408, -6592.06588173698, -20360.762817950585, -27124.445393615413, 6151.177722356048, -11600.86829672674, -10480.107126248733, -9806.045568710038, 0.235375, 0.9295, 0.14250000000000002, 192.0, 3.5, 40.0, 14.5, 8.0, 2.0, 64.0, 0.0, 0.0, 0.0, 1.662677933971949E9, 0.0, 2022-09-08 18:58:53.971
90.0, -5386.144564884254, -6491.304217732456, -28084.676335415406, -27022.63319762149, -15254.171520968857, 5290.993188738012, 57583.569894262546, 19575.50133174674, -14577.740678517901, -6515.95819186666, -20205.57465619739, -27059.602982950568, 6254.867464884218, -11524.782958600874, -10387.190924548022, -9740.845530133907, 0.235375, 0.9295, 0.14250000000000002, 192.0, 0.0, 0.0, 0.0, 0.0, 0.0, 0.0, 0.0, 0.0, 0.0, 1.6626779339719534E9, 0.0, 2022-09-08 18:58:53.971
92.0, -5425.21541419213, -6509.699703419174, -28167.355438155588, -27043.15209903146, -15270.130666509947, 5249.955385918068, 57508.758605570634, 19536.47518592777, -14758.655698139155, -6489.091395031381, -20315.232314495126, -27105.98285269533, 6206.744159071942, -11546.441798978067, -10454.201454425032, -9777.681204996254, 0.235375, 0.9295, 0.14250000000000002, 192.0, 0.0, 0.0, 0.0, 0.0, 0.0, 0.0, 0.0, 0.0, 0.0, 1.6626779339719577E9, 0.0, 2022-09-08 18:58:53.971
94.0, -5422.242632179575, -6539.315764822455, -28139.281647119722, -27060.050017839676, -15275.584492157042, 5271.681281528626, 57577.758440704165, 19546.980505821768, -14717.550840085845, -6560.572273799453, -20291.606520605867, -27103.971195694354, 6194.115423454693, -11567.877121910708, -10428.564003534795, -9751.97669887265, 0.235375, 0.9295, 0.14250000000000002, 192.0, 0.0, 0.0, 0.0, 0.0, 0.0, 0.0, 0.0, 0.0, 0.0, 1.6626779339719625E9, 0.0, 2022-09-08 18:58:53.971
96.0, -5485.542772477004, -6585.673282822762, -28245.25126758233, -27133.98958849783, -15334.257821352223, 5217.254783779953, 57474.82865748747, 19499.52775234315, -14988.833962539908, -6790.795241689115, -20417.066862233503, -27246.552973574755, 6293.826555469818, -11549.302822268346, -10483.906922806134, -9810.538269345554, 0.235375, 0.9295, 0.14250000000000002, 192.0, 0.0, 0.0, 0.0, 0.0, 0.0, 0.0, 0.0, 0.0, 0.0, 1.6626779339719667E9, 0.0, 2022-09-08 18:58:53.971
98.0, -5425.707152570147, -6544.903700936282, -28161.63339157503, -27092.392992066503, -15288.07911730756, 5233.258632809953, 57529.36691395842, 19544.72297963178, -14659.302194035316, -6500.200212025668, -20334.63362868233, -27204.643452721055, 6268.14440109067, -11552.90145312565, -10448.904090989125, -9770.193370603725, 0.2316875, 0.9377500000000001, 0.14125000000000001, 192.0, 3.5, 16.0, 14.5, 72.0, 2.0, 48.0, 0.0, 0.0, 0.0, 1.6626779339719713E9, 0.0, 2022-09-08 18:58:53.971
100.0, -5401.097881924854, -6502.815366126939, -28096.343946021076, -27023.795488333166, -15265.280337963146, 5270.384880350218, 57484.95399772573, 19552.009648324212, -14945.650392252255, -6502.882421360305, -20334.07483507095, -27131.7544140523, 6244.250386267947, -11544.787769888375, -10431.290916358343, -9760.336251298935, 0.2316875, 0.9377500000000001, 0.14125000000000001, 192.0, 0.0, 0.0, 0.0, 0.0, 0.0, 0.0, 0.0, 0.0, 0.0, 1.6626779339719756E9, 0.0, 2022-09-08 18:58:53.971
102.0, -5329.147616523221, -6447.807723022428, -28051.014608265712, -27030.00927329174, -15228.15409042288, 5281.292531644408, 57562.87217889693, 19584.665546973414, -14468.53005510927, -6484.866915329328, -20193.86234210281, -27121.718480791867, 6242.6857641560755, -11518.94915329804, -10362.38048820263, -9716.72799786663, 0.2316875, 0.9377500000000001, 0.14125000000000001, 192.0, 0.0, 0.0, 0.0, 0.0, 0.0, 0.0, 0.0, 0.0, 0.0, 1.6626779339719808E9, 0.0, 2022-09-08 18:58:53.971
104.0, -5370.923026910189, -6471.746441334062, -28116.013481141745, -27002.695441567357, -15250.841111045018, 5258.069069155344, 57501.80721304503, 19522.572400876572, -14564.486094055903, -6332.7856460554185, -20231.90501116574, -27055.959648604352, 6218.523528399888, -11501.783013556364, -10390.029596093846, -9733.760027141576, 0.2316875, 0.9377500000000001, 0.14125000000000001, 192.0, 0.0, 0.0, 0.0, 0.0, 0.0, 0.0, 0.0, 0.0, 0.0, 1.6626779339719853E9, 0.0, 2022-09-08 18:58:53.971
106.0, -5407.803405261446, -6510.19144179719, -28172.8986707805, -27055.847889882076, -15286.514495195688, 5247.116714372243, 57530.01511454763, 19555.094189059044, -14619.247867971406, -6404.110062612303, -20277.837846021397, -27097.779762480233, 6310.143328922192, -11524.358275456223, -10414.549459761318, -9752.155512828293, 0.2316875, 0.9377500000000001, 0.14125000000000001, 192.0, 0.0, 0.0, 0.0, 0.0, 0.0, 0.0, 0.0, 0.0, 0.0, 1.6626779339719899E9, 0.0, 2022-09-08 18:58:53.971
108.0, -5443.40973417875, -6547.585910270919, -28205.1075345406, -27081.708858216865, -15283.094678294025, 5223.423865249618, 57475.65567203232, 19509.13900245893, -14685.140810625651, -6445.729010788084, -20335.997085094106, -27158.598859143123, 6230.1240837721925, -11547.782903645386, -10456.481332359474, -9784.342024843934, 0.23384375000000002, 0.9448750000000001, 0.141625, 192.0, 3.5, 48.0, 14.5, 96.0, 2.0, 56.0, 0.0, 0.0, 0.0, 1.6626779339719944E9, 0.0, 2022-09-08 18:58:53.971
110.0, -5416.766454788024, -6520.67440994673, -28172.09400798011, -27059.44652073938, -15281.775925371163, 5244.747429459981, 57479.43311684527, 19558.715171660802, -14652.574318954268, -6431.155673403225, -20333.314875759468, -27175.00503957332, 6299.280381116913, -11507.393301414646, -10443.15969266411, -9769.567521758976, 0.23384375000000002, 0.9448750000000001, 0.141625, 192.0, 0.0, 0.0, 0.0, 0.0, 0.0, 0.0, 0.0, 0.0, 0.0, 1.6626779339719987E9, 0.0, 2022-09-08 18:58:53.971
112.0, -5485.498068988093, -6586.880277023349, -28236.82465992268, -27115.258826644284, -15289.97901558626, 5218.953516358557, 57421.430339983744, 19512.961150760788, -14698.373043343192, -6497.473299202121, -20340.243916540614, -27204.554045743233, 6267.250331312458, -11501.224219944981, -10443.226747897477, -9763.30903331149, 0.23384375000000002, 0.9448750000000001, 0.141625, 192.0, 0.0, 0.0, 0.0, 0.0, 0.0, 0.0, 0.0, 0.0, 0.0, 1.6626779339720032E9, 0.0, 2022-09-08 18:58:53.972
114.0, -5416.632344321292, -6523.177805325724, -28217.49040096884, -27074.6904104579, -15317.292847310646, 5211.353923243752, 57464.47979980467, 19507.932008258344, -14856.310469664393, -6424.025466921981, -20437.4740049212, -27245.077758440708, 6413.900126683728, -11494.98808324195, -10491.528867665395, -9812.684036813263, 0.23384375000000002, 0.9448750000000001, 0.141625, 192.0, 0.0, 0.0, 0.0, 0.0, 0.0, 0.0, 0.0, 0.0, 0.0, 1.6626779339720075E9, 0.0, 2022-09-08 18:58:53.972
116.0, -5460.709984387157, -6602.124166741868, -28236.467032011395, -27150.172251483473, -15305.759347171706, 5206.593001674772, 57438.08238960295, 19524.20407822181, -14532.321933784717, -6400.287914310446, -20330.230335024637, -27196.060382850217, 6240.025906565894, -11464.053268915804, -10446.512454332407, -9786.778364989563, 0.23384375000000002, 0.9448750000000001, 0.141625, 192.0, 0.0, 0.0, 0.0, 0.0, 0.0, 0.0, 0.0, 0.0, 0.0, 1.662677933972012E9, 0.0, 2022-09-08 18:58:53.972
118.0, -5366.072698363388, -6454.870874270306, -28142.768519254747, -27053.29979101417, -15282.938216082839, 5232.699839198571, 57442.64214547183, 19516.872706040467, -14547.766989203334, -6280.90724717465, -20301.664805610755, -27227.39752857656, 6213.360275430712, -11396.528648916323, -10448.010021210912, -9789.102946412915, 0.232921875, 0.9374375000000001, 0.1368125, 192.0, 3.5, 32.0, 14.5, 8.0, 2.0, 16.0, 0.0, 0.0, 0.0, 1.6626779339720173E9, 0.0, 2022-09-08 18:58:53.972
120.0, -5378.366157813806, -6486.945627563671, -28173.032781247235, -27055.35615150406, -15255.49027389172, 5248.0331358949115, 57438.08238960295, 19529.72495910227, -14549.7339427154, -6203.480804381466, -20305.86693356835, -27124.84772501561, 6380.484268723044, -11356.966061230429, -10465.98082375298, -9770.573350259465, 0.232921875, 0.9374375000000001, 0.1368125, 192.0, 0.0, 0.0, 0.0, 0.0, 0.0, 0.0, 0.0, 0.0, 0.0, 1.6626779344511907E9, 0.0, 2022-09-08 18:58:54.451
122.0, -5442.9179958007335, -6531.917337407749, -28259.288163100264, -27120.399727869004, -15282.424125960366, 5197.808766103836, 57415.32831374745, 19487.56956905956, -14760.488541184492, -6329.522291364943, -20354.258460314093, -27229.4762408109, 6221.742179601452, -11358.128351942105, -10435.336582104754, -9782.17390563177, 0.232921875, 0.9374375000000001, 0.1368125, 192.0, 0.0, 0.0, 0.0, 0.0, 0.0, 0.0, 0.0, 0.0, 0.0, 1.662677934451234E9, 0.0, 2022-09-08 18:58:54.451
124.0, -5339.496474206027, -6463.498647630054, -28125.46826904634, -27027.461174423835, -15280.725393381763, 5221.278097781908, 57493.24649491865, 19505.696833812814, -14314.012445689732, -5987.808822132209, -20281.30236641197, -27094.73992523431, 6256.745011418464, -11337.900023210052, -10443.383210108663, -9777.591798018431, 0.232921875, 0.9374375000000001, 0.1368125, 192.0, 0.0, 0.0, 0.0, 0.0, 0.0, 0.0, 0.0, 0.0, 0.0, 1.6626779344512389E9, 0.0, 2022-09-08 18:58:54.451
126.0, -5342.737477152047, -6457.888359771772, -28119.500353276773, -27041.699235641867, -15255.222052958257, 5245.283871326908, 57431.153348821805, 19545.90762208791, -14303.462422306828, -6102.987361310406, -20247.350066584357, -27127.999320983807, 6193.310760654302, -11308.507479251324, -10399.909067143091, -9764.493675767622, 0.232921875, 0.9374375000000001, 0.1368125, 192.0, 0.0, 0.0, 0.0, 0.0, 0.0, 0.0, 0.0, 0.0, 0.0, 1.6626779344512432E9, 0.0, 2022-09-08 18:58:54.451
128.0, -5417.906393755245, -6541.863863690361, -28214.942302100935, -27152.8097573292, -15280.345413726023, 5202.994370817468, 57461.6634800033, 19497.069060453065, -14382.788763378712, -6196.529411855867, -20304.615235878853, -27178.447208219437, 6275.922808161117, -11263.08873451814, -10426.328829089265, -9775.133106128349, 0.232921875, 0.9374375000000001, 0.1368125, 192.0, 0.0, 0.0, 0.0, 0.0, 0.0, 0.0, 0.0, 0.0, 0.0, 1.662677934451248E9, 0.0, 2022-09-08 18:58:54.451
130.0, -5537.085895190942, -6660.059888370024, -28376.456007534984, -27229.610351277635, -15328.066388138102, 5173.579475114283, 57350.53060657151, 19457.662934978358, -14543.028419378808, -6335.154930967681, -20449.56629867152, -27369.46521633449, 6304.600096297276, -11152.537006442191, -10518.574478456316, -9861.544950192565, 0.224, 0.918, 0.14200000000000002, 192.0, 3.5, 0.0, 14.0, 88.0, 2.0, 56.0, 0.0, 0.0, 0.0, 1.6626779344512525E9, 0.0, 2022-09-08 18:58:54.451
132.0, -5356.304986036419, -6480.798897838462, -28132.911399949957, -27079.78660819371, -15263.246329217713, 5222.529795471406, 57478.270826133594, 19522.77356657667, -14314.034797434188, -6100.886297331607, -20361.4557220287, -27209.583188245677, 6227.732447115475, -11232.55625159219, -10479.436573915074, -9805.620885565388, 0.224, 0.918, 0.14200000000000002, 192.0, 0.0, 0.0, 0.0, 0.0, 0.0, 0.0, 0.0, 0.0, 0.0, 1.6626779344512568E9, 0.0, 2022-09-08 18:58:54.451
134.0, -5440.3922486772835, -6534.19721534219, -28267.0218666818, -27152.94386779593, -15332.514385284709, 5177.379271671685, 57378.514990629556, 19463.608499003472, -14300.959026927832, -6114.409102727068, -20343.730788675643, -27273.732694832408, 6315.239526658002, -11143.417494704425, -10486.052690273846, -9820.238926439159, 0.224, 0.918, 0.14200000000000002, 192.0, 0.0, 0.0, 0.0, 0.0, 0.0, 0.0, 0.0, 0.0, 0.0, 1.6626779344512713E9, 0.0, 2022-09-08 18:58:54.451
136.0, -5438.626460865315, -6556.414849330766, -28253.70022698644, -27128.89339076202, -15309.290922795646, 5203.731978384492, 57440.33991579294, 19509.474278625763, -14275.790962671157, -5988.5240779547785, -20422.163059969316, -27218.255665094337, 6358.311338223379, -11103.698444807345, -10508.762062640437, -9825.558641619522, 0.224, 0.918, 0.14200000000000002, 192.0, 0.0, 0.0, 0.0, 0.0, 0.0, 0.0, 0.0, 0.0, 0.0, 1.6626779344512756E9, 0.0, 2022-09-08 18:58:54.451
138.0, -5344.503264964016, -6439.336411873867, -28123.12133587853, -27034.233752993794, -15245.431988886832, 5223.826196649814, 57399.10094727289, 19518.169107218877, -13823.726931062572, -5905.397940325492, -20238.409368802237, -27143.422024657968, 6159.112591637682, -11012.100996029496, -10396.10927058569, -9762.817294933475, 0.224, 0.918, 0.14200000000000002, 192.0, 0.0, 0.0, 0.0, 0.0, 0.0, 0.0, 0.0, 0.0, 0.0, 1.66267793445128E9, 0.0, 2022-09-08 18:58:54.451
140.0, -5316.407122183696, -6422.594955276842, -28104.077649602612, -27008.283377681182, -15239.642887072909, 5216.718341913026, 57479.813096501006, 19537.43631093935, -14008.620561196873, -6009.221793320393, -20306.62689287983, -27173.820397117186, 6137.185530327026, -11069.366165323992, -10444.143169420144, -9785.146687644326, 0.23, 0.928, 0.158, 192.0, 3.5, 24.0, 14.5, 0.0, 2.0, 120.0, 0.0, 0.0, 0.0, 1.662677934451285E9, 0.0, 2022-09-08 18:58:54.451
142.0, -5310.349799436307, -6424.718371000096, -28104.79290542518, -27008.193970703363, -15237.139491693913, 5253.509313286461, 57371.317728914946, 19556.88232861547, -13740.667848666651, -5855.5088467012465, -20169.722458091077, -27048.293000256184, 6236.270813497403, -11008.859993083477, -10390.901314127603, -9727.814463116463, 0.23, 0.928, 0.158, 192.0, 0.0, 0.0, 0.0, 0.0, 0.0, 0.0, 0.0, 0.0, 0.0, 1.6626779344512892E9, 0.0, 2022-09-08 18:58:54.451
144.0, -5353.823942401879, -6472.126420989803, -28155.57606882764, -27100.439620070414, -15251.623422100953, 5260.9524441900785, 57413.40606372429, 19565.577157208583, -13811.388768123243, -6062.642462568577, -20241.628020003798, -27140.4045391565, 6251.201778793547, -10916.994323372164, -10404.804099178804, -9737.78334114353, 0.23, 0.928, 0.158, 192.0, 0.0, 0.0, 0.0, 0.0, 0.0, 0.0, 0.0, 0.0, 0.0, 1.662677934451294E9, 0.0, 2022-09-08 18:58:54.451
146.0, -5417.9734489886105, -6500.110805047847, -28246.838241438658, -27081.239471583307, -15291.610692931497, 5204.000199317957, 57344.42858033521, 19487.122534170456, -13926.164975901243, -6052.070087441217, -20315.433480195225, -27206.342185299658, 6264.322252788813, -10861.494941889638, -10440.790407751849, -9775.535437528544, 0.23, 0.928, 0.158, 192.0, 0.0, 0.0, 0.0, 0.0, 0.0, 0.0, 0.0, 0.0, 0.0, 1.6626779344512985E9, 0.0, 2022-09-08 18:58:54.451
148.0, -5446.516626658038, -6614.819957592483, -28236.39997677803, -27167.673667391977, -15293.68940516584, 5217.612411691238, 57353.10105718387, 19535.20113649382, -13900.37106279982, -6203.011417747905, -20362.5062540181, -27195.970975872395, 6325.990715741005, -10904.320884266006, -10482.968149539012, -9783.246789365625, 0.23, 0.928, 0.158, 192.0, 0.0, 0.0, 0.0, 0.0, 0.0, 0.0, 0.0, 0.0, 0.0, 1.6626779344513032E9, 0.0, 2022-09-08 18:58:54.451
150.0, -5538.38229636935, -6623.894765841337, -28430.502525627915, -27284.439180426503, -15376.927301517404, 5124.87502394617, 57268.92438756519, 19440.541498725594, -14321.477928337805, -6574.385651872833, -20596.327852765065, -27544.814651586374, 6388.039158348937, -10831.43184559725, -10579.773554774947, -9898.760604710651, 0.23, 0.928, 0.15, 192.0, 3.5, 24.0, 14.5, 0.0, 2.0, 88.0, 0.0, 0.0, 0.0, 1.6626779344513075E9, 0.0, 2022-09-08 18:58:54.451
152.0, -5461.447591954183, -6587.9531607572035, -28255.644828754048, -27159.269411476784, -15337.744693487251, 5187.906943310135, 57367.607339335365, 19510.167182703877, -13827.906707275713, -5938.858501775087, -20337.673465928256, -27146.305399692705, 6348.767143340962, -10843.94882249222, -10485.940931551568, -9796.255504638613, 0.23, 0.928, 0.15, 192.0, 0.0, 0.0, 0.0, 0.0, 0.0, 0.0, 0.0, 0.0, 0.0, 1.6626779344513123E9, 0.0, 2022-09-08 18:58:54.451
154.0, -5461.514647187549, -6551.586872528419, -28364.18489982902, -27150.95456253941, -15373.641595082474, 5149.886625991658, 57296.640550689764, 19461.596842002495, -14376.12794353103, -6325.454273874077, -20586.73895439374, -27441.39312999167, 6570.898779737804, -10839.210252667697, -10623.605325651804, -9904.862630946951, 0.23, 0.928, 0.15, 192.0, 0.0, 0.0, 0.0, 0.0, 0.0, 0.0, 0.0, 0.0, 0.0, 1.6626779344513166E9, 0.0, 2022-09-08 18:58:54.451
156.0, -5265.75806924797, -6371.252998263001, -27946.274333748144, -26977.68383952187, -15176.499208986666, 5273.916455974157, 57414.255430013596, 19574.7190206908, -13516.05516863527, -6048.29264262827, -20199.56203693891, -27097.980928180332, 6258.33198527479, -10818.37842683535, -10415.44352953953, -9764.940710656729, 0.23, 0.928, 0.15, 192.0, 0.0, 0.0, 0.0, 0.0, 0.0, 0.0, 0.0, 0.0, 0.0, 1.6626779344513216E9, 0.0, 2022-09-08 18:58:54.451
158.0, -5197.540545170373, -6295.860564215251, -27937.11011852147, -26920.552780694103, -15183.852932912461, 5308.941639535623, 57408.6004386664, 19638.0862162216, -13402.88828645805, -5704.813385583567, -20040.574078628313, -26950.437063030848, 6040.693049513466, -10793.746804445602, -10268.905492890537, -9665.117819919327, 0.23, 0.928, 0.15, 192.0, 0.0, 0.0, 0.0, 0.0, 0.0, 0.0, 0.0, 0.0, 0.0, 1.6626779344513264E9, 0.0, 2022-09-08 18:58:54.451
160.0, -5289.942656748612, -6396.21989681958, -28095.22635879831, -27032.579723904102, -15217.000569939682, 5252.995223163989, 57369.82016203644, 19575.16605557991, -13527.700427496486, -5912.617553784556, -20145.716684546078, -27033.54084891568, 6269.016119124427, -10815.293886100519, -10341.61571760365, -9692.945741766185, 0.234, 0.92, 0.146, 192.0, 3.5, 40.0, 14.0, 96.0, 2.0, 72.0, 0.0, 0.0, 0.0, 1.662677934451331E9, 0.0, 2022-09-08 18:58:54.451
162.0, -5322.442093186628, -6435.89424322775, -28131.771460982738, -27067.69431444339, -15219.794537996595, 5283.393595623207, 57381.934807531215, 19581.69276496086, -13727.636781649207, -6012.731017199876, -20241.806833959443, -27127.93226575044, 6321.565070338854, -10833.91288923179, -10412.984837649446, -9760.000975132105, 0.234, 0.92, 0.146, 192.0, 0.0, 0.0, 0.0, 0.0, 0.0, 0.0, 0.0, 0.0, 0.0, 1.6626779344513357E9, 0.0, 2022-09-08 18:58:54.451
164.0, -5343.475084719073, -6458.670670827708, -28150.837499003115, -27087.02857339723, -15253.500968635199, 5233.571557232328, 57353.704554284166, 19560.90564261742, -13761.76789543246, -6040.737753002376, -20247.573584028913, -27144.31609443618, 6343.089800249315, -10806.196726107208, -10419.82447145277, -9758.59281523142, 0.234, 0.92, 0.146, 192.0, 0.0, 0.0, 0.0, 0.0, 0.0, 0.0, 0.0, 0.0, 0.0, 1.6626779344513402E9, 0.0, 2022-09-08 18:58:54.451
166.0, -5353.376907512773, -6469.175990721702, -28143.796699499693, -27093.13059963353, -15268.700154864808, 5233.213929321043, 57372.81529579345, 19558.938689105355, -13802.716291274583, -6076.522895875322, -20272.071095951927, -27171.85344360512, 6379.187867544636, -10837.489168344639, -10432.855538470214, -9786.398385333823, 0.234, 0.92, 0.146, 192.0, 0.0, 0.0, 0.0, 0.0, 0.0, 0.0, 0.0, 0.0, 0.0, 1.6626779344513464E9, 0.0, 2022-09-08 18:58:54.451
168.0, -5367.950244897634, -6484.218714740124, -28153.027969959734, -27116.242303400315, -15257.323116937056, 5241.126446858221, 57331.26340285104, 19573.042639856656, -13814.361550135798, -6094.605457139666, -20277.167293687737, -27187.65612693502, 6387.569771715376, -10851.660174329303, -10442.869119986191, -9804.458594853711, 0.234, 0.92, 0.146, 192.0, 0.0, 0.0, 0.0, 0.0, 0.0, 0.0, 0.0, 0.0, 0.0, 1.6626779344513512E9, 0.0, 2022-09-08 18:58:54.451
170.0, -5340.39054398424, -6447.0701154554035, -28114.113582863043, -27069.25893655526, -15251.221090700757, 5244.523912015428, 57392.75305184759, 19597.338986079572, -13798.335349361343, -6026.633802251077, -20253.45209282066, -27148.808795071698, 6402.612495733798, -10848.642688827837, -10406.659293968594, -9766.59473974642, 0.24, 0.922, 0.14200000000000002, 192.0, 3.5, 64.0, 14.0, 104.0, 2.0, 56.0, 0.0, 0.0, 0.0, 1.662677934451356E9, 0.0, 2022-09-08 18:58:54.451
172.0, -5359.747154682535, -6469.533618632987, -28128.41869931444, -27089.062582142662, -15246.460169131777, 5281.6725113001485, 57319.55108875646, 19584.419677784404, -13809.578276822362, -6044.448142581957, -20257.229537633604, -27156.207222486406, 6359.361870212779, -10890.082823047975, -10417.276372584865, -9780.430469564257, 0.24, 0.922, 0.14200000000000002, 192.0, 0.0, 0.0, 0.0, 0.0, 0.0, 0.0, 0.0, 0.0, 0.0, 1.6626779344513607E9, 0.0, 2022-09-08 18:58:54.451
174.0, -5399.555611557438, -6510.9961045975815, -28146.680074534426, -27117.114021434074, -15262.77694258415, 5203.351998728753, 57346.17201640273, 19582.519779505707, -13840.222518470588, -6074.153610963061, -20284.722183313632, -27178.84953961963, 6348.58832938532, -10896.9224568513, -10438.197605395033, -9782.397423076323, 0.24, 0.922, 0.14200000000000002, 192.0, 0.0, 0.0, 0.0, 0.0, 0.0, 0.0, 0.0, 0.0, 0.0, 1.662677934451366E9, 0.0, 2022-09-08 18:58:54.451
176.0, -5372.733518211069, -6484.6433978847745, -28119.27683583222, -27099.590253781113, -15274.77982935665, 5221.501615226462, 57310.05159736295, 19585.716078962814, -13867.692812406161, -6095.097195517683, -20303.430593422723, -27200.083696852173, 6295.7488054929745, -10959.529693070614, -10451.027506712378, -9814.98626649216, 0.24, 0.922, 0.14200000000000002, 192.0, 0.0, 0.0, 0.0, 0.0, 0.0, 0.0, 0.0, 0.0, 0.0, 1.6626779344513736E9, 0.0, 2022-09-08 18:58:54.451
178.0, -5352.549892967927, -6463.610406352331, -28102.825951913113, -27077.327916303628, -15227.058854944571, 5276.173982164143, 57366.40034513478, 19594.343852322563, -13853.74532386605, -6033.4287325654905, -20269.590052317388, -27147.579449126657, 6275.72164246102, -10949.247890621173, -10409.900296914613, -9759.68805070973, 0.24, 0.922, 0.14200000000000002, 192.0, 0.0, 0.0, 0.0, 0.0, 0.0, 0.0, 0.0, 0.0, 0.0, 1.662677934451378E9, 0.0, 2022-09-08 18:58:54.451
180.0, -5353.511017979506, -6468.125458732303, -28104.636443213996, -27072.522291245736, -15226.120081677447, 5299.509203375484, 57318.92523991171, 19637.281553421206, -13896.459507520141, -5993.5085169683125, -20290.39952640528, -27163.113911523094, 6232.448665195545, -10997.661769111368, -10429.703942502016, -9780.653987008809, 0.23, 0.926, 0.148, 192.0, 3.5, 24.0, 14.0, 120.0, 2.0, 80.0, 0.0, 0.0, 0.0, 1.6626779344513824E9, 0.0, 2022-09-08 18:58:54.451
182.0, -5358.2719395484855, -6476.909694303238, -28112.817181684637, -27081.865320428053, -15264.855654818495, 5262.248845368486, 57411.88614510133, 19613.633407787493, -13911.144603627277, -5877.25709405626, -20266.19258716018, -27131.79911754121, 6290.540849034888, -10984.65305383838, -10395.617532207672, -9737.939803354717, 0.23, 0.926, 0.148, 192.0, 0.0, 0.0, 0.0, 0.0, 0.0, 0.0, 0.0, 0.0, 0.0, 1.6626779344513872E9, 0.0, 2022-09-08 18:58:54.451
184.0, -5403.467166837117, -6518.729808179118, -28155.95604848338, -27128.245190172816, -15298.539733712643, 5201.407396961141, 57294.4724314776, 19558.67046817189, -14027.798357939526, -5843.952994817852, -20331.25851526958, -27208.264435322817, 6254.152209061648, -11091.986130712763, -10477.335509936274, -9823.815205552008, 0.23, 0.926, 0.148, 192.0, 0.0, 0.0, 0.0, 0.0, 0.0, 0.0, 0.0, 0.0, 0.0, 1.662677934451392E9, 0.0, 2022-09-08 18:58:54.451
186.0, -5328.9240990786675, -6445.997231721549, -28086.17390229391, -27048.002427578263, -15262.151093739403, 5304.7395115780255, 57417.89876435981, 19633.347646397073, -14047.937279693757, -5680.31587366055, -20287.78437230401, -27159.783501599253, 6256.789714907374, -11068.33798507905, -10427.893451201136, -9774.350795072412, 0.23, 0.926, 0.148, 192.0, 0.0, 0.0, 0.0, 0.0, 0.0, 0.0, 0.0, 0.0, 0.0, 1.662677934451397E9, 0.0, 2022-09-08 18:58:54.451
188.0, -5367.614968730804, -6488.71141537564, -28115.56644625264, -27088.436733297913, -15274.511608423187, 5243.071048625833, 57349.16715015974, 19636.208669687352, -14084.080050477989, -5566.411383916305, -20267.980726716607, -27143.176155468962, 6279.074404129316, -11079.670319517889, -10423.40075056562, -9756.268233808069, 0.23, 0.926, 0.148, 192.0, 0.0, 0.0, 0.0, 0.0, 0.0, 0.0, 0.0, 0.0, 0.0, 1.662677934451402E9, 0.0, 2022-09-08 18:58:54.451
190.0, -5343.3633259967955, -6470.159467477735, -28105.239940314288, -27074.891576158, -15256.004364014194, 5260.0136709229555, 57438.68588670324, 19659.812111832158, -14156.879682168923, -5512.230755356641, -20286.30915716996, -27160.8116818442, 6240.875272855195, -11121.043398504664, -10427.468768056486, -9761.722059455164, 0.232, 0.924, 0.146, 192.0, 3.5, 32.0, 14.0, 112.0, 2.0, 72.0, 0.0, 0.0, 0.0, 1.6626779344514065E9, 0.0, 2022-09-08 18:58:54.451
192.0, -5359.545988982438, -6480.776546094006, -28109.41971652743, -27079.294869815694, -15265.503855407698, 5243.182807348109, 57365.081592211915, 19635.73928305379, -14221.029188755654, -5495.310484803973, -20300.189590476704, -27178.134283797062, 6229.274717482891, -11155.129808799007, -10455.207282925521, -9778.418812563279, 0.232, 0.924, 0.146, 192.0, 0.0, 0.0, 0.0, 0.0, 0.0, 0.0, 0.0, 0.0, 0.0, 1.6626779344514108E9, 0.0, 2022-09-08 18:58:54.451
194.0, -5333.841482858835, -6457.195455693657, -28086.88915811648, -27066.487320242803, -15236.87127076045, 5253.241092352998, 57443.3574012944, 19606.7267187508, -14237.703590119314, -5434.469036396627, -20259.15178765676, -27132.42496638596, 6242.61870892271, -11133.225099232806, -10422.48432904295, -9753.4519140067, 0.232, 0.924, 0.146, 192.0, 0.0, 0.0, 0.0, 0.0, 0.0, 0.0, 0.0, 0.0, 0.0, 1.6626779344514153E9, 0.0, 2022-09-08 18:58:54.451
196.0, -5353.801590657424, -6481.156525749747, -28091.69478317437, -27077.842006426097, -15242.459206874277, 5254.738659231503, 57402.78898510802, 19684.197865032897, -14301.204896116842, -5470.544751947493, -20263.06334293644, -27146.864193304085, 6221.317496456802, -11187.338672559104, -10425.233593610954, -9769.902797925806, 0.232, 0.924, 0.146, 192.0, 0.0, 0.0, 0.0, 0.0, 0.0, 0.0, 0.0, 0.0, 0.0, 1.66267793445142E9, 0.0, 2022-09-08 18:58:54.451
198.0, -5372.778221699979, -6496.489822446088, -28107.877446160015, -27090.51544553226, -15281.731221882252, 5234.644440966183, 57436.540119235535, 19659.812111832158, -14378.251359254285, -5530.179206154252, -20277.92725299922, -27160.00701904381, 6226.391342448157, -11200.190925620906, -10433.034352425857, -9770.349832814913, 0.232, 0.924, 0.146, 192.0, 0.0, 0.0, 0.0, 0.0, 0.0, 0.0, 0.0, 0.0, 0.0, 1.6626779344514267E9, 0.0, 2022-09-08 18:58:54.451
200.0, -5359.367175026796, -6483.503458917554, -28079.781303379692, -27066.710837687355, -15244.090884219515, 5255.18569412061, 57407.728720632644, 19668.573995658637, -14416.159917850486, -5571.328767696473, -20287.11381997035, -27163.18096675646, 6218.27765921088, -11235.797254538209, -10435.358933849207, -9774.954292172706, 0.234, 0.934, 0.148, 192.0, 3.5, 48.0, 14.5, 64.0, 2.0, 88.0, 0.0, 0.0, 0.0, 1.6626779344514315E9, 0.0, 2022-09-08 18:58:54.451
202.0, -5388.44679456315, -6515.891136633294, -28110.447896772373, -27092.616509511055, -15277.372631713466, 5201.69796963906, 57428.47113948717, 19578.317651548106, -14446.223014142874, -5601.72714015569, -20280.944738500686, -27160.476405677367, 6205.335999171258, -11242.681591830444, -10418.461015040995, -9759.620995476365, 0.234, 0.934, 0.148, 192.0, 0.0, 0.0, 0.0, 0.0, 0.0, 0.0, 0.0, 0.0, 0.0, 1.6626779344514363E9, 0.0, 2022-09-08 18:58:54.451
204.0, -5395.822870233402, -6523.7365989371065, -28132.464365060852, -27085.039268140707, -15264.095695507014, 5210.213984276532, 57374.64813883879, 19686.32128075615, -14516.765119643822, -5692.944609277798, -20328.241029768113, -27206.85627542213, 6192.573153087277, -11295.85639188962, -10456.30251840383, -9793.193315648237, 0.234, 0.934, 0.148, 192.0, 0.0, 0.0, 0.0, 0.0, 0.0, 0.0, 0.0, 0.0, 0.0, 1.6626779344514408E9, 0.0, 2022-09-08 18:58:54.451
206.0, -5387.664483507215, -6516.360523266855, -28135.45949881786, -27084.949861162888, -15257.390172170422, 5212.918545355624, 57420.78213939454, 19674.921891083945, -14554.36075381765, -5729.020324828663, -20335.237125782627, -27197.066211350706, 6203.234935192459, -11314.587153743167, -10452.413314868607, -9777.748260229619, 0.234, 0.934, 0.148, 192.0, 0.0, 0.0, 0.0, 0.0, 0.0, 0.0, 0.0, 0.0, 0.0, 1.6626779344514456E9, 0.0, 2022-09-08 18:58:54.451
208.0, -5346.425514987173, -6477.356729192345, -28096.567463465628, -27058.59715445008, -15234.926668992839, 5244.814484693347, 57410.254467756095, 19652.056056506164, -14558.965213175443, -5742.967813368776, -20297.06034625296, -27157.056588775707, 6225.027886036383, -11305.959380383418, -10419.779767963859, -9761.990280388627, 0.234, 0.934, 0.148, 192.0, 0.0, 0.0, 0.0, 0.0, 0.0, 0.0, 0.0, 0.0, 0.0, 1.6626779344514503E9, 0.0, 2022-09-08 18:58:54.451
210.0, -5368.173762342187, -6500.423729470222, -28115.23117008581, -27087.60971875307, -15252.428084901345, 5225.457873995051, 57422.74909290661, 19693.6973564264, -14593.83393452572, -5803.429282120381, -20295.383965418812, -27156.833071331155, 6204.732502070964, -11345.72313376941, -10438.152901906122, -9774.306091583501, 0.234, 0.933, 0.14200000000000002, 192.0, 3.5, 40.0, 14.5, 16.0, 2.0, 32.0, 0.0, 0.0, 0.0, 1.662677934451455E9, 0.0, 2022-09-08 18:58:54.451
212.0, -5387.664483507215, -6516.449930244677, -28131.413833071452, -27104.820561983655, -15270.3541839545, 5209.610487176238, 57436.89774714682, 19614.818050243623, -14652.395504998625, -5879.984006879808, -20313.6453406388, -27170.512338937802, 6210.275734695881, -11359.20123567596, -10449.68640204506, -9782.956216687706, 0.234, 0.933, 0.14200000000000002, 192.0, 0.0, 0.0, 0.0, 0.0, 0.0, 0.0, 0.0, 0.0, 0.0, 1.6626779344514596E9, 0.0, 2022-09-08 18:58:54.451
214.0, -5395.129966155287, -6528.989258884104, -28145.71894952285, -27112.196637653906, -15270.108314765492, 5225.7931501618805, 57451.06875313148, 19726.844993453622, -14699.065947421306, -5972.4978771803235, -20329.179803035237, -27189.488969980357, 6196.4623566225, -11402.83184085272, -10469.378288910186, -9799.742376773642, 0.234, 0.933, 0.14200000000000002, 192.0, 0.0, 0.0, 0.0, 0.0, 0.0, 0.0, 0.0, 0.0, 0.0, 1.6626779344514651E9, 0.0, 2022-09-08 18:58:54.451
216.0, -5423.986068247088, -6553.978509185137, -28170.797606801705, -27130.860344274086, -15275.763306112685, 5193.897210824158, 57477.019128444095, 19660.505015910272, -14748.731523601, -6057.523913088312, -20352.73854169113, -27209.404374290036, 6176.368138357179, -11435.711256946475, -10481.649396616149, -9808.526612344576, 0.234, 0.933, 0.14200000000000002, 192.0, 0.0, 0.0, 0.0, 0.0, 0.0, 0.0, 0.0, 0.0, 0.0, 1.66267793445147E9, 0.0, 2022-09-08 18:58:54.451
218.0, -5397.231030134086, -6518.081607589914, -28140.823917487138, -27098.98675668082, -15254.953832024794, 5255.409211565163, 57442.03864837154, 19742.42415933897, -14765.897663342676, -6075.405308652557, -20339.282791529036, -27190.941833369954, 6192.9084292541065, -11427.172890564549, -10466.673727831094, -9791.89691446983, 0.234, 0.933, 0.14200000000000002, 192.0, 0.0, 0.0, 0.0, 0.0, 0.0, 0.0, 0.0, 0.0, 0.0, 1.662677934451475E9, 0.0, 2022-09-08 18:58:54.451
220.0, -5404.9423819711665, -6525.636497215807, -28150.18929841391, -27113.873018488055, -15266.532035652643, 5214.863147123236, 57475.09687842094, 19688.891731368512, -14802.755689949476, -6110.698713147487, -20342.63555319733, -27186.739705412354, 6205.335999171258, -11441.16508259357, -10468.97595750999, -9791.718100514187, 0.227, 0.9285000000000001, 0.139, 192.0, 3.0, 112.0, 14.0, 112.0, 2.0, 32.0, 0.0, 0.0, 0.0, 1.6626779344514794E9, 0.0, 2022-09-08 18:58:54.451
222.0, -5431.406847406251, -6554.716116752162, -28164.159138698476, -27137.007073999295, -15265.660317618886, 5218.238260535987, 57418.90459286029, 19684.443734221906, -14813.21630635456, -6145.5003792644, -20334.521869960055, -27180.861196620608, 6219.9093365561175, -11463.673289260065, -10466.517265619907, -9806.291437899046, 0.227, 0.9285000000000001, 0.139, 192.0, 0.0, 0.0, 0.0, 0.0, 0.0, 0.0, 0.0, 0.0, 0.0, 1.6626779344514852E9, 0.0, 2022-09-08 18:58:54.451
224.0, -5439.542882387982, -6559.789962743516, -28174.083313236635, -27133.654312331, -15284.212265516791, 5208.247030764464, 57482.33884362446, 19671.166798015453, -14864.290042434937, -6207.280600938869, -20376.453742558213, -27211.10310686864, 6203.70432182602, -11511.03663576086, -10483.21401872802, -9819.635429338865, 0.227, 0.9285000000000001, 0.139, 192.0, 0.0, 0.0, 0.0, 0.0, 0.0, 0.0, 0.0, 0.0, 0.0, 1.662677934451491E9, 0.0, 2022-09-08 18:58:54.451
226.0, -5421.88500426829, -6540.232186345123, -28157.788891528715, -27104.17236139445, -15264.229805973746, 5217.254783779953, 57429.58872670993, 19629.749015539768, -14860.42319064417, -6219.462301667011, -20364.02617264106, -27196.306252039227, 6203.145528214637, -11518.613877131209, -10478.49780064795, -9802.379882619367, 0.227, 0.9285000000000001, 0.139, 192.0, 0.0, 0.0, 0.0, 0.0, 0.0, 0.0, 0.0, 0.0, 0.0, 1.662677934451496E9, 0.0, 2022-09-08 18:58:54.451
228.0, -5446.091943513387, -6567.523666325053, -28191.71883961187, -27134.548382109213, -15290.694271408829, 5179.614446117216, 57465.15035213833, 19642.534213368202, -14870.056792504407, -6261.841209154273, -20371.536358778045, -27207.169199844506, 6209.269906195392, -11535.020057561405, -10479.525980892895, -9819.881298527873, 0.227, 0.9285000000000001, 0.139, 192.0, 0.0, 0.0, 0.0, 0.0, 0.0, 0.0, 0.0, 0.0, 0.0, 1.6626779344515011E9, 0.0, 2022-09-08 18:58:54.451
230.0, -5423.874309524812, -6539.382820055821, -28166.818996288657, -27103.524160805246, -15278.177294513858, 5236.678449711615, 57386.78513607802, 19656.101722252577, -14861.294908677926, -6278.448555284567, -20357.052428371004, -27203.168237587004, 6219.954040045028, -11553.549653714856, -10491.21594324302, -9805.442071609745, 0.2265, 0.9332500000000001, 0.1355, 192.0, 3.5, 8.0, 14.5, 40.0, 2.0, 16.0, 0.0, 0.0, 0.0, 1.6626779344515092E9, 0.0, 2022-09-08 18:58:54.451
232.0, -5438.31353644294, -6547.96588992666, -28174.038609747724, -27115.012957455274, -15313.135422841959, 5204.693103396071, 57443.69267746123, 19615.890933977476, -14858.143312709728, -6276.7274709615085, -20350.45866375669, -27183.7669233998, 6211.080397496271, -11542.642002420665, -10491.819440343314, -9791.65104528082, 0.2265, 0.9332500000000001, 0.1355, 192.0, 0.0, 0.0, 0.0, 0.0, 0.0, 0.0, 0.0, 0.0, 0.0, 1.6626779344515145E9, 0.0, 2022-09-08 18:58:54.451
234.0, -5429.685763083192, -6535.024229887036, -28156.157214183477, -27111.391974853515, -15249.20943369978, 5217.657115180149, 57400.397348451304, 19633.16883244143, -14858.925623765663, -6324.6272593292315, -20357.79003593803, -27197.826170662185, 6215.729560342975, -11590.362976832745, -10488.60078914175, -9820.305981672524, 0.2265, 0.9332500000000001, 0.1355, 192.0, 0.0, 0.0, 0.0, 0.0, 0.0, 0.0, 0.0, 0.0, 0.0, 1.6626779344515188E9, 0.0, 2022-09-08 18:58:54.451
236.0, -5433.686725340692, -6539.226357844635, -28175.469121392864, -27132.55907685269, -15271.270605477168, 5214.12553955621, 57461.68583174775, 19578.228244570284, -14855.572862097368, -6343.983870027527, -20355.018419625572, -27189.28780428026, 6226.614859892709, -11602.991712449993, -10476.039108757866, -9814.427472880778, 0.2265, 0.9332500000000001, 0.1355, 192.0, 0.0, 0.0, 0.0, 0.0, 0.0, 0.0, 0.0, 0.0, 0.0, 1.6626779344515235E9, 0.0, 2022-09-08 18:58:54.451
238.0, -5401.187288902675, -6501.42955797071, -28145.76365301176, -27093.55528277818, -15266.889663563928, 5232.31985954283, 57396.28462747153, 19570.20396831083, -14835.322181620859, -6330.058733231871, -20327.793994879008, -27164.65618189051, 6240.3388309882685, -11593.045186167383, -10467.344280164752, -9816.03679848156, 0.2265, 0.9332500000000001, 0.1355, 192.0, 0.0, 0.0, 0.0, 0.0, 0.0, 0.0, 0.0, 0.0, 0.0, 1.6626779344515293E9, 0.0, 2022-09-08 18:58:54.451
240.0, -5394.101785910343, -6496.71333989064, -28141.986208198814, -27086.626241997034, -15279.093716036525, 5224.228528050009, 57438.32825879196, 19583.21268358382, -14813.015140654463, -6327.287116919412, -20309.420860936745, -27144.13728048054, 6260.455400998045, -11567.72065969952, -10457.576567837783, -9791.89691446983, 0.23125, 0.938625, 0.13175, 192.0, 3.5, 48.0, 14.5, 64.0, 2.0, 0.0, 0.0, 0.0, 0.0, 1.6626779349313443E9, 0.0, 2022-09-08 18:58:54.931
242.0, -5415.894736754267, -6520.361485524355, -28156.984228728325, -27107.770992251753, -15274.556311912098, 5210.348094743264, 57377.08447898442, 19547.24872675523, -14803.31448356086, -6329.008201242471, -20304.77169809004, -27135.956542009895, 6254.107505572737, -11597.783755991908, -10464.818533041303, -9788.32063535698, 0.23125, 0.938625, 0.13175, 192.0, 0.0, 0.0, 0.0, 0.0, 0.0, 0.0, 0.0, 0.0, 0.0, 1.662677934931419E9, 0.0, 2022-09-08 18:58:54.931
244.0, -5428.590527604882, -6527.782264683517, -28170.81995854616, -27126.9040855055, -15287.676785907363, 5207.442367964073, 57416.825880625955, 19505.070984968064, -14841.111283434784, -6392.93419038465, -20351.71036144619, -27184.213958288907, 6204.7101503265085, -11665.263672502479, -10493.294655477364, -9830.476025399688, 0.23125, 0.938625, 0.13175, 192.0, 0.0, 0.0, 0.0, 0.0, 0.0, 0.0, 0.0, 0.0, 0.0, 1.662677934931436E9, 0.0, 2022-09-08 18:58:54.931
246.0, -5404.271829637508, -6500.490784703587, -28142.500298321283, -27102.965367193865, -15258.708925093286, 5223.535623971895, 57363.204045677674, 19505.897999512912, -14806.309617317871, -6366.536780182932, -20314.02532029454, -27147.512393893292, 6258.354337019246, -11618.503823101977, -10464.729126063481, -9803.229248908669, 0.23125, 0.938625, 0.13175, 192.0, 0.0, 0.0, 0.0, 0.0, 0.0, 0.0, 0.0, 0.0, 0.0, 1.6626779349314413E9, 0.0, 2022-09-08 18:58:54.931
248.0, -5411.491443096572, -6509.409130741255, -28157.833595017626, -27111.324919620147, -15278.199646258314, 5219.668772181127, 57407.43814795472, 19525.701645100315, -14811.294056331404, -6387.592123459831, -20326.58700067842, -27158.777673098764, 6249.167770048114, -11644.185977481126, -10463.656242329627, -9801.776385519075, 0.23125, 0.938625, 0.13175, 192.0, 0.0, 0.0, 0.0, 0.0, 0.0, 0.0, 0.0, 0.0, 0.0, 1.6626779349314468E9, 0.0, 2022-09-08 18:58:54.931
250.0, -5415.7382745430805, -6513.946534865682, -28162.95214449789, -27123.528972092747, -15262.59812862851, 5216.248955279464, 57370.334252158915, 19476.41604857636, -14806.533134762423, -6392.889486895739, -20317.98157906313, -27155.290800963736, 6268.457325513044, -11653.730172363541, -10463.656242329627, -9799.809432007007, 0.23462500000000003, 0.9373125, 0.12687500000000002, 192.0, 3.5, 56.0, 14.5, 32.0, 1.5, 104.0, 0.0, 0.0, 0.0, 1.662677934931451E9, 0.0, 2022-09-08 18:58:54.931
252.0, -5421.102693212354, -6523.669543703741, -28172.786912058225, -27144.494908391825, -15283.340547483034, 5213.566745944828, 57410.74620613411, 19519.24199095273, -14821.397044825202, -6421.0079814205155, -20332.711378659176, -27177.083751807662, 6236.673144897598, -11685.514352978988, -10479.570684381806, -9824.396350907846, 0.23462500000000003, 0.9373125, 0.12687500000000002, 192.0, 0.0, 0.0, 0.0, 0.0, 0.0, 0.0, 0.0, 0.0, 0.0, 1.6626779349314559E9, 0.0, 2022-09-08 18:58:54.931
254.0, -5395.331131855385, -6482.654092628252, -28139.549868053185, -27047.041302566686, -15256.697268092308, 5261.175961634632, 57404.95710432019, 19555.854148370523, -14808.701253974588, -6354.265672476969, -20313.935913316716, -27124.333634893137, 6244.809179879329, -11559.808142162341, -10462.40454464013, -9780.944559686728, 0.23462500000000003, 0.9373125, 0.12687500000000002, 192.0, 0.0, 0.0, 0.0, 0.0, 0.0, 0.0, 0.0, 0.0, 0.0, 1.6626779349314604E9, 0.0, 2022-09-08 18:58:54.931
0.0, -5429.998687505566, -6526.642325716296, -28170.127054468045, -27090.917776932452, -15250.103503477992, 5240.835874180302, 57383.544133132, 19488.173066159852, -14804.990864395008, -6384.708748425097, -20321.535506431523, -27124.84772501561, 6270.893665658673, -11657.865245087773, -10474.519190134906, -9792.098080169926, 0.23462500000000003, 0.9373125, 0.12687500000000002, 192.0, 0.0, 0.0, 0.0, 0.0, 0.0, 0.0, 0.0, 0.0, 0.0, 1.6626779349314651E9, 0.0, 2022-09-08 18:58:54.931
2.0, -5396.806346989435, -6494.56757242293, -28119.366242810043, -27058.753616661266, -15258.217186715268, 5267.0544704263775, 57406.633485154336, 19554.87067161449, -14831.544736807911, -6438.665859540208, -20332.130233303338, -27159.671742876977, 6243.088095556271, -11661.866207345272, -10470.093544732756, -9797.574257561477, 0.23462500000000003, 0.9373125, 0.12687500000000002, 192.0, 0.0, 0.0, 0.0, 0.0, 0.0, 0.0, 0.0, 0.0, 0.0, 1.6626779349314735E9, 0.0, 2022-09-08 18:58:54.931
4.0, -5397.432195834183, -6487.258551986045, -28116.862847431046, -27057.188994549393, -15237.2959539051, 5275.011691452467, 57389.66851111275, 19569.891043888456, -14751.145512002173, -6312.8925934901945, -20259.129435912306, -27072.298773801183, 6352.254015475991, -11566.111334098738, -10402.412462522087, -9735.503463209088, 0.22831250000000003, 0.94065625, 0.1214375, 192.0, 3.0, 120.0, 14.5, 64.0, 1.5, 80.0, 0.0, 0.0, 0.0, 1.6626779349314783E9, 0.0, 2022-09-08 18:58:54.931
6.0, -5457.267815741041, -6544.858997447372, -28171.110531224076, -27123.059585459185, -15260.653526860897, 5241.349964302774, 57371.36243240386, 19519.040825252632, -14933.513395013022, -6479.7707175935175, -20351.777416679553, -27155.04493177473, 6291.479622302011, -11641.906099546684, -10459.990556238956, -9788.387690590345, 0.22831250000000003, 0.94065625, 0.1214375, 192.0, 0.0, 0.0, 0.0, 0.0, 0.0, 0.0, 0.0, 0.0, 0.0, 1.6626779349314888E9, 0.0, 2022-09-08 18:58:54.931
8.0, -5490.750728935091, -6587.9531607572035, -28240.11036635761, -27206.029260877283, -15297.60096044552, 5227.313068784842, 57336.49371105358, 19524.606409622003, -15073.971757170173, -6659.74696394765, -20411.121298208393, -27270.379933164113, 6316.290058647402, -11665.822466113863, -10465.802009797337, -9810.739435045652, 0.22831250000000003, 0.94065625, 0.1214375, 192.0, 0.0, 0.0, 0.0, 0.0, 0.0, 0.0, 0.0, 0.0, 0.0, 1.6626779349314935E9, 0.0, 2022-09-08 18:58:54.931
10.0, -5392.403053331739, -6485.291598473978, -28162.57216484215, -27038.793508862676, -15275.718602623774, 5268.686147771615, 57409.628618911345, 19557.329363504574, -14942.34233407287, -6388.150917071213, -20389.641271786844, -27161.504585922314, 6343.223910716047, -11542.418484976111, -10447.406524110618, -9777.234170107147, 0.22831250000000003, 0.94065625, 0.1214375, 192.0, 0.0, 0.0, 0.0, 0.0, 0.0, 0.0, 0.0, 0.0, 0.0, 1.662677934931498E9, 0.0, 2022-09-08 18:58:54.931
12.0, -5344.39150624174, -6442.778580519985, -28076.0262103112, -27024.06370926663, -15230.165747423858, 5273.581179807327, 57366.713269557156, 19576.283642802675, -14647.254603773905, -6312.959648723561, -20258.59299404538, -27092.7953234667, 6370.425983718155, -11595.392119335189, -10402.926552644558, -9747.416943003767, 0.22831250000000003, 0.94065625, 0.1214375, 192.0, 0.0, 0.0, 0.0, 0.0, 0.0, 0.0, 0.0, 0.0, 0.0, 1.6626779349315023E9, 0.0, 2022-09-08 18:58:54.931
14.0, -5363.591654728849, -6430.708638514118, -28135.28068486222, -27032.49031692628, -15229.383436367922, 5292.758976549981, 57412.57904917945, 19611.040605430677, -14813.283361587926, -6353.461009676577, -20287.069116481438, -27104.70880326138, 6392.59891421782, -11572.660395224142, -10390.901314127603, -9729.580250928433, 0.22831250000000003, 0.94065625, 0.1214375, 192.0, 0.0, 0.0, 0.0, 0.0, 0.0, 0.0, 0.0, 0.0, 0.0, 1.662677934931507E9, 0.0, 2022-09-08 18:58:54.931
16.0, -5382.121250882298, -6462.962205763127, -28124.440088801395, -27071.11413134505, -15217.179383895325, 5263.2993773578855, 57387.03100526703, 19558.0669710716, -14674.546083753836, -6285.399947810167, -20249.004095674052, -27080.65832622747, 6423.287859354957, -11541.926746598096, -10416.494061528929, -9746.746390670109, 0.226, 0.906, 0.108, 192.0, 3.5, 8.0, 14.0, 40.0, 1.5, 48.0, 0.0, 0.0, 0.0, 1.6626779349315116E9, 0.0, 2022-09-08 18:58:54.931
18.0, -5351.946395867633, -6433.234385637568, -28100.210797811844, -27055.06557882614, -15191.497229516177, 5309.299267446908, 57473.174628397785, 19602.68105300439, -14765.383573220202, -6347.604852629287, -20266.840787749385, -27111.235512642328, 6363.742812126018, -11555.33779327128, -10417.96927666298, -9749.205082560193, 0.226, 0.906, 0.108, 192.0, 0.0, 0.0, 0.0, 0.0, 0.0, 0.0, 0.0, 0.0, 0.0, 1.662677934931516E9, 0.0, 2022-09-08 18:58:54.931
20.0, -5343.542139952438, -6429.680458269175, -28041.448061638843, -27016.464116151827, -15223.43787234281, 5326.174834510664, 57422.5032237176, 19619.891896234978, -14564.73196324491, -6215.282525453869, -20176.852664572318, -27027.63998837948, 6303.862488730251, -11470.736440507942, -10350.735229341415, -9700.970018025639, 0.226, 0.906, 0.108, 192.0, 0.0, 0.0, 0.0, 0.0, 0.0, 0.0, 0.0, 0.0, 0.0, 1.6626779349315205E9, 0.0, 2022-09-08 18:58:54.931
22.0, -5437.441818409183, -6505.251706272567, -28192.948185556914, -27077.439675025904, -15295.432841233354, 5287.9533514920895, 57428.31467727598, 19559.29631701664, -14706.129098669184, -6317.429997614622, -20256.827206233407, -27081.150064605485, 6406.45699578011, -11513.920010795595, -10396.243381052422, -9725.266364248559, 0.226, 0.906, 0.108, 192.0, 0.0, 0.0, 0.0, 0.0, 0.0, 0.0, 0.0, 0.0, 0.0, 1.6626779349315495E9, 0.0, 2022-09-08 18:58:54.931
24.0, -5324.945488565622, -6410.435606293155, -28053.540355389163, -27009.333909670582, -15201.264941843147, 5317.234136728542, 57389.35558669038, 19613.34283510957, -14848.979097483052, -6336.764256568463, -20345.653038698798, -27140.784518812245, 6568.708308781184, -11486.203847671015, -10446.221881654488, -9739.325611510947, 0.226, 0.906, 0.108, 192.0, 0.0, 0.0, 0.0, 0.0, 0.0, 0.0, 0.0, 0.0, 0.0, 1.662677934931554E9, 0.0, 2022-09-08 18:58:54.931
26.0, -5338.401238727718, -6416.180004618169, -28063.55393690514, -27020.755651087245, -15178.756735176652, 5310.439206414128, 57437.590651224935, 19608.179582140398, -14471.458133632916, -6202.676141581076, -20148.04126596943, -27028.802279091156, 6376.863286121284, -11413.225402024436, -10322.99671447238, -9669.275244388014, 0.234, 0.912, 0.108, 192.0, 3.5, 40.0, 14.0, 64.0, 1.5, 48.0, 0.0, 0.0, 0.0, 1.6626779349315588E9, 0.0, 2022-09-08 18:58:54.931
28.0, -5324.274936231964, -6427.042952423448, -28023.320796885586, -27031.283322725692, -15201.667273243342, 5304.158366222187, 57366.04271722349, 19613.298131620664, -14548.839872937187, -6317.675866803631, -20237.00120890155, -27098.673832258446, 6443.851464253839, -11428.31282953177, -10383.592293690717, -9711.743558853097, 0.234, 0.912, 0.108, 192.0, 0.0, 0.0, 0.0, 0.0, 0.0, 0.0, 0.0, 0.0, 0.0, 1.6626779349315631E9, 0.0, 2022-09-08 18:58:54.931
30.0, -5295.910572518179, -6378.9867018445375, -28008.43453507835, -27005.86938928001, -15197.15222086337, 5330.846349101824, 57442.195110582725, 19632.811204530146, -14462.048049217232, -6089.844535570685, -20133.333818117837, -27034.79254660518, 6453.216845180613, -11361.682279310498, -10336.631278590117, -9675.86900900233, 0.234, 0.912, 0.108, 192.0, 0.0, 0.0, 0.0, 0.0, 0.0, 0.0, 0.0, 0.0, 0.0, 1.6626779349315677E9, 0.0, 2022-09-08 18:58:54.931
32.0, -5395.9569807001335, -6508.895040618782, -28124.596551012582, -27086.067448385653, -15223.3931688539, 5270.608397794771, 57313.00202763105, 19594.433259300382, -14585.854361755177, -6201.290333424847, -20236.688284479176, -27125.451222115902, 6439.761095018518, -11410.565544434256, -10392.331825772742, -9729.02145731705, 0.234, 0.912, 0.108, 192.0, 0.0, 0.0, 0.0, 0.0, 0.0, 0.0, 0.0, 0.0, 0.0, 1.6626779349315722E9, 0.0, 2022-09-08 18:58:54.931
34.0, -5293.898915517201, -6368.25786450599, -28042.677407583884, -26995.654642063935, -15199.923837175827, 5321.279802474953, 57420.06688357197, 19633.973495241822, -14538.82629142121, -6159.984309671439, -20227.188793085672, -27143.354969424603, 6494.276999745011, -11402.45186119698, -10381.647691923106, -9712.905849564773, 0.234, 0.912, 0.108, 192.0, 0.0, 0.0, 0.0, 0.0, 0.0, 0.0, 0.0, 0.0, 0.0, 1.6626779349315765E9, 0.0, 2022-09-08 18:58:54.931
36.0, -5354.0474598464325, -6434.642545538252, -28095.47222798732, -27040.201668763362, -15233.607916069976, 5285.740528791014, 57330.79401621748, 19573.176750323386, -14556.752390474367, -5944.446437888913, -20208.681548676675, -27047.7342066448, 6417.677571496674, -11377.172038218027, -10374.67394765305, -9708.055521017972, 0.252, 0.93, 0.11800000000000001, 192.0, 3.5, 112.0, 14.5, 8.0, 1.5, 88.0, 0.0, 0.0, 0.0, 1.662677934931581E9, 0.0, 2022-09-08 18:58:54.931
38.0, -5457.60309190787, -6550.156360883279, -28243.708997214915, -27138.37053041107, -15277.104410780003, 5236.790208433892, 57341.746371000576, 19543.694799386838, -14688.135944382662, -6087.274084958325, -20290.757154316565, -27174.289783750748, 6474.003967524049, -11359.938843242984, -10406.927514902058, -9745.539396469521, 0.252, 0.93, 0.11800000000000001, 192.0, 0.0, 0.0, 0.0, 0.0, 0.0, 0.0, 0.0, 0.0, 0.0, 1.662677934931588E9, 0.0, 2022-09-08 18:58:54.931
40.0, -5353.689831935148, -6437.794141506451, -28120.90851317746, -27029.58459014709, -15238.413541127866, 5307.868755801768, 57330.838719706386, 19618.662550289937, -14753.246575980971, -6106.340122978702, -20409.131992951872, -27220.80376396224, 6477.379080936799, -11445.724838462453, -10478.40839367013, -9774.797829961519, 0.252, 0.93, 0.11800000000000001, 192.0, 0.0, 0.0, 0.0, 0.0, 0.0, 0.0, 0.0, 0.0, 0.0, 1.6626779349315925E9, 0.0, 2022-09-08 18:58:54.931
42.0, -5315.825976827858, -6390.609608961297, -28042.945628517347, -26995.274662408196, -15213.223125126735, 5300.783252809436, 57413.02608406855, 19633.593515586083, -14340.588669847093, -5778.23886611925, -20135.524289074456, -27058.708913172355, 6348.096591007304, -11313.849546176141, -10344.90142403858, -9672.046860700471, 0.252, 0.93, 0.11800000000000001, 192.0, 0.0, 0.0, 0.0, 0.0, 0.0, 0.0, 0.0, 0.0, 0.0, 1.662677934931597E9, 0.0, 2022-09-08 18:58:54.931
44.0, -5375.7063002236255, -6455.094391714859, -28177.279612693743, -27059.133596317006, -15253.746837824207, 5272.016557695456, 57330.34698132837, 19605.184448383385, -14539.295678054772, -5864.87422762802, -20275.468561109134, -27129.921571006966, 6523.557784981464, -11273.549350923224, -10410.079110870256, -9713.107015264872, 0.252, 0.93, 0.11800000000000001, 192.0, 0.0, 0.0, 0.0, 0.0, 0.0, 0.0, 0.0, 0.0, 0.0, 1.6626779349316015E9, 0.0, 2022-09-08 18:58:54.931
46.0, -5341.441075973639, -6417.230536607568, -28102.110696090545, -27016.53117138519, -15224.510756076665, 5286.142860191209, 57415.216555025174, 19602.323425093105, -14450.201624655918, -5794.667398293901, -20259.352953356858, -27114.901198732998, 6281.913075675139, -11291.22958078737, -10415.756453961903, -9727.792111372008, 0.246, 0.92, 0.098, 192.0, 3.5, 88.0, 14.0, 96.0, 1.5, 8.0, 0.0, 0.0, 0.0, 1.662677934931606E9, 0.0, 2022-09-08 18:58:54.931
48.0, -5350.717049922592, -6438.241176395557, -28110.269082816732, -27034.77019486072, -15248.87415753295, 5291.864906771768, 57421.47504347266, 19595.394384311963, -14383.101687801087, -5787.604247046023, -20217.130508080783, -27086.492131530304, 6310.500956833477, -11262.217016484383, -10372.86345635217, -9692.342244665891, 0.246, 0.92, 0.098, 192.0, 0.0, 0.0, 0.0, 0.0, 0.0, 0.0, 0.0, 0.0, 0.0, 1.6626779349316103E9, 0.0, 2022-09-08 18:58:54.931
50.0, -5405.523527327005, -6490.14192702078, -28198.983156559847, -27085.665116985456, -15282.31236723809, 5240.969984647034, 57433.254412800605, 19561.82206414009, -14475.235578445861, -5916.394998597503, -20310.717262115155, -27197.446191006446, 6377.735004155041, -11283.18295278346, -10446.490102587952, -9751.462608750178, 0.246, 0.92, 0.098, 192.0, 0.0, 0.0, 0.0, 0.0, 0.0, 0.0, 0.0, 0.0, 0.0, 1.662677934931615E9, 0.0, 2022-09-08 18:58:54.931
52.0, -5425.88596652579, -6519.1544913237685, -28152.424472859442, -27074.891576158, -15263.894529806916, 5270.004900694478, 57458.17660786827, 19577.96002363682, -14461.355145139116, -5840.197901749361, -20294.86987529634, -27143.287914191238, 6308.757520765963, -11223.146167176506, -10411.934305660046, -9725.73575088212, 0.246, 0.92, 0.098, 192.0, 0.0, 0.0, 0.0, 0.0, 0.0, 0.0, 0.0, 0.0, 0.0, 1.6626779349316196E9, 0.0, 2022-09-08 18:58:54.931
54.0, -5466.1638100342525, -6530.822101929439, -28328.779736611814, -27188.863121135608, -15339.644591765953, 5192.421995690107, 57406.83465085443, 19517.56561011858, -14664.912481893598, -6146.5509112538, -20470.733400670695, -27369.42051284558, 6470.561798877931, -11191.630207494523, -10493.227600243998, -9795.316731371491, 0.246, 0.92, 0.098, 192.0, 0.0, 0.0, 0.0, 0.0, 0.0, 0.0, 0.0, 0.0, 0.0, 1.6626779349316242E9, 0.0, 2022-09-08 18:58:54.931
56.0, -5216.137196557188, -6301.135575906704, -27918.20054271228, -26921.111574305487, -15180.544874733076, 5308.71812209107, 57526.505890668144, 19577.20006432534, -14184.484086571229, -5509.705008233191, -20237.716464724122, -27067.89548014349, 6232.13574077317, -11181.616625978546, -10406.636942224139, -9734.02824807504, 0.23, 0.9420000000000001, 0.10200000000000001, 192.0, 3.5, 24.0, 14.5, 56.0, 1.5, 24.0, 0.0, 0.0, 0.0, 1.6626779349316287E9, 0.0, 2022-09-08 18:58:54.931
58.0, -5245.485037027006, -6333.187977455614, -27994.3082325826, -26966.10563589402, -15189.127944603915, 5327.091256033333, 57527.86934707992, 19653.754789084767, -13895.632492975295, -5617.9545066302435, -20093.16773333165, -27024.15311624445, 6247.513740958422, -11166.30568102666, -10307.819879987226, -9641.402619052245, 0.23, 0.9420000000000001, 0.10200000000000001, 192.0, 0.0, 0.0, 0.0, 0.0, 0.0, 0.0, 0.0, 0.0, 0.0, 1.6626779349316332E9, 0.0, 2022-09-08 18:58:54.931
60.0, -5354.606253457815, -6445.326679387889, -28220.77610740377, -27084.279308829227, -15290.940140597839, 5220.249917536965, 57550.086981068496, 19479.99232768921, -14090.986739514678, -5724.326458493049, -20208.79330739895, -27091.07423914364, 6312.803186512374, -11138.053076035152, -10368.326052227743, -9695.471488889634, 0.23, 0.9420000000000001, 0.10200000000000001, 192.0, 0.0, 0.0, 0.0, 0.0, 0.0, 0.0, 0.0, 0.0, 0.0, 1.6626779349316409E9, 0.0, 2022-09-08 18:58:54.931
62.0, -5413.637210564281, -6540.746276467595, -28259.82460496719, -27172.009905816307, -15254.171520968857, 5253.285795841908, 57484.4175558588, 19611.73350950879, -14289.49258202226, -6089.44220417049, -20452.360266728436, -27340.22913458695, 6566.987224458126, -11071.66839500289, -10528.02926636091, -9803.430414608767, 0.23, 0.9420000000000001, 0.10200000000000001, 192.0, 0.0, 0.0, 0.0, 0.0, 0.0, 0.0, 0.0, 0.0, 0.0, 1.6626779349316454E9, 0.0, 2022-09-08 18:58:54.931
64.0, -5290.52380210445, -6368.8837133507395, -28144.08727217761, -27039.77698561871, -15251.86929128996, 5263.366432591251, 57643.91960429187, 19590.834628443077, -13955.512816371061, -5793.3486453710375, -20287.605558348365, -27184.95156585593, 6293.714796747541, -11095.33889238106, -10387.481497225941, -9721.287753735514, 0.23, 0.9420000000000001, 0.10200000000000001, 192.0, 0.0, 0.0, 0.0, 0.0, 0.0, 0.0, 0.0, 0.0, 0.0, 1.66267793493165E9, 0.0, 2022-09-08 18:58:54.931
66.0, -5202.703798139549, -6283.142421620181, -27951.191717528312, -26938.836507658543, -15166.731496659697, 5328.074732789366, 57629.5027291182, 19630.821899273622, -13619.275524529878, -5591.512392939615, -20170.37065868028, -27048.896497356476, 6440.6775165411855, -11110.403968143937, -10393.807040906793, -9708.502555907078, 0.20600000000000002, 0.914, 0.124, 192.0, 3.0, 56.0, 14.0, 72.0, 1.5, 112.0, 0.0, 0.0, 0.0, 1.6626779349316545E9, 0.0, 2022-09-08 18:58:54.931
68.0, -5300.135052220232, -6381.847725134818, -28122.651949244973, -27035.127822772007, -15197.82277319703, 5284.242961912509, 57671.47930520526, 19601.27289310371, -13695.1820487001, -5692.899905788888, -20160.13355971975, -27041.78864261969, 6216.489519654456, -11037.961964364287, -10288.88795243358, -9646.320002832414, 0.20600000000000002, 0.914, 0.124, 192.0, 0.0, 0.0, 0.0, 0.0, 0.0, 0.0, 0.0, 0.0, 0.0, 1.6626779349316587E9, 0.0, 2022-09-08 18:58:54.931
70.0, -5272.351833862285, -6354.824466088351, -28057.518965902207, -27023.370805188515, -15228.15409042288, 5289.316807903863, 57601.048958426596, 19582.005689383233, -13817.177869937166, -5816.348590415549, -20292.768811317543, -27177.307269252215, 6425.299516355934, -11047.550862735614, -10413.565983005285, -9724.215832259159, 0.20600000000000002, 0.914, 0.124, 192.0, 0.0, 0.0, 0.0, 0.0, 0.0, 0.0, 0.0, 0.0, 0.0, 1.662677934931674E9, 0.0, 2022-09-08 18:58:54.931
72.0, -5242.624013736727, -6321.073331960837, -28048.958247775823, -26991.787790273167, -15196.77224120763, 5280.756089777481, 57686.7678984127, 19590.409945298426, -13671.08686817728, -5678.50538235967, -20167.487283645547, -27048.36005548955, 6240.6294036661875, -11003.36146394747, -10326.058903462757, -9672.940930478684, 0.20600000000000002, 0.914, 0.124, 192.0, 0.0, 0.0, 0.0, 0.0, 0.0, 0.0, 0.0, 0.0, 0.0, 1.6626779349316783E9, 0.0, 2022-09-08 18:58:54.931
74.0, -5229.928222886112, -6324.560204095866, -27999.78440997415, -26980.701325023336, -15199.074470886526, 5304.337180177829, 57588.39787106489, 19595.01440465622, -13550.4992068409, -5683.243952184195, -20134.339646618326, -27048.471814211825, 6274.894627916173, -10942.676477751313, -10322.884955750103, -9662.949700707162, 0.20600000000000002, 0.914, 0.124, 192.0, 0.0, 0.0, 0.0, 0.0, 0.0, 0.0, 0.0, 0.0, 0.0, 1.6626779349316835E9, 0.0, 2022-09-08 18:58:54.931
76.0, -5255.699784243082, -6350.801152086396, -28071.041771297667, -27004.304767168138, -15229.897526490395, 5272.016557695456, 57641.84089205753, 19560.503311217228, -13605.864477856694, -5776.0930986515405, -20180.60775764081, -27058.910078872454, 6315.083064446815, -10954.791123246088, -10347.963613028958, -9680.831096271408, 0.21500000000000002, 0.917, 0.137, 192.0, 3.5, 0.0, 14.0, 96.0, 2.0, 88.0, 0.0, 0.0, 0.0, 1.662677934931688E9, 0.0, 2022-09-08 18:58:54.931
78.0, -5263.142915146699, -6357.752544611996, -28083.670506914917, -27010.25033119325, -15196.973406907728, 5275.548133319394, 57562.60395796347, 19584.30791906213, -13650.79148421186, -5810.760654301722, -20204.211199785615, -27077.50673025927, 6368.190809272624, -10932.059399135042, -10371.656462151583, -9694.82328830043, 0.21500000000000002, 0.917, 0.137, 192.0, 0.0, 0.0, 0.0, 0.0, 0.0, 0.0, 0.0, 0.0, 0.0, 1.6626779349316924E9, 0.0, 2022-09-08 18:58:54.931
80.0, -5265.981586692523, -6360.188884757625, -28090.241919784778, -27019.414546419925, -15206.785822723607, 5291.261409671475, 57629.52508086265, 19563.498444974237, -13666.772981497406, -5829.245546966261, -20215.364720268815, -27093.8458554561, 6398.812699176396, -10947.951489442765, -10393.695282184515, -9704.188669227204, 0.21500000000000002, 0.917, 0.137, 192.0, 0.0, 0.0, 0.0, 0.0, 0.0, 0.0, 0.0, 0.0, 0.0, 1.662677934931697E9, 0.0, 2022-09-08 18:58:54.931
82.0, -5265.489848314506, -6361.127658024748, -28074.84156785507, -27011.434973649382, -15222.186174653314, 5267.590912293304, 57557.23953929419, 19515.57630486206, -13678.619406058719, -5841.002564549753, -20218.24809530355, -27102.495980560303, 6405.026484134971, -10917.955448383744, -10376.126811042644, -9706.78147158402, 0.21500000000000002, 0.917, 0.137, 192.0, 0.0, 0.0, 0.0, 0.0, 0.0, 0.0, 0.0, 0.0, 0.0, 1.6626779349317012E9, 0.0, 2022-09-08 18:58:54.931
84.0, -5225.480225739507, -6329.25407043148, -28040.576343605084, -26984.61288030301, -15201.644921498886, 5301.766729565469, 57640.09745599001, 19661.689658366402, -13668.874045476205, -5831.637183622978, -20209.016824843507, -27098.539721791713, 6409.675646981675, -10922.895183908366, -10364.772124859348, -9684.094450961882, 0.21500000000000002, 0.917, 0.137, 192.0, 0.0, 0.0, 0.0, 0.0, 0.0, 0.0, 0.0, 0.0, 0.0, 1.6626779349317057E9, 0.0, 2022-09-08 18:58:54.931
86.0, -5294.90474401769, -6403.573620745376, -28093.214701797333, -27055.69142767089, -15251.019925000659, 5241.796999191881, 57551.96452760274, 19532.228354481264, -13676.406583357642, -5825.57986087559, -20201.819563128898, -27099.836122970122, 6402.232516078057, -10927.432588032794, -10351.674002608539, -9679.892323004286, 0.22450000000000003, 0.9185000000000001, 0.15050000000000002, 192.0, 3.5, 40.0, 14.0, 96.0, 2.5, 16.0, 0.0, 0.0, 0.0, 1.6626779349317102E9, 0.0, 2022-09-08 18:58:54.931
88.0, -5267.076822170833, -6372.9964343305155, -28064.470358427807, -27026.432994178893, -15222.767320009152, 5255.409211565163, 57580.06067038306, 19536.85516558351, -13747.1945580476, -5884.342597048592, -20258.637697534286, -27159.93996381044, 6316.401817369678, -10975.198265933785, -10430.73212274696, -9746.12054182536, 0.22450000000000003, 0.9185000000000001, 0.15050000000000002, 192.0, 0.0, 0.0, 0.0, 0.0, 0.0, 0.0, 0.0, 0.0, 0.0, 1.6626779349317148E9, 0.0, 2022-09-08 18:58:54.931
90.0, -5272.485944329017, -6378.651425677708, -28044.666712840404, -27016.48646789628, -15237.340657394012, 5255.699784243082, 57555.11612357094, 19616.807355500147, -13753.363639517265, -5862.929625860408, -20226.89822040775, -27128.84868727311, 6318.189956926103, -10972.627815321424, -10388.19675304851, -9701.551163381477, 0.22450000000000003, 0.9185000000000001, 0.15050000000000002, 192.0, 0.0, 0.0, 0.0, 0.0, 0.0, 0.0, 0.0, 0.0, 0.0, 1.6626779349317193E9, 0.0, 2022-09-08 18:58:54.931
92.0, -5224.6755629391155, -6335.11022747877, -28015.721203770783, -26986.423371603894, -15186.423383524821, 5289.450918370595, 57602.05478692708, 19618.103756678553, -13779.179904363145, -5843.707125628845, -20209.732080666075, -27110.632015542033, 6328.449407631088, -10954.321736612528, -10373.802229619292, -9682.686291061198, 0.22450000000000003, 0.9185000000000001, 0.15050000000000002, 192.0, 0.0, 0.0, 0.0, 0.0, 0.0, 0.0, 0.0, 0.0, 0.0, 1.6626779349317236E9, 0.0, 2022-09-08 18:58:54.931
94.0, -5287.3051509028855, -6399.393844532233, -28062.101073515547, -27047.443633966883, -15248.360067410478, 5228.765932174437, 57547.09184731148, 19540.76672086319, -13841.675381860183, -5847.3504599750595, -20218.225743559095, -27121.718480791867, 6308.91398297715, -11010.961057062275, -10395.304607785298, -9702.735805837608, 0.22450000000000003, 0.9185000000000001, 0.15050000000000002, 192.0, 0.0, 0.0, 0.0, 0.0, 0.0, 0.0, 0.0, 0.0, 0.0, 1.662677934931728E9, 0.0, 2022-09-08 18:58:54.931
96.0, -5259.365470333752, -6367.6543674056975, -28036.195401691843, -27018.654587108445, -15241.386323140423, 5256.862074954757, 57543.80614087655, 19565.48775023076, -13919.615914775839, -5841.606061650045, -20241.96329617063, -27141.70094033491, 6323.174395939636, -11052.222377326772, -10418.371608063175, -9729.40143697279, 0.23325, 0.92025, 0.16925, 192.0, 3.5, 72.0, 14.0, 104.0, 2.5, 112.0, 0.0, 0.0, 0.0, 1.6626779349317327E9, 0.0, 2022-09-08 18:58:54.931
98.0, -5239.338307301797, -6342.173378726648, -28008.814514734095, -26971.514758052203, -15188.457392270255, 5293.42952888364, 57574.472734269235, 19593.114506377522, -13933.764569016048, -5743.146627324418, -20199.13735379426, -27089.151989120484, 6336.20546295708, -11023.61214442398, -10384.016976835368, -9674.90788399075, 0.23325, 0.92025, 0.16925, 192.0, 0.0, 0.0, 0.0, 0.0, 0.0, 0.0, 0.0, 0.0, 0.0, 1.6626779349317372E9, 0.0, 2022-09-08 18:58:54.931
100.0, -5284.488831101517, -6390.251981050013, -28049.897021042947, -27018.140496985972, -15237.474767860744, 5247.474342283528, 57553.43974273679, 19545.10295928752, -14012.82268915447, -5702.198231482295, -20221.265580805015, -27110.341442864115, 6306.008256197961, -11034.631554440446, -10395.639883952128, -9690.53175336501, 0.23325, 0.92025, 0.16925, 192.0, 0.0, 0.0, 0.0, 0.0, 0.0, 0.0, 0.0, 0.0, 0.0, 1.6626779349317417E9, 0.0, 2022-09-08 18:58:54.931
102.0, -5256.347984832285, -6370.425983718155, -28018.671634038885, -26994.15707518543, -15220.129814163425, 5260.684223256615, 57591.99650192219, 19554.20011928083, -14057.190901898253, -5674.079736957519, -20231.279162320992, -27133.319036164172, 6287.5904187667875, -11081.301996863127, -10401.71955844397, -9705.68623610571, 0.23325, 0.92025, 0.16925, 192.0, 0.0, 0.0, 0.0, 0.0, 0.0, 0.0, 0.0, 0.0, 0.0, 1.6626779349317472E9, 0.0, 2022-09-08 18:58:54.931
104.0, -5251.341194074296, -6366.134448782736, -28026.628855064973, -27001.890778766967, -15215.480651316722, 5254.224569109031, 57590.476583299234, 19602.479887304293, -14070.914872993813, -5619.720294442212, -20204.09944106334, -27116.152896422496, 6290.026758912416, -11090.19799115634, -10382.653520423595, -9698.511326135556, 0.23325, 0.92025, 0.16925, 192.0, 0.0, 0.0, 0.0, 0.0, 0.0, 0.0, 0.0, 0.0, 0.0, 1.6626779354114187E9, 0.0, 2022-09-08 18:58:55.411
106.0, -5314.373113438262, -6425.321868100389, -28070.818253853115, -27039.620523407524, -15246.929555765339, 5216.427769235107, 57570.002385378175, 19534.24001148224, -14183.254740626186, -5633.466617282226, -20253.45209282066, -27153.23444047385, 6250.821799137807, -11159.130771056507, -10417.186965607043, -9730.586079428922, 0.237625, 0.921125, 0.180625, 192.0, 3.5, 72.0, 14.0, 104.0, 3.0, 0.0, 0.0, 0.0, 0.0, 1.6626779354114983E9, 0.0, 2022-09-08 18:58:55.411
108.0, -5270.094307672299, -6377.623245432765, -28027.008834720713, -26988.189159415862, -15209.57979078052, 5258.203179622076, 57540.989821075185, 19618.05905318964, -14243.58209891106, -5631.991402148175, -20251.887470708785, -27152.429777673457, 6224.066761024805, -11148.692506395879, -10424.138358132644, -9717.957343811673, 0.237625, 0.921125, 0.180625, 192.0, 0.0, 0.0, 0.0, 0.0, 0.0, 0.0, 0.0, 0.0, 0.0, 1.6626779354115229E9, 0.0, 2022-09-08 18:58:55.411
110.0, -5276.1516304196875, -6377.287969265934, -28023.320796885586, -26986.602185559535, -15221.269753130646, 5260.7736302344365, 57604.08879567251, 19595.88612268998, -14275.25452080423, -5604.521108212603, -20223.43370001718, -27116.242303400315, 6240.607051921732, -11139.952974313854, -10387.1015175702, -9680.272302660025, 0.237625, 0.921125, 0.180625, 192.0, 0.0, 0.0, 0.0, 0.0, 0.0, 0.0, 0.0, 0.0, 0.0, 1.6626779354115274E9, 0.0, 2022-09-08 18:58:55.411
112.0, -5255.856246454268, -6358.35604171229, -28014.02247119218, -26977.840301733057, -15209.333921591511, 5273.8046972518805, 57537.704114640255, 19627.625599816514, -14323.35547487205, -5631.92434691481, -20208.05569983193, -27105.200541639395, 6240.51764494391, -11160.985965846297, -10373.556360430284, -9679.020604970528, 0.237625, 0.921125, 0.180625, 192.0, 0.0, 0.0, 0.0, 0.0, 0.0, 0.0, 0.0, 0.0, 0.0, 1.662677935411532E9, 0.0, 2022-09-08 18:58:55.411
114.0, -5273.491772829506, -6370.895370351716, -28033.222619679287, -26993.710040296322, -15196.615778996442, 5258.963138933556, 57592.53294378912, 19633.12412895252, -14385.739193646812, -5689.45773714277, -20241.11392988133, -27128.08872796163, 6239.310650743324, -11209.55630654768, -10396.958636874991, -9694.979750511617, 0.237625, 0.921125, 0.180625, 192.0, 0.0, 0.0, 0.0, 0.0, 0.0, 0.0, 0.0, 0.0, 0.0, 1.6626779354115365E9, 0.0, 2022-09-08 18:58:55.411
116.0, -5249.508351028961, -6350.77880034194, -28007.607520533507, -26978.57790930008, -15197.688662730297, 5284.779403779436, 57577.04318488159, 19635.024027231222, -14408.739138691324, -5709.283734474628, -20216.48230749158, -27095.119904890053, 6258.28728178588, -11216.194774650905, -10368.817790605759, -9687.201343441171, 0.24181249999999999, 0.9185625, 0.1863125, 192.0, 3.5, 88.0, 14.0, 80.0, 3.0, 0.0, 0.0, 0.0, 0.0, 1.6626779354115407E9, 0.0, 2022-09-08 18:58:55.411
118.0, -5308.181680224143, -6406.166423102191, -28055.55201239014, -27020.308616198137, -15236.535994593622, 5239.1147898572435, 57611.35311262049, 19569.913395632913, -14481.829343060177, -5758.926958909865, -20228.70871170863, -27098.584425280624, 6227.240708737459, -11221.380379364537, -10380.23953202242, -9688.140116708293, 0.24181249999999999, 0.9185625, 0.1863125, 192.0, 0.0, 0.0, 0.0, 0.0, 0.0, 0.0, 0.0, 0.0, 0.0, 1.662677935411546E9, 0.0, 2022-09-08 18:58:55.411
120.0, -5316.295363461419, -6413.341333072345, -28062.615163638016, -27016.262950451728, -15226.745930522196, 5248.971909162034, 57520.33680919848, 19639.047341233178, -14599.734795061922, -5869.009300352252, -20285.839770536397, -27161.61634464459, 6193.5566298433105, -11297.935104123962, -10448.859387500213, -9739.839701633418, 0.24181249999999999, 0.9185625, 0.1863125, 192.0, 0.0, 0.0, 0.0, 0.0, 0.0, 0.0, 0.0, 0.0, 0.0, 1.6626779354115503E9, 0.0, 2022-09-08 18:58:55.411
122.0, -5300.783252809436, -6394.744681685529, -28050.83579431007, -26992.39128737346, -15194.425308039823, 5275.346967619296, 57633.3025256756, 19676.46416145136, -14630.580202410247, -5897.3066088326705, -20271.758171529553, -27142.237382201838, 6220.445778423045, -11299.924409380486, -10407.687474213539, -9698.15369822427, 0.24181249999999999, 0.9185625, 0.1863125, 192.0, 0.0, 0.0, 0.0, 0.0, 0.0, 0.0, 0.0, 0.0, 0.0, 1.662677935411555E9, 0.0, 2022-09-08 18:58:55.411
124.0, -5321.525671663961, -6421.142091887247, -28055.59671587905, -27012.7760783167, -15224.4437008433, 5269.446107083096, 57573.422202279835, 19671.055039293176, -14661.358554525204, -5942.7924087992205, -20256.49193006658, -27132.626132086058, 6236.382572219679, -11285.351071995625, -10400.221991565466, -9686.10610796286, 0.24181249999999999, 0.9185625, 0.1863125, 192.0, 0.0, 0.0, 0.0, 0.0, 0.0, 0.0, 0.0, 0.0, 0.0, 1.6626779354115596E9, 0.0, 2022-09-08 18:58:55.411
126.0, -5301.900840032201, -6402.657199222708, -28042.051558739135, -26998.739182798767, -15213.312532104557, 5295.731758562536, 57639.73982807873, 19663.544853156192, -14718.57902033079, -5998.09062458165, -20277.211997176648, -27148.205297971406, 6234.035639051872, -11347.734790770388, -10408.447433525018, -9707.876707062329, 0.24290625, 0.9182812499999999, 0.19515625, 192.0, 3.5, 80.0, 14.0, 88.0, 3.0, 48.0, 0.0, 0.0, 0.0, 1.662677935411564E9, 0.0, 2022-09-08 18:58:55.411
128.0, -5339.563529439393, -6441.75040027504, -28069.231279996788, -27020.375671431506, -15218.028750184627, 5261.019499423444, 57545.795446133074, 19645.998733758777, -14747.457474167048, -6019.771816703298, -20272.20520641866, -27143.9584665249, 6248.988956092472, -11352.920395484018, -10408.29097131383, -9701.282942448013, 0.24290625, 0.9182812499999999, 0.19515625, 192.0, 0.0, 0.0, 0.0, 0.0, 0.0, 0.0, 0.0, 0.0, 0.0, 1.6626779354115684E9, 0.0, 2022-09-08 18:58:55.411
130.0, -5326.15248276621, -6429.747513502541, -28063.3751229495, -27001.756668300233, -15205.757642478662, 5278.990301965511, 57633.16841520887, 19682.834408621122, -14776.961776848053, -6055.355793876147, -20283.15756120176, -27148.138242738038, 6241.255252510936, -11364.163322945038, -10422.864308698692, -9701.975846526127, 0.24290625, 0.9182812499999999, 0.19515625, 192.0, 0.0, 0.0, 0.0, 0.0, 0.0, 0.0, 0.0, 0.0, 0.0, 1.6626779354115727E9, 0.0, 2022-09-08 18:58:55.411
132.0, -5331.673363646671, -6432.385019348267, -28063.241012482766, -26999.655604321433, -15192.324244061023, 5262.8299907243245, 57569.95768188926, 19679.682812652925, -14823.542812292912, -6113.649143415588, -20307.45390742468, -27173.440417461446, 6253.951043361551, -11404.865849598153, -10429.838052968747, -9713.978733298629, 0.24290625, 0.9182812499999999, 0.19515625, 192.0, 0.0, 0.0, 0.0, 0.0, 0.0, 0.0, 0.0, 0.0, 0.0, 1.6626779354115775E9, 0.0, 2022-09-08 18:58:55.411
