%OpenBCI Raw EEG Data
%Number of channels = 16
%Sample Rate = 125 Hz
%Board = OpenBCI_GUI$BoardCytonSerialDaisy
Sample Index, EXG Channel 0, EXG Channel 1, EXG Channel 2, EXG Channel 3, EXG Channel 4, EXG Channel 5, EXG Channel 6, EXG Channel 7, EXG Channel 8, EXG Channel 9, EXG Channel 10, EXG Channel 11, EXG Channel 12, EXG Channel 13, EXG Channel 14, EXG Channel 15, Accel Channel 0, Accel Channel 1, Accel Channel 2, Other, Other, Other, Other, Other, Other, Other, Analog Channel 0, Analog Channel 1, Analog Channel 2, Timestamp, Other, Timestamp (Formatted)
0.0, 2837.6880690679636, -5541.66800280428, -32626.12612558915, -20712.735737888306, -7859.70036503081, 18763.86478708563, 34831.729213205486, 22551.591402481965, 0.0, 0.0, 0.0, 0.0, 0.0, 0.0, 0.0, 0.0, 0.0, 0.0, 0.0, 192.0, 0.0, 0.0, 0.0, 0.0, 0.0, 0.0, 0.0, 0.0, 0.0, 1.6626773728273592E9, 0.0, 2022-09-08 18:49:32.827
150.0, 2824.2099671614133, -5547.14418019583, -32618.012442351872, -20715.57440943413, -7857.21932139627, 18758.500368416353, 34727.279511365836, 22541.443710499254, -6981.2321044483315, -6047.95736646144, -20659.47153085131, -28855.878574356866, 789.3295036947136, -9310.350931924693, -12075.082907090535, -6146.662669976076, 0.0, 0.0, 0.0, 192.0, 0.0, 0.0, 0.0, 0.0, 0.0, 0.0, 0.0, 0.0, 0.0, 1.6626773728273635E9, 0.0, 2022-09-08 18:49:32.827
152.0, 2830.0661242087035, -5546.920662751278, -32606.70245965749, -20717.027272823725, -7854.26889112817, 18760.601432395153, 34813.44548624104, 22549.13271059188, -6975.934741012424, -6049.5666920622225, -20651.626068547495, -28853.196365022228, 797.5325939098113, -9307.579315612234, -12066.298671519598, -6139.018373372362, 0.0, 0.0, 0.0, 192.0, 0.0, 0.0, 0.0, 0.0, 0.0, 0.0, 0.0, 0.0, 0.0, 1.6626773728273673E9, 0.0, 2022-09-08 18:49:32.827
154.0, 2856.932921043983, -5527.273479375062, -32585.6918198695, -20699.4364499374, -7829.88313792743, 18770.4809034444, 34813.22196879649, 22557.89459441836, -6950.699621522382, -6037.42969482299, -20629.94487642585, -28840.724091616168, 810.1836812715151, -9302.818394043255, -12047.031467799125, -6131.597594213199, 0.0, 0.0, 0.0, 192.0, 0.0, 0.0, 0.0, 0.0, 0.0, 0.0, 0.0, 0.0, 0.0, 1.662677372827371E9, 0.0, 2022-09-08 18:49:32.827
156.0, 2852.1943512194575, -5529.955688709699, -32602.746200888898, -20706.387842463, -7843.830626467541, 18768.469246443423, 34850.92936169259, 22542.024855855092, -6949.6490895329825, -6023.772778960798, -20631.576553771087, -28834.353844446403, 812.4188557170459, -9283.417079856048, -12046.830302099026, -6132.02227735785, 0.0, 0.0, 0.0, 192.0, 0.0, 0.0, 0.0, 0.0, 0.0, 0.0, 0.0, 0.0, 0.0, 1.6626773728273745E9, 0.0, 2022-09-08 18:49:32.827
158.0, 2848.1039819841367, -5527.586403797437, -32604.556692189777, -20700.10700227106, -7855.811161495586, 18770.637365655588, 34767.87027929667, 22577.94410919477, -6959.439153604407, -6024.4433312944575, -20632.09064389356, -28832.52100140107, 806.0039050583727, -9298.258638174371, -12058.274395260143, -6126.747265666398, 0.202, 0.914, 0.22, 192.0, 3.0, 40.0, 14.0, 72.0, 3.0, 112.0, 0.0, 0.0, 0.0, 1.662677372827378E9, 0.0, 2022-09-08 18:49:32.827
160.0, 2840.571444102698, -5535.610680056891, -32618.79475340781, -20713.965083833347, -7863.611920310488, 18759.461493427934, 34813.15491356312, 22553.84892867195, -6962.054307705678, -6029.76304647482, -20633.252934605236, -28837.03605378104, 803.2769922348252, -9297.431623629525, -12065.270491274654, -6134.190396570015, 0.202, 0.914, 0.22, 192.0, 0.0, 0.0, 0.0, 0.0, 0.0, 0.0, 0.0, 0.0, 0.0, 1.6626773728273816E9, 0.0, 2022-09-08 18:49:32.827
162.0, 2830.155531186525, -5542.204444671207, -32621.74518367591, -20728.85134564058, -7859.253330141703, 18741.915374030516, 34731.3475288567, 22495.712041343697, -6963.484819350818, -6034.523968043801, -20646.351056856045, -28853.777510378066, 800.0359892888057, -9315.782405827333, -12077.407488513887, -6156.02805090285, 0.202, 0.914, 0.22, 192.0, 0.0, 0.0, 0.0, 0.0, 0.0, 0.0, 0.0, 0.0, 0.0, 1.6626773728273852E9, 0.0, 2022-09-08 18:49:32.827
164.0, 2844.147723215547, -5536.460046346194, -32606.590700935212, -20725.744453161296, -7857.062859185084, 18754.097074758658, 34816.753544420426, 22542.94127737776, -6960.623796060539, -6046.7503722608535, -20639.71258875282, -28855.744463890132, 809.2002045154816, -9312.74256858141, -12063.929386607337, -6160.610158516188, 0.202, 0.914, 0.22, 192.0, 0.0, 0.0, 0.0, 0.0, 0.0, 0.0, 0.0, 0.0, 0.0, 1.6626773728273888E9, 0.0, 2022-09-08 18:49:32.827
166.0, 2845.220606949402, -5533.979002711654, -32606.054259068285, -20716.803755379173, -7856.213492895782, 18754.655868370042, 34795.60879416571, 22561.761446209126, -6965.138848440511, -6037.183825633982, -20636.583344529074, -28849.32951323146, 807.4567684479676, -9296.783423040322, -12056.553310937084, -6142.482893762934, 0.202, 0.914, 0.22, 192.0, 0.0, 0.0, 0.0, 0.0, 0.0, 0.0, 0.0, 0.0, 0.0, 1.6626773728273923E9, 0.0, 2022-09-08 18:49:32.827
168.0, 2852.1496477305473, -5529.441598587227, -32605.40605847908, -20713.76391813325, -7855.520588817667, 18764.62474639711, 34788.90327082912, 22552.753693193637, -6955.929929724924, -6029.472473796902, -20624.245181589748, -28839.695911371222, 808.4625969484565, -9301.589048098213, -12050.138360278412, -6129.205957556482, 0.214, 0.922, 0.222, 192.0, 3.0, 88.0, 14.0, 104.0, 3.0, 120.0, 0.0, 0.0, 0.0, 1.662677372827396E9, 0.0, 2022-09-08 18:49:32.827
170.0, 2853.5578076312313, -5526.200595641208, -32608.088267813717, -20707.90776108596, -7838.577966520545, 18752.845377069163, 34788.45623594001, 22517.795564865537, -6961.182589671921, -6042.883520470085, -20631.80007121564, -28842.17695500576, 796.3032479647694, -9305.65706558908, -12054.72046789175, -6136.067943104261, 0.214, 0.922, 0.222, 192.0, 0.0, 0.0, 0.0, 0.0, 0.0, 0.0, 0.0, 0.0, 0.0, 1.6626773728273997E9, 0.0, 2022-09-08 18:49:32.827
172.0, 2854.474229153899, -5512.1189966343645, -32610.435200981523, -20709.09240354209, -7838.9355944318295, 18779.443952970978, 34806.85172162673, 22587.42124884382, -6968.312796153164, -6021.850528937642, -20622.97113215579, -28828.162411232282, 810.4295504605235, -9294.928228250532, -12048.998421311191, -6127.21665229996, 0.214, 0.922, 0.222, 192.0, 0.0, 0.0, 0.0, 0.0, 0.0, 0.0, 0.0, 0.0, 0.0, 1.6626773728274035E9, 0.0, 2022-09-08 18:49:32.827
174.0, 2825.886347995561, -5550.943976753232, -32630.574122735754, -20738.35083703409, -7872.686728559343, 18746.720999088408, 34789.81969235178, 22538.158004064324, -6963.820095517647, -6051.645404296566, -20642.908888209928, -28854.693931900732, 785.06032050375, -9329.215804244972, -12078.05568910309, -6142.8405216742185, 0.214, 0.922, 0.222, 192.0, 0.0, 0.0, 0.0, 0.0, 0.0, 0.0, 0.0, 0.0, 0.0, 1.6626773728274071E9, 0.0, 2022-09-08 18:49:32.827
176.0, 2845.4217726495, -5529.888633476333, -32612.93859636052, -20719.15068854698, -7864.617748810977, 18760.444970183966, 34806.22587278198, 22555.74882695065, -6974.1913049449095, -6042.592947792166, -20639.869050964004, -28845.32855097396, 796.5938206426885, -9299.17505969704, -12077.29572979161, -6147.735553709931, 0.214, 0.922, 0.222, 192.0, 0.0, 0.0, 0.0, 0.0, 0.0, 0.0, 0.0, 0.0, 0.0, 1.6626773728274107E9, 0.0, 2022-09-08 18:49:32.827
178.0, 2850.674432596497, -5525.239470629629, -32600.891006099107, -20710.32174948713, -7860.996766209218, 18754.052371269747, 34827.01299512541, 22549.199765825244, -6965.42942111843, -6028.600755763145, -20627.79910895814, -28832.4539461677, 805.4227597025347, -9301.812565542767, -12063.86233137397, -6134.369210525658, 0.216, 0.922, 0.228, 192.0, 3.0, 96.0, 14.0, 104.0, 3.5, 16.0, 0.0, 0.0, 0.0, 1.6626773728274145E9, 0.0, 2022-09-08 18:49:32.827
180.0, 2845.444124393955, -5525.306525862995, -32604.713154400964, -20711.685205898906, -7873.625501826466, 18751.28075495729, 34803.610718680706, 22560.21917584171, -6962.970729228346, -6018.5201190138005, -20618.45607977582, -28824.18380071924, 818.7443993978977, -9296.761071295867, -12057.581491182029, -6129.407123256579, 0.216, 0.922, 0.228, 192.0, 0.0, 0.0, 0.0, 0.0, 0.0, 0.0, 0.0, 0.0, 0.0, 1.6626773728274195E9, 0.0, 2022-09-08 18:49:32.827
182.0, 2838.1798074459803, -5530.179206154252, -32617.923035374053, -20723.86690662705, -7873.290225659636, 18742.94355427546, 34818.89931188814, 22538.60503895343, -6982.95318877139, -6045.118694915616, -20642.014818431715, -28847.966056819685, 792.8387275741968, -9324.99132454292, -12078.882703647936, -6149.255472332892, 0.216, 0.922, 0.228, 192.0, 0.0, 0.0, 0.0, 0.0, 0.0, 0.0, 0.0, 0.0, 0.0, 1.662677372827423E9, 0.0, 2022-09-08 18:49:32.827
184.0, 2843.5889296041646, -5518.556299037493, -32614.145590561104, -20710.34410123159, -7861.488504587234, 18760.243804483867, 34794.40179996512, 22570.74684748016, -6971.822020032647, -6031.774703475798, -20626.83798394656, -28832.52100140107, 804.2604689908587, -9307.266391189862, -12061.135418550422, -6135.68796344852, 0.216, 0.922, 0.228, 192.0, 0.0, 0.0, 0.0, 0.0, 0.0, 0.0, 0.0, 0.0, 0.0, 1.662677372827427E9, 0.0, 2022-09-08 18:49:32.827
186.0, 2833.776513788285, -5532.101456177408, -32632.83164892574, -20722.77167114874, -7861.823780754064, 18764.08830453018, 34804.169512292094, 22566.254146844643, -6985.3448254281075, -6041.855340225142, -20645.99342894476, -28840.56762940498, 789.4859659059008, -9316.899993050098, -12071.014889599668, -6139.018373372362, 0.216, 0.922, 0.228, 192.0, 0.0, 0.0, 0.0, 0.0, 0.0, 0.0, 0.0, 0.0, 0.0, 1.6626773728274305E9, 0.0, 2022-09-08 18:49:32.827
188.0, 2846.159380216525, -5513.482453046138, -32616.17959930654, -20714.568580933643, -7861.399097609413, 18763.48480742989, 34798.22394826698, 22550.56322223702, -6983.534334127228, -6023.459854538424, -20635.421053817397, -28830.732861844645, 796.7949863427862, -9291.821335771243, -12063.705869162783, -6136.134998337627, 0.212, 0.924, 0.224, 192.0, 3.0, 80.0, 14.0, 112.0, 3.5, 0.0, 0.0, 0.0, 0.0, 1.662677372827434E9, 0.0, 2022-09-08 18:49:32.827
190.0, 2845.064144738215, -5513.728322235146, -32621.611073209177, -20724.224534538334, -7869.535132591144, 18759.66265912803, 34828.68937595956, 22531.675998172286, -6984.115479483066, -6027.840796451664, -20639.198498630347, -28833.415071179283, 795.4538816754678, -9307.646370845601, -12055.078095803035, -6136.760847182375, 0.212, 0.924, 0.224, 192.0, 0.0, 0.0, 0.0, 0.0, 0.0, 0.0, 0.0, 0.0, 0.0, 1.6626773728274376E9, 0.0, 2022-09-08 18:49:32.827
192.0, 2854.273063453801, -5509.816766955468, -32613.653852183088, -20713.62980766652, -7857.398135351913, 18765.451760941956, 34773.92760204406, 22556.240565328666, -6970.793839787703, -6020.5094242703235, -20635.823385217594, -28835.337321202438, 793.285762463303, -9303.466594632459, -12071.886607633425, -6146.439152531523, 0.212, 0.924, 0.224, 192.0, 0.0, 0.0, 0.0, 0.0, 0.0, 0.0, 0.0, 0.0, 0.0, 1.6626773728274417E9, 0.0, 2022-09-08 18:49:32.827
194.0, 2845.220606949402, -5517.8186914704675, -32623.108640087685, -20722.414043237455, -7863.254292399203, 18764.311821974734, 34838.05475688633, 22570.165702124323, -6959.193284415399, -6017.089607368661, -20631.062463648614, -28829.212943221683, 802.8076056012637, -9292.98362648292, -12057.067401059558, -6122.92511736454, 0.212, 0.924, 0.224, 192.0, 0.0, 0.0, 0.0, 0.0, 0.0, 0.0, 0.0, 0.0, 0.0, 1.6626773728274453E9, 0.0, 2022-09-08 18:49:32.827
196.0, 2838.2021591904354, -5514.309467590984, -32617.319538273758, -20720.223572280833, -7859.230978397248, 18755.706400359442, 34789.17149176258, 22552.060789115523, -6971.464392121362, -6031.90881394253, -20645.077007422093, -28840.187649749238, 794.671570619532, -9307.8475365457, -12070.590206455017, -6137.140826838116, 0.212, 0.924, 0.224, 192.0, 0.0, 0.0, 0.0, 0.0, 0.0, 0.0, 0.0, 0.0, 0.0, 1.6626773728274488E9, 0.0, 2022-09-08 18:49:32.827
198.0, 2818.9796589588714, -5540.215139414685, -32634.060994870782, -20742.62002022505, -7865.020080211173, 18732.438234381465, 34839.08293713128, 22478.098866712913, -6973.766621800259, -6045.789247249276, -20654.3753331155, -28848.61425740889, 799.8571753331632, -9325.505414665391, -12070.411392499374, -6149.277824077347, 0.214, 0.924, 0.222, 192.0, 3.0, 88.0, 14.0, 112.0, 3.0, 120.0, 0.0, 0.0, 0.0, 1.6626773728274524E9, 0.0, 2022-09-08 18:49:32.827
200.0, 2825.863996251106, -5536.907081235299, -32616.000785350894, -20726.124432817036, -7858.806295252597, 18748.017400266817, 34766.21625020698, 22562.633164242885, -6981.343863170608, -6058.619148566622, -20651.536661569677, -28852.19053652174, 795.0291985308169, -9304.271257432849, -12074.993500112712, -6155.133981124638, 0.214, 0.924, 0.222, 192.0, 0.0, 0.0, 0.0, 0.0, 0.0, 0.0, 0.0, 0.0, 0.0, 1.662677372827456E9, 0.0, 2022-09-08 18:49:32.827
202.0, 2818.644382792042, -5550.720459308679, -32633.815125681776, -20742.172985335947, -7881.605074597011, 18742.451815897442, 34832.26565507241, 22561.292059575568, -6978.393432902508, -6048.426753095002, -20653.503615081743, -28853.442234211238, 797.4878904209007, -9322.554984397291, -12067.639776186918, -6146.193283342515, 0.214, 0.924, 0.222, 192.0, 0.0, 0.0, 0.0, 0.0, 0.0, 0.0, 0.0, 0.0, 0.0, 1.6626773728274598E9, 0.0, 2022-09-08 18:49:32.827
204.0, 2825.3275543841787, -5539.499883592115, -32632.384614036637, -20736.316828288655, -7865.60122556701, 18742.80944380873, 34768.585535119244, 22526.535096947562, -6980.919180025957, -6043.86699722612, -20659.739751784775, -28860.19246103674, 792.7493205963756, -9315.022446515852, -12081.34139553802, -6154.21755960197, 0.214, 0.924, 0.222, 192.0, 0.0, 0.0, 0.0, 0.0, 0.0, 0.0, 0.0, 0.0, 0.0, 1.6626773728274636E9, 0.0, 2022-09-08 18:49:32.827
206.0, 2827.7191910408965, -5528.56988055347, -32631.490544258424, -20729.767767163252, -7875.346586149524, 18763.61891789662, 34788.03155279536, 22552.84310017146, -6968.513961853262, -6042.503540814346, -20647.84862373455, -28845.082681784952, 801.2653352338476, -9308.719254579455, -12079.419145514865, -6138.638393716621, 0.214, 0.924, 0.222, 192.0, 0.0, 0.0, 0.0, 0.0, 0.0, 0.0, 0.0, 0.0, 0.0, 1.6626773728274672E9, 0.0, 2022-09-08 18:49:32.827
208.0, 2843.901854026539, -5510.1296913778415, -32610.569311448256, -20713.518048944243, -7858.292205130126, 18762.61308939613, 34805.39885823713, 22549.065655358514, -6981.612084104072, -6043.419962337013, -20648.586231301575, -28850.17887952076, 794.2915909637918, -9314.84363256021, -12076.53577048013, -6140.694754206509, 0.215, 0.924, 0.221, 192.0, 3.0, 96.0, 14.0, 112.0, 3.0, 112.0, 0.0, 0.0, 0.0, 1.6626773728274708E9, 0.0, 2022-09-08 18:49:32.827
210.0, 2825.349906128634, -5533.151988166808, -32623.399212765602, -20728.896049129493, -7875.32423440507, 18762.635441140585, 34841.56398076582, 22553.08896936047, -6966.681118807926, -6030.344191830658, -20627.79910895814, -28832.342187445425, 799.4324921885124, -9287.999187469386, -12059.302575505088, -6124.489739476412, 0.215, 0.924, 0.221, 192.0, 0.0, 0.0, 0.0, 0.0, 0.0, 0.0, 0.0, 0.0, 0.0, 1.6626773728274744E9, 0.0, 2022-09-08 18:49:32.827
212.0, 2825.662830551008, -5533.442560844727, -32623.823895910253, -20729.320732274144, -7861.7120220317875, 18765.116484775124, 34804.48243671447, 22541.2201930547, -6990.865706308568, -6045.968061204918, -20644.026475432693, -28848.211926008695, 787.831936816208, -9314.195431971006, -12074.300596034598, -6141.946451896007, 0.215, 0.924, 0.221, 192.0, 0.0, 0.0, 0.0, 0.0, 0.0, 0.0, 0.0, 0.0, 0.0, 1.662677372827479E9, 0.0, 2022-09-08 18:49:32.827
214.0, 2804.5180802962877, -5546.115999950886, -32642.46525078598, -20748.58793599462, -7874.631330326954, 18758.790941094274, 34808.97513734998, 22535.74401566315, -6997.303008711697, -6056.853360754652, -20649.413245846423, -28854.04573131153, 777.9971692558729, -9317.615248872668, -12080.2014565708, -6143.064039118772, 0.215, 0.924, 0.221, 192.0, 0.0, 0.0, 0.0, 0.0, 0.0, 0.0, 0.0, 0.0, 0.0, 1.6626773728274827E9, 0.0, 2022-09-08 18:49:32.827
216.0, 2810.933030954961, -5544.014935972087, -32629.009500623884, -20737.635581211518, -7882.454440886312, 18760.735542861887, 34774.665209611085, 22546.204632068235, -7005.036712293233, -6047.286814127781, -20659.56093782913, -28860.05835057001, 766.3966138835685, -9323.13612975313, -12094.01483464418, -6144.807475186286, 0.215, 0.924, 0.221, 192.0, 0.0, 0.0, 0.0, 0.0, 0.0, 0.0, 0.0, 0.0, 0.0, 1.6626773728274865E9, 0.0, 2022-09-08 18:49:32.827
218.0, 2801.567650028187, -5550.072258719476, -32645.79566070982, -20752.074808129648, -7900.872278317485, 18751.794845079763, 34788.4115324511, 22514.442803197242, -7005.975485560356, -6054.86405549813, -20663.4277896199, -28865.780397150567, 778.1983349559707, -9321.750321596899, -12097.367596312475, -6144.069867619261, 0.2135, 0.925, 0.2195, 192.0, 3.0, 80.0, 14.0, 120.0, 3.0, 104.0, 0.0, 0.0, 0.0, 1.66267737282749E9, 0.0, 2022-09-08 18:49:32.827
220.0, 2810.351885599123, -5535.722438779168, -32622.7510121764, -20732.20410730888, -7874.385461137947, 18761.227281239902, 34802.1131518022, 22546.584611723974, -7013.217450763876, -6053.232378152893, -20662.936051241883, -28860.70655115921, 772.4539366309568, -9313.70369359299, -12086.661110718383, -6139.241890816915, 0.2135, 0.925, 0.2195, 192.0, 0.0, 0.0, 0.0, 0.0, 0.0, 0.0, 0.0, 0.0, 0.0, 1.6626773728274937E9, 0.0, 2022-09-08 18:49:32.827
222.0, 2810.7765687437736, -5537.309412635495, -32627.914265145573, -20734.327523032134, -7875.32423440507, 18765.317650475223, 34816.8653031427, 22534.894649373848, -6994.285523210231, -6045.945709460462, -20651.715475525318, -28848.793071364533, 774.0856139761942, -9315.581240127236, -12078.39096526992, -6138.683097205531, 0.2135, 0.925, 0.2195, 192.0, 0.0, 0.0, 0.0, 0.0, 0.0, 0.0, 0.0, 0.0, 0.0, 1.6626773728274972E9, 0.0, 2022-09-08 18:49:32.827
224.0, 2815.0457519347374, -5536.549453324014, -32624.78502092183, -20730.95240961938, -7861.130876675949, 18757.67335387151, 34828.26469281491, 22526.17746903628, -6996.364235444575, -6046.996241449862, -20650.240260391267, -28847.004931808107, 776.0302157438059, -9310.350931924693, -12075.373479768454, -6136.716143693465, 0.2135, 0.925, 0.2195, 192.0, 0.0, 0.0, 0.0, 0.0, 0.0, 0.0, 0.0, 0.0, 0.0, 1.6626773728275008E9, 0.0, 2022-09-08 18:49:32.827
226.0, 2823.7852840167625, -5535.498921334615, -32621.298148786802, -20728.516069473753, -7850.558501548589, 18770.637365655588, 34808.05871582731, 22577.09474290547, -6995.067834266167, -6042.369430347613, -20640.673713764398, -28840.388815449336, 789.8882973060963, -9305.7464725669, -12069.092639576513, -6132.335201780224, 0.2135, 0.925, 0.2195, 192.0, 0.0, 0.0, 0.0, 0.0, 0.0, 0.0, 0.0, 0.0, 0.0, 1.6626773728275044E9, 0.0, 2022-09-08 18:49:32.827
228.0, 2808.049655920226, -5547.345345895928, -32629.5012390019, -20742.15063359149, -7862.427277854357, 18754.81233058123, 34831.572750994295, 22565.449484044253, -6986.328302184142, -6049.432581595491, -20652.631897047984, -28854.537469689545, 772.833916286697, -9317.950525039498, -12069.226750043244, -6133.542195980811, 0.21275, 0.9225000000000001, 0.22275, 192.0, 3.0, 80.0, 14.0, 96.0, 3.5, 8.0, 0.0, 0.0, 0.0, 1.662677372827508E9, 0.0, 2022-09-08 18:49:32.827
230.0, 2811.1789001439693, -5535.789494012534, -32625.16500057757, -20740.809528924172, -7863.4107546103905, 18762.970717307417, 34810.33859376176, 22562.096722375958, -7000.745177357814, -6056.540436332279, -20655.448216849356, -28856.28090575706, 781.126413479616, -9326.645353632612, -12078.77094492566, -6143.555777496788, 0.21275, 0.9225000000000001, 0.22275, 192.0, 0.0, 0.0, 0.0, 0.0, 0.0, 0.0, 0.0, 0.0, 0.0, 1.6626773728275115E9, 0.0, 2022-09-08 18:49:32.827
232.0, 2805.4121500745, -5543.456142360705, -32629.702404702, -20741.100101602093, -7872.150286692416, 18760.28850797278, 34843.530934277886, 22537.107472074924, -7006.489575682828, -6049.76785776232, -20654.509443582232, -28852.525812688567, 779.2935704342807, -9304.539478366314, -12072.467752989263, -6134.324507036747, 0.21275, 0.9225000000000001, 0.22275, 192.0, 0.0, 0.0, 0.0, 0.0, 0.0, 0.0, 0.0, 0.0, 0.0, 1.6626773728275156E9, 0.0, 2022-09-08 18:49:32.827
234.0, 2800.606525016609, -5554.989642499643, -32644.298093831316, -20758.44505529941, -7887.0141967551945, 18741.647153097052, 34768.74199733043, 22512.341739218446, -7008.277715239253, -6062.754221290854, -20661.147911685457, -28864.416940738793, 764.1167359491272, -9328.567603655769, -12098.328721324055, -6159.26905384887, 0.21275, 0.9225000000000001, 0.22275, 192.0, 0.0, 0.0, 0.0, 0.0, 0.0, 0.0, 0.0, 0.0, 0.0, 1.662677372827519E9, 0.0, 2022-09-08 18:49:32.827
236.0, 2806.283868108257, -5548.597043585425, -32651.294189845827, -20757.19335760991, -7886.745975821731, 18754.119426503115, 34788.05390453982, 22535.83342264097, -7003.67325588146, -6070.823201039219, -20667.316993155124, -28866.786225651056, 766.798945283764, -9329.998115300908, -12107.671750506372, -6161.615987016677, 0.21275, 0.9225000000000001, 0.22275, 192.0, 0.0, 0.0, 0.0, 0.0, 0.0, 0.0, 0.0, 0.0, 0.0, 1.6626773728275225E9, 0.0, 2022-09-08 18:49:32.827
238.0, 2815.671600779486, -5535.677735290258, -32638.039605383827, -20739.848403912594, -7873.89372275993, 18762.031944040293, 34766.5068228849, 22541.823690154994, -7010.423482706962, -6047.890311228074, -20652.296620881156, -28854.47041445618, 775.1584977100489, -9306.349969667193, -12096.853506190004, -6148.674326977054, 0.21337499999999998, 0.9212500000000001, 0.222375, 192.0, 3.0, 88.0, 14.0, 96.0, 3.0, 120.0, 0.0, 0.0, 0.0, 1.662677372827527E9, 0.0, 2022-09-08 18:49:32.827
240.0, 2803.6463622625306, -5539.835159758944, -32647.22617235496, -20749.9960958953, -7884.242580442737, 18751.839548568674, 34834.54553300685, 22548.864489658416, -6988.1611452294765, -6050.0360786957835, -20653.3248011261, -28858.7619493916, 772.1633639530378, -9316.98940002792, -12087.756346196693, -6144.695716464009, 0.21337499999999998, 0.9212500000000001, 0.222375, 192.0, 0.0, 0.0, 0.0, 0.0, 0.0, 0.0, 0.0, 0.0, 0.0, 1.6626773728275309E9, 0.0, 2022-09-08 18:49:32.827
242.0, 2807.5355657977543, -5538.561110324992, -32642.867582186176, -20749.280840072734, -7872.12793494796, 18743.65881009803, 34771.71477934298, 22536.481623230175, -7009.328247228653, -6061.703689301454, -20658.018667461714, -28867.367371006894, 769.8387825296859, -9308.98747551292, -12096.428823045353, -6154.239911346425, 0.21337499999999998, 0.9212500000000001, 0.222375, 192.0, 0.0, 0.0, 0.0, 0.0, 0.0, 0.0, 0.0, 0.0, 0.0, 1.6626773728275344E9, 0.0, 2022-09-08 18:49:32.827
244.0, 2799.60069651612, -5552.262729676096, -32648.679035744553, -20758.53446227723, -7886.65656884391, 18744.932859531982, 34831.1704195941, 22538.582687208975, -7013.15039553051, -6069.571503349723, -20659.404475617943, -28868.104978573916, 779.8523640456634, -9323.829033831244, -12086.527000251652, -6149.031954888339, 0.21337499999999998, 0.9212500000000001, 0.222375, 192.0, 0.0, 0.0, 0.0, 0.0, 0.0, 0.0, 0.0, 0.0, 0.0, 1.6626773728275387E9, 0.0, 2022-09-08 18:49:32.827
246.0, 2818.063237436204, -5535.320107378973, -32623.30980578778, -20739.066092856658, -7867.702289545809, 18749.67142935651, 34814.518369974896, 22541.466062243708, -6995.626627877549, -6061.681337556999, -20651.648420291953, -28862.874670371377, 771.4704598749232, -9329.238155989427, -12079.217979814766, -6150.127190366649, 0.21337499999999998, 0.9212500000000001, 0.222375, 192.0, 0.0, 0.0, 0.0, 0.0, 0.0, 0.0, 0.0, 0.0, 0.0, 1.6626773728275423E9, 0.0, 2022-09-08 18:49:32.827
248.0, 2802.6628855064973, -5555.749601811123, -32641.973512407963, -20753.72883721934, -7890.076385745572, 18732.170013448, 34855.958504195034, 22516.208591009214, -6998.733520356837, -6070.443221383479, -20649.189728401867, -28865.19925179473, 779.9641227679399, -9323.963144297975, -12067.39390699791, -6150.17189385556, 0.21268749999999997, 0.920625, 0.22218749999999998, 192.0, 3.0, 80.0, 14.0, 96.0, 3.0, 120.0, 0.0, 0.0, 0.0, 1.662677372827546E9, 0.0, 2022-09-08 18:49:32.827
250.0, 2797.477280792866, -5562.455125147716, -32640.02891064035, -20750.1972615954, -7888.936446778352, 18743.61410660912, 34780.11903525818, 22551.41258852632, -6997.459470922884, -6068.029232982306, -20652.296620881156, -28870.027228597075, 778.1983349559707, -9332.65797289109, -12084.805915928593, -6153.859931690685, 0.21268749999999997, 0.920625, 0.22218749999999998, 192.0, 0.0, 0.0, 0.0, 0.0, 0.0, 0.0, 0.0, 0.0, 0.0, 1.6626773728275497E9, 0.0, 2022-09-08 18:49:32.827
252.0, 2795.264458091791, -5564.265616448595, -32648.477870044455, -20767.408104825987, -7897.720682349287, 18725.866821511605, 34841.09459413226, 22528.680864415273, -7002.667427380971, -6084.323654690225, -20661.930222741394, -28880.979583380176, 768.6764918180099, -9345.242005019427, -12089.320968308564, -6158.442039304023, 0.21268749999999997, 0.920625, 0.22218749999999998, 192.0, 0.0, 0.0, 0.0, 0.0, 0.0, 0.0, 0.0, 0.0, 0.0, 1.6626773728275533E9, 0.0, 2022-09-08 18:49:32.827
254.0, 2804.160452385003, -5545.154874939308, -32636.542038505322, -20758.06507564367, -7872.0385279701395, 18722.51405984331, 34787.40570395061, 22509.793640350537, -7009.998799562311, -6084.4354134125015, -20663.628955319997, -28883.57238573699, 763.5579423377445, -9340.592842172724, -12094.461869533287, -6168.522676053367, 0.21268749999999997, 0.920625, 0.22218749999999998, 192.0, 0.0, 0.0, 0.0, 0.0, 0.0, 0.0, 0.0, 0.0, 0.0, 1.6626773728275568E9, 0.0, 2022-09-08 18:49:32.827
0.0, 2801.254725605813, -5555.883712277855, -32646.466213043477, -20760.456712300387, -7894.65849335891, 18729.51015585782, 34835.30549231834, 22504.809201337004, -6993.413805176474, -6070.219703938926, -20644.115882410515, -28865.467472728193, 780.545268123778, -9331.89801357961, -12078.905055392392, -6154.195207857515, 0.21268749999999997, 0.920625, 0.22218749999999998, 192.0, 0.0, 0.0, 0.0, 0.0, 0.0, 0.0, 0.0, 0.0, 0.0, 1.6626773728275604E9, 0.0, 2022-09-08 18:49:32.827
2.0, 2793.1410423685365, -5561.404593158316, -32646.309750832294, -20757.372171565556, -7891.37278692398, 18724.302199399735, 34796.88284359966, 22474.92491900026, -7029.891852127535, -6080.322692432725, -20661.885519252482, -28871.882423386865, 768.251808673359, -9341.218691017471, -12088.650415974906, -6161.615987016677, 0.21234375, 0.9193125, 0.22109374999999998, 192.0, 3.0, 80.0, 14.0, 88.0, 3.0, 112.0, 0.0, 0.0, 0.0, 1.662677372827564E9, 0.0, 2022-09-08 18:49:32.827
4.0, 2783.999178886316, -5570.121773495886, -32651.830631712754, -20759.853215200095, -7900.08996726155, 18728.929010501983, 34823.99550962395, 22538.98501860917, -7008.47888093935, -6091.63267512711, -20663.13721694198, -28879.079685101475, 767.447145872968, -9344.794970130322, -12082.727203694249, -6165.348728340713, 0.21234375, 0.9193125, 0.22109374999999998, 192.0, 0.0, 0.0, 0.0, 0.0, 0.0, 0.0, 0.0, 0.0, 0.0, 1.6626773728275676E9, 0.0, 2022-09-08 18:49:32.827
6.0, 2785.966132398383, -5566.277273449573, -32646.533268276846, -20755.427569797943, -7896.89366780444, 18723.5198883438, 34822.94497763455, 22544.908230889825, -7014.804424620203, -6083.921323290029, -20664.70183905385, -28876.4645310002, 760.2945876472697, -9342.336278240238, -12077.116915835968, -6158.2185218594705, 0.21234375, 0.9193125, 0.22109374999999998, 192.0, 0.0, 0.0, 0.0, 0.0, 0.0, 0.0, 0.0, 0.0, 0.0, 1.662677372827571E9, 0.0, 2022-09-08 18:49:32.827
8.0, 2802.148795384025, -5546.674793562269, -32635.916189660573, -20746.73274120483, -7877.045318728128, 18737.109748972627, 34830.41046028262, 22539.186184309267, -7006.690741382926, -6069.5267998608115, -20650.821405747105, -28871.70360943122, 781.5287448798115, -9330.378094956648, -12065.270491274654, -6149.5013415219, 0.21234375, 0.9193125, 0.22109374999999998, 192.0, 0.0, 0.0, 0.0, 0.0, 0.0, 0.0, 0.0, 0.0, 0.0, 1.6626773728275745E9, 0.0, 2022-09-08 18:49:32.827
10.0, 2799.824213960673, -5551.949805253721, -32626.193180822516, -20742.843537669603, -7866.294129645125, 18735.165147205014, 34815.65830894212, 22539.387350009365, -7004.164994259477, -6047.599738550155, -20640.204327130836, -28860.90771685931, 796.996152042884, -9326.22067048796, -12050.786560867617, -6142.751114696398, 0.21234375, 0.9193125, 0.22109374999999998, 192.0, 0.0, 0.0, 0.0, 0.0, 0.0, 0.0, 0.0, 0.0, 0.0, 1.662677372827578E9, 0.0, 2022-09-08 18:49:32.827
12.0, 2783.0827573636484, -5569.272407206584, -32643.873410686665, -20763.16127337948, -7884.376690909468, 18731.030074480783, 34822.18501832307, 22524.70225390223, -7006.154299515999, -6062.016613723828, -20643.445330076855, -28871.48009198667, 783.7639193253422, -9339.765827627878, -12068.28797677612, -6156.74330672542, 0.212171875, 0.92065625, 0.22354687499999998, 192.0, 3.0, 80.0, 14.0, 104.0, 3.5, 8.0, 0.0, 0.0, 0.0, 1.6626773728275816E9, 0.0, 2022-09-08 18:49:32.827
14.0, 2773.2703415477686, -5577.900180566333, -32658.51380330489, -20768.77156123776, -7890.1210892344825, 18703.55978054521, 34823.03438461237, 22495.443820410233, -7041.425352266473, -6090.962122793451, -20666.735847799286, -28893.205987597226, 762.3732998816133, -9349.913519610587, -12090.39385204242, -6178.7597750138975, 0.212171875, 0.92065625, 0.22354687499999998, 192.0, 0.0, 0.0, 0.0, 0.0, 0.0, 0.0, 0.0, 0.0, 0.0, 1.662677372827586E9, 0.0, 2022-09-08 18:49:32.827
0.0, 848.7404404569198, -2949.625605300141, -16481.997547387786, -10694.505059064039, -4323.408523012224, 9100.825679400645, 17561.318583645654, 10836.9080229888, -3522.098484289466, -3046.341603558255, -10332.496205865886, -14442.356162352105, 379.8902487623988, -4675.336739461033, -6044.135218159583, -3090.6427610686733, 0.224, 0.918, 0.264, 192.0, 3.5, 0.0, 14.0, 88.0, 4.0, 32.0, 0.0, 0.0, 0.0, 1.6626773734151995E9, 0.0, 2022-09-08 18:49:33.415
2.0, 1695.1339477460324, -5901.776957723732, -32960.50822264054, -21382.818684913957, -8644.492464601095, 18204.713547791667, 35186.27258375556, 21683.58375830457, -8355.529112282886, -6925.531557265706, -21256.844253163847, -29225.93405555893, 551.1269630345063, -10146.95437514238, -12587.58605570627, -6924.548080509673, 0.224, 0.918, 0.264, 192.0, 0.0, 0.0, 0.0, 0.0, 0.0, 0.0, 0.0, 0.0, 0.0, 1.6626773734152613E9, 0.0, 2022-09-08 18:49:33.415
4.0, 1709.3943607085182, -5887.605951739068, -32943.31973115441, -21373.05097258699, -8638.90452848727, 18222.483184633635, 35122.95009171368, 21695.16196193242, -8353.852731448738, -6926.380923555008, -21249.35641877132, -29218.155648488482, 550.9481490788638, -10127.173081299434, -12586.513171972416, -6924.883356676502, 0.224, 0.918, 0.264, 192.0, 0.0, 0.0, 0.0, 0.0, 0.0, 0.0, 0.0, 0.0, 0.0, 1.6626773734152725E9, 0.0, 2022-09-08 18:49:33.415
6.0, 1695.692741357415, -5903.296876346693, -32958.80949006194, -21395.514475764572, -8663.96083402167, 18220.270361932562, 35177.801272607, 21710.562313862123, -8351.282280836378, -6935.723952737326, -21242.472081479085, -29218.02153802175, 555.1055735475509, -10122.948601597382, -12577.527770701381, -6915.897955405469, 0.224, 0.918, 0.264, 192.0, 0.0, 0.0, 0.0, 0.0, 0.0, 0.0, 0.0, 0.0, 0.0, 1.6626773734152772E9, 0.0, 2022-09-08 18:49:33.415
8.0, 1702.822947838658, -5892.83625994161, -32949.30999866843, -21393.279301319042, -8649.365144892352, 18233.055559760996, 35099.32429782442, 21727.661398370434, -8362.346394341756, -6940.75309523977, -21252.59742171734, -29228.325692215647, 551.9986810682632, -10124.2897062647, -12591.63172145268, -6925.151577609966, 0.226, 0.918, 0.276, 192.0, 3.5, 8.0, 14.0, 88.0, 4.0, 80.0, 0.0, 0.0, 0.0, 1.6626773734152818E9, 0.0, 2022-09-08 18:49:33.415
10.0, 1714.4905584443281, -5890.288161073704, -32946.471327122614, -21399.828362444445, -8662.597377609894, 18231.04390276002, 35121.47487657963, 21695.47488635479, -8353.2715860929, -6932.125321880022, -21247.43416874816, -29220.144953745003, 570.4835737328021, -10116.354836983066, -12583.473334726494, -6927.140882866488, 0.226, 0.918, 0.276, 192.0, 0.0, 0.0, 0.0, 0.0, 0.0, 0.0, 0.0, 0.0, 0.0, 1.6626773734152863E9, 0.0, 2022-09-08 18:49:33.415
12.0, 1713.3282677326522, -5889.036463384207, -32940.48105960859, -21397.772001954556, -8653.880197272325, 18226.730016080146, 35094.228100088614, 21736.088006030084, -8333.199719572034, -6920.234193829799, -21237.57704944337, -29206.35392741608, 574.6857016903999, -10124.33440975361, -12580.768773647402, -6933.935813180901, 0.226, 0.918, 0.276, 192.0, 0.0, 0.0, 0.0, 0.0, 0.0, 0.0, 0.0, 0.0, 0.0, 1.6626773734152908E9, 0.0, 2022-09-08 18:49:33.415
14.0, 1707.4274071964512, -5897.038387899207, -32947.94654225666, -21411.250103861108, -8656.562406606961, 18213.810707784978, 35189.20066227921, 21718.16190697693, -8357.227844861489, -6941.311888851153, -21248.35059027083, -29221.754279345787, 565.0073963412519, -10157.77261945875, -12583.473334726494, -6945.916348208946, 0.226, 0.918, 0.276, 192.0, 0.0, 0.0, 0.0, 0.0, 0.0, 0.0, 0.0, 0.0, 0.0, 1.6626773734152966E9, 0.0, 2022-09-08 18:49:33.415
16.0, 1699.5148896592725, -5906.448472314892, -32946.0242922335, -21407.651473003803, -8648.940461747701, 18207.17223968175, 35119.21735038964, 21717.089023243076, -8368.314310111322, -6948.397391843485, -21255.07846535188, -29222.380128190536, 565.3873759969922, -10155.336279313122, -12580.20998003602, -6952.934795967913, 0.226, 0.918, 0.276, 192.0, 0.0, 0.0, 0.0, 0.0, 0.0, 0.0, 0.0, 0.0, 0.0, 1.6626773734153032E9, 0.0, 2022-09-08 18:49:33.415
18.0, 1698.3525989475966, -5901.6428472570005, -32949.48881262408, -21405.863333447378, -8653.679031572226, 18206.680501303734, 35137.836353520914, 21701.95689224683, -8363.307519353333, -6945.044630175189, -21255.167872329697, -29216.00988102077, 566.3037975196597, -10151.134151355523, -12579.20415153553, -6948.8891302215025, 0.226, 0.91, 0.28800000000000003, 192.0, 3.5, 8.0, 14.0, 56.0, 4.5, 0.0, 0.0, 0.0, 0.0, 1.6626773734153078E9, 0.0, 2022-09-08 18:49:33.415
20.0, 1701.5488984047054, -5888.16474535045, -32943.811469532426, -21391.267644318064, -8644.403057623274, 18204.13240243583, 35103.32526008192, 21695.988976477263, -8370.013042689925, -6950.789028500203, -21257.268936308497, -29211.941863529908, 566.4602597308469, -10162.645299750007, -12583.227465537486, -6944.977574941823, 0.226, 0.91, 0.28800000000000003, 192.0, 0.0, 0.0, 0.0, 0.0, 0.0, 0.0, 0.0, 0.0, 0.0, 1.6626773734153123E9, 0.0, 2022-09-08 18:49:33.415
22.0, 1699.7384071038257, -5888.075338372629, -32949.51116436853, -21387.914882649766, -8651.108580959866, 18223.42195790076, 35190.74293264663, 21729.69540711587, -8358.41248731762, -6934.673420747927, -21244.0143518465, -29192.473494109334, 569.7012626768665, -10143.981593129825, -12557.00886929141, -6917.127301350511, 0.226, 0.91, 0.28800000000000003, 192.0, 0.0, 0.0, 0.0, 0.0, 0.0, 0.0, 0.0, 0.0, 0.0, 1.6626773734153168E9, 0.0, 2022-09-08 18:49:33.415
24.0, 1704.3428664616188, -5890.466975029347, -32939.65404506374, -21376.984879611122, -8643.866615756348, 18226.7523678246, 35147.827583292434, 21691.45157235284, -8370.571836301307, -6944.4858365638065, -21252.262145550507, -29198.910796512464, 561.6099311840453, -10152.162331600468, -12571.135171787164, -6919.98832464079, 0.226, 0.91, 0.28800000000000003, 192.0, 0.0, 0.0, 0.0, 0.0, 0.0, 0.0, 0.0, 0.0, 0.0, 1.662677373415321E9, 0.0, 2022-09-08 18:49:33.415
26.0, 1695.8715553130576, -5905.2861816032155, -32951.45576613615, -21387.66901346076, -8663.692613088204, 18235.268382462073, 35173.93442081624, 21678.822836735588, -8368.783696744884, -6942.831807474114, -21249.44582574914, -29195.289813910702, 562.5263527067128, -10137.611345960064, -12564.206131006018, -6915.719141449827, 0.226, 0.91, 0.28800000000000003, 192.0, 0.0, 0.0, 0.0, 0.0, 0.0, 0.0, 0.0, 0.0, 0.0, 1.662677373415326E9, 0.0, 2022-09-08 18:49:33.415
28.0, 1695.759796590781, -5903.341579835604, -32947.36539690082, -21383.913920392268, -8654.640156583806, 18240.297524964517, 35106.85683570586, 21701.263988168717, -8380.89834223966, -6950.051420933178, -21263.169796844697, -29206.331575671626, 550.7916868676766, -10143.802779174182, -12583.227465537486, -6929.264298589743, 0.228, 0.916, 0.316, 192.0, 3.5, 16.0, 14.0, 80.0, 4.5, 112.0, 0.0, 0.0, 0.0, 1.6626773734153304E9, 0.0, 2022-09-08 18:49:33.415
30.0, 1703.3146862166748, -5890.824602940632, -32931.33919612637, -21372.358068508875, -8647.08526695791, 18248.411208201793, 35149.101632726386, 21732.06469202813, -8366.459115321531, -6930.739513723793, -21240.169851800187, -29180.939993970394, 578.8878296479976, -10115.728988138317, -12564.340241472752, -6911.449958258862, 0.228, 0.916, 0.316, 192.0, 0.0, 0.0, 0.0, 0.0, 0.0, 0.0, 0.0, 0.0, 0.0, 1.662677373415335E9, 0.0, 2022-09-08 18:49:33.415
32.0, 1700.3195524596636, -5889.684663973411, -32932.14385892676, -21371.508702219573, -8631.32728711692, 18234.12844349485, 35160.702188098694, 21705.95785450433, -8374.393984603164, -6945.156388897466, -21251.077503094377, -29185.96913647284, 555.5079049477464, -10131.934002868415, -12560.67455538208, -6926.135054365999, 0.228, 0.916, 0.316, 192.0, 0.0, 0.0, 0.0, 0.0, 0.0, 0.0, 0.0, 0.0, 0.0, 1.6626773734153395E9, 0.0, 2022-09-08 18:49:33.415
34.0, 1697.8608605695797, -5893.506812275268, -32924.41015534522, -21372.693344675703, -8631.170824905734, 18229.255763203593, 35154.73427232913, 21678.465208824302, -8370.504781067943, -6935.723952737326, -21229.19514527263, -29163.304467595157, 574.4621842458469, -10130.168215056447, -12541.094427239232, -6913.618077471027, 0.228, 0.916, 0.316, 192.0, 0.0, 0.0, 0.0, 0.0, 0.0, 0.0, 0.0, 0.0, 0.0, 1.662677373415344E9, 0.0, 2022-09-08 18:49:33.415
36.0, 1676.179668447932, -5917.132606164528, -32920.92328321019, -21370.011135341065, -8633.540109817995, 18217.65520783129, 35189.98297333514, 21655.018228890687, -8400.836098293794, -6966.256435663276, -21253.357381028818, -29177.25195613527, 556.4913817037799, -10168.233235863834, -12551.666802366592, -6935.142807381489, 0.228, 0.916, 0.316, 192.0, 0.0, 0.0, 0.0, 0.0, 0.0, 0.0, 0.0, 0.0, 0.0, 1.6626773734153495E9, 0.0, 2022-09-08 18:49:33.415
38.0, 1672.3798718905298, -5919.568946310156, -32913.5695592844, -21366.591318439405, -8640.379743621319, 18227.020588758063, 35119.19499864519, 21653.43125503436, -8403.674769839618, -6955.773467513736, -21245.19899430263, -29153.134423867992, 561.8558003730536, -10162.287671838722, -12550.750380843923, -6932.840577702592, 0.23600000000000002, 0.926, 0.352, 192.0, 3.5, 48.0, 14.0, 120.0, 5.5, 0.0, 0.0, 0.0, 0.0, 1.662677373415354E9, 0.0, 2022-09-08 18:49:33.415
40.0, 1666.3896043765074, -5924.083998690128, -32907.33342258137, -21354.9907630671, -8645.274775657032, 18228.495803892114, 35144.51952511305, 21672.38553433246, -8416.48231941251, -6971.576150843639, -21250.49635773854, -29139.075176605606, 552.780992124199, -10169.015546919769, -12554.81839833479, -6933.712295736349, 0.23600000000000002, 0.926, 0.352, 192.0, 0.0, 0.0, 0.0, 0.0, 0.0, 0.0, 0.0, 0.0, 0.0, 1.6626773734153588E9, 0.0, 2022-09-08 18:49:33.415
42.0, 1669.9435317449013, -5914.472748574347, -32901.92430042318, -21337.55640239196, -8630.969659205635, 18240.49869066461, 35137.97046398764, 21660.5614615156, -8410.156775731657, -6971.777316543737, -21249.624639704783, -29121.640815930466, 560.5817509391011, -10158.86785493706, -12545.788293574846, -6929.890147434491, 0.23600000000000002, 0.926, 0.352, 192.0, 0.0, 0.0, 0.0, 0.0, 0.0, 0.0, 0.0, 0.0, 0.0, 1.6626773734153633E9, 0.0, 2022-09-08 18:49:33.415
44.0, 1661.3828136185186, -5919.680705032433, -32927.2711786355, -21334.65067561277, -8655.42246763974, 18247.047751790018, 35177.287182484535, 21642.18832757334, -8430.1392352747, -6975.510057867773, -21263.616831733805, -29136.169449826415, 557.2513410152603, -10172.43536382143, -12540.915613283589, -6936.0368771597, 0.23600000000000002, 0.926, 0.352, 192.0, 0.0, 0.0, 0.0, 0.0, 0.0, 0.0, 0.0, 0.0, 0.0, 1.6626773734153678E9, 0.0, 2022-09-08 18:49:33.415
46.0, 1683.8686685405576, -5892.769204708244, -32922.04087043296, -21301.592445563372, -8657.121200218344, 18263.118656053382, 35090.093027364375, 21672.564348288102, -8457.944805377103, -6980.5839038591275, -21265.449674779138, -29150.72043546682, 551.2387217567828, -10141.612308217564, -12549.632793621158, -6919.161310095944, 0.23600000000000002, 0.926, 0.352, 192.0, 0.0, 0.0, 0.0, 0.0, 0.0, 0.0, 0.0, 0.0, 0.0, 1.6626773734153724E9, 0.0, 2022-09-08 18:49:33.415
48.0, 1685.9920842638116, -5901.26286760126, -32929.86398099232, -21280.201826119643, -8659.579892108428, 18249.215871002183, 35181.62342090886, 21695.34077588806, -8436.151854533178, -6967.865761264058, -21271.328183570884, -29177.095493924084, 541.9180443189198, -10143.2439855628, -12534.523014369372, -6907.963086123835, 0.25, 0.91, 0.4, 192.0, 3.5, 104.0, 14.0, 56.0, 6.0, 64.0, 0.0, 0.0, 0.0, 1.6626773734153905E9, 0.0, 2022-09-08 18:49:33.415
50.0, 1688.3166656871638, -5915.903260219487, -32927.382937357776, -21271.194073104154, -8658.23878744111, 18235.35778943989, 35150.04040599351, 21699.408793378927, -8445.740752904505, -6970.3691566430525, -21276.15616037323, -29202.509427369765, 538.9899657952745, -10140.427665761432, -12528.71156081099, -6906.9796093678015, 0.25, 0.91, 0.4, 192.0, 0.0, 0.0, 0.0, 0.0, 0.0, 0.0, 0.0, 0.0, 0.0, 1.6626773734153955E9, 0.0, 2022-09-08 18:49:33.415
52.0, 1691.6023721220938, -5920.753588766288, -32928.09819318035, -21270.411762048217, -8678.310653961975, 18244.320838966472, 35178.8518045964, 21688.791714762654, -8455.91079663167, -6976.717052068359, -21283.26401511002, -29227.029291037237, 541.9627478078304, -10158.756096214784, -12518.496813594917, -6922.4693682753295, 0.25, 0.91, 0.4, 192.0, 0.0, 0.0, 0.0, 0.0, 0.0, 0.0, 0.0, 0.0, 0.0, 1.6626773734154007E9, 0.0, 2022-09-08 18:49:33.415
54.0, 1689.3671976765631, -5924.4192748569585, -32916.542341296954, -21266.36609630181, -8682.468078430662, 18228.048769003006, 35112.62358577533, 21676.900586712432, -8478.083727131334, -6981.85795329308, -21282.951090687646, -29238.428680709447, 527.9258522898975, -10167.987366674824, -12506.0021884444, -6926.716199721837, 0.25, 0.91, 0.4, 192.0, 0.0, 0.0, 0.0, 0.0, 0.0, 0.0, 0.0, 0.0, 0.0, 1.6626773734154067E9, 0.0, 2022-09-08 18:49:33.415
56.0, 1692.3846831780295, -5920.686533532922, -32911.937881939164, -21265.0696951234, -8684.837363342926, 18224.919524779263, 35133.589522074406, 21670.150359886928, -8493.037044171935, -6993.011473776278, -21282.705221498636, -29238.652198154, 530.3845441799813, -10174.447020822408, -12497.799098229301, -6929.353705567563, 0.25, 0.91, 0.4, 192.0, 0.0, 0.0, 0.0, 0.0, 0.0, 0.0, 0.0, 0.0, 0.0, 1.662677373415413E9, 0.0, 2022-09-08 18:49:33.415
58.0, 1694.016360523267, -5912.729312506833, -32905.142951624744, -21269.87532018129, -8684.770308109559, 18225.94770502421, 35123.84416149189, 21656.784016702655, -8502.648294287717, -6989.904581296991, -21280.090067397367, -29241.200297021904, 535.9501285493527, -10180.839619736627, -12502.76118549838, -6940.0825429061115, 0.249, 0.903, 0.41700000000000004, 192.0, 3.5, 96.0, 14.0, 0.0, 6.5, 72.0, 0.0, 0.0, 0.0, 1.6626773734154172E9, 0.0, 2022-09-08 18:49:33.415
60.0, 1681.6111423505715, -5914.517452063257, -32918.68810876466, -21281.58763427587, -8700.640046672826, 18230.753330082098, 35195.54855770452, 21742.614715411033, -8509.890259491236, -6988.854049307591, -21277.69843074065, -29243.21195402288, 535.100762260051, -10191.836678008638, -12486.690281235014, -6930.94067942389, 0.249, 0.903, 0.41700000000000004, 192.0, 0.0, 0.0, 0.0, 0.0, 0.0, 0.0, 0.0, 0.0, 0.0, 1.6626773734154215E9, 0.0, 2022-09-08 18:49:33.415
62.0, 1687.4896511423174, -5915.053893930184, -32908.56276852641, -21270.30000332594, -8688.950084322702, 18230.03807425953, 35097.647916990274, 21704.72850855929, -8506.693960034128, -7010.758758873792, -21287.041459922966, -29261.83095715415, 519.2757271856937, -10183.991215704826, -12501.733005253436, -6938.763789983248, 0.249, 0.903, 0.41700000000000004, 192.0, 0.0, 0.0, 0.0, 0.0, 0.0, 0.0, 0.0, 0.0, 0.0, 1.662677373415426E9, 0.0, 2022-09-08 18:49:33.415
64.0, 1679.465374882862, -5930.476597604346, -32923.71725126711, -21280.201826119643, -8687.586627910929, 18223.623123600857, 35151.4485658942, 21726.29794195866, -8517.668666561683, -7003.382683203541, -21285.141561644265, -29259.104044330605, 522.0473434981518, -10191.993140219825, -12497.195601129008, -6937.221519615832, 0.249, 0.903, 0.41700000000000004, 192.0, 0.0, 0.0, 0.0, 0.0, 0.0, 0.0, 0.0, 0.0, 0.0, 1.6626773734154305E9, 0.0, 2022-09-08 18:49:33.415
66.0, 1681.119403972555, -5929.560176081679, -32921.727946010586, -21279.397163319252, -8697.57785768245, 18219.868030532365, 35127.28633013801, 21709.86940978401, -8528.375152155775, -7021.308782256697, -21302.64297755277, -29277.432474783956, 507.8539857690318, -10203.057253725203, -12499.386072085628, -6939.344935339086, 0.249, 0.903, 0.41700000000000004, 192.0, 0.0, 0.0, 0.0, 0.0, 0.0, 0.0, 0.0, 0.0, 0.0, 1.662677373415435E9, 0.0, 2022-09-08 18:49:33.415
68.0, 1698.4867094143283, -5914.3833415965255, -32911.312033094415, -21268.44480853615, -8702.227020529153, 18234.821347572964, 35147.80523154798, 21730.72358736081, -8514.137090937746, -7006.936610571935, -21281.83350346488, -29248.352855247602, 536.6430326274673, -10179.453811580397, -12492.434679560029, -6921.463539774841, 0.2455, 0.8965000000000001, 0.4355, 192.0, 3.5, 72.0, 13.5, 104.0, 7.0, 24.0, 0.0, 0.0, 0.0, 1.6626773734154415E9, 0.0, 2022-09-08 18:49:33.415
70.0, 1707.4050554519958, -5901.888716446008, -32892.87184391879, -21259.97349738759, -8706.697369420215, 18233.860222561387, 35091.45648377615, 21721.045282011662, -8524.038913731447, -7002.041578536222, -21275.26209059502, -29239.92624758795, 523.6790208433891, -10182.583055804142, -12506.069243677764, -6916.881432161503, 0.2455, 0.8965000000000001, 0.4355, 192.0, 0.0, 0.0, 0.0, 0.0, 0.0, 0.0, 0.0, 0.0, 0.0, 1.662677373415446E9, 0.0, 2022-09-08 18:49:33.415
72.0, 1696.5197559022613, -5920.351257366092, -32899.018573643996, -21272.848102193846, -8720.421340515773, 18225.299504435006, 35158.64582760881, 21721.760537834234, -8514.584125826852, -6999.269962223764, -21269.361230058817, -29232.818392851164, 525.7353813332775, -10180.861971481083, -12499.542534296816, -6914.355685038053, 0.2455, 0.8965000000000001, 0.4355, 192.0, 0.0, 0.0, 0.0, 0.0, 0.0, 0.0, 0.0, 0.0, 0.0, 1.6626773734154503E9, 0.0, 2022-09-08 18:49:33.415
74.0, 1686.6849883419263, -5922.944059722908, -32885.160492081704, -21267.01429689101, -8707.569087453972, 18237.32474295196, 35118.01035618906, 21712.752784818746, -8517.579259583863, -7022.471072968373, -21271.48464578207, -29235.36649171907, 521.6897155868669, -10199.793899034727, -12490.668891748059, -6912.724007692816, 0.2455, 0.8965000000000001, 0.4355, 192.0, 0.0, 0.0, 0.0, 0.0, 0.0, 0.0, 0.0, 0.0, 0.0, 1.6626773734154549E9, 0.0, 2022-09-08 18:49:33.415
76.0, 1695.4915756573173, -5921.044161444207, -32874.63282044325, -21263.147445100243, -8693.845116358414, 18242.13036800985, 35115.66342302125, 21736.7809101082, -8507.163346667689, -7028.528395715761, -21265.024991634487, -29237.512259186777, 541.940396063375, -10182.806573248694, -12481.214103843464, -6909.348894280064, 0.2455, 0.8965000000000001, 0.4355, 192.0, 0.0, 0.0, 0.0, 0.0, 0.0, 0.0, 0.0, 0.0, 0.0, 1.6626773734154592E9, 0.0, 2022-09-08 18:49:33.415
78.0, 1692.9658285338676, -5931.996516227307, -32871.97296285307, -21267.997773647043, -8683.943293564713, 18238.08470226344, 35101.782989714506, 21727.7284536038, -8507.364512367787, -7037.513796986795, -21265.941413157158, -29238.920419087463, 550.8587421010426, -10191.322587886167, -12474.173304340042, -6905.772615167215, 0.24175000000000002, 0.89825, 0.45275, 192.0, 3.5, 56.0, 14.0, 16.0, 7.0, 88.0, 0.0, 0.0, 0.0, 1.6626773734154637E9, 0.0, 2022-09-08 18:49:33.415
80.0, 1686.2156017083648, -5939.350240153103, -32878.99141061204, -21275.329145828386, -8685.95495056569, 18229.635742859333, 35135.556475586476, 21735.68567462989, -8487.046776657913, -7037.960831875901, -21260.10760785432, -29236.39467196401, 556.1561055369503, -10194.340073387631, -12465.23260655792, -6905.660856444938, 0.24175000000000002, 0.89825, 0.45275, 192.0, 0.0, 0.0, 0.0, 0.0, 0.0, 0.0, 0.0, 0.0, 0.0, 1.662677373415468E9, 0.0, 2022-09-08 18:49:33.415
82.0, 1677.4537178818844, -5945.429914644947, -32890.79313168444, -21293.769335004014, -8690.24648550111, 18220.31506542147, 35120.75962075706, 21722.63225586799, -8500.435471586641, -7057.339794318652, -21281.006488920033, -29260.04281759773, 538.1182477615175, -10212.981428263358, -12472.966310139456, -6919.027199629212, 0.24175000000000002, 0.89825, 0.45275, 192.0, 0.0, 0.0, 0.0, 0.0, 0.0, 0.0, 0.0, 0.0, 0.0, 1.6626773734154725E9, 0.0, 2022-09-08 18:49:33.415
84.0, 1690.8200610661581, -5936.623327329556, -32893.60945148581, -21301.97242521911, -8682.758651108581, 18225.590077112924, 35108.0861816509, 21728.376654193005, -8489.751337737005, -7048.577910492171, -21274.256262094532, -29257.897050130017, 559.7100329053442, -10201.224410679866, -12470.641728716104, -6916.344990294575, 0.24175000000000002, 0.89825, 0.45275, 192.0, 0.0, 0.0, 0.0, 0.0, 0.0, 0.0, 0.0, 0.0, 0.0, 1.6626773734154773E9, 0.0, 2022-09-08 18:49:33.415
86.0, 1682.6169708510604, -5946.480446634347, -32908.160437126215, -21318.423309138216, -8702.29407576252, 18212.60371358439, 35119.038536434, 21713.356281919037, -8488.253770858499, -7047.482675013862, -21287.220273878607, -29268.60353572411, 540.1522565069505, -10212.422634651975, -12485.818563201257, -6925.620964243528, 0.24175000000000002, 0.89825, 0.45275, 192.0, 0.0, 0.0, 0.0, 0.0, 0.0, 0.0, 0.0, 0.0, 0.0, 1.6626773734154816E9, 0.0, 2022-09-08 18:49:33.415
88.0, 1694.0387122677223, -5930.02956271524, -32909.81446621591, -21319.22797193861, -8702.562296695984, 18219.51040262108, 35093.870472177325, 21720.508840144736, -8488.097308647313, -7039.68191619896, -21280.335936586373, -29265.139015333538, 542.1415617634729, -10216.915335287493, -12504.303455865796, -6930.068961390133, 0.229875, 0.8941250000000001, 0.455375, 192.0, 3.0, 104.0, 13.5, 104.0, 7.0, 40.0, 0.0, 0.0, 0.0, 1.662677373415486E9, 0.0, 2022-09-08 18:49:33.415
90.0, 1685.4779941413397, -5935.036353473229, -32924.20898964512, -21332.773129078523, -8706.116224064377, 18206.769908281556, 35117.920949211235, 21707.120145216006, -8489.77368948146, -7043.861692412102, -21286.08033491139, -29273.096236359626, 531.7703523362103, -10206.477070626865, -12515.389921115628, -6937.534444038206, 0.229875, 0.8941250000000001, 0.455375, 192.0, 0.0, 0.0, 0.0, 0.0, 0.0, 0.0, 0.0, 0.0, 0.0, 1.6626773734154904E9, 0.0, 2022-09-08 18:49:33.415
92.0, 1701.817119338169, -5920.954754466386, -32914.15070464023, -21325.151184219263, -8717.426206758762, 18221.23148694414, 35069.77529165451, 21710.048223739654, -8499.094366919324, -7037.714962686892, -21273.40689580523, -29265.049608355715, 532.3514976920483, -10207.795823549726, -12526.632848576648, -6939.814321972647, 0.229875, 0.8941250000000001, 0.455375, 192.0, 0.0, 0.0, 0.0, 0.0, 0.0, 0.0, 0.0, 0.0, 0.0, 1.662677373415495E9, 0.0, 2022-09-08 18:49:33.415
94.0, 1707.852090341102, -5911.365856095059, -32905.858207447316, -21322.93836151819, -8720.443692260229, 18223.801937556498, 35111.505998552566, 21712.462212140825, -8467.176075837146, -7023.4321979799515, -21257.604212475326, -29256.31007627369, 549.4952856892688, -10199.503326356808, -12513.199450159009, -6926.336220066098, 0.229875, 0.8941250000000001, 0.455375, 192.0, 0.0, 0.0, 0.0, 0.0, 0.0, 0.0, 0.0, 0.0, 0.0, 1.6626773734154992E9, 0.0, 2022-09-08 18:49:33.415
96.0, 1699.1572617479876, -5924.486330090324, -32906.484056292065, -21332.773129078523, -8723.036494617045, 18204.780603025032, 35060.00757932754, 21691.33981363056, -8464.024479868947, -7014.111520542088, -21252.195090317142, -29256.51124197379, 555.4855532032911, -10189.981483218848, -12512.059511191788, -6924.905708420958, 0.229875, 0.8941250000000001, 0.455375, 192.0, 0.0, 0.0, 0.0, 0.0, 0.0, 0.0, 0.0, 0.0, 0.0, 1.6626773734155035E9, 0.0, 2022-09-08 18:49:33.415
98.0, 1692.8764215560464, -5935.5727953401565, -32918.73281225358, -21357.04712355699, -8724.623468473372, 18189.648472028788, 35097.49145477908, 21670.753856987223, -8472.406384039687, -7032.462302739895, -21268.891843425256, -29280.025277140772, 540.5322361626907, -10210.96977126238, -12526.47638636546, -6946.855121476069, 0.2149375, 0.8990625000000001, 0.4366875, 192.0, 3.0, 32.0, 14.0, 32.0, 6.5, 8.0, 0.0, 0.0, 0.0, 1.662677373415508E9, 0.0, 2022-09-08 18:49:33.415
100.0, 1698.9337443034344, -5928.107312692084, -32921.88440822177, -21374.637946443316, -8709.848965388413, 18191.235445885115, 35029.85507605733, 21674.665412266902, -8457.38601176572, -7026.002648592312, -21260.509939254516, -29277.968916650883, 564.7838788966989, -10205.851221782115, -12523.57065958627, -6954.655880290971, 0.2149375, 0.8990625000000001, 0.4366875, 192.0, 0.0, 0.0, 0.0, 0.0, 0.0, 0.0, 0.0, 0.0, 0.0, 1.6626773734155147E9, 0.0, 2022-09-08 18:49:33.415
102.0, 1692.5411453892168, -5936.489216862824, -32946.80660328944, -21415.98867368563, -8731.48545402115, 18173.55521602097, 35050.821012356406, 21653.18538584535, -8457.631880954728, -7027.835491637647, -21261.672229966192, -29283.534501020255, 553.7868206246878, -10204.219544436877, -12542.077903995265, -6973.163124699966, 0.2149375, 0.8990625000000001, 0.4366875, 192.0, 0.0, 0.0, 0.0, 0.0, 0.0, 0.0, 0.0, 0.0, 0.0, 1.6626773734155192E9, 0.0, 2022-09-08 18:49:33.415
104.0, 1707.3156484741746, -5912.639905529011, -32932.25561764903, -21419.587304542936, -8715.906288135802, 18171.20828285316, 35079.61005921484, 21653.05127537862, -8451.596909951795, -7026.58379394815, -21257.0677706084, -29279.533538762757, 557.8548381155537, -10201.44792812442, -12533.807758546802, -6984.607217861083, 0.2149375, 0.8990625000000001, 0.4366875, 192.0, 0.0, 0.0, 0.0, 0.0, 0.0, 0.0, 0.0, 0.0, 0.0, 1.6626773734155235E9, 0.0, 2022-09-08 18:49:33.415
106.0, 1710.6684101424707, -5917.199661397894, -32943.96793174362, -21420.213153387685, -8730.904308665313, 18178.517303290046, 35107.795608972985, 21662.595470261036, -8445.696049415596, -7033.579889962661, -21252.306849039418, -29276.873681172572, 559.4418119718805, -10199.883306012549, -12539.976840016467, -6988.742290585315, 0.2149375, 0.8990625000000001, 0.4366875, 192.0, 0.0, 0.0, 0.0, 0.0, 0.0, 0.0, 0.0, 0.0, 0.0, 1.662677373415528E9, 0.0, 2022-09-08 18:49:33.415
108.0, 1714.8928898445238, -5911.298800861693, -32947.43245213419, -21412.52415329506, -8729.786721442548, 18182.093582402897, 35013.761820049505, 21665.8141214626, -8452.714497174562, -7012.256325752298, -21250.138729827253, -29261.518032731776, 559.553570694157, -10183.924160471459, -12561.188645504553, -6981.276807937242, 0.20146875, 0.8935312500000001, 0.39434375, 192.0, 2.5, 112.0, 13.5, 96.0, 5.5, 0.0, 0.0, 0.0, 0.0, 1.6626773734155324E9, 0.0, 2022-09-08 18:49:33.415
110.0, 1716.9045468455015, -5910.985876439318, -32956.86488829433, -21411.697138750213, -8724.243488817632, 18189.98374819562, 35124.82763824792, 21681.90737747042, -8428.261688740455, -7030.718866672381, -21251.055151349923, -29259.394617008522, 561.9899108397855, -10180.951378458903, -12551.487988410949, -6968.6704240644485, 0.20146875, 0.8935312500000001, 0.39434375, 192.0, 0.0, 0.0, 0.0, 0.0, 0.0, 0.0, 0.0, 0.0, 0.0, 1.662677373415537E9, 0.0, 2022-09-08 18:49:33.415
112.0, 1719.1397212910322, -5908.482481060324, -32958.787138317486, -21415.295769607517, -8723.237660317143, 18175.902149188776, 35049.94929432265, 21668.473979052782, -8416.527022901419, -7025.287392769742, -21257.827729919878, -29265.11666358908, 546.6342623989896, -10180.236122636334, -12576.745459645446, -6983.243761449309, 0.20146875, 0.8935312500000001, 0.39434375, 192.0, 0.0, 0.0, 0.0, 0.0, 0.0, 0.0, 0.0, 0.0, 0.0, 1.6626773734155416E9, 0.0, 2022-09-08 18:49:33.415
114.0, 1723.2300905263533, -5902.7604344797655, -32960.888202296286, -21426.449290090717, -8727.283326063553, 18166.55912000646, 35075.072655090415, 21668.161054630407, -8403.406548906154, -7018.62657292206, -21255.63725896326, -29259.662837941985, 561.6099311840453, -10183.790050004727, -12580.947587603045, -6988.295255696208, 0.20146875, 0.8935312500000001, 0.39434375, 192.0, 0.0, 0.0, 0.0, 0.0, 0.0, 0.0, 0.0, 0.0, 0.0, 1.662677373415546E9, 0.0, 2022-09-08 18:49:33.415
116.0, 1720.0337910692444, -5905.666161258956, -32958.27304819501, -21431.210211659698, -8737.475721535173, 18158.11016060235, 35030.257407457524, 21662.81898770559, -8392.700063312062, -7035.7033056859145, -21263.86270092281, -29273.878547415563, 560.0676608166291, -10174.268206866767, -12583.652148682137, -6995.224296477354, 0.20146875, 0.8935312500000001, 0.39434375, 192.0, 0.0, 0.0, 0.0, 0.0, 0.0, 0.0, 0.0, 0.0, 0.0, 1.6626773734155505E9, 0.0, 2022-09-08 18:49:33.415
118.0, 1728.952137106912, -5897.5971815105895, -32958.4295104062, -21442.631953076358, -8749.925643196779, 18154.086846600396, 35071.94341086667, 21675.090095411553, -8380.875990495204, -7036.3515062751185, -21257.559508986415, -29277.097198617128, 565.812059141643, -10174.558779544686, -12575.87374161169, -6996.565401144672, 0.192734375, 0.8837656250000001, 0.337171875, 192.0, 2.5, 96.0, 13.5, 40.0, 4.0, 96.0, 0.0, 0.0, 0.0, 1.6626773734155548E9, 0.0, 2022-09-08 18:49:33.415
120.0, 1736.954061621912, -5900.346446078593, -32954.160327215235, -21447.48228162316, -8740.448503547728, 18148.901241886764, 35037.92405580569, 21673.838397722055, -8361.474676307998, -7026.159110803499, -21247.25535479252, -29281.03110564126, 564.5603614521458, -10179.54321855822, -12577.639529423659, -7003.762662859281, 0.192734375, 0.8837656250000001, 0.337171875, 192.0, 0.0, 0.0, 0.0, 0.0, 0.0, 0.0, 0.0, 0.0, 0.0, 1.6626773738956249E9, 0.0, 2022-09-08 18:49:33.895
122.0, 1726.336983005641, -5911.142338650506, -32965.358551187346, -21456.62414510538, -8738.34743956893, 18148.364800019837, 35106.36509732784, 21684.991918205254, -8364.46981006501, -7037.558500475705, -21249.021142604488, -29292.005812168816, 565.9238178639196, -10187.701605284406, -12570.755192131424, -7007.495404183317, 0.192734375, 0.8837656250000001, 0.337171875, 192.0, 0.0, 0.0, 0.0, 0.0, 0.0, 0.0, 0.0, 0.0, 0.0, 1.6626773738956945E9, 0.0, 2022-09-08 18:49:33.895
124.0, 1722.693648659426, -5913.086940418118, -32978.00963854905, -21465.810712076513, -8743.756561727114, 18146.375494763317, 35082.31462029393, 21684.500179827235, -8354.858559949227, -7045.135741846054, -21263.68388696717, -29300.03008842827, 561.6099311840453, -10193.423651864965, -12578.935930602067, -7014.29033449773, 0.192734375, 0.8837656250000001, 0.337171875, 192.0, 0.0, 0.0, 0.0, 0.0, 0.0, 0.0, 0.0, 0.0, 0.0, 1.6626773738956988E9, 0.0, 2022-09-08 18:49:33.895
126.0, 1733.4448377424287, -5904.392111825003, -32971.86290882384, -21458.30052593953, -8734.927622667268, 18159.339506547392, 35088.61781223033, 21699.967586990308, -8339.055876619324, -7034.4739597408725, -21261.292250310453, -29294.620966270086, 561.8558003730536, -10181.644282537018, -12587.29548302835, -7009.86468909558, 0.192734375, 0.8837656250000001, 0.337171875, 192.0, 0.0, 0.0, 0.0, 0.0, 0.0, 0.0, 0.0, 0.0, 0.0, 1.6626773738957033E9, 0.0, 2022-09-08 18:49:33.895
128.0, 1734.4506662429174, -5899.698245489389, -32977.294382726475, -21459.10518873992, -8731.39604704333, 18157.350201290872, 35108.622623517826, 21694.357299132025, -8319.185175798557, -7030.607107950104, -21257.201881075132, -29289.59182376764, 562.1463730509727, -10169.708450997883, -12580.701718414035, -7004.902601826501, 0.192734375, 0.8837656250000001, 0.337171875, 192.0, 0.0, 0.0, 0.0, 0.0, 0.0, 0.0, 0.0, 0.0, 0.0, 1.662677373895708E9, 0.0, 2022-09-08 18:49:33.895
130.0, 1742.6761082024705, -5892.16570760795, -32982.256469995555, -21462.212081219208, -8727.551546997018, 18167.475541529126, 35099.27959433551, 21702.15805794693, -8307.65167565962, -7028.617802693582, -21255.346686285342, -29286.79785571073, 565.4320794859028, -10158.510227025776, -12578.77946839088, -6998.353540701097, 0.20800000000000002, 0.88, 0.224, 192.0, 3.0, 64.0, 13.5, 64.0, 3.5, 0.0, 0.0, 0.0, 0.0, 1.6626773738957124E9, 0.0, 2022-09-08 18:49:33.895
132.0, 1737.8034279112135, -5893.775033208733, -32995.77927539102, -21472.73975285766, -8746.30466059502, 18148.521262231025, 35120.647862034784, 21689.19404616285, -8293.033634785848, -7024.929764858457, -21262.87922416678, -29295.22446337038, 567.9131231204418, -10145.479160008332, -12586.803744650335, -7007.182479760943, 0.20800000000000002, 0.88, 0.224, 192.0, 0.0, 0.0, 0.0, 0.0, 0.0, 0.0, 0.0, 0.0, 0.0, 1.6626773738957236E9, 0.0, 2022-09-08 18:49:33.895
134.0, 1746.8558844156128, -5881.548628991679, -32984.29047874099, -21473.7679331026, -8746.170550128289, 18147.180157563707, 35086.20382382916, 21680.72273501429, -8285.724614348963, -7026.6061456926045, -21246.92007862569, -29296.096181404137, 565.4991347192687, -10156.029183391236, -12593.576323220292, -7012.233974007842, 0.20800000000000002, 0.88, 0.224, 192.0, 0.0, 0.0, 0.0, 0.0, 0.0, 0.0, 0.0, 0.0, 0.0, 1.662677373895728E9, 0.0, 2022-09-08 18:49:33.895
136.0, 1757.629425243071, -5878.017053367741, -32975.52859491451, -21475.82429359249, -8743.264823349098, 18128.67291315471, 35110.99190843009, 21682.19795014834, -8259.617776825164, -7019.6771049114595, -21244.863718135803, -29298.28665236076, 562.5710561956234, -10153.458732778876, -12592.145811575152, -7016.927840343456, 0.20800000000000002, 0.88, 0.224, 192.0, 0.0, 0.0, 0.0, 0.0, 0.0, 0.0, 0.0, 0.0, 0.0, 1.6626773738957322E9, 0.0, 2022-09-08 18:49:33.895
138.0, 1776.6060562856267, -5855.2182740233275, -32959.65885635124, -21465.92247079879, -8730.904308665313, 18143.49211972858, 35068.54594570946, 21687.495313584248, -8249.15716042008, -7007.33894197213, -21237.509994210006, -29292.206977868915, 576.3397307800926, -10142.126398340035, -12586.669634183603, -7016.324343243164, 0.20800000000000002, 0.88, 0.224, 192.0, 0.0, 0.0, 0.0, 0.0, 0.0, 0.0, 0.0, 0.0, 0.0, 1.6626773738957365E9, 0.0, 2022-09-08 18:49:33.895
140.0, 1770.1464021380427, -5852.580768177601, -32966.319676198924, -21473.656174380325, -8741.767256470592, 18131.82450912291, 35118.63620503381, 21680.454514080826, -8236.215500380456, -6988.42936616294, -21239.499299466526, -29291.55877727971, 583.0452541166848, -10137.320773282145, -12581.215808536508, -7012.792767619225, 0.22, 0.892, 0.186, 192.0, 3.0, 112.0, 13.5, 112.0, 2.5, 104.0, 0.0, 0.0, 0.0, 1.6626773738957405E9, 0.0, 2022-09-08 18:49:33.895
142.0, 1772.9627219394115, -5849.429172209403, -32961.3799406743, -21474.907872069823, -8737.363962812897, 18125.655427653244, 35060.74518689456, 21672.653755265925, -8255.460352356477, -6984.540162627717, -21237.621752932282, -29300.32066110619, 575.5350679797016, -10154.173988601446, -12590.268265040906, -7021.599354934616, 0.22, 0.892, 0.186, 192.0, 0.0, 0.0, 0.0, 0.0, 0.0, 0.0, 0.0, 0.0, 0.0, 1.6626773738957448E9, 0.0, 2022-09-08 18:49:33.895
144.0, 1770.6381405160596, -5851.127904788006, -32967.236097721594, -21481.076953539487, -8741.566090770495, 18118.659331638733, 35105.15810312726, 21673.413714577404, -8234.33795384621, -6976.202961945887, -21229.686883650647, -29310.155428666527, 579.714844192844, -10140.226500061333, -12584.680328927081, -7021.979334590356, 0.22, 0.892, 0.186, 192.0, 0.0, 0.0, 0.0, 0.0, 0.0, 0.0, 0.0, 0.0, 0.0, 1.662677373895749E9, 0.0, 2022-09-08 18:49:33.895
146.0, 1788.9889227138667, -5837.046305781163, -32945.01846373302, -21461.072142251985, -8723.170605083777, 18132.048026567463, 35047.021215799, 21681.437990836857, -8240.238814382412, -6979.443964891907, -21221.997883558022, -29318.962015981917, 592.2318210878159, -10148.518997254252, -12581.327567258784, -7014.357389731096, 0.22, 0.892, 0.186, 192.0, 0.0, 0.0, 0.0, 0.0, 0.0, 0.0, 0.0, 0.0, 0.0, 1.6626773738957531E9, 0.0, 2022-09-08 18:49:33.895
148.0, 1786.5749343126936, -5838.29800347066, -32945.68901606667, -21460.848624807433, -8722.745921939126, 18127.26475325403, 35097.06677163443, 21676.18533088986, -8233.53329104582, -6973.565456100161, -21217.48283117805, -29320.884266005072, 604.7040944938773, -10159.29253808171, -12576.20901777852, -7002.265095980775, 0.22, 0.892, 0.186, 192.0, 0.0, 0.0, 0.0, 0.0, 0.0, 0.0, 0.0, 0.0, 0.0, 1.6626773738957574E9, 0.0, 2022-09-08 18:49:33.895
150.0, 1806.5126903668274, -5825.53515738668, -32927.76291701352, -21443.838947276945, -8703.501069963106, 18145.25790754055, 35049.189335011164, 21683.159075159918, -8225.374904319633, -6958.858008248569, -21204.027081015956, -29312.681175789974, 609.8449957185979, -10154.330450812633, -12563.803799605823, -6988.183496973932, 0.196, 0.914, 0.152, 192.0, 3.0, 16.0, 14.0, 72.0, 2.0, 96.0, 0.0, 0.0, 0.0, 1.6626773738957615E9, 0.0, 2022-09-08 18:49:33.895
152.0, 1784.2950563782522, -5847.171646019417, -32975.61800189233, -21474.639651136356, -8737.140445368344, 18118.279351982994, 35098.74315246858, 21659.846205693033, -8232.616869523152, -6974.884209023025, -21223.67426439217, -29331.434289387977, 611.6331352750225, -10168.881436453037, -12583.49568647095, -6999.068796523667, 0.196, 0.914, 0.152, 192.0, 0.0, 0.0, 0.0, 0.0, 0.0, 0.0, 0.0, 0.0, 0.0, 1.6626773738957655E9, 0.0, 2022-09-08 18:49:33.895
154.0, 1801.304733908741, -5824.506977141736, -32969.13599600029, -21452.109092725408, -8728.803244686515, 18127.44356720967, 35028.55867487892, 21665.501197040227, -8235.500244557887, -6975.33124391213, -21228.09990979432, -29332.529524866288, 608.1686148844499, -10164.880474195537, -12602.002930879944, -7001.080453524644, 0.196, 0.914, 0.152, 192.0, 0.0, 0.0, 0.0, 0.0, 0.0, 0.0, 0.0, 0.0, 0.0, 1.66267737389577E9, 0.0, 2022-09-08 18:49:33.895
156.0, 1807.3397049116738, -5816.1250729709955, -32981.89884208427, -21453.7631218151, -8733.363000555397, 18139.558212704447, 35080.884108648796, 21678.62167103549, -8217.842366438195, -6970.950301998891, -21221.014406801987, -29323.410013128523, 596.5233560232349, -10179.610273791584, -12608.037901882875, -7006.780148360747, 0.196, 0.914, 0.152, 192.0, 0.0, 0.0, 0.0, 0.0, 0.0, 0.0, 0.0, 0.0, 0.0, 1.662677373895774E9, 0.0, 2022-09-08 18:49:33.895
158.0, 1793.6604373050259, -5822.785892818677, -32988.93964158769, -21456.49003463865, -8731.664267976794, 18129.25405851055, 35032.64904411424, 21670.642098264947, -8221.888032184605, -6954.253548890776, -21212.185467742143, -29296.967899437896, 599.9431729248969, -10143.445151262898, -12607.948494905055, -6999.940514557424, 0.196, 0.914, 0.152, 192.0, 0.0, 0.0, 0.0, 0.0, 0.0, 0.0, 0.0, 0.0, 0.0, 1.6626773738957784E9, 0.0, 2022-09-08 18:49:33.895
160.0, 1797.7284547958918, -5817.622639849501, -32977.026161793015, -21450.991505502643, -8730.591384242938, 18141.279297027504, 35085.779140684506, 21684.321365871594, -8210.734511701407, -6960.534389082717, -21216.58876139984, -29292.631661013565, 596.4339490454137, -10156.096238624601, -12610.429538539594, -7011.809290863192, 0.188, 0.916, 0.106, 192.0, 2.5, 112.0, 14.0, 80.0, 1.5, 40.0, 0.0, 0.0, 0.0, 1.6626773738957825E9, 0.0, 2022-09-08 18:49:33.895
162.0, 1785.3232366231964, -5835.794608091665, -32986.4362462087, -21462.212081219208, -8734.078256377967, 18123.621418907813, 35046.551829165444, 21662.81898770559, -8186.57227594522, -6952.33129886762, -21213.9065520652, -29284.160349865004, 612.616612031056, -10149.234253076822, -12600.818288423812, -7010.222317006865, 0.188, 0.916, 0.106, 192.0, 0.0, 0.0, 0.0, 0.0, 0.0, 0.0, 0.0, 0.0, 0.0, 1.6626773738957868E9, 0.0, 2022-09-08 18:49:33.895
164.0, 1798.9578007409336, -5822.003581762741, -32987.352667731364, -21464.357848686916, -8732.983020899657, 18126.594200920368, 35069.88705037678, 21675.268909367194, -8176.5139909403315, -6962.411935616963, -21217.39342420023, -29286.529634777267, 616.1928911439051, -10151.335317055622, -12609.960151906032, -7015.944363587423, 0.188, 0.916, 0.106, 192.0, 0.0, 0.0, 0.0, 0.0, 0.0, 0.0, 0.0, 0.0, 0.0, 1.662677373895792E9, 0.0, 2022-09-08 18:49:33.895
166.0, 1806.0209519888106, -5823.277631196694, -32988.134978787304, -21461.273307952084, -8725.808110929504, 18112.177325746696, 35027.57519812288, 21665.411790062404, -8158.90081630955, -6959.372098371041, -21217.68399687815, -29282.17104460848, 611.8119492306649, -10153.145808356501, -12614.363445563728, -7022.739293901836, 0.188, 0.916, 0.106, 192.0, 0.0, 0.0, 0.0, 0.0, 0.0, 0.0, 0.0, 0.0, 0.0, 1.6626773738957963E9, 0.0, 2022-09-08 18:49:33.895
168.0, 1815.296925937763, -5824.43992190837, -32992.18064453371, -21455.171281715786, -8720.510747493596, 18116.938247315677, 35056.09602404786, 21676.67706926788, -8127.340153138656, -6952.286595378709, -21202.976549026556, -29255.32659951766, 632.9790512298407, -10142.685191951417, -12608.462585027526, -7013.3962647195185, 0.188, 0.916, 0.106, 192.0, 0.0, 0.0, 0.0, 0.0, 0.0, 0.0, 0.0, 0.0, 0.0, 1.6626773738958004E9, 0.0, 2022-09-08 18:49:33.895
170.0, 1827.7244958549138, -5808.503128111735, -32978.4343216937, -21441.380255386863, -8709.714854921682, 18112.311436213426, 35041.433279685174, 21673.883101210966, -8124.054446703726, -6937.132112638011, -21191.66656633217, -29223.11773575756, 638.2987664102038, -10129.922345867437, -12603.58990473627, -7010.758758873792, 0.20600000000000002, 0.922, 0.046, 192.0, 3.0, 56.0, 14.0, 104.0, 0.5, 56.0, 0.0, 0.0, 0.0, 1.6626773738958046E9, 0.0, 2022-09-08 18:49:33.895
172.0, 1825.690487109481, -5813.621677592001, -32998.72970565912, -21452.9137555258, -8728.535023753051, 18086.517523112005, 35046.26125648752, 21663.556595272614, -8144.886272536072, -6919.138958351488, -21196.271025689963, -29192.92052899844, 632.1743884294497, -10099.613380386041, -12610.407186795139, -7021.2640787677865, 0.20600000000000002, 0.922, 0.046, 192.0, 0.0, 0.0, 0.0, 0.0, 0.0, 0.0, 0.0, 0.0, 0.0, 1.6626773738958087E9, 0.0, 2022-09-08 18:49:33.895
174.0, 1833.4241906910172, -5798.444843106848, -33000.24962428208, -21440.083854208453, -8710.608924699894, 18089.043270235452, 35044.31665471991, 21676.945290201344, -8143.589871357664, -6912.388731525985, -21199.668490847173, -29168.668886264433, 633.7166587968659, -10094.003092527759, -12604.998064636955, -7017.553689188206, 0.20600000000000002, 0.922, 0.046, 192.0, 0.0, 0.0, 0.0, 0.0, 0.0, 0.0, 0.0, 0.0, 0.0, 1.662677373895813E9, 0.0, 2022-09-08 18:49:33.895
176.0, 1828.305641210752, -5794.086252938063, -33028.45752578467, -21452.77964505907, -8720.533099238051, 18077.71093579661, 35058.86764036032, 21689.90930198542, -8121.752217024829, -6893.657969672438, -21195.689880334125, -29169.987639187297, 646.7253740698545, -10068.008013726238, -12593.576323220292, -7006.534279171739, 0.20600000000000002, 0.922, 0.046, 192.0, 0.0, 0.0, 0.0, 0.0, 0.0, 0.0, 0.0, 0.0, 0.0, 1.6626773738958173E9, 0.0, 2022-09-08 18:49:33.895
178.0, 1834.2065017469529, -5786.464308078803, -33049.28935161702, -21471.510406912614, -8721.270706805075, 18072.547682827437, 35073.79860565646, 21691.026889208188, -8118.958248967916, -6894.999074339757, -21212.140764253232, -29208.700860583886, 629.1569029279832, -10078.71449932033, -12606.54033500437, -7019.811215378191, 0.20600000000000002, 0.922, 0.046, 192.0, 0.0, 0.0, 0.0, 0.0, 0.0, 0.0, 0.0, 0.0, 0.0, 1.6626773738958216E9, 0.0, 2022-09-08 18:49:33.895
180.0, 1844.398897218573, -5783.33506385506, -33062.32041863447, -21497.5725409475, -8723.327067294964, 18073.464104350103, 35076.123187079815, 21698.849999767543, -8076.132306591548, -6879.0399287986675, -21191.465400632074, -29227.07399452615, 630.4086006174804, -10064.65525205794, -12604.103994858742, -7012.233974007842, 0.222, 0.922, -0.022, 192.0, 3.0, 120.0, 14.0, 104.0, 127.5, 40.0, 0.0, 0.0, 0.0, 1.662677373895826E9, 0.0, 2022-09-08 18:49:33.895
182.0, 1829.3114697112405, -5803.876317009487, -33099.93840455275, -21530.02727389661, -8755.804151988525, 18039.53415626695, 35081.17468132671, 21676.20768263432, -8075.193533324425, -6901.682245931894, -21212.029005530956, -29279.913518418496, 602.8041962151761, -10095.970046039825, -12623.192384623575, -7045.91805290199, 0.222, 0.922, -0.022, 192.0, 0.0, 0.0, 0.0, 0.0, 0.0, 0.0, 0.0, 0.0, 0.0, 1.66267737389583E9, 0.0, 2022-09-08 18:49:33.895
184.0, 1858.6369584366034, -5786.151383656429, -33077.78782579754, -21517.823221424012, -8744.248300105131, 18042.7081039796, 35045.36718670931, 21699.744069545755, -8026.153805989481, -6893.03212082769, -21205.189371727633, -29290.128265634572, 615.6564492769777, -10082.33548192209, -12635.865823729733, -7057.496256529839, 0.222, 0.922, -0.022, 192.0, 0.0, 0.0, 0.0, 0.0, 0.0, 0.0, 0.0, 0.0, 0.0, 1.6626773738958342E9, 0.0, 2022-09-08 18:49:33.895
186.0, 1857.8322956362124, -5789.325331369082, -33072.19988968371, -21521.35479704795, -8739.956765169713, 18028.112414850286, 35111.95303344167, 21706.96368300482, -7983.841953735585, -6888.852344614547, -21191.554807609893, -29260.98159086485, 618.1821964004274, -10101.446223431376, -12633.8318149843, -7064.805276966725, 0.222, 0.922, -0.022, 192.0, 0.0, 0.0, 0.0, 0.0, 0.0, 0.0, 0.0, 0.0, 0.0, 1.6626773738958385E9, 0.0, 2022-09-08 18:49:33.895
188.0, 1857.586426447204, -5792.834555248565, -33057.80536625449, -21510.514200987127, -8740.023820403077, 18002.407908726684, 35115.90929221026, 21705.555523104136, -7971.906122196451, -6896.340179007075, -21194.169961711166, -29230.06912828316, 623.1666354139609, -10082.51429587773, -12645.968812223533, -7082.351396364141, 0.222, 0.922, -0.022, 192.0, 0.0, 0.0, 0.0, 0.0, 0.0, 0.0, 0.0, 0.0, 0.0, 1.6626773738958423E9, 0.0, 2022-09-08 18:49:33.895
190.0, 1871.109231842665, -5783.625636532979, -33032.950226420195, -21480.316994228007, -8749.791532730047, 17984.37005095125, 35223.93527316276, 21724.196877979863, -7958.785648201186, -6897.189545296377, -21204.742336838524, -29199.02255523474, 614.4271033319359, -10091.075014004115, -12653.903681505166, -7091.336797635174, 0.23099999999999998, 0.928, -0.073, 192.0, 3.5, 64.0, 14.5, 24.0, 126.0, 16.0, 0.0, 0.0, 0.0, 1.6626773738958468E9, 0.0, 2022-09-08 18:49:33.895
192.0, 1874.5737522332374, -5786.933694712365, -33042.516773047064, -21489.14593328785, -8778.893504010857, 17945.768588276933, 35289.3811809279, 21730.6788838719, -7965.781744215697, -6895.26729527322, -21215.046491032423, -29170.21115663185, 592.16476585445, -10090.292702948178, -12671.561559624859, -7103.898478019057, 0.23099999999999998, 0.928, -0.073, 192.0, 0.0, 0.0, 0.0, 0.0, 0.0, 0.0, 0.0, 0.0, 0.0, 1.662677373895851E9, 0.0, 2022-09-08 18:49:33.895
194.0, 1851.46204846645, -5826.362171931526, -33110.130800024366, -21534.74349197668, -8831.353048247463, 17910.296369826363, 35486.0765321346, 21714.853848797542, -7991.419195105934, -6925.777426454714, -21258.230061320075, -29195.938014499905, 542.1192100190175, -10116.556002683164, -12697.80250761539, -7142.5893476711935, 0.23099999999999998, 0.928, -0.073, 192.0, 0.0, 0.0, 0.0, 0.0, 0.0, 0.0, 0.0, 0.0, 0.0, 1.6626773738958552E9, 0.0, 2022-09-08 18:49:33.895
196.0, 1832.7089348684474, -5858.481628713802, -33180.672905525316, -21578.195283197794, -8851.42491476833, 17886.178837559084, 35603.8031701807, 21719.7265290888, -8001.00809347726, -6961.741383283304, -21294.64105303777, -29243.949561589907, 495.426415851881, -10155.448038035398, -12728.759673685989, -7180.3414440562065, 0.23099999999999998, 0.928, -0.073, 192.0, 0.0, 0.0, 0.0, 0.0, 0.0, 0.0, 0.0, 0.0, 0.0, 1.6626773738958604E9, 0.0, 2022-09-08 18:49:33.895
198.0, 1758.7246607213808, -5932.778827283243, -33273.075017103554, -21686.422429850394, -8926.012686015689, 17829.606572342705, 35758.41018657806, 21677.504083812724, -8009.2782389257245, -7009.216488506376, -21351.90622233227, -29346.99110352887, 447.10194433950716, -10201.582038591152, -12759.135694400751, -7229.068246968776, 0.23099999999999998, 0.928, -0.073, 192.0, 0.0, 0.0, 0.0, 0.0, 0.0, 0.0, 0.0, 0.0, 0.0, 1.6626773738958647E9, 0.0, 2022-09-08 18:49:33.895
200.0, 1721.5090062032946, -5971.8496765911195, -33311.184741399855, -21740.379540965503, -8960.590834688048, 17778.644594984602, 35733.97972988841, 21639.930801383354, -8056.082791815137, -7073.120125904099, -21423.364749355886, -29454.25712516989, 395.4023594143819, -10257.528454962785, -12820.178308508195, -7288.546238964348, 0.22849999999999998, 0.89, -0.1365, 192.0, 3.5, 8.0, 13.0, 80.0, 124.5, 96.0, 0.0, 0.0, 0.0, 1.6626773738958688E9, 0.0, 2022-09-08 18:49:33.895
202.0, 1686.528526130739, -6010.629953221078, -33358.92806755639, -21793.196713113393, -9010.390521334473, 17724.083986769198, 35813.50723666039, 21614.159240026383, -8076.400527525012, -7103.2055739409425, -21455.73007532717, -29468.919869532572, 361.3159491200387, -10280.170772096011, -12857.796294426476, -7327.97471618351, 0.22849999999999998, 0.89, -0.1365, 192.0, 0.0, 0.0, 0.0, 0.0, 0.0, 0.0, 0.0, 0.0, 0.0, 1.6626773738958733E9, 0.0, 2022-09-08 18:49:33.895
204.0, 1675.1514882029878, -6032.087627898172, -33381.79390213417, -21819.147088426005, -9048.142617719486, 17667.221148874898, 35813.82016108277, 21579.26816693165, -8104.1390423940475, -7139.3706964696285, -21491.559921689026, -29476.11713124718, 335.1197046184188, -10323.71197029495, -12917.520155611057, -7383.429394177127, 0.22849999999999998, 0.89, -0.1365, 192.0, 0.0, 0.0, 0.0, 0.0, 0.0, 0.0, 0.0, 0.0, 0.0, 1.6626773738958771E9, 0.0, 2022-09-08 18:49:33.895
206.0, 1648.5752640456278, -6068.453916126957, -33417.13201011801, -21874.735876886356, -9102.70322593489, 17608.68193014645, 35930.09393573927, 21535.816375710532, -8113.9961616988385, -7172.451278263483, -21514.470459755714, -29487.382410452654, 297.1887942777627, -10358.446581178498, -12971.164342303795, -7433.586708734836, 0.22849999999999998, 0.89, -0.1365, 192.0, 0.0, 0.0, 0.0, 0.0, 0.0, 0.0, 0.0, 0.0, 0.0, 1.6626773738958817E9, 0.0, 2022-09-08 18:49:33.895
208.0, 1635.1865691168987, -6097.354721707669, -33422.18350436491, -21901.803839421733, -9129.122987881063, 17553.60723180857, 35921.19794144606, 21481.34517447295, -8116.007818699815, -7212.080921182743, -21543.751244992167, -29517.065527089304, 259.3025874260172, -10402.792442177826, -13024.897935974353, -7481.307683146916, 0.22849999999999998, 0.89, -0.1365, 192.0, 0.0, 0.0, 0.0, 0.0, 0.0, 0.0, 0.0, 0.0, 0.0, 1.6626773738958857E9, 0.0, 2022-09-08 18:49:33.895
210.0, 1611.7395891832816, -6146.305042064791, -33439.46140282886, -21928.20124962345, -9161.108334196608, 17512.390615032986, 35968.851860624774, 21446.00706648911, -8114.376141354578, -7236.153749961109, -21562.37024812344, -29542.21123960152, 223.74096199762369, -10445.439570598552, -13054.49164563318, -7512.734235851078, 0.21825, 0.879, -0.20325000000000001, 192.0, 3.0, 64.0, 13.5, 16.0, 123.5, 72.0, 0.0, 0.0, 0.0, 1.66267737389589E9, 0.0, 2022-09-08 18:49:33.895
212.0, 1569.4500886738408, -6205.224240448981, -33466.70817931988, -21959.42663662751, -9203.39783470605, 17458.522910895696, 35963.755662888965, 21387.356089038385, -8138.381914899578, -7295.8552594012335, -21620.596542429514, -29602.24802520848, 174.27655151802918, -10507.644475417672, -13092.489611207202, -7556.700117194667, 0.21825, 0.879, -0.20325000000000001, 192.0, 0.0, 0.0, 0.0, 0.0, 0.0, 0.0, 0.0, 0.0, 0.0, 1.662677373895894E9, 0.0, 2022-09-08 18:49:33.895
214.0, 1547.344213407542, -6245.23386302398, -33481.01329577128, -21981.912491549552, -9226.375428006104, 17435.902945506925, 36009.88966344472, 21358.969373580145, -8144.953327769438, -7326.92418419411, -21660.42735104887, -29655.266363056468, 142.671184858225, -10556.974775430534, -13117.612971974966, -7581.488201795602, 0.21825, 0.879, -0.20325000000000001, 192.0, 0.0, 0.0, 0.0, 0.0, 0.0, 0.0, 0.0, 0.0, 0.0, 1.6626773738958983E9, 0.0, 2022-09-08 18:49:33.895
216.0, 1519.6727537718718, -6283.701215231564, -33495.452522689404, -22000.486791191914, -9257.44435279898, 17407.58328528205, 35970.59529669229, 21317.238666682086, -8151.144760983559, -7350.21470191654, -21688.367031618003, -29702.875578746272, 114.37387637780624, -10577.940711729612, -13130.666390736866, -7596.955608958675, 0.21825, 0.879, -0.20325000000000001, 192.0, 0.0, 0.0, 0.0, 0.0, 0.0, 0.0, 0.0, 0.0, 0.0, 1.6626773738959024E9, 0.0, 2022-09-08 18:49:33.895
218.0, 1497.0527883831012, -6314.68073304662, -33517.424287488975, -22022.436204247024, -9295.88935326211, 17374.16742732137, 35959.575886675826, 21281.83350346488, -8181.230209020402, -7393.152403015185, -21726.96849429232, -29746.97557055659, 73.58194274687085, -10615.893973814724, -13164.685745797844, -7630.952612275197, 0.21825, 0.879, -0.20325000000000001, 192.0, 0.0, 0.0, 0.0, 0.0, 0.0, 0.0, 0.0, 0.0, 0.0, 1.6626773738959067E9, 0.0, 2022-09-08 18:49:33.895
220.0, 1477.5620672180735, -6336.831311801829, -33537.138526098555, -22037.613038732175, -9320.856251818688, 17354.296726500597, 35934.20665671905, 21242.449729734628, -8170.657833893041, -7418.298115527406, -21748.068541058128, -29764.83461437638, 41.57424468687114, -10638.402180481218, -13185.361109419002, -7639.379219934848, 0.230125, 0.9125000000000001, -0.251625, 192.0, 3.5, 72.0, 14.5, 72.0, 123.0, 80.0, 0.0, 0.0, 0.0, 1.6626773738959107E9, 0.0, 2022-09-08 18:49:33.895
222.0, 1459.9712443317467, -6358.914835323672, -33567.73806425787, -22078.89671074113, -9345.532577697346, 17326.982894776214, 35910.80438027434, 21215.270008476975, -8189.723871913418, -7430.122188344263, -21778.39985828398, -29774.669381936717, 24.385753200740005, -10635.585860679848, -13212.071444043095, -7647.51525491658, 0.230125, 0.9125000000000001, -0.251625, 192.0, 0.0, 0.0, 0.0, 0.0, 0.0, 0.0, 0.0, 0.0, 0.0, 1.6626773738959155E9, 0.0, 2022-09-08 18:49:33.895
224.0, 1448.281281981621, -6379.344329755822, -33584.7253900439, -22108.378661677678, -9357.110781325197, 17297.09861243947, 35840.84342012923, 21184.648118573205, -8183.867714866128, -7467.874284729277, -21801.824486473142, -29805.604196262862, 3.7774448129468934, -10667.101820361831, -13232.076255330594, -7666.961272592697, 0.230125, 0.9125000000000001, -0.251625, 192.0, 0.0, 0.0, 0.0, 0.0, 0.0, 0.0, 0.0, 0.0, 0.0, 1.6626773738959205E9, 0.0, 2022-09-08 18:49:33.895
226.0, 1449.220055248744, -6400.198507332624, -33597.62234659462, -22124.71778687451, -9371.371194287682, 17287.196789645768, 35743.27805558182, 21176.981470225033, -8194.57420046022, -7493.087052474863, -21810.60872204408, -29829.654673296773, -8.29249719291892, -10699.26598063302, -13250.67290671741, -7678.718290176188, 0.230125, 0.9125000000000001, -0.251625, 192.0, 0.0, 0.0, 0.0, 0.0, 0.0, 0.0, 0.0, 0.0, 0.0, 1.6626773738959243E9, 0.0, 2022-09-08 18:49:33.895
228.0, 1454.2491977511881, -6406.591106246842, -33594.00136399286, -22128.070548542804, -9365.515037240391, 17296.361004872444, 35673.94294428146, 21178.456685359084, -8189.299188768768, -7509.359122438326, -21816.12960292454, -29842.886906014315, -14.461578662583669, -10707.647884803759, -13261.737020222787, -7686.608455968912, 0.230125, 0.9125000000000001, -0.251625, 192.0, 0.0, 0.0, 0.0, 0.0, 0.0, 0.0, 0.0, 0.0, 0.0, 1.6626773738959296E9, 0.0, 2022-09-08 18:49:33.895
230.0, 1475.86333463947, -6386.228667048057, -33565.726407256894, -22107.46224015501, -9344.102066052206, 17318.355121416465, 35601.38918177953, 21197.321557679363, -8183.3759764881115, -7501.424253156692, -21808.731175509834, -29843.37864439233, 3.1068924792876818, -10685.340843837363, -13253.265709074225, -7673.867961629387, 0.2420625, 0.94125, -0.2818125, 192.0, 3.5, 120.0, 15.0, 40.0, 123.0, 32.0, 0.0, 0.0, 0.0, 1.662677373895934E9, 0.0, 2022-09-08 18:49:33.895
232.0, 1475.930389872836, -6387.100385081814, -33551.801270461234, -22099.214446451002, -9343.252699762905, 17323.831298808014, 35585.13946356052, 21199.78024956945, -8174.211761261436, -7473.931607476665, -21792.615567757555, -29836.829583266925, 23.4246281891618, -10673.092087875853, -13230.422226240902, -7657.528836432557, 0.2420625, 0.94125, -0.2818125, 192.0, 0.0, 0.0, 0.0, 0.0, 0.0, 0.0, 0.0, 0.0, 0.0, 1.6626773738959382E9, 0.0, 2022-09-08 18:49:33.895
234.0, 1482.2112300647773, -6375.656291920697, -33546.79447970325, -22088.12798120117, -9332.99324905792, 17343.791406606604, 35522.55457908566, 21207.91628455118, -8145.847397547651, -7473.395165609738, -21782.244358330296, -29842.439871125207, 34.93577658364494, -10666.654785472725, -13224.499013960245, -7652.298528230015, 0.2420625, 0.94125, -0.2818125, 192.0, 0.0, 0.0, 0.0, 0.0, 0.0, 0.0, 0.0, 0.0, 0.0, 1.6626773738959424E9, 0.0, 2022-09-08 18:49:33.895
236.0, 1493.2753435701543, -6360.345346968812, -33545.095747124644, -22083.523521843377, -9318.978705284442, 17357.62713642444, 35544.03460550721, 21224.143651025734, -8124.65794380402, -7461.168761392684, -21770.889672146997, -29859.82952831144, 60.86380015180113, -10633.015410067488, -13194.480621156767, -7629.924432030253, 0.2420625, 0.94125, -0.2818125, 192.0, 0.0, 0.0, 0.0, 0.0, 0.0, 0.0, 0.0, 0.0, 0.0, 1.6626773738959465E9, 0.0, 2022-09-08 18:49:33.895
238.0, 1494.3035238150983, -6360.188884757625, -33553.9693896734, -22084.23877766595, -9306.528783622836, 17370.43468599733, 35531.69644256788, 21223.96483707009, -8112.856222731617, -7437.252394825506, -21766.173454066928, -29871.608897639384, 63.255436808518986, -10627.919212331679, -13173.961719746796, -7620.536699359024, 0.2420625, 0.94125, -0.2818125, 192.0, 0.0, 0.0, 0.0, 0.0, 0.0, 0.0, 0.0, 0.0, 0.0, 1.6626773738959508E9, 0.0, 2022-09-08 18:49:33.895
240.0, 1514.06246591359, -6340.385239170223, -33534.32220629718, -22064.479835567457, -9288.401518869581, 17399.1566776224, 35561.84894583809, 21247.657686192713, -8103.692007504941, -7428.021124365464, -21754.25997427225, -29858.91310678877, 71.70439621262506, -10620.76665410598, -13151.721734013765, -7606.186879418717, 0.24903125, 0.950625, -0.29190625000000003, 192.0, 4.0, 0.0, 15.0, 0.0, 123.0, 72.0, 0.0, 0.0, 0.0, 1.6626773743756933E9, 0.0, 2022-09-08 18:49:34.375
242.0, 1531.9662132222907, -6330.416361143156, -33520.17355205698, -22054.130977884648, -9269.69310876049, 17394.038128142136, 35498.66056426294, 21253.379732773272, -8117.79595825624, -7420.689752184124, -21734.813956596132, -29824.71493777215, 80.6897974836585, -10603.131127730743, -13132.186309359826, -7591.032396678019, 0.24903125, 0.950625, -0.29190625000000003, 192.0, 0.0, 0.0, 0.0, 0.0, 0.0, 0.0, 0.0, 0.0, 0.0, 1.6626773743758795E9, 0.0, 2022-09-08 18:49:34.375
244.0, 1560.956425780824, -6297.8051659828625, -33479.873356804055, -22017.340006511215, -9244.390934037083, 17425.35292212402, 35395.86489151298, 21265.002639890034, -8093.924295177972, -7391.833650092322, -21711.38932840697, -29792.66253622324, 100.15816690423095, -10594.14572645971, -13117.769434186153, -7577.129611626818, 0.24903125, 0.950625, -0.29190625000000003, 192.0, 0.0, 0.0, 0.0, 0.0, 0.0, 0.0, 0.0, 0.0, 0.0, 1.6626773743759077E9, 0.0, 2022-09-08 18:49:34.375
246.0, 1576.31207422162, -6274.537000004888, -33426.29622534469, -21975.564596124244, -9199.732148615378, 17451.191538714356, 35084.88507090629, 21275.127980128287, -8073.986539123838, -7342.570405312826, -21669.47980755327, -29756.02802706099, 129.4166003962279, -10561.37806908823, -13085.247646003681, -7537.522320452013, 0.24903125, 0.950625, -0.29190625000000003, 192.0, 0.0, 0.0, 0.0, 0.0, 0.0, 0.0, 0.0, 0.0, 0.0, 1.6626773743759189E9, 0.0, 2022-09-08 18:49:34.375
248.0, 1624.6588974784493, -6221.652772623632, -33369.902774083945, -21925.809612966732, -9135.984973428844, 17501.460611994342, 34902.15955998416, 21317.30572191545, -8037.441436939412, -7299.185669325075, -21625.625684931958, -29734.145669239246, 182.45728998867156, -10502.525925937405, -13049.708372319743, -7497.222125199095, 0.24903125, 0.950625, -0.29190625000000003, 192.0, 0.0, 0.0, 0.0, 0.0, 0.0, 0.0, 0.0, 0.0, 0.0, 1.6626773743759248E9, 0.0, 2022-09-08 18:49:34.375
250.0, 1683.8016133071917, -6158.799667215308, -33311.20709314431, -21865.70577212641, -9078.540990178704, 17571.354516906085, 34784.07529402677, 21369.407638240773, -7978.455183321856, -7239.886491285145, -21562.482006845716, -29703.479075846564, 249.28900591003966, -10456.973070737491, -12995.28187457107, -7446.684830985646, 0.24951562500000002, 0.9503125000000001, -0.279953125, 192.0, 3.5, 104.0, 14.5, 88.0, 123.5, 80.0, 0.0, 0.0, 0.0, 1.6626773743759308E9, 0.0, 2022-09-08 18:49:34.375
252.0, 1716.0998840451105, -6127.104893577683, -33288.184796355345, -21842.52701312626, -9053.752905577769, 17601.015281798278, 34775.73809334494, 21403.22582760165, -7948.012107373728, -7190.511487783371, -21514.64927371136, -29663.424749782655, 300.5862594349694, -10419.802119708314, -12953.327650228459, -7397.063958294864, 0.24951562500000002, 0.9503125000000001, -0.279953125, 192.0, 0.0, 0.0, 0.0, 0.0, 0.0, 0.0, 0.0, 0.0, 0.0, 1.6626773743759365E9, 0.0, 2022-09-08 18:49:34.375
254.0, 1763.5526375237273, -6084.658930857055, -33247.996359824705, -21802.22681787334, -9004.422605564905, 17647.68572422096, 34717.422392061046, 21441.134386197853, -7916.496147691745, -7166.885693894112, -21479.981718061175, -29641.497688471998, 329.4200097823155, -10390.43192749404, -12923.84569929191, -7370.353623670772, 0.24951562500000002, 0.9503125000000001, -0.279953125, 192.0, 0.0, 0.0, 0.0, 0.0, 0.0, 0.0, 0.0, 0.0, 0.0, 1.6626773743759425E9, 0.0, 2022-09-08 18:49:34.375
0.0, 1799.0919112076654, -6051.958328718941, -33227.298644459086, -21771.64963145848, -8987.614093734515, 17675.088962923164, 34701.95498489797, 21466.637726621357, -7883.0802897310605, -7113.532079879294, -21446.699970567224, -29599.208187962555, 365.27220788862803, -10344.38733391611, -12887.434707574213, -7332.087437163286, 0.24951562500000002, 0.9503125000000001, -0.279953125, 192.0, 0.0, 0.0, 0.0, 0.0, 0.0, 0.0, 0.0, 0.0, 0.0, 1.6626773743759484E9, 0.0, 2022-09-08 18:49:34.375
2.0, 1844.912987341045, -6009.557069487223, -33178.23656537969, -21715.613808109025, -8936.29448846513, 17730.56599266124, 34616.01252746732, 21506.78145966309, -7868.238731412737, -7078.126916662088, -21409.506667793594, -29550.79430947236, 392.6307431019239, -10299.929714194503, -12853.035372857497, -7290.781413409879, 0.24951562500000002, 0.9503125000000001, -0.279953125, 192.0, 0.0, 0.0, 0.0, 0.0, 0.0, 0.0, 0.0, 0.0, 0.0, 1.662677374375954E9, 0.0, 2022-09-08 18:49:34.375
4.0, 1888.7894617068127, -5961.5231706527675, -33128.07925082198, -21666.238804607252, -8881.823287227546, 17774.42011528255, 34587.581108520164, 21559.30805913306, -7825.077512869539, -7029.91420387199, -21365.85371087238, -29514.3162625213, 449.91826414087586, -10246.419637968498, -12807.10253800184, -7238.3889244066395, 0.24951562500000002, 0.9503125000000001, -0.279953125, 192.0, 0.0, 0.0, 0.0, 0.0, 0.0, 0.0, 0.0, 0.0, 0.0, 1.6626773743759785E9, 0.0, 2022-09-08 18:49:34.375
6.0, 1926.005116224899, -5927.190891169416, -33078.92776476476, -21632.062987335084, -8826.480367956206, 17812.14985992311, 34545.51512545528, 21599.429440430336, -7783.033881549107, -6994.062005765678, -21324.8829632858, -29505.777896139374, 481.81420347859904, -10210.299218928722, -12753.52540654247, -7204.57073504576, 0.242, 0.934, -0.266, 192.0, 3.5, 72.0, 14.5, 24.0, 123.5, 88.0, 0.0, 0.0, 0.0, 1.6626773743759844E9, 0.0, 2022-09-08 18:49:34.375
8.0, 1961.678500375569, -5890.8469546850865, -33051.546877807006, -21606.38083295594, -8795.344387929963, 17837.452034646518, 34547.057395822696, 21626.676216921358, -7735.6258315594005, -6947.838598232102, -21276.2232156066, -29457.632238582642, 539.5934628955678, -10143.19928207389, -12700.708234394579, -7165.0752025932325, 0.242, 0.934, -0.266, 192.0, 0.0, 0.0, 0.0, 0.0, 0.0, 0.0, 0.0, 0.0, 0.0, 1.6626773743759902E9, 0.0, 2022-09-08 18:49:34.375
10.0, 1996.547221725848, -5849.429172209403, -33012.02899361002, -21569.858082515966, -8767.807038761024, 17863.871796592688, 34511.518122138754, 21648.89385090993, -7712.894107448353, -6935.567490526139, -21256.26310780801, -29419.142534630602, 558.8159631271319, -10143.042819862703, -12684.74908885349, -7156.89446412259, 0.242, 0.934, -0.266, 192.0, 0.0, 0.0, 0.0, 0.0, 0.0, 0.0, 0.0, 0.0, 0.0, 1.662677374375996E9, 0.0, 2022-09-08 18:49:34.375
12.0, 2029.6278035197024, -5826.473930653802, -32979.35074321637, -21544.69001825929, -8737.609832001905, 17892.54908472885, 34525.5997211456, 21679.448685580337, -7672.973891851175, -6892.920362105413, -21215.29236022143, -29372.114464296636, 607.5651177841565, -10106.184793255901, -12638.928012720111, -7124.149158495565, 0.242, 0.934, -0.266, 192.0, 0.0, 0.0, 0.0, 0.0, 0.0, 0.0, 0.0, 0.0, 0.0, 1.6626773743760016E9, 0.0, 2022-09-08 18:49:34.376
14.0, 2049.2079316625513, -5804.278648409682, -32948.9747225016, -21521.39950053686, -8715.839232902435, 17925.942590945077, 34550.812488891184, 21705.309653915127, -7653.796095108521, -6883.756146878737, -21197.29920593491, -29354.635400132585, 621.2890888797151, -10086.04587150167, -12615.34692231976, -7108.5476408657605, 0.242, 0.934, -0.266, 192.0, 0.0, 0.0, 0.0, 0.0, 0.0, 0.0, 0.0, 0.0, 0.0, 1.6626773743760197E9, 0.0, 2022-09-08 18:49:34.376
16.0, 2065.3011876703727, -5782.262180121205, -32926.555922812935, -21496.320843258007, -8710.966552611178, 17950.6859720571, 34584.451864296425, 21718.58659012158, -7648.901063072809, -6861.158533234422, -21174.835702757326, -29312.41295485651, 640.064554222173, -10062.777705523695, -12596.839677910768, -7084.094832431654, 0.26, 0.918, -0.272, 192.0, 4.0, 16.0, 14.0, 88.0, 123.5, 64.0, 0.0, 0.0, 0.0, 1.6626773743760257E9, 0.0, 2022-09-08 18:49:34.376
18.0, 2073.325463929828, -5776.227209118272, -32910.37325982729, -21473.991450547153, -8701.288247262031, 17956.45272212657, 34616.28074840078, 21720.307674444637, -7634.148911732306, -6833.643535809939, -21158.630688027228, -29265.451939755912, 660.9857870323405, -10049.366658850511, -12582.042823081354, -7061.25134959833, 0.26, 0.918, -0.272, 192.0, 0.0, 0.0, 0.0, 0.0, 0.0, 0.0, 0.0, 0.0, 0.0, 1.6626773743760312E9, 0.0, 2022-09-08 18:49:34.376
20.0, 2073.638388352202, -5783.268008621694, -32913.480152306576, -21476.62895639288, -8714.252259046109, 17945.50036734347, 34626.89782701705, 21713.088060985574, -7626.929298273242, -6835.342268388542, -21149.891155945203, -29262.03212285425, 652.3803654170472, -10039.55424303463, -12575.87374161169, -7059.4185065529955, 0.26, 0.918, -0.272, 192.0, 0.0, 0.0, 0.0, 0.0, 0.0, 0.0, 0.0, 0.0, 0.0, 1.662677374376037E9, 0.0, 2022-09-08 18:49:34.376
22.0, 2102.4944904440035, -5756.624729230968, -32881.20423331311, -21444.665961821793, -8696.974360582157, 17961.03482973991, 34668.963810081936, 21727.035549525684, -7624.470606383158, -6842.718344058793, -21140.70458897407, -29251.79502389372, 652.6038828616003, -10052.071219929603, -12575.9184451006, -7056.959814662911, 0.26, 0.918, -0.272, 192.0, 0.0, 0.0, 0.0, 0.0, 0.0, 0.0, 0.0, 0.0, 0.0, 1.6626773743760426E9, 0.0, 2022-09-08 18:49:34.376
24.0, 2126.2767465444504, -5732.060162074586, -32835.42786066864, -21409.350205582406, -8658.395249652296, 17976.435181669614, 34706.76060995586, 21747.7332648913, -7593.446385079192, -6800.786471460638, -21088.647376137662, -29185.34328762809, 693.5299269592675, -10017.671885212885, -12527.884546266145, -7007.33894197213, 0.26, 0.918, -0.272, 192.0, 0.0, 0.0, 0.0, 0.0, 0.0, 0.0, 0.0, 0.0, 0.0, 1.662677374376048E9, 0.0, 2022-09-08 18:49:34.376
26.0, 2124.175682565651, -5737.13400806594, -32824.38609890772, -21405.840981702924, -8645.788865779503, 17974.200007224084, 34775.089892755735, 21751.35424749306, -7602.45413809468, -6807.670808752872, -21091.687213383582, -29182.951650971372, 686.4667757113905, -10025.874975427983, -12511.992455958421, -7004.5896774041275, 0.264, 0.9460000000000001, -0.276, 192.0, 4.0, 32.0, 14.5, 72.0, 123.5, 48.0, 0.0, 0.0, 0.0, 1.662677374376054E9, 0.0, 2022-09-08 18:49:34.376
28.0, 2126.2543947999948, -5732.2389760302285, -32823.0449942404, -21403.0023101571, -8662.28445318752, 17973.46239965706, 34790.5125964299, 21753.29884926067, -7599.257838637572, -6791.264628322677, -21083.50647491294, -29184.78449401671, 694.2451827818373, -10025.070312627591, -12506.80685124479, -7005.81902334917, 0.264, 0.9460000000000001, -0.276, 192.0, 0.0, 0.0, 0.0, 0.0, 0.0, 0.0, 0.0, 0.0, 0.0, 1.66267737437606E9, 0.0, 2022-09-08 18:49:34.376
30.0, 2116.9784208510423, -5743.593662213524, -32833.61736936776, -21414.08877540693, -8688.234828500132, 17963.69468733009, 34875.56098408234, 21747.085064302097, -7598.989617704108, -6803.401625561908, -21095.151733774153, -29186.326764384125, 683.5834006766559, -10037.341420333556, -12517.669799050069, -7021.57700319016, 0.264, 0.9460000000000001, -0.276, 192.0, 0.0, 0.0, 0.0, 0.0, 0.0, 0.0, 0.0, 0.0, 0.0, 1.662677374376066E9, 0.0, 2022-09-08 18:49:34.376
32.0, 2130.27770880195, -5726.6063364274905, -32798.905110228676, -21395.24625483111, -8677.036604528023, 17982.73837360601, 34902.56189138435, 21765.324087777626, -7593.8710682238425, -6806.173241874367, -21092.246006994967, -29160.756368727252, 685.5056506998123, -10044.091647159059, -12523.995342730921, -7026.293221270231, 0.264, 0.9460000000000001, -0.276, 192.0, 0.0, 0.0, 0.0, 0.0, 0.0, 0.0, 0.0, 0.0, 0.0, 1.662677374376072E9, 0.0, 2022-09-08 18:49:34.376
34.0, 2126.544967477914, -5734.697667920312, -32800.67089804064, -21403.42699330175, -8685.798488354503, 17968.097980987786, 34991.47713082757, 21769.30269829067, -7592.306446111971, -6804.899192440414, -21095.88934134118, -29151.122766867014, 689.2830955127592, -10019.191803835845, -12516.351046127207, -7020.884099112046, 0.264, 0.9460000000000001, -0.276, 192.0, 0.0, 0.0, 0.0, 0.0, 0.0, 0.0, 0.0, 0.0, 0.0, 1.662677374376078E9, 0.0, 2022-09-08 18:49:34.376
36.0, 2108.6635719136684, -5739.6374034449345, -32803.88954924221, -21415.18401088524, -8691.609941912882, 17947.869652255733, 34967.51606077147, 21750.63899167049, -7611.931277743731, -6812.431730321852, -21111.60261769326, -29173.698028766878, 677.0343395512509, -10040.783588979673, -12534.657124836103, -7036.217395808387, 0.25, 0.9520000000000001, -0.29, 192.0, 3.5, 104.0, 14.5, 96.0, 123.0, 120.0, 0.0, 0.0, 0.0, 1.6626773743760853E9, 0.0, 2022-09-08 18:49:34.376
38.0, 2103.992057322509, -5735.681144676345, -32816.67474707064, -21432.774833771568, -8691.989921568624, 17948.674315056123, 35048.60818965533, 21754.77406439472, -7600.375425860337, -6819.606640292006, -21119.51513523044, -29202.151799458483, 683.4269384654688, -10060.31901363361, -12536.065284736787, -7043.1017331006215, 0.25, 0.9520000000000001, -0.29, 192.0, 0.0, 0.0, 0.0, 0.0, 0.0, 0.0, 0.0, 0.0, 0.0, 1.6626773743760912E9, 0.0, 2022-09-08 18:49:34.376
40.0, 2103.2320980110285, -5743.995993613719, -32832.99152052301, -21451.751464814122, -8678.064784772967, 17950.395399379184, 35081.711123193636, 21749.297887003173, -7587.322007098438, -6831.251899153221, -21123.47139399903, -29231.901971328494, 694.4463484819352, -10065.459914858331, -12525.179985187053, -7047.594433736138, 0.25, 0.9520000000000001, -0.29, 192.0, 0.0, 0.0, 0.0, 0.0, 0.0, 0.0, 0.0, 0.0, 0.0, 1.6626773743760972E9, 0.0, 2022-09-08 18:49:34.376
42.0, 2064.6529870811687, -5780.04935742013, -32884.28877404795, -21495.627939179893, -8706.116224064377, 17919.751157730956, 35152.029711250034, 21726.38734893648, -7613.987638233619, -6858.49867564424, -21156.842548470802, -29261.249811798312, 673.4580604384018, -10091.343234937578, -12540.848558050224, -7065.185256622464, 0.25, 0.9520000000000001, -0.29, 192.0, 0.0, 0.0, 0.0, 0.0, 0.0, 0.0, 0.0, 0.0, 0.0, 1.6626773743761032E9, 0.0, 2022-09-08 18:49:34.376
44.0, 2061.4566876240597, -5781.122241153985, -32879.59490771233, -21495.247959524153, -8703.612828685384, 17923.79682347737, 35130.54968482848, 21724.465098913326, -7630.974964019652, -6876.156553763933, -21178.322574892354, -29271.3080968032, 666.6854818684437, -10111.19158401389, -12559.601671648226, -7085.502992332339, 0.25, 0.9520000000000001, -0.29, 192.0, 0.0, 0.0, 0.0, 0.0, 0.0, 0.0, 0.0, 0.0, 0.0, 1.662677374376109E9, 0.0, 2022-09-08 18:49:34.376
46.0, 2044.4693618380263, -5792.789851759655, -32898.6162422438, -21513.911666144333, -8720.890727149335, 17911.995102404966, 35188.64186866783, 21727.482584414793, -7626.839891295421, -6867.55113214864, -21180.401287126697, -29274.16912009348, 667.4007376910135, -10090.002130270259, -12559.713430370502, -7081.144402163554, 0.216, 0.936, -0.28, 192.0, 3.0, 96.0, 14.5, 32.0, 123.5, 32.0, 0.0, 0.0, 0.0, 1.6626773743761148E9, 0.0, 2022-09-08 18:49:34.376
48.0, 2041.0271931919092, -5787.604247046023, -32901.298451578434, -21517.39853827936, -8717.426206758762, 17923.573306032813, 35177.46599644017, 21731.371787950015, -7640.340344946426, -6890.439318470874, -21193.00767099949, -29312.681175789974, 640.7798100447428, -10110.364569469044, -12573.63856716616, -7091.090928446166, 0.216, 0.936, -0.28, 192.0, 0.0, 0.0, 0.0, 0.0, 0.0, 0.0, 0.0, 0.0, 0.0, 1.6626773743761206E9, 0.0, 2022-09-08 18:49:34.376
50.0, 2056.718117799535, -5772.181543371862, -32895.308184064415, -21517.9796836352, -8711.234773544642, 17933.385721848696, 35223.04120338454, 21744.69342764538, -7625.968173261664, -6877.765879364715, -21182.837627272325, -29337.916295280018, 651.3745369165584, -10104.53076416621, -12562.842674594245, -7078.082213173177, 0.216, 0.936, -0.28, 192.0, 0.0, 0.0, 0.0, 0.0, 0.0, 0.0, 0.0, 0.0, 0.0, 1.6626773743761265E9, 0.0, 2022-09-08 18:49:34.376
52.0, 2058.9085887561546, -5771.5109910382025, -32877.94087862264, -21507.228494552197, -8707.054997331501, 17924.199154877562, 35224.76228770761, 21739.7313403763, -7610.701931798689, -6882.951484078346, -21165.693839275104, -29341.984312770885, 660.516400398779, -10106.520069422731, -12542.793159817835, -7067.3980793235405, 0.216, 0.936, -0.28, 192.0, 0.0, 0.0, 0.0, 0.0, 0.0, 0.0, 0.0, 0.0, 0.0, 1.6626773743761437E9, 0.0, 2022-09-08 18:49:34.376
54.0, 2037.8085419903448, -5794.086252938063, -32879.304335034416, -21513.732852188692, -8725.785759185048, 17915.9290094291, 35278.25001218916, 21728.7789855932, -7610.523117843047, -6879.9787020657905, -21164.464493330062, -29318.60438807063, 660.516400398779, -10113.583220670607, -12551.353877944217, -7068.605073524127, 0.216, 0.936, -0.28, 192.0, 0.0, 0.0, 0.0, 0.0, 0.0, 0.0, 0.0, 0.0, 0.0, 1.6626773743761497E9, 0.0, 2022-09-08 18:49:34.376
56.0, 2007.6560387201357, -5827.457407409836, -32891.173111340184, -21525.31105581654, -8741.25316634812, 17894.0242998629, 35252.50080257664, 21682.689688526356, -7614.5911353339125, -6914.333333293597, -21195.712232078582, -29344.91239129453, 637.583510587634, -10149.480122265832, -12584.188590549064, -7094.264876158819, 0.214, 0.974, -0.252, 192.0, 3.0, 88.0, 15.0, 56.0, 124.0, 16.0, 0.0, 0.0, 0.0, 1.6626773743761554E9, 0.0, 2022-09-08 18:49:34.376
58.0, 1980.163393040108, -5851.977271077308, -32913.547207539945, -21555.240041642195, -8769.103439939432, 17854.975802299476, 35174.828490594446, 21487.447200709248, -7604.421091606748, -6940.149598139477, -21219.449784690118, -29378.127083555115, 630.1627314284721, -10138.237194804811, -12616.509213031437, -7124.819710829224, 0.214, 0.974, -0.252, 192.0, 0.0, 0.0, 0.0, 0.0, 0.0, 0.0, 0.0, 0.0, 0.0, 1.662677374376161E9, 0.0, 2022-09-08 18:49:34.376
60.0, 1952.6260438711697, -5877.949998134375, -32905.07589639138, -21556.22351839823, -8775.16076268682, 17880.233273533973, 35357.97868466123, 21757.54568070718, -7617.0498272239965, -6965.943511240901, -21245.802491402923, -29420.930674187028, 623.3901528585139, -10169.39552657551, -12627.662733514635, -7137.4260947020175, 0.214, 0.974, -0.252, 192.0, 0.0, 0.0, 0.0, 0.0, 0.0, 0.0, 0.0, 0.0, 0.0, 1.662677374376167E9, 0.0, 2022-09-08 18:49:34.376
62.0, 1951.6649188595916, -5863.421364238426, -32897.968041654596, -21549.74151250619, -8768.008204461123, 17898.15937258713, 35462.24957254524, 21795.186018369917, -7626.750484317599, -6962.881322250524, -21239.63340993326, -29396.187293075003, 625.8264930041424, -10163.114686383567, -12585.864971383211, -7087.0229109553, 0.214, 0.974, -0.252, 192.0, 0.0, 0.0, 0.0, 0.0, 0.0, 0.0, 0.0, 0.0, 0.0, 1.6626773743761728E9, 0.0, 2022-09-08 18:49:34.376
64.0, 1912.7728835073572, -5894.534992520213, -32918.8222192314, -21566.41591386985, -8794.69618734076, 17882.960186357523, 35515.80435226016, 21742.25708749975, -7664.904912102808, -6984.540162627717, -21252.709180439615, -29357.18349900049, 607.0063241727739, -10185.77935526125, -12603.96988439201, -7099.942219250467, 0.214, 0.974, -0.252, 192.0, 0.0, 0.0, 0.0, 0.0, 0.0, 0.0, 0.0, 0.0, 0.0, 1.6626773743761787E9, 0.0, 2022-09-08 18:49:34.376
66.0, 1901.0829211572316, -5907.4543008153805, -32923.113754166814, -21566.12534119193, -8802.273428711109, 17902.96499764502, 35507.71302076733, 21740.91598283243, -7702.746415465644, -7013.753892630803, -21274.16685511671, -29346.34290293967, 586.3533122960702, -10211.93089627396, -12623.840585212778, -7107.40770189854, 0.212, 0.97, -0.219, 192.0, 3.0, 72.0, 15.0, 24.0, 125.0, 24.0, 0.0, 0.0, 0.0, 1.6626773743761847E9, 0.0, 2022-09-08 18:49:34.376
68.0, 1886.6660459835584, -5922.6981905339, -32944.19144918817, -21587.627719357937, -8803.279257211598, 17884.994195102954, 35500.202834630356, 21705.175543448397, -7680.551133221524, -7014.2232792643645, -21271.55170101544, -29349.114519252125, 582.8664401610423, -10211.148585218023, -12626.947477692065, -7107.050073987255, 0.212, 0.97, -0.219, 192.0, 0.0, 0.0, 0.0, 0.0, 0.0, 0.0, 0.0, 0.0, 0.0, 1.6626773743761926E9, 0.0, 2022-09-08 18:49:34.376
70.0, 1892.6339617531255, -5912.483443317824, -32958.697731339664, -21591.74044033771, -8795.232629207687, 17896.773564430903, 35442.60238916903, 21694.200836920838, -7716.872717961397, -7025.287392769742, -21281.252358109043, -29354.210716987935, 579.647788959478, -10202.654922325006, -12641.185538910097, -7126.406684685551, 0.212, 0.97, -0.219, 192.0, 0.0, 0.0, 0.0, 0.0, 0.0, 0.0, 0.0, 0.0, 0.0, 1.6626773743761983E9, 0.0, 2022-09-08 18:49:34.376
72.0, 1892.7010169864914, -5906.716693248355, -32980.803606605965, -21583.76086756717, -8799.077129254, 17900.886285410677, 35414.752115577714, 21681.661508281413, -7734.620003058912, -7027.902546871012, -21289.567207046417, -29331.5236963658, 586.554477996168, -10207.728768316361, -12642.750161021968, -7137.6049086576595, 0.212, 0.97, -0.219, 192.0, 0.0, 0.0, 0.0, 0.0, 0.0, 0.0, 0.0, 0.0, 0.0, 1.6626773743762045E9, 0.0, 2022-09-08 18:49:34.376
74.0, 1893.9974181648993, -5895.429062298425, -32984.26812699653, -21579.64814658739, -8778.35706214393, 17905.26722732392, 35308.20134975926, 21672.832569221566, -7770.807477332053, -7024.505081713806, -21295.825695493902, -29303.025222185282, 590.3766262980255, -10198.653960067506, -12655.602414083769, -7148.5796151852155, 0.212, 0.97, -0.219, 192.0, 0.0, 0.0, 0.0, 0.0, 0.0, 0.0, 0.0, 0.0, 0.0, 1.66267737437621E9, 0.0, 2022-09-08 18:49:34.376
76.0, 1877.9265139015336, -5906.202603125883, -32979.01546704954, -21580.27399543214, -8782.581541845982, 17893.443154507062, 35246.33172110697, 21663.84716795053, -7782.810364104554, -7012.770415874769, -21294.30577687094, -29276.31488756119, 610.4708445633465, -10199.190401934435, -12640.470283087527, -7151.306528008763, 0.211, 0.9359999999999999, -0.1895, 192.0, 3.0, 72.0, 14.0, 24.0, 125.5, 0.0, 0.0, 0.0, 0.0, 1.6626773743762157E9, 0.0, 2022-09-08 18:49:34.376
78.0, 1856.1112113131537, -5927.727333036343, -32968.420740177724, -21581.63745184391, -8792.237495450676, 17882.11082006822, 35070.13291956579, 21637.47210949327, -7819.601335477989, -7025.734427658847, -21307.64976831076, -29281.522844019277, 596.3221903231371, -10222.793844079239, -12670.46632414655, -7176.675757965536, 0.211, 0.9359999999999999, -0.1895, 192.0, 0.0, 0.0, 0.0, 0.0, 0.0, 0.0, 0.0, 0.0, 0.0, 1.6626773743762217E9, 0.0, 2022-09-08 18:49:34.376
80.0, 1874.3055312997737, -5926.296821391204, -32938.75997528553, -21553.45190208577, -8766.912968982813, 17910.922218671112, 34983.58696503484, 21658.52745277017, -7809.252477795181, -7017.5089856992945, -21287.73436400108, -29280.94169866344, 609.6214782740449, -10222.16799523449, -12661.302108919872, -7165.65634794907, 0.211, 0.9359999999999999, -0.1895, 192.0, 0.0, 0.0, 0.0, 0.0, 0.0, 0.0, 0.0, 0.0, 0.0, 1.6626773743762271E9, 0.0, 2022-09-08 18:49:34.376
82.0, 1905.1732903925529, -5897.507774532768, -32908.24984410404, -21515.6774539563, -8753.904253709825, 17919.035901908388, 34757.36495940268, 21663.42248480588, -7803.373969003435, -6995.29135171072, -21258.16300608671, -29257.226497796357, 635.84007452012, -10199.816250779182, -12654.820103027834, -7145.875054106124, 0.211, 0.9359999999999999, -0.1895, 192.0, 0.0, 0.0, 0.0, 0.0, 0.0, 0.0, 0.0, 0.0, 0.0, 1.662677374376233E9, 0.0, 2022-09-08 18:49:34.376
84.0, 1935.392848896128, -5860.82856188161, -32852.39283471023, -21465.609546376414, -8728.758541197603, 17941.365294619238, 34618.13594319057, 21684.23195889377, -7799.864745123952, -6961.204941416377, -21222.556677169407, -29199.693107568397, 650.2122462048825, -10171.92127369896, -12646.706419790557, -7114.895536291067, 0.211, 0.9359999999999999, -0.1895, 192.0, 0.0, 0.0, 0.0, 0.0, 0.0, 0.0, 0.0, 0.0, 0.0, 1.6626773743762388E9, 0.0, 2022-09-08 18:49:34.376
86.0, 1964.0924887767421, -5831.570128389612, -32766.29391506838, -21385.880873904334, -8677.751860350592, 17969.12616123273, 34677.971563097424, 21719.458308155336, -7786.20782926176, -6938.2049963718655, -21186.23509242953, -29166.277249607712, 677.2355052513487, -10140.226500061333, -12585.686157427568, -7071.354338092129, 0.20750000000000002, 0.937, -0.15675, 192.0, 3.0, 48.0, 14.5, 40.0, 126.0, 16.0, 0.0, 0.0, 0.0, 1.6626773743762445E9, 0.0, 2022-09-08 18:49:34.376
88.0, 1968.4063754566164, -5827.792683576666, -32750.602990460753, -21367.66420217326, -8669.057031757478, 17970.80254206688, 34607.27299538529, 21631.057158834596, -7774.696680867277, -6895.870792373514, -21156.104940903777, -29137.443499260367, 707.030380610273, -10125.72021790984, -12540.66974409458, -7031.836453895146, 0.20750000000000002, 0.937, -0.15675, 192.0, 0.0, 0.0, 0.0, 0.0, 0.0, 0.0, 0.0, 0.0, 0.0, 1.6626773743762505E9, 0.0, 2022-09-08 18:49:34.376
90.0, 2000.7940531723564, -5796.723758783789, -32716.71774586651, -21324.30181792996, -8616.865708454336, 18016.556562966893, 34516.50256115229, 21793.397878813492, -7752.300232923059, -6883.778498623193, -21137.731806961514, -29121.819629886108, 721.3354970616696, -10108.822299101628, -12535.774712058868, -7025.577965447661, 0.20750000000000002, 0.937, -0.15675, 192.0, 0.0, 0.0, 0.0, 0.0, 0.0, 0.0, 0.0, 0.0, 0.0, 1.662677374376256E9, 0.0, 2022-09-08 18:49:34.376
92.0, 2025.5821377732918, -5770.706328237811, -32698.121094479695, -21301.950073474654, -8609.735501973093, 18052.85579596231, 34607.85414074113, 21849.009019018296, -7736.989287971174, -6852.7989808081375, -21116.09531832878, -29093.7681905947, 754.1031544331497, -10076.255807430245, -12488.478420791438, -6962.23312166132, 0.20750000000000002, 0.937, -0.15675, 192.0, 0.0, 0.0, 0.0, 0.0, 0.0, 0.0, 0.0, 0.0, 0.0, 1.6626773743762617E9, 0.0, 2022-09-08 18:49:34.376
94.0, 2071.8278970513225, -5732.7530661527, -32658.491451560436, -21257.87243340879, -8576.520809712507, 18080.19197943115, 34539.48015445234, 21851.579469630655, -7709.317828335504, -6823.473492082774, -21092.22365525051, -29064.46505361379, 771.1351837080937, -10043.443446569854, -12464.070315846244, -6946.966880198345, 0.20750000000000002, 0.937, -0.15675, 192.0, 0.0, 0.0, 0.0, 0.0, 0.0, 0.0, 0.0, 0.0, 0.0, 1.6626773743762674E9, 0.0, 2022-09-08 18:49:34.376
96.0, 2091.7880048499114, -5710.55778390858, -32652.836460213242, -21238.44876747713, -8566.395469474253, 18101.672005852703, 34575.421759536475, 21861.146016257528, -7673.555037207012, -6788.358901543486, -21072.844692807757, -29031.31741658657, 793.9563147969621, -10017.738940446252, -12442.679696402514, -6917.9543158953575, 0.21075, 0.9405000000000001, -0.141375, 192.0, 3.0, 88.0, 14.5, 64.0, 126.0, 8.0, 0.0, 0.0, 0.0, 1.6626773743762732E9, 0.0, 2022-09-08 18:49:34.376
98.0, 2134.3904297817267, -5666.457792098259, -32611.82100913775, -21194.974624511557, -8529.44803588963, 18133.053855067952, 34537.11086954008, 21874.534711186257, -7646.263557227083, -6763.794334387105, -21055.566794343806, -29014.687718711823, 812.3070969947693, -9974.376556202955, -12422.540774648283, -6894.797908639659, 0.21075, 0.9405000000000001, -0.141375, 192.0, 0.0, 0.0, 0.0, 0.0, 0.0, 0.0, 0.0, 0.0, 0.0, 1.662677374376279E9, 0.0, 2022-09-08 18:49:34.376
100.0, 2154.372889324771, -5649.716335501234, -32602.50033169989, -21171.7958655114, -8518.629791573261, 18151.829320410412, 34533.53459042723, 21885.978804347375, -7630.282059941538, -6721.28131643311, -21023.02265441688, -28977.941450827297, 840.7832194308305, -9961.054916507592, -12402.357149405141, -6863.9525012913355, 0.21075, 0.9405000000000001, -0.141375, 192.0, 0.0, 0.0, 0.0, 0.0, 0.0, 0.0, 0.0, 0.0, 0.0, 1.6626773743762865E9, 0.0, 2022-09-08 18:49:34.376
102.0, 2174.601218056824, -5638.965146418232, -32580.26034596686, -21143.163280864155, -8494.601666283806, 18143.715637173133, 34453.42593829941, 21884.86121712461, -7593.647550779289, -6717.369761153432, -21006.48236351995, -28957.668418606332, 853.0096236478835, -9945.743971555707, -12395.964550490922, -6846.3393266605535, 0.21075, 0.9405000000000001, -0.141375, 192.0, 0.0, 0.0, 0.0, 0.0, 0.0, 0.0, 0.0, 0.0, 0.0, 1.6626773743762925E9, 0.0, 2022-09-08 18:49:34.376
104.0, 2198.8752125352876, -5610.421968748805, -32565.239973692893, -21121.258571297953, -8470.238264827522, 18176.79621896699, 34366.99174249074, 21898.24991205334, -7566.937216155197, -6691.017054440625, -20975.1005143047, -28931.96391248273, 891.2981618998244, -9914.786805485106, -12374.26100662482, -6815.628029778962, 0.21075, 0.9405000000000001, -0.141375, 192.0, 0.0, 0.0, 0.0, 0.0, 0.0, 0.0, 0.0, 0.0, 0.0, 1.662677374856648E9, 0.0, 2022-09-08 18:49:34.856
106.0, 2214.8343580763767, -5591.378282472883, -32543.916409482532, -21110.686196170594, -8411.587287376797, 18177.60088176738, 34378.59229786305, 21835.12858571155, -7541.791503642978, -6679.528257790596, -20976.061639316278, -28958.517784895634, 912.442912154545, -9903.208601857257, -12361.475808796384, -6817.639686779939, 0.207375, 0.95325, -0.1286875, 192.0, 3.0, 48.0, 15.0, 24.0, 126.0, 48.0, 0.0, 0.0, 0.0, 1.6626773748567233E9, 0.0, 2022-09-08 18:49:34.856
108.0, 2267.696233713178, -5541.109209192898, -32493.133246080073, -21048.660105307117, -8359.820647218305, 18250.333458224948, 34237.46338337223, 21966.176863453016, -7480.279502901973, -6622.732475129661, -20921.03164446731, -28941.530459109603, 984.437881045089, -9839.148502248348, -12306.155241269498, -6759.10046805149, 0.207375, 0.95325, -0.1286875, 192.0, 0.0, 0.0, 0.0, 0.0, 0.0, 0.0, 0.0, 0.0, 0.0, 1.6626773748567278E9, 0.0, 2022-09-08 18:49:34.856
110.0, 2270.5125535145467, -5537.465874846683, -32473.888394104055, -21033.773843499883, -8330.3163445373, 18272.551092213525, 34179.66177221081, 22030.683997951033, -7472.590502809347, -6600.671303352274, -20898.009347678348, -28930.35458688195, 1005.2250033885246, -9819.836595038962, -12292.140697496021, -6726.019886257635, 0.207375, 0.95325, -0.1286875, 192.0, 0.0, 0.0, 0.0, 0.0, 0.0, 0.0, 0.0, 0.0, 0.0, 1.662677374856732E9, 0.0, 2022-09-08 18:49:34.856
112.0, 2332.493940889113, -5472.8916851153, -32429.654291827, -20988.556264466795, -8273.140582220625, 18373.558625407055, 34171.212812806705, 22161.844034414775, -7421.874394640255, -6560.505218566087, -20839.89481209455, -28887.8192171835, 1072.7943268769177, -9775.781306717552, -12211.517955245728, -6653.175551077789, 0.207375, 0.95325, -0.1286875, 192.0, 0.0, 0.0, 0.0, 0.0, 0.0, 0.0, 0.0, 0.0, 0.0, 1.6626773748567362E9, 0.0, 2022-09-08 18:49:34.856
114.0, 2321.8992140172977, -5486.436842255216, -32462.578411409668, -21004.73892745244, -8260.578901836741, 18363.790913080087, 34370.4115593924, 22120.62741763919, -7395.968722816554, -6527.089360605402, -20822.683968863963, -28872.508272231615, 1102.3880365357443, -9731.010762573573, -12202.59960920806, -6642.290251528055, 0.207375, 0.95325, -0.1286875, 192.0, 0.0, 0.0, 0.0, 0.0, 0.0, 0.0, 0.0, 0.0, 0.0, 1.6626773748567405E9, 0.0, 2022-09-08 18:49:34.856
116.0, 2318.658211071278, -5483.285246287018, -32463.71835037689, -20986.43284874354, -8250.341802876212, 18385.293291246093, 34364.26482966719, 22154.602069211254, -7399.612057162769, -6542.802636957484, -20820.962884540902, -28878.14091183435, 1116.4472837981325, -9736.084608564926, -12219.698693716371, -6646.604138207929, 0.1866875, 0.918625, -0.09234375, 192.0, 2.5, 24.0, 13.5, 80.0, 127.0, 32.0, 0.0, 0.0, 0.0, 1.6626773748567443E9, 0.0, 2022-09-08 18:49:34.856
118.0, 2332.046906000007, -5457.334870974407, -32431.59889359461, -20956.48151117343, -8202.374959275123, 18395.999776840184, 34111.48895162212, 22040.07173062226, -7407.32340899985, -6540.478055534131, -20813.92208503748, -28874.072894343484, 1145.4151446122105, -9730.854300362385, -12215.317751803132, -6651.834446410471, 0.1866875, 0.918625, -0.09234375, 192.0, 0.0, 0.0, 0.0, 0.0, 0.0, 0.0, 0.0, 0.0, 0.0, 1.6626773748567483E9, 0.0, 2022-09-08 18:49:34.856
120.0, 2399.660932977311, -5392.44775682065, -32373.350247544084, -20888.912187685037, -8082.234332827847, 18483.864484293998, 33790.8755291552, 22156.121987834216, -7371.27004519344, -6474.093374501869, -20741.524784746744, -28805.520094099058, 1223.6238984613299, -9659.82045648342, -12186.707518900337, -6616.07165528198, 0.1866875, 0.918625, -0.09234375, 192.0, 0.0, 0.0, 0.0, 0.0, 0.0, 0.0, 0.0, 0.0, 0.0, 1.6626773748567524E9, 0.0, 2022-09-08 18:49:34.856
122.0, 2423.376133844392, -5381.651864248737, -32344.941180341386, -20868.23682406388, -8134.51506310881, 18548.841005425573, 33932.33971981284, 22199.97611045553, -7325.046637659864, -6448.075943955892, -20706.387842463, -28775.88168095132, 1270.0484716950027, -9631.165520091716, -12128.30241063862, -6558.493561565109, 0.1866875, 0.918625, -0.09234375, 192.0, 0.0, 0.0, 0.0, 0.0, 0.0, 0.0, 0.0, 0.0, 0.0, 1.6626773748567564E9, 0.0, 2022-09-08 18:49:34.856
124.0, 2429.8134362475203, -5371.146544354742, -32331.06074703464, -20849.30489651023, -8101.970923181882, 18545.041208868173, 34006.03342128199, 22219.980921743027, -7297.822212913301, -6435.782484505473, -20688.171170731923, -28794.27716663804, 1295.1494807183124, -9615.564002461912, -12082.414279271876, -6548.301166093489, 0.1866875, 0.918625, -0.09234375, 192.0, 0.0, 0.0, 0.0, 0.0, 0.0, 0.0, 0.0, 0.0, 0.0, 1.6626773748567607E9, 0.0, 2022-09-08 18:49:34.856
126.0, 2417.0282384190846, -5356.930834881167, -32339.241485505285, -20853.261155278822, -8104.027283671771, 18560.978002664808, 33981.401798892235, 22144.208508039537, -7298.895096647156, -6450.80285677944, -20704.37618546202, -28825.189629219727, 1296.6917510857286, -9644.755380720542, -12076.91575013587, -6564.439125590221, 0.16634375, 0.8673125, -0.030171875, 192.0, 2.0, 72.0, 12.5, 64.0, 0.5, 0.0, 0.0, 0.0, 0.0, 1.662677374856765E9, 0.0, 2022-09-08 18:49:34.856
128.0, 2409.361590070914, -5360.909445394212, -32322.45532541935, -20840.90064059504, -8061.514265717777, 18611.336482922612, 34260.03864527209, 22370.676382860707, -7300.616180970214, -6456.167275448714, -20702.05160403867, -28813.052631980496, 1313.8802425718598, -9616.122796073294, -12075.507590235185, -6529.972735640137, 0.16634375, 0.8673125, -0.030171875, 192.0, 0.0, 0.0, 0.0, 0.0, 0.0, 0.0, 0.0, 0.0, 0.0, 1.662677374856769E9, 0.0, 2022-09-08 18:49:34.856
130.0, 2330.07995248794, -5432.323268928918, -32346.818726875634, -20882.631347493094, -8133.576289841687, 18552.685505471887, 34772.586497376746, 22224.473622378544, -7354.7297542965125, -6509.140909807791, -20749.05732262818, -28859.38779823635, 1262.0912506689133, -9682.216904427636, -12068.10916282048, -6525.480035004621, 0.16634375, 0.8673125, -0.030171875, 192.0, 0.0, 0.0, 0.0, 0.0, 0.0, 0.0, 0.0, 0.0, 0.0, 1.6626773748567739E9, 0.0, 2022-09-08 18:49:34.856
132.0, 2276.234600095105, -5478.099641573387, -32315.369822427016, -20880.776152703304, -8212.924982658027, 18567.616470768033, 34793.060695297805, 22230.95562827058, -7459.470028814081, -6573.424526861254, -20813.139773981547, -28922.330310622492, 1208.7376366540952, -9749.674469193753, -12126.178994915366, -6582.476983365654, 0.16634375, 0.8673125, -0.030171875, 192.0, 0.0, 0.0, 0.0, 0.0, 0.0, 0.0, 0.0, 0.0, 0.0, 1.6626773748567843E9, 0.0, 2022-09-08 18:49:34.856
134.0, 2238.8848351102874, -5517.148139136808, -32333.005348802253, -20907.88881872759, -8252.509922088377, 18550.562089748633, 34999.59081406484, 22213.655378062176, -7540.964489098131, -6615.401102948321, -20848.50023370984, -28956.64023836139, 1178.3169124504225, -9773.4567252942, -12120.881631479459, -6551.519817295053, 0.16634375, 0.8673125, -0.030171875, 192.0, 0.0, 0.0, 0.0, 0.0, 0.0, 0.0, 0.0, 0.0, 0.0, 1.6626773748567886E9, 0.0, 2022-09-08 18:49:34.856
