%OpenBCI Raw EEG Data
%Number of channels = 16
%Sample Rate = 125 Hz
%Board = OpenBCI_GUI$BoardCytonSerialDaisy
Sample Index, EXG Channel 0, EXG Channel 1, EXG Channel 2, EXG Channel 3, EXG Channel 4, EXG Channel 5, EXG Channel 6, EXG Channel 7, EXG Channel 8, EXG Channel 9, EXG Channel 10, EXG Channel 11, EXG Channel 12, EXG Channel 13, EXG Channel 14, EXG Channel 15, Accel Channel 0, Accel Channel 1, Accel Channel 2, Other, Other, Other, Other, Other, Other, Other, Analog Channel 0, Analog Channel 1, Analog Channel 2, Timestamp, Other, Timestamp (Formatted)
180.0, -5835.414628435926, -7703.349912565936, -29495.205521012012, -27284.327421704224, -16353.497368514225, 5728.953269595298, 28096.41100125444, 16954.78164610644, -17133.975581404637, -9183.303616440728, -20102.77898344743, -29231.11966027256, 5204.447234207062, -11697.472536262578, -10157.52675026974, -10694.102727663843, 0.13, 0.446, 0.022, 192.0, 4.0, 16.0, 13.5, 112.0, 0.5, 48.0, 0.0, 0.0, 0.0, 1.6626778209973743E9, 0.0, 2022-09-08 18:57:00.997
182.0, -5843.327145973104, -7717.587973783967, -29517.691375934053, -27310.054279572283, -16335.99595260572, 5707.249725729194, 28250.950962418436, 16946.757369846986, -17140.703456485684, -9189.092718254653, -20113.619579508257, -29239.903895843494, 5208.425844720107, -11701.875829920273, -10144.652145463484, -10708.050216203954, 0.13, 0.446, 0.022, 192.0, 0.0, 0.0, 0.0, 0.0, 0.0, 0.0, 0.0, 0.0, 0.0, 1.662677820997382E9, 0.0, 2022-09-08 18:57:00.997
184.0, -5871.311530031148, -7743.583052585489, -29547.307437337335, -27330.439070515524, -16347.931784144854, 5679.26534167115, 28183.560452885682, 16912.268628152447, -17147.230165866633, -9212.360884232627, -20140.888707743732, -29259.327561775157, 5187.795184587859, -11717.70086499463, -10168.63556726403, -10729.709056581147, 0.13, 0.446, 0.022, 192.0, 0.0, 0.0, 0.0, 0.0, 0.0, 0.0, 0.0, 0.0, 0.0, 1.6626778209973876E9, 0.0, 2022-09-08 18:57:00.997
186.0, -5873.658463198956, -7748.791009043576, -29556.225783375, -27339.02214038636, -16372.518703045691, 5670.481106100215, 28178.86658655007, 16909.072328695336, -17151.2981833575, -9234.131483332096, -20158.188957952138, -29268.245907812823, 5192.176126501099, -11722.327676096878, -10193.848335009616, -10748.059838778954, 0.13, 0.446, 0.022, 192.0, 0.0, 0.0, 0.0, 0.0, 0.0, 0.0, 0.0, 0.0, 0.0, 1.6626778209973931E9, 0.0, 2022-09-08 18:57:00.997
188.0, -5887.225972083327, -7763.900788295364, -29564.630039290198, -27339.491527019924, -16370.127066388974, 5665.228446153217, 28198.513769926285, 16887.659357507153, -17150.761741490573, -9251.342326562683, -20165.788551066944, -29279.064152129195, 5179.279169950387, -11748.143940942758, -10199.905657757005, -10761.359126729862, 0.13, 0.446, 0.022, 192.0, 0.0, 0.0, 0.0, 0.0, 0.0, 0.0, 0.0, 0.0, 0.0, 1.662677820997399E9, 0.0, 2022-09-08 18:57:00.997
190.0, -5882.3979952809805, -7758.514017881635, -29568.295725380867, -27335.915247907073, -16407.521534862703, 5657.986480949698, 28147.171812912446, 16875.164732356636, -17143.25155535359, -9247.989564894386, -20163.642783599233, -29278.192434095436, 5182.363710685219, -11730.150786656235, -10211.21564045139, -10758.475751695127, 0.191, 0.669, 0.028, 192.0, 3.5, 112.0, 13.5, 112.0, 0.5, 8.0, 0.0, 0.0, 0.0, 1.6626778209974053E9, 0.0, 2022-09-08 18:57:00.997
192.0, -5884.432004026414, -7754.446000390769, -29560.629077032696, -27325.476983246444, -16392.545866077646, 5664.557893819559, 28134.632484273017, 16876.34937481277, -17142.692761742208, -9258.293719088284, -20164.782722566455, -29274.392637538036, 5183.9953880304565, -11729.256716878024, -10214.16607071949, -10751.122027769332, 0.191, 0.669, 0.028, 192.0, 0.0, 0.0, 0.0, 0.0, 0.0, 0.0, 0.0, 0.0, 0.0, 1.6626778209974108E9, 0.0, 2022-09-08 18:57:00.997
194.0, -5882.062719114151, -7749.9532997552515, -29554.95173394105, -27319.620826199156, -16397.53030509118, 5676.672539314335, 28117.04166138669, 16884.016023160937, -17136.97071516165, -9245.530873004303, -20157.764274807487, -29262.210936809894, 5180.754385084437, -11717.678513250174, -10208.242858438833, -10733.754722327558, 0.191, 0.669, 0.028, 192.0, 0.0, 0.0, 0.0, 0.0, 0.0, 0.0, 0.0, 0.0, 0.0, 1.6626778209974158E9, 0.0, 2022-09-08 18:57:00.997
196.0, -5881.191001080394, -7748.34397415447, -29534.79046044236, -27305.36041323667, -16396.658587057424, 5667.396565365382, 28126.787021969205, 16863.675935706608, -17136.635438994817, -9243.005125880853, -20156.087893973337, -29256.13126231805, 5167.231579688976, -11733.794121002451, -10208.131099716556, -10730.379608914805, 0.191, 0.669, 0.028, 192.0, 0.0, 0.0, 0.0, 0.0, 0.0, 0.0, 0.0, 0.0, 0.0, 1.6626778209974208E9, 0.0, 2022-09-08 18:57:00.997
198.0, -5876.385376022503, -7750.377982899903, -29519.881846890672, -27293.513988675357, -16372.362240834504, 5644.083695898497, 28157.67713280644, 16799.302911675324, -17126.130119100824, -9254.628032997613, -20135.345475118815, -29244.79892787921, 5181.201419973543, -11714.526917281975, -10185.086451183135, -10726.177480957209, 0.191, 0.669, 0.028, 192.0, 0.0, 0.0, 0.0, 0.0, 0.0, 0.0, 0.0, 0.0, 0.0, 1.662677820997426E9, 0.0, 2022-09-08 18:57:00.997
200.0, -5876.295969044682, -7747.8969392653635, -29517.154934067123, -27286.11556126065, -16378.128990903973, 5662.747402518678, 28143.61788554405, 16927.333703915323, -17117.85997365236, -9262.965233679442, -20132.50680357299, -29245.290666257224, 5188.711606110526, -11738.08565593787, -10155.470389779854, -10702.730501023592, 0.20850000000000002, 0.8155, 0.026000000000000002, 192.0, 3.5, 8.0, 15.0, 8.0, 0.0, 96.0, 0.0, 0.0, 0.0, 1.6626778209974308E9, 0.0, 2022-09-08 18:57:00.997
202.0, -5875.379547522015, -7754.311889924037, -29517.42315500059, -27292.642270641598, -16371.535226289658, 5651.817399480034, 28140.600400042582, 16839.200775528047, -17117.05531085197, -9273.649367529079, -20139.92758273215, -29253.806680894697, 5186.9905217874675, -11749.842673521362, -10170.177837631445, -10714.308704651441, 0.20850000000000002, 0.8155, 0.026000000000000002, 192.0, 0.0, 0.0, 0.0, 0.0, 0.0, 0.0, 0.0, 0.0, 0.0, 1.6626778209974358E9, 0.0, 2022-09-08 18:57:00.997
204.0, -5869.322224774626, -7751.0038317446515, -29508.035422329358, -27278.560671634757, -16368.294223343639, 5678.795955037589, 28187.181435487444, 16926.149061459193, -17098.369252487333, -9264.306338346762, -20134.02672219595, -29237.84753535361, 5199.015760304423, -11746.400504875244, -10144.965069885859, -10696.024977686999, 0.20850000000000002, 0.8155, 0.026000000000000002, 192.0, 0.0, 0.0, 0.0, 0.0, 0.0, 0.0, 0.0, 0.0, 0.0, 1.6626778209974408E9, 0.0, 2022-09-08 18:57:00.997
206.0, -5863.1978467938725, -7739.425628116803, -29515.45620148852, -27285.847340327186, -16365.790827964644, 5679.421803882337, 28142.075615176633, 16910.659302551663, -17102.347863000377, -9260.238320855895, -20137.64770479771, -29236.953465575396, 5193.651341635149, -11741.28195539498, -10171.675404509951, -10691.286407862473, 0.20850000000000002, 0.8155, 0.026000000000000002, 192.0, 0.0, 0.0, 0.0, 0.0, 0.0, 0.0, 0.0, 0.0, 0.0, 1.6626778209974456E9, 0.0, 2022-09-08 18:57:00.997
208.0, -5854.503018200758, -7727.087465177473, -29503.22979727147, -27280.505273402367, -16383.024022939686, 5673.096260201485, 28189.05898202169, 16898.835229734806, -17076.844522576874, -9255.008012653352, -20128.550544804402, -29224.816468336165, 5201.966190572523, -11731.067208178903, -10172.97180568836, -10689.028881672488, 0.20850000000000002, 0.8155, 0.026000000000000002, 192.0, 0.0, 0.0, 0.0, 0.0, 0.0, 0.0, 0.0, 0.0, 0.0, 1.6626778209974504E9, 0.0, 2022-09-08 18:57:00.997
210.0, -5838.700334870856, -7708.1555376238275, -29489.237605242444, -27264.34496216118, -16369.76943847769, 5694.241010456206, 28193.26110997929, 16893.023776176426, -17073.22353997511, -9244.748561948367, -20111.943198674107, -29213.260616452768, 5217.7465221579705, -11704.133356110258, -10167.070945152158, -10678.724727478591, 0.20850000000000002, 0.8155, 0.026000000000000002, 192.0, 0.0, 0.0, 0.0, 0.0, 0.0, 0.0, 0.0, 0.0, 0.0, 1.6626778209974556E9, 0.0, 2022-09-08 18:57:00.997
212.0, -5834.4982069132575, -7702.14291836535, -29485.88484357415, -27254.934877745498, -16372.541054790147, 5705.662751872868, 28271.671029528505, 16900.735128013508, -17062.13707472528, -9222.977962848898, -20099.426221779137, -29194.999241232785, 5221.36750475973, -11695.662044961697, -10148.451942020887, -10651.992041110045, 0.20800000000000002, 0.964, 0.022, 192.0, 3.0, 64.0, 15.0, 16.0, 0.0, 88.0, 0.0, 0.0, 0.0, 1.662677820997476E9, 0.0, 2022-09-08 18:57:00.997
214.0, -5841.606061650045, -7716.805662728031, -29491.87511108817, -27260.4334068815, -16370.328232089072, 5710.468376930759, 28237.048177367233, 16890.54273254189, -17066.942699783172, -9234.44440775447, -20105.617654993257, -29200.698936068886, 5220.674600681616, -11698.366606040789, -10156.967956658358, -10658.16112257971, 0.20800000000000002, 0.964, 0.022, 192.0, 0.0, 0.0, 0.0, 0.0, 0.0, 0.0, 0.0, 0.0, 0.0, 1.662677820997481E9, 0.0, 2022-09-08 18:57:00.997
216.0, -5869.746907919277, -7741.839616517976, -29527.637902216662, -27295.88327358762, -16367.62367100998, 5685.613237096458, 28283.137474434076, 16862.5807002283, -17080.219635989622, -9250.492960273381, -20129.109338415783, -29215.02640426474, 5214.192594789576, -11715.376283571279, -10166.48979979632, -10672.935625664668, 0.20800000000000002, 0.964, 0.022, 192.0, 0.0, 0.0, 0.0, 0.0, 0.0, 0.0, 0.0, 0.0, 0.0, 1.6626778209974866E9, 0.0, 2022-09-08 18:57:00.997
218.0, -5877.301797545171, -7753.775448057109, -29536.243323831957, -27301.292395745804, -16373.77040073519, 5679.332396904516, 28231.102613342122, 16857.66331644813, -17099.866819365838, -9275.951597207975, -20154.813844539385, -29233.198372506904, 5204.4248824626075, -11718.08084465037, -10190.83084950815, -10704.183364413186, 0.20800000000000002, 0.964, 0.022, 192.0, 0.0, 0.0, 0.0, 0.0, 0.0, 0.0, 0.0, 0.0, 0.0, 1.6626778209974916E9, 0.0, 2022-09-08 18:57:00.997
220.0, -5857.676965913412, -7739.313869394526, -29534.209315086522, -27298.096096288693, -16351.463359768792, 5690.910600532366, 28296.682631573993, 16876.639947490687, -17070.89895855176, -9269.31312910475, -20146.543699090922, -29221.843686323606, 5222.485091982495, -11711.442376547144, -10178.470334824364, -10692.895733463256, 0.20800000000000002, 0.964, 0.022, 192.0, 0.0, 0.0, 0.0, 0.0, 0.0, 0.0, 0.0, 0.0, 0.0, 1.6626778209974964E9, 0.0, 2022-09-08 18:57:00.997
222.0, -5869.59044570809, -7750.176817199805, -29543.977027413493, -27310.277797016835, -16360.337002317548, 5667.843600254489, 28267.46890157091, 16856.456322247544, -17079.549083655966, -9271.324786105728, -20149.8070537814, -29228.035119537726, 5208.559955186839, -11714.996303915537, -10186.963997717381, -10703.244591146064, 0.20400000000000001, 0.928, 0.02, 192.0, 3.0, 48.0, 14.5, 0.0, 0.0, 80.0, 0.0, 0.0, 0.0, 1.6626778209975016E9, 0.0, 2022-09-08 18:57:00.997
224.0, -5867.332919518104, -7744.052439219051, -29539.819602944805, -27312.289454017813, -16382.822857239587, 5661.495704829181, 28334.36767272564, 16845.548670953354, -17086.85810409285, -9280.17607691003, -20151.170510193173, -29229.73385211633, 5202.592039417272, -11720.94186794065, -10190.92025648597, -10707.40201561475, 0.20400000000000001, 0.928, 0.02, 192.0, 0.0, 0.0, 0.0, 0.0, 0.0, 0.0, 0.0, 0.0, 0.0, 1.6626778209975064E9, 0.0, 2022-09-08 18:57:00.997
226.0, -5870.529218975213, -7745.035915975084, -29530.07424236229, -27300.39832596759, -16381.95113920583, 5672.69392880129, 28246.145337360544, 16848.76732215492, -17085.42759244771, -9270.31895760524, -20145.22494616806, -29225.755241603285, 5199.351036471252, -11724.965181942605, -10195.412957121487, -10699.467146333116, 0.20400000000000001, 0.928, 0.02, 192.0, 0.0, 0.0, 0.0, 0.0, 0.0, 0.0, 0.0, 0.0, 0.0, 1.6626778209975116E9, 0.0, 2022-09-08 18:57:00.997
228.0, -5856.380564735004, -7739.582090327989, -29513.958634610015, -27291.72584911893, -16399.63136906998, 5669.341167132994, 28305.779791567304, 16840.51952845091, -17085.785220358994, -9243.87684391461, -20137.915925731173, -29218.826200822143, 5199.462795193529, -11721.254792363025, -10192.574285575663, -10692.582809040881, 0.20400000000000001, 0.928, 0.02, 192.0, 0.0, 0.0, 0.0, 0.0, 0.0, 0.0, 0.0, 0.0, 0.0, 1.662677820997517E9, 0.0, 2022-09-08 18:57:00.997
230.0, -5857.609910680046, -7741.660802562333, -29503.520369949387, -27284.841511826697, -16391.830610255078, 5673.431536368315, 28294.22393968391, 16841.77122614041, -17089.070926793924, -9260.93122493401, -20129.735187260532, -29220.860209567574, 5201.966190572523, -11737.3704001153, -10181.688986025929, -10698.796593999457, 0.20400000000000001, 0.928, 0.02, 192.0, 0.0, 0.0, 0.0, 0.0, 0.0, 0.0, 0.0, 0.0, 0.0, 1.6626778209975224E9, 0.0, 2022-09-08 18:57:00.997
232.0, -5851.194960021372, -7734.8658722479195, -29498.133599535657, -27279.499444901878, -16388.790773009154, 5686.5743621080355, 28273.526224318295, 16914.570857831342, -17077.224502232613, -9256.036192898297, -20120.21334412257, -29212.232436207825, 5205.073083051811, -11711.867059691795, -10182.426593592954, -10676.82482919989, 0.17, 0.9480000000000001, 0.034, 192.0, 2.5, 40.0, 14.5, 80.0, 0.5, 8.0, 0.0, 0.0, 0.0, 1.6626778209975276E9, 0.0, 2022-09-08 18:57:00.997
234.0, -5850.814980365632, -7733.703581536243, -29486.55539590781, -27281.62286062513, -16378.48661881526, 5691.581152866024, 28322.968283053433, 16893.940197699096, -17082.566569157432, -9255.231530097906, -20124.862506969275, -29217.529799643733, 5207.442367964073, -11715.644504504742, -10188.372157618065, -10679.64114900126, 0.17, 0.9480000000000001, 0.034, 192.0, 0.0, 0.0, 0.0, 0.0, 0.0, 0.0, 0.0, 0.0, 0.0, 1.6626778209975803E9, 0.0, 2022-09-08 18:57:00.997
236.0, -5846.814018108132, -7736.430494359791, -29488.924680820073, -27296.486770687912, -16375.871464713988, 5688.183687708818, 28366.53183299683, 16878.62925274721, -17065.333374182388, -9251.230567840406, -20113.21724810806, -29213.081802497127, 5222.015705348934, -11707.955504412115, -10162.91352068347, -10671.952148908633, 0.17, 0.9480000000000001, 0.034, 192.0, 0.0, 0.0, 0.0, 0.0, 0.0, 0.0, 0.0, 0.0, 0.0, 1.662677820997588E9, 0.0, 2022-09-08 18:57:00.997
238.0, -5860.202713036861, -7746.377020642402, -29492.07627678827, -27308.69082316051, -16378.553674048624, 5676.69489105879, 28340.38029198412, 16856.657487947643, -17071.793028329972, -9254.49392253088, -20124.750748247, -29224.525895658244, 5217.187728546587, -11723.467615064099, -10171.094259154113, -10679.037651900966, 0.17, 0.9480000000000001, 0.034, 192.0, 0.0, 0.0, 0.0, 0.0, 0.0, 0.0, 0.0, 0.0, 0.0, 1.662677820997594E9, 0.0, 2022-09-08 18:57:00.997
240.0, -5862.013204337741, -7749.729782310699, -29498.60298616922, -27313.049413329296, -16386.823819497087, 5687.691949330801, 28326.052823788265, 16887.905226696163, -17079.37026970032, -9252.616375996635, -20132.149175661707, -29230.806735850187, 5211.868013366225, -11716.98560917206, -10175.676366767451, -10685.765526982013, 0.17, 0.9480000000000001, 0.034, 192.0, 0.0, 0.0, 0.0, 0.0, 0.0, 0.0, 0.0, 0.0, 0.0, 1.6626778209975991E9, 0.0, 2022-09-08 18:57:00.997
242.0, -5866.260035784249, -7753.775448057109, -29505.576730439276, -27315.329291263737, -16372.09401990104, 5681.008777738664, 28295.922672262514, 16874.382421300703, -17083.66180463574, -9257.01966965433, -20138.11709143127, -29229.197410249402, 5212.829138377802, -11719.60076327333, -10180.370233103065, -10678.188285611664, 0.15, 0.9440000000000001, 0.056, 192.0, 2.0, 88.0, 14.5, 64.0, 0.5, 96.0, 0.0, 0.0, 0.0, 1.6626778209976044E9, 0.0, 2022-09-08 18:57:00.997
244.0, -5870.618625953034, -7756.792933558576, -29521.31235853581, -27323.21945705646, -16360.158188361907, 5677.454850370271, 28341.296713506785, 16871.6331567327, -17085.606406403353, -9278.767917009345, -20144.12971068975, -29230.337349216625, 5212.493862210973, -11720.673647007186, -10184.997044205315, -10682.099840891344, 0.15, 0.9440000000000001, 0.056, 192.0, 0.0, 0.0, 0.0, 0.0, 0.0, 0.0, 0.0, 0.0, 0.0, 1.6626778209976125E9, 0.0, 2022-09-08 18:57:00.997
246.0, -5877.413556267447, -7756.658823091844, -29539.819602944805, -27327.64510245861, -16356.984240649253, 5674.258550913161, 28372.410341788574, 16837.61380167172, -17089.830886105407, -9274.766954751845, -20155.484396873046, -29229.890314327517, 5204.201365018054, -11712.582315514364, -10192.864858253582, -10686.570189782404, 0.15, 0.9440000000000001, 0.056, 192.0, 0.0, 0.0, 0.0, 0.0, 0.0, 0.0, 0.0, 0.0, 0.0, 1.662677820997618E9, 0.0, 2022-09-08 18:57:00.997
248.0, -5884.320245304138, -7758.961052770741, -29549.497908293954, -27326.996901869406, -16365.232034353261, 5681.768737050144, 28353.81369040176, 16838.798444127853, -17097.09520305338, -9276.845666986188, -20172.51642614799, -29245.134204046037, 5195.372425958208, -11724.361684842312, -10213.651980597018, -10714.062835462431, 0.15, 0.9440000000000001, 0.056, 192.0, 0.0, 0.0, 0.0, 0.0, 0.0, 0.0, 0.0, 0.0, 0.0, 1.6626778209976242E9, 0.0, 2022-09-08 18:57:00.997
250.0, -5888.567076750645, -7766.203017974261, -29547.732120481985, -27324.113526834673, -16387.53907531966, 5669.765850277645, 28339.709739650458, 16844.073455819303, -17093.00483381806, -9286.501620590881, -20173.09757150383, -29245.44712846841, 5200.066292293822, -11712.872888192283, -10203.616047336585, -10706.35148362535, 0.15, 0.9440000000000001, 0.056, 192.0, 0.0, 0.0, 0.0, 0.0, 0.0, 0.0, 0.0, 0.0, 0.0, 1.66267782099763E9, 0.0, 2022-09-08 18:57:00.997
252.0, -5896.993684410297, -7771.567436643534, -29556.449300819553, -27325.16405882407, -16391.741203277255, 5680.852315527477, 28317.760326595348, 16896.82357273383, -17098.72688039862, -9293.31890264975, -20176.33857444985, -29252.59968669411, 5197.249972492454, -11726.932135454672, -10203.727806058861, -10705.524469080505, 0.156, 0.92, 0.07200000000000001, 192.0, 2.0, 112.0, 14.0, 96.0, 1.0, 32.0, 0.0, 0.0, 0.0, 1.662677820997634E9, 0.0, 2022-09-08 18:57:00.997
254.0, -5901.441681556903, -7779.278788480615, -29557.723350253505, -27321.386614011124, -16390.087174187564, 5663.5073618301585, 28318.564989395738, 16872.884854422195, -17099.15156354327, -9278.320882120239, -20178.529045406467, -29242.899029600507, 5187.303446209842, -11715.17511787118, -10212.042654996236, -10685.653768259737, 0.156, 0.92, 0.07200000000000001, 192.0, 0.0, 0.0, 0.0, 0.0, 0.0, 0.0, 0.0, 0.0, 0.0, 1.6626778209976385E9, 0.0, 2022-09-08 18:57:00.997
0.0, -5887.807117439165, -7761.285634194092, -29534.27637031989, -27302.5440934353, -16396.993863224252, 5677.611312581457, 28337.854544860667, 16895.326005855324, -17104.42657523472, -9302.416062643058, -20174.393972682235, -29242.720215644866, 5184.956513042034, -11728.854385477827, -10208.578134605663, -10693.700396263648, 0.156, 0.92, 0.07200000000000001, 192.0, 0.0, 0.0, 0.0, 0.0, 0.0, 0.0, 0.0, 0.0, 0.0, 1.6626778209976425E9, 0.0, 2022-09-08 18:57:00.997
2.0, -5876.050099855674, -7749.752134055154, -29517.55726546732, -27291.92701481903, -16386.95792996382, 5666.413088609349, 28368.923469653546, 16875.120028867725, -17087.103973281857, -9275.705728018967, -20152.645725327224, -29219.07207001115, 5206.45889120804, -11713.006998659015, -10188.729785529351, -10661.893863903746, 0.156, 0.92, 0.07200000000000001, 192.0, 0.0, 0.0, 0.0, 0.0, 0.0, 0.0, 0.0, 0.0, 0.0, 1.6626778209976468E9, 0.0, 2022-09-08 18:57:00.997
4.0, -5883.873210415031, -7764.0348987620955, -29516.193809055545, -27301.11358179016, -16386.33208111907, 5664.043803697086, 28287.83134076969, 16862.15601708365, -17093.3848134738, -9278.611454798158, -20147.773045035967, -29220.12260200055, 5201.116824283222, -11714.392806815244, -10194.2059629209, -10681.697509491147, 0.156, 0.92, 0.07200000000000001, 192.0, 0.0, 0.0, 0.0, 0.0, 0.0, 0.0, 0.0, 0.0, 0.0, 1.6626778209976516E9, 0.0, 2022-09-08 18:57:00.997
6.0, -5883.3367685481035, -7764.8619133069415, -29511.879922375672, -27296.933805577017, -16373.971566435286, 5664.580245564013, 28352.27142003434, 16878.80806670285, -17107.131136313812, -9279.349062365183, -20156.870205029274, -29229.577389905142, 5194.2101352465315, -11734.218804147102, -10182.963035459881, -10686.480782804583, 0.16, 0.9420000000000001, 0.088, 192.0, 2.5, 0.0, 14.5, 56.0, 1.0, 96.0, 0.0, 0.0, 0.0, 1.6626778209976568E9, 0.0, 2022-09-08 18:57:00.997
8.0, -5885.460184271358, -7771.165105243338, -29518.22781780098, -27300.77830562333, -16357.967717405287, 5664.356728119461, 28336.379329726617, 16811.14933623664, -17097.85516236486, -9286.591027568702, -20152.33280090485, -29231.097308528104, 5197.652303892649, -11723.780539486474, -10185.01939594977, -10695.935570709178, 0.16, 0.9420000000000001, 0.088, 192.0, 0.0, 0.0, 0.0, 0.0, 0.0, 0.0, 0.0, 0.0, 0.0, 1.6626778209976623E9, 0.0, 2022-09-08 18:57:00.997
10.0, -5884.5661144931455, -7771.835657576998, -29525.13450683767, -27298.721945133442, -16356.581909249058, 5674.4820683577145, 28399.165379901577, 16945.528023901945, -17098.793935631984, -9274.610492540658, -20159.440655641636, -29231.901971328494, 5190.902077067146, -11717.387940572256, -10187.768660517771, -10689.16299213922, 0.16, 0.9420000000000001, 0.088, 192.0, 0.0, 0.0, 0.0, 0.0, 0.0, 0.0, 0.0, 0.0, 0.0, 1.6626778209976678E9, 0.0, 2022-09-08 18:57:00.997
12.0, -5887.807117439165, -7777.82592509102, -29532.35412029673, -27306.701517903988, -16379.403040337926, 5676.471373614237, 28290.178273937498, 16899.77400300193, -17104.314816512444, -9274.208161140461, -20160.044152741928, -29237.065224297672, 5185.068271764311, -11734.039990191459, -10209.628666595063, -10683.239779858564, 0.16, 0.9420000000000001, 0.088, 192.0, 0.0, 0.0, 0.0, 0.0, 0.0, 0.0, 0.0, 0.0, 0.0, 1.662677820997673E9, 0.0, 2022-09-08 18:57:00.997
14.0, -5870.216294552839, -7763.207884217249, -29512.706936920516, -27297.291433488303, -16385.05803168512, 5681.74638530569, 28350.349170011184, 16877.891645180185, -17103.44309847869, -9278.589103053702, -20158.70304807461, -29236.528782430745, 5188.890420066169, -11737.75037977104, -10212.690855585439, -10682.63628275827, 0.16, 0.9420000000000001, 0.088, 192.0, 0.0, 0.0, 0.0, 0.0, 0.0, 0.0, 0.0, 0.0, 0.0, 1.6626778209976785E9, 0.0, 2022-09-08 18:57:00.997
16.0, -5862.7284601603105, -7750.266224177626, -29488.231776741955, -27276.996049522884, -16390.95889222132, 5680.539391105103, 28364.140196340108, 16888.24050286299, -17089.71912738313, -9257.936091176998, -20137.111262930783, -29219.87673281154, 5209.006990075945, -11712.001170158526, -10185.10880292759, -10667.235930828563, 0.132, 0.9400000000000001, 0.10200000000000001, 192.0, 2.0, 16.0, 14.5, 48.0, 1.5, 24.0, 0.0, 0.0, 0.0, 1.6626778209976835E9, 0.0, 2022-09-08 18:57:00.997
18.0, -5855.687660656889, -7740.923194995308, -29486.913023819096, -27278.694782101487, -16366.6625459984, 5695.2021354677845, 28418.924322000068, 16874.71769746753, -17080.532560411997, -9250.805884695756, -20123.163774390672, -29201.63770933601, 5220.249917536965, -11704.043949132438, -10166.713317240872, -10652.77435216598, 0.132, 0.9400000000000001, 0.10200000000000001, 192.0, 0.0, 0.0, 0.0, 0.0, 0.0, 0.0, 0.0, 0.0, 0.0, 1.6626778209976878E9, 0.0, 2022-09-08 18:57:00.997
20.0, -5867.712899173845, -7750.91442476683, -29495.943128579038, -27287.076686272227, -16357.945365660831, 5679.891190515899, 28379.65230699209, 16844.274621519402, -17085.852275592362, -9262.7864197238, -20130.27162912746, -29204.96811925985, 5206.972981330512, -11713.834013203861, -10186.941645972925, -10680.244646101553, 0.132, 0.9400000000000001, 0.10200000000000001, 192.0, 0.0, 0.0, 0.0, 0.0, 0.0, 0.0, 0.0, 0.0, 0.0, 1.6626778209976935E9, 0.0, 2022-09-08 18:57:00.997
22.0, -5861.3203002596265, -7747.494607865168, -29498.379468724666, -27285.847340327186, -16367.422505309882, 5664.043803697086, 28432.134202973153, 16852.768284412417, -17087.707470382153, -9270.006033182864, -20133.669094284665, -29202.777648303232, 5213.36558024473, -11701.898181664728, -10185.913465727981, -10673.025032642488, 0.132, 0.9400000000000001, 0.10200000000000001, 192.0, 0.0, 0.0, 0.0, 0.0, 0.0, 0.0, 0.0, 0.0, 0.0, 1.6626778209976976E9, 0.0, 2022-09-08 18:57:00.997
24.0, -5870.842143397587, -7756.256491691648, -29507.767201395895, -27287.858997328163, -16355.084342370552, 5673.498591601681, 28365.32483879624, 16873.175427100115, -17078.699717366664, -9261.601777267668, -20136.775986763954, -29200.609529091067, 5201.988542316979, -11704.69214972164, -10197.40226237801, -10691.01818692901, 0.132, 0.9400000000000001, 0.10200000000000001, 192.0, 0.0, 0.0, 0.0, 0.0, 0.0, 0.0, 0.0, 0.0, 0.0, 1.662677820997702E9, 0.0, 2022-09-08 18:57:00.997
26.0, -5869.59044570809, -7755.6306428469, -29513.04221308735, -27288.954232806474, -16371.646985011934, 5706.266248973161, 28401.46760958047, 16945.908003557684, -17079.303214466956, -9262.719364490435, -20138.854698998297, -29190.886520253007, 5202.703798139549, -11695.4608792616, -10198.87747751206, -10658.988137124556, 0.136, 0.9400000000000001, 0.111, 192.0, 2.0, 48.0, 14.5, 48.0, 1.5, 96.0, 0.0, 0.0, 0.0, 1.6626778209977071E9, 0.0, 2022-09-08 18:57:00.997
28.0, -5887.8518209280755, -7770.427497676314, -29520.999434113437, -27297.716116632953, -16369.165941377396, 5660.0428414395865, 28395.9020252111, 16851.494234978465, -17087.23808374859, -9269.089611660196, -20152.735132305042, -29195.06629646615, 5201.675617894604, -11710.078920135371, -10197.871649011571, -10673.896750676246, 0.136, 0.9400000000000001, 0.111, 192.0, 0.0, 0.0, 0.0, 0.0, 0.0, 0.0, 0.0, 0.0, 0.0, 1.6626778209977129E9, 0.0, 2022-09-08 18:57:00.997
30.0, -5894.579696009123, -7772.39445118838, -29522.966387625504, -27296.039735798808, -16383.426354339881, 5659.886379228399, 28388.07891465174, 16921.186974190114, -17113.613142205853, -9280.198428654485, -20170.683583102655, -29207.4938663833, 5181.335530440275, -11713.610495759309, -10221.430387667464, -10687.777183982991, 0.136, 0.9400000000000001, 0.111, 192.0, 0.0, 0.0, 0.0, 0.0, 0.0, 0.0, 0.0, 0.0, 0.0, 1.6626778209977176E9, 0.0, 2022-09-08 18:57:00.997
32.0, -5880.386338280004, -7761.777372572109, -29504.79441938334, -27277.621898367634, -16385.214493896307, 5684.897981273888, 28377.484187779926, 16921.634009079222, -17101.900828111273, -9283.104155433673, -20152.13163520475, -29188.96427022985, 5192.69021662357, -11705.675626477674, -10206.722939815872, -10663.145561593243, 0.136, 0.9400000000000001, 0.111, 192.0, 0.0, 0.0, 0.0, 0.0, 0.0, 0.0, 0.0, 0.0, 0.0, 1.6626778209977248E9, 0.0, 2022-09-08 18:57:00.997
34.0, -5872.026785853718, -7757.1058579809505, -29501.195788526034, -27273.35271517667, -16382.152304905929, 5689.345978420494, 28348.47162347694, 16889.022813918928, -17088.37802271581, -9269.760163993855, -20132.104472172796, -29171.57461304362, 5198.367559715219, -11705.74268171104, -10207.818175294182, -10653.467256244096, 0.136, 0.9400000000000001, 0.111, 192.0, 0.0, 0.0, 0.0, 0.0, 0.0, 0.0, 0.0, 0.0, 0.0, 1.6626778209977305E9, 0.0, 2022-09-08 18:57:00.997
36.0, -5877.92764638992, -7764.817209818031, -29492.83623609975, -27266.69189532899, -16357.297165071628, 5686.440251641304, 28395.745562999913, 16914.280285153425, -17087.01456630404, -9258.651346999568, -20128.751710504497, -29165.00320017376, 5201.295638238864, -11704.26746657699, -10193.40130012051, -10646.068828829388, 0.14200000000000002, 0.952, 0.1215, 192.0, 2.0, 80.0, 15.0, 16.0, 2.0, 16.0, 0.0, 0.0, 0.0, 1.6626778209977362E9, 0.0, 2022-09-08 18:57:00.997
38.0, -5873.680814943411, -7761.8667795499305, -29492.299794232822, -27266.669543584532, -16358.504159272214, 5688.608370853469, 28390.358792586183, 16882.00436615996, -17087.282787237502, -9252.30345157426, -20129.46696632707, -29169.54060429819, 5200.803899860847, -11708.089614878847, -10194.407128620998, -10646.761732907502, 0.14200000000000002, 0.952, 0.1215, 192.0, 0.0, 0.0, 0.0, 0.0, 0.0, 0.0, 0.0, 0.0, 0.0, 1.6626778209977427E9, 0.0, 2022-09-08 18:57:00.997
40.0, -5879.5146202462465, -7769.265206964637, -29500.234663514457, -27271.519872131335, -16387.561427064113, 5672.358652634461, 28351.51146072286, 16880.886778937194, -17083.415935446734, -9260.350079578171, -20129.399911093704, -29166.456063563357, 5203.55316442885, -11718.79610047294, -10203.928971758958, -10658.496398746538, 0.14200000000000002, 0.952, 0.1215, 192.0, 0.0, 0.0, 0.0, 0.0, 0.0, 0.0, 0.0, 0.0, 0.0, 1.6626778209977484E9, 0.0, 2022-09-08 18:57:00.997
42.0, -5879.6934342018885, -7767.410012174847, -29496.524273934876, -27268.077703485218, -16379.090115915551, 5678.483030615214, 28373.617335989158, 16914.861430509263, -17094.323586740924, -9263.009937168354, -20129.06463492687, -29160.95753442735, 5208.247030764464, -11717.007960916515, -10202.699625813917, -10649.980384109067, 0.14200000000000002, 0.952, 0.1215, 192.0, 0.0, 0.0, 0.0, 0.0, 0.0, 0.0, 0.0, 0.0, 0.0, 1.6626778209977548E9, 0.0, 2022-09-08 18:57:00.997
44.0, -5885.773108693732, -7770.896884309875, -29504.63795717215, -27269.4858633859, -16376.318499603094, 5688.876591786932, 28414.25280740891, 16915.48727935401, -17107.53346771401, -9281.897161233088, -20145.023780467964, -29163.282115850703, 5208.381141231196, -11709.073091634882, -10207.035864238247, -10658.608157468816, 0.14200000000000002, 0.952, 0.1215, 192.0, 0.0, 0.0, 0.0, 0.0, 0.0, 0.0, 0.0, 0.0, 0.0, 1.6626778209977605E9, 0.0, 2022-09-08 18:57:00.997
0.0, -2927.6538405005745, -3872.104450715119, -14760.220320251026, -13634.161786337112, -8180.179677031002, 2818.286754880757, 14217.38585440944, 8472.741660206517, -8548.759943099016, -4628.554538316076, -10072.076031217102, -14577.271291884339, 2601.497185408734, -5852.714878644333, -5108.893526660625, -5327.225366500064, 0.194, 0.962, 0.152, 192.0, 3.0, 8.0, 15.0, 8.0, 2.0, 96.0, 0.0, 0.0, 0.0, 1.6626778215627105E9, 0.0, 2022-09-08 18:57:01.562
2.0, -5843.1259802730065, -7731.982497213185, -29523.70399519253, -27266.602488351167, -16369.031830910664, 5640.842692952478, 28480.458674485526, 16932.049921995393, -17114.797784661983, -9259.187788866495, -20146.297829901916, -29176.76021775725, 5203.9554958290455, -11703.909838665706, -10231.667486627995, -10678.478858289584, 0.194, 0.962, 0.152, 192.0, 0.0, 0.0, 0.0, 0.0, 0.0, 0.0, 0.0, 0.0, 0.0, 1.662677821562832E9, 0.0, 2022-09-08 18:57:01.562
4.0, -5837.470988925814, -7726.90865122183, -29521.22295155799, -27259.964020247942, -16351.418656279882, 5646.654146510858, 28426.47921162596, 16937.079064497837, -17110.886229382304, -9246.246128826873, -20141.17928042165, -29167.037208919195, 5197.518193425917, -11691.951655382116, -10234.103826773624, -10678.836486200868, 0.194, 0.962, 0.152, 192.0, 0.0, 0.0, 0.0, 0.0, 0.0, 0.0, 0.0, 0.0, 0.0, 1.6626778215628495E9, 0.0, 2022-09-08 18:57:01.562
6.0, -5840.4214191939145, -7729.926136723297, -29519.881846890672, -27266.758950562355, -16354.458493525803, 5643.055515653553, 28472.7696743929, 16934.173337718647, -17117.05531085197, -9242.692201458478, -20142.8556612558, -29171.753426999265, 5189.449213677552, -11700.110042108303, -10237.434236697465, -10674.25437858753, 0.194, 0.962, 0.152, 192.0, 0.0, 0.0, 0.0, 0.0, 0.0, 0.0, 0.0, 0.0, 0.0, 1.6626778215628612E9, 0.0, 2022-09-08 18:57:01.562
8.0, -5851.217311765828, -7736.519901337612, -29511.83521888676, -27265.14962496157, -16363.309784330106, 5631.678477725802, 28474.669572671603, 16886.318252839836, -17112.49555498309, -9264.507504046858, -20140.307562387894, -29167.618354275033, 5204.827213862803, -11700.065338619392, -10225.051370269224, -10681.742212980058, 0.214, 0.9520000000000001, 0.16, 192.0, 3.0, 88.0, 14.5, 96.0, 2.5, 0.0, 0.0, 0.0, 0.0, 1.6626778215628655E9, 0.0, 2022-09-08 18:57:01.562
10.0, -5870.797439908676, -7749.43920963278, -29529.738966195462, -27269.44115989699, -16358.347697061026, 5639.658050496346, 28497.334241549284, 16897.650587278677, -17108.271075281034, -9269.737812249401, -20148.823577025363, -29173.563918300144, 5200.178051016099, -11714.996303915537, -10228.98527729336, -10689.386509583774, 0.214, 0.9520000000000001, 0.16, 192.0, 0.0, 0.0, 0.0, 0.0, 0.0, 0.0, 0.0, 0.0, 0.0, 1.6626778215628695E9, 0.0, 2022-09-08 18:57:01.562
12.0, -5881.6380359695, -7753.909558523841, -29527.59319872775, -27252.833813766698, -16380.09594441604, 5633.73483821569, 28474.311944760317, 16881.982014415506, -17124.878421411326, -9261.288852845295, -20157.18312945165, -29169.83117697611, 5198.389911459674, -11710.4141963022, -10231.712190116905, -10677.629492000282, 0.214, 0.9520000000000001, 0.16, 192.0, 0.0, 0.0, 0.0, 0.0, 0.0, 0.0, 0.0, 0.0, 0.0, 1.662677821562874E9, 0.0, 2022-09-08 18:57:01.562
14.0, -5863.846047383076, -7733.860043747431, -29519.27834979038, -27236.24881938086, -16355.710191215301, 5645.111876143441, 28486.292479788364, 16871.81197068834, -17129.57228774694, -9263.188751123995, -20150.187033437138, -29155.749577969265, 5200.893306838669, -11692.689262949141, -10226.571288892184, -10658.898730146735, 0.214, 0.9520000000000001, 0.16, 192.0, 0.0, 0.0, 0.0, 0.0, 0.0, 0.0, 0.0, 0.0, 0.0, 1.6626778215628781E9, 0.0, 2022-09-08 18:57:01.562
16.0, -5864.673061927922, -7731.6919245352665, -29521.804096913827, -27236.025301936308, -16358.817083694588, 5632.214919592729, 28468.947526091044, 16873.57775850031, -17119.84927890888, -9243.519216003326, -20145.292001401427, -29138.38227252749, 5202.860260350735, -11684.419117500678, -10223.799672579727, -10659.949262136133, 0.214, 0.9520000000000001, 0.16, 192.0, 0.0, 0.0, 0.0, 0.0, 0.0, 0.0, 0.0, 0.0, 0.0, 1.662677821562884E9, 0.0, 2022-09-08 18:57:01.562
18.0, -5863.711936916344, -7734.463540847724, -29523.88280914817, -27245.86006949664, -16371.468171056293, 5633.891300426877, 28485.845444899256, 16874.650642234166, -17120.72099694264, -9244.726210203911, -20149.85175727031, -29143.00908362974, 5202.949667328557, -11698.74658569653, -10223.039713268246, -10664.509018005016, 0.23, 0.9440000000000001, 0.166, 192.0, 3.5, 24.0, 14.5, 64.0, 2.5, 24.0, 0.0, 0.0, 0.0, 1.6626778215628889E9, 0.0, 2022-09-08 18:57:01.562
20.0, -5869.769259663733, -7742.867796762919, -29524.151030081637, -27251.537412588288, -16353.542072003136, 5630.8291114365, 28476.345953505752, 16854.51172047993, -17121.078624853926, -9256.840855698689, -20157.540757362935, -29155.928391924906, 5197.719359126015, -11691.079937348359, -10222.480919656864, -10668.39822154024, 0.23, 0.9440000000000001, 0.166, 192.0, 0.0, 0.0, 0.0, 0.0, 0.0, 0.0, 0.0, 0.0, 0.0, 1.6626778215628932E9, 0.0, 2022-09-08 18:57:01.562
22.0, -5859.7333264032995, -7735.178796670294, -29519.07718409028, -27246.86589799713, -16367.847188454532, 5638.07107664002, 28487.275956544396, 16865.039392118382, -17124.25257256658, -9262.004108667865, -20152.645725327224, -29157.537717525687, 5197.115862025722, -11701.07116711988, -10221.028056267269, -10673.941454165157, 0.23, 0.9440000000000001, 0.166, 192.0, 0.0, 0.0, 0.0, 0.0, 0.0, 0.0, 0.0, 0.0, 0.0, 1.6626778215628967E9, 0.0, 2022-09-08 18:57:01.562
24.0, -5864.740117161288, -7743.895977007864, -29525.13450683767, -27251.20213642146, -16378.061935670608, 5638.272242340117, 28503.01158464093, 16843.71582790802, -17120.273962053536, -9254.225701597417, -20143.03447521144, -29152.95560991235, 5201.295638238864, -11700.422966530678, -10214.07666374167, -10655.724782434081, 0.23, 0.9440000000000001, 0.166, 192.0, 0.0, 0.0, 0.0, 0.0, 0.0, 0.0, 0.0, 0.0, 0.0, 1.6626778215629003E9, 0.0, 2022-09-08 18:57:01.562
26.0, -5851.485532699291, -7733.055380947039, -29513.489247976453, -27236.87466822561, -16357.386572049449, 5645.894187199377, 28461.951430076533, 16831.847051602253, -17127.828851679427, -9267.994376181887, -20145.046132212417, -29159.4823192933, 5187.526963654395, -11702.658140976208, -10229.097036015635, -10670.901616919235, 0.23, 0.9440000000000001, 0.166, 192.0, 0.0, 0.0, 0.0, 0.0, 0.0, 0.0, 0.0, 0.0, 0.0, 1.662677821562904E9, 0.0, 2022-09-08 18:57:01.562
28.0, -5862.057907826652, -7741.593747328967, -29512.751640409428, -27238.126365915105, -16388.52255207569, 5650.789219235089, 28454.597706150736, 16893.493162809988, -17110.707415426663, -9249.531835261803, -20133.311466373383, -29140.639798717475, 5201.988542316979, -11699.417138030189, -10231.063989527702, -10644.079523572866, 0.228, 0.93, 0.17400000000000002, 192.0, 3.5, 16.0, 14.5, 8.0, 2.5, 56.0, 0.0, 0.0, 0.0, 1.6626778215629077E9, 0.0, 2022-09-08 18:57:01.562
30.0, -5865.321262517126, -7742.241947918171, -29509.55534095232, -27244.720130529422, -16364.606185508514, 5633.3325068154945, 28486.024258854897, 16858.400924015157, -17130.287543569513, -9250.805884695756, -20142.073350199862, -29153.67086573492, 5187.526963654395, -11699.394786285733, -10229.544070904742, -10659.792799924946, 0.228, 0.93, 0.17400000000000002, 192.0, 0.0, 0.0, 0.0, 0.0, 0.0, 0.0, 0.0, 0.0, 0.0, 1.6626778215629113E9, 0.0, 2022-09-08 18:57:01.562
32.0, -5861.744983404277, -7729.881433234386, -29506.44844847303, -27234.617142035622, -16364.472075041782, 5635.254756838651, 28522.278788361407, 16853.729409424, -17121.637418465307, -9247.676640472013, -20139.257030398494, -29145.601885986554, 5192.60080964575, -11690.74466118153, -10213.45081489692, -10658.496398746538, 0.228, 0.93, 0.17400000000000002, 192.0, 0.0, 0.0, 0.0, 0.0, 0.0, 0.0, 0.0, 0.0, 0.0, 1.6626778215629148E9, 0.0, 2022-09-08 18:57:01.562
34.0, -5850.725573387811, -7715.598668527445, -29511.768163653396, -27226.59286577617, -16362.594528507536, 5646.743553488678, 28475.988325594466, 16855.495197235967, -17124.18551733321, -9249.084800372697, -20137.290076886427, -29134.068385847615, 5192.623161390205, -11692.845725160329, -10214.657809097507, -10661.245663314541, 0.228, 0.93, 0.17400000000000002, 192.0, 0.0, 0.0, 0.0, 0.0, 0.0, 0.0, 0.0, 0.0, 0.0, 1.6626778215629184E9, 0.0, 2022-09-08 18:57:01.562
36.0, -5847.104590786051, -7708.289648090559, -29525.916817893605, -27228.291598354772, -16376.206740880818, 5627.744570701668, 28509.78416321089, 16850.398999500158, -17131.00279939208, -9236.053733355253, -20141.78277752194, -29128.43574624488, 5196.288847480875, -11680.105230820804, -10212.73555907435, -10649.510997475505, 0.228, 0.93, 0.17400000000000002, 192.0, 0.0, 0.0, 0.0, 0.0, 0.0, 0.0, 0.0, 0.0, 0.0, 1.662677821562922E9, 0.0, 2022-09-08 18:57:01.562
38.0, -5841.382544205492, -7713.363494081914, -29532.08589936327, -27227.688101254476, -16363.28743258565, 5627.006963134642, 28480.525729718895, 16856.635136203186, -17127.806499934974, -9237.596003722669, -20140.93341123264, -29130.76032766823, 5196.311199225331, -11680.261693031991, -10221.989181278846, -10648.035782341454, 0.23800000000000002, 0.92, 0.166, 192.0, 3.5, 56.0, 14.0, 96.0, 2.5, 24.0, 0.0, 0.0, 0.0, 1.662677821562929E9, 0.0, 2022-09-08 18:57:01.562
40.0, -5839.01325929323, -7721.298363363549, -29527.123812094193, -27229.34213034417, -16361.923976173875, 5637.087599883986, 28531.241837887985, 16869.71090670954, -17129.035845880015, -9246.559053249246, -20146.454292113103, -29137.95758938284, 5195.305370724842, -11679.50173372051, -10223.911431302004, -10643.96776485059, 0.23800000000000002, 0.92, 0.166, 192.0, 0.0, 0.0, 0.0, 0.0, 0.0, 0.0, 0.0, 0.0, 0.0, 1.6626778215629325E9, 0.0, 2022-09-08 18:57:01.562
42.0, -5849.429172209403, -7733.792988514065, -29526.900294649637, -27238.23812463738, -16366.774304720677, 5621.709599698735, 28472.836729626266, 16856.970412370018, -17120.653941709275, -9245.97790789341, -20145.47081535707, -29143.880801663498, 5208.157623786643, -11687.92834138016, -10230.728713360872, -10653.243738799541, 0.23800000000000002, 0.92, 0.166, 192.0, 0.0, 0.0, 0.0, 0.0, 0.0, 0.0, 0.0, 0.0, 0.0, 1.662677821562936E9, 0.0, 2022-09-08 18:57:01.562
44.0, -5852.848989111065, -7737.413971115825, -29517.266692789402, -27241.34501711667, -16354.659659225901, 5620.413198520327, 28519.68598600459, 16870.828493932306, -17117.077662596424, -9271.369489594637, -20148.242431669525, -29151.212173844837, 5201.943838828068, -11693.426870516167, -10229.253498226823, -10663.212616826608, 0.23800000000000002, 0.92, 0.166, 192.0, 0.0, 0.0, 0.0, 0.0, 0.0, 0.0, 0.0, 0.0, 0.0, 1.6626778215629396E9, 0.0, 2022-09-08 18:57:01.562
46.0, -5847.261052997238, -7732.8095117580315, -29503.74388739394, -27232.49372631237, -16348.37881903396, 5626.559928245536, 28499.189436339075, 16878.830418447305, -17120.162203331256, -9270.386012838604, -20149.963515992586, -29164.086778651093, 5205.810690618836, -11701.987588642549, -10229.298201715732, -10676.400146055239, 0.23800000000000002, 0.92, 0.166, 192.0, 0.0, 0.0, 0.0, 0.0, 0.0, 0.0, 0.0, 0.0, 0.0, 1.6626778215629432E9, 0.0, 2022-09-08 18:57:01.562
48.0, -5873.7031666878665, -7759.072811493017, -29530.99066388496, -27250.62099106562, -16394.848095756544, 5602.3976924893495, 28515.014471413433, 16861.261947305436, -17102.414918233742, -9248.794227694778, -20140.46402459908, -29154.29671457967, 5208.917583098124, -11692.286931548946, -10216.490652142842, -10667.68296571767, 0.252, 0.926, 0.168, 192.0, 3.5, 112.0, 14.0, 120.0, 2.5, 32.0, 0.0, 0.0, 0.0, 1.662677821562947E9, 0.0, 2022-09-08 18:57:01.562
50.0, -5864.1366200609955, -7740.34204963947, -29524.50865799292, -27227.710452998934, -16389.930711976376, 5614.132358328386, 28454.888278828657, 16853.66235419063, -17127.62768597933, -9258.40547781056, -20155.082065472852, -29165.316124596135, 5185.828231075791, -11713.856364948317, -10239.490597187352, -10679.551742023437, 0.252, 0.926, 0.168, 192.0, 0.0, 0.0, 0.0, 0.0, 0.0, 0.0, 0.0, 0.0, 0.0, 1.6626778215629506E9, 0.0, 2022-09-08 18:57:01.562
52.0, -5848.713916386833, -7725.43343608778, -29536.64565523215, -27215.394641804058, -16388.164924164408, 5608.611477447925, 28488.460599000526, 16827.80138585584, -17132.455662781675, -9250.15768410655, -20151.774007293465, -29150.85454593355, 5173.9594547700235, -11686.922512879672, -10239.624707654084, -10661.044497614444, 0.252, 0.926, 0.168, 192.0, 0.0, 0.0, 0.0, 0.0, 0.0, 0.0, 0.0, 0.0, 0.0, 1.6626778215629542E9, 0.0, 2022-09-08 18:57:01.562
54.0, -5833.559433646135, -7703.506374777124, -29533.918742408605, -27187.70083042393, -16366.528435531669, 5628.102198612953, 28448.763900847902, 16897.11414541175, -17134.28850582701, -9231.851605397655, -20148.085969458338, -29140.505688250745, 5162.224788930987, -11674.36083249579, -10238.395361709043, -10649.153369564221, 0.252, 0.926, 0.168, 192.0, 0.0, 0.0, 0.0, 0.0, 0.0, 0.0, 0.0, 0.0, 0.0, 1.662677821562959E9, 0.0, 2022-09-08 18:57:01.562
56.0, -5802.579915831079, -7666.08955455894, -29525.827410915783, -27183.94573735544, -16343.997877120719, 5659.752268761667, 28476.591822694758, 16938.040189509415, -17102.727842656117, -9197.96636080341, -20129.735187260532, -29125.105336321038, 5172.461887891518, -11643.850701314295, -10218.234088210356, -10613.47998541355, 0.252, 0.926, 0.168, 192.0, 0.0, 0.0, 0.0, 0.0, 0.0, 0.0, 0.0, 0.0, 0.0, 1.6626778215629625E9, 0.0, 2022-09-08 18:57:01.562
58.0, -5797.640180306456, -7650.577443906956, -29521.580579469275, -27193.132304326573, -16363.645060496934, 5651.951509946765, 28473.172005793098, 16913.386215375212, -17095.642339663787, -9175.949892514933, -20126.069501169863, -29118.623330429, 5176.060518748823, -11623.06357897086, -10206.946457260425, -10615.67045637017, 0.274, 0.934, 0.165, 192.0, 4.5, 32.0, 14.5, 56.0, 2.5, 8.0, 0.0, 0.0, 0.0, 1.662677821562966E9, 0.0, 2022-09-08 18:57:01.562
60.0, -5780.406985331415, -7635.221795466161, -29511.03055608637, -27184.57158620019, -16357.721848216279, 5652.778524491611, 28502.810418940833, 16912.782718274917, -17087.506304682054, -9160.683651051957, -20118.134631888228, -29116.432859472377, 5182.386062429674, -11615.687503300609, -10202.297294413722, -10630.512014688495, 0.274, 0.934, 0.165, 192.0, 0.0, 0.0, 0.0, 0.0, 0.0, 0.0, 0.0, 0.0, 0.0, 1.6626778215629697E9, 0.0, 2022-09-08 18:57:01.562
62.0, -5770.192238115339, -7629.164472718772, -29505.196750783536, -27178.89424310854, -16345.361333532494, 5654.924291959321, 28490.092276345764, 16923.220982935545, -17084.689984880686, -9154.447514348927, -20109.97624516204, -29119.696214162854, 5187.392853187663, -11616.693331801098, -10192.68604429794, -10632.702485645115, 0.274, 0.934, 0.165, 192.0, 0.0, 0.0, 0.0, 0.0, 0.0, 0.0, 0.0, 0.0, 0.0, 1.6626778215629735E9, 0.0, 2022-09-08 18:57:01.562
64.0, -5761.09507812203, -7625.029399994541, -29504.392087983146, -27177.70960065241, -16346.210699821795, 5659.305233872561, 28499.88234041719, 16938.286058698424, -17079.23615923359, -9130.441740803926, -20097.280454311425, -29117.52809495069, 5195.283018980386, -11621.610715581264, -10189.243875651822, -10623.806491351903, 0.274, 0.934, 0.165, 192.0, 0.0, 0.0, 0.0, 0.0, 0.0, 0.0, 0.0, 0.0, 0.0, 1.6626778215629776E9, 0.0, 2022-09-08 18:57:01.562
66.0, -5766.303034580116, -7631.3772954198475, -29504.302681005323, -27180.212996031405, -16354.749066203722, 5654.074925670019, 28490.27109030141, 16927.579573104333, -17078.52090341102, -9152.569967814681, -20100.36499504626, -29121.752574652743, 5199.105167282244, -11620.068445213848, -10184.795878505216, -10619.514956416484, 0.274, 0.934, 0.165, 192.0, 0.0, 0.0, 0.0, 0.0, 0.0, 0.0, 0.0, 0.0, 0.0, 1.6626778215629811E9, 0.0, 2022-09-08 18:57:01.562
68.0, -5761.206836844306, -7623.196556949206, -29498.759448380406, -27178.00017333033, -16340.198080563317, 5667.821248510033, 28450.976723548978, 16937.660209853675, -17087.305138981956, -9150.982993958354, -20101.616692735755, -29124.926522365397, 5199.373388215708, -11627.153948206182, -10187.58984656213, -10620.0066947945, 0.281, 0.9380000000000001, 0.1565, 192.0, 4.5, 0.0, 14.5, 56.0, 2.0, 80.0, 0.0, 0.0, 0.0, 1.6626778215629857E9, 0.0, 2022-09-08 18:57:01.562
70.0, -5767.822953203077, -7624.694123827711, -29503.006279826914, -27194.652222949535, -16338.387589262438, 5649.381059334405, 28511.21467485603, 16885.468886550534, -17097.564589686943, -9146.71381076739, -20108.277512583438, -29128.18987705587, 5192.310236967831, -11637.055770999881, -10181.152544159002, -10621.303095972908, 0.281, 0.9380000000000001, 0.1565, 192.0, 0.0, 0.0, 0.0, 0.0, 0.0, 0.0, 0.0, 0.0, 0.0, 1.6626778215629907E9, 0.0, 2022-09-08 18:57:01.562
72.0, -5760.580987999558, -7615.082873711929, -29503.252149015923, -27202.34122304216, -16335.370103760972, 5654.298443114572, 28481.665668686113, 16902.120936169737, -17100.872647866327, -9139.516549052782, -20106.243503838006, -29135.25302830375, 5193.986617801978, -11641.727285591041, -10181.309006370187, -10639.72093340408, 0.281, 0.9380000000000001, 0.1565, 192.0, 0.0, 0.0, 0.0, 0.0, 0.0, 0.0, 0.0, 0.0, 0.0, 1.6626778215629942E9, 0.0, 2022-09-08 18:57:01.562
74.0, -5764.850171190521, -7618.07800746894, -29513.84687588774, -27216.355766815635, -16312.437213949826, 5658.6346815389015, 28505.336166064284, 16948.187881492126, -17108.896924125784, -9148.233729390351, -20114.26778009746, -29137.48820274928, 5183.213076974521, -11640.676753601641, -10188.238047151333, -10627.896860587223, 0.281, 0.9380000000000001, 0.1565, 192.0, 0.0, 0.0, 0.0, 0.0, 0.0, 0.0, 0.0, 0.0, 0.0, 1.6626778215629976E9, 0.0, 2022-09-08 18:57:01.562
76.0, -5784.7655755002, -7638.283984456538, -29524.50865799292, -27245.43538635199, -16374.977394935775, 5620.659067709335, 28521.92116045012, 16879.411563803144, -17118.128194585825, -9155.654508549513, -20121.532097045434, -29146.406548786945, 5187.16933574311, -11650.936204306628, -10184.572361060664, -10660.82098016989, 0.281, 0.9380000000000001, 0.1565, 192.0, 0.0, 0.0, 0.0, 0.0, 0.0, 0.0, 0.0, 0.0, 0.0, 1.6626778215630012E9, 0.0, 2022-09-08 18:57:01.563
78.0, -5813.95695375883, -7664.457877213702, -29557.2763153644, -27278.15834023456, -16402.29122666016, 5602.196526789252, 28529.31958786483, 16875.47765677901, -17145.374971076842, -9170.29490116774, -20155.55145210641, -29167.171319385925, 5168.527980867384, -11694.991492628038, -10216.580059120663, -10700.204753900141, 0.2665, 0.927, 0.15225, 192.0, 3.5, 112.0, 14.0, 80.0, 2.0, 80.0, 0.0, 0.0, 0.0, 1.6626778215630047E9, 0.0, 2022-09-08 18:57:01.563
80.0, -5835.414628435926, -7677.243075042138, -29575.492987095477, -27291.25646248537, -16419.904401290943, 5586.572657414992, 28451.468461926994, 16850.398999500158, -17169.2019306662, -9186.164639731007, -20173.075219759372, -29177.698991024376, 5144.745724766937, -11691.75048968202, -10243.580966422674, -10717.616762830827, 0.2665, 0.927, 0.15225, 192.0, 0.0, 0.0, 0.0, 0.0, 0.0, 0.0, 0.0, 0.0, 0.0, 1.6626778215630083E9, 0.0, 2022-09-08 18:57:01.563
82.0, -5850.703221643355, -7699.103081119429, -29590.982746003003, -27305.092192303204, -16451.152140039463, 5567.774840328078, 28454.93298231757, 16825.454452688035, -17183.194122695222, -9218.440558724471, -20186.218045499092, -29184.672735294433, 5130.664125760094, -11718.103196394826, -10265.709193433428, -10728.055027491455, 0.2665, 0.927, 0.15225, 192.0, 0.0, 0.0, 0.0, 0.0, 0.0, 0.0, 0.0, 0.0, 0.0, 1.662677821563012E9, 0.0, 2022-09-08 18:57:01.563
84.0, -5870.037480597196, -7719.443168573758, -29591.742705314486, -27315.329291263737, -16459.69050642139, 5548.060601718498, 28386.827216962247, 16793.69262381704, -17202.59543688243, -9230.845776897166, -20194.018804313997, -29193.188749931905, 5114.34735230772, -11733.70471402463, -10286.630426243595, -10745.757609100057, 0.2665, 0.927, 0.15225, 192.0, 0.0, 0.0, 0.0, 0.0, 0.0, 0.0, 0.0, 0.0, 0.0, 1.6626778215630157E9, 0.0, 2022-09-08 18:57:01.563
86.0, -5881.995663880785, -7726.86394773292, -29603.387964175698, -27330.17084958206, -16473.190960072396, 5529.240432887129, 28425.76395580339, 16791.569208093788, -17219.292189990545, -9257.69022198799, -20212.19077255616, -29203.850532037086, 5101.897430646113, -11755.14003695727, -10300.242638616877, -10752.530187670016, 0.2665, 0.927, 0.15225, 192.0, 0.0, 0.0, 0.0, 0.0, 0.0, 0.0, 0.0, 0.0, 0.0, 1.6626778215630193E9, 0.0, 2022-09-08 18:57:01.563
88.0, -5878.665253956945, -7724.226441887194, -29592.659126837152, -27314.010538340874, -16464.54083496819, 5545.981889484155, 28383.00506866039, 16793.42440288358, -17230.043379073548, -9265.155704636063, -20222.405519772234, -29208.365584417057, 5095.348369520709, -11750.937908999671, -10310.055054432756, -10762.119086041343, 0.24825000000000003, 0.9185000000000001, 0.153125, 192.0, 3.5, 24.0, 14.0, 56.0, 2.0, 104.0, 0.0, 0.0, 0.0, 1.6626778215630229E9, 0.0, 2022-09-08 18:57:01.563
90.0, -5869.21046605235, -7712.961162681719, -29588.345240157276, -27307.662642915566, -16457.097704064574, 5548.127656951864, 28439.376168176674, 16814.23387697147, -17208.295131718533, -9238.847701412165, -20202.534818951466, -29182.30345038217, 5114.213241840987, -11735.17992915868, -10294.118260636124, -10740.437893919694, 0.24825000000000003, 0.9185000000000001, 0.153125, 192.0, 0.0, 0.0, 0.0, 0.0, 0.0, 0.0, 0.0, 0.0, 0.0, 1.6626778215630264E9, 0.0, 2022-09-08 18:57:01.563
92.0, -5881.481573758313, -7730.328468123493, -29599.409353662653, -27324.672320446054, -16468.720611181332, 5532.704953277702, 28383.00506866039, 16788.775240036874, -17215.000655055126, -9244.748561948367, -20211.609627200323, -29196.87678776703, 5099.237573055932, -11763.521941128009, -10312.692560278483, -10764.667184909247, 0.24825000000000003, 0.9185000000000001, 0.153125, 192.0, 0.0, 0.0, 0.0, 0.0, 0.0, 0.0, 0.0, 0.0, 0.0, 1.66267782156303E9, 0.0, 2022-09-08 18:57:01.563
94.0, -5888.008283139263, -7731.133130923883, -29593.37438265972, -27328.31565479227, -16473.347422283583, 5540.2374911591405, 28411.838819007735, 16801.448679143035, -17224.209573770713, -9253.063410885741, -20220.70678719363, -29204.811657048664, 5088.329921761742, -11766.897054540761, -10326.416531374041, -10766.65649016577, 0.24825000000000003, 0.9185000000000001, 0.153125, 192.0, 0.0, 0.0, 0.0, 0.0, 0.0, 0.0, 0.0, 0.0, 0.0, 1.6626778215630336E9, 0.0, 2022-09-08 18:57:01.563
96.0, -5905.107367647573, -7746.91346250933, -29586.981783745505, -27338.642160730622, -16485.640881734, 5521.193804883219, 28333.339492480696, 16774.403068352112, -17235.83248088747, -9270.274254116328, -20233.939019911173, -29218.580331633133, 5084.865401371169, -11765.265377195523, -10338.642935591095, -10777.005347848577, 0.24825000000000003, 0.9185000000000001, 0.153125, 192.0, 0.0, 0.0, 0.0, 0.0, 0.0, 0.0, 0.0, 0.0, 0.0, 1.6626778215630372E9, 0.0, 2022-09-08 18:57:01.563
98.0, -5904.705036247377, -7744.9018055083525, -29602.583301375307, -27355.338913838736, -16505.60098953259, 5520.746769994113, 28376.970097657457, 16781.265053899893, -17251.41164677282, -9272.822352984233, -20248.5794125294, -29230.113831772072, 5079.679796657539, -11780.822191336418, -10351.562243886263, -10777.631196693326, 0.22112500000000002, 0.93425, 0.1565625, 192.0, 3.0, 8.0, 14.5, 88.0, 2.5, 0.0, 0.0, 0.0, 0.0, 1.6626778215630407E9, 0.0, 2022-09-08 18:57:01.563
100.0, -5916.037370686218, -7760.033936504596, -29617.2907492269, -27361.239774374935, -16508.37260584505, 5518.735112993135, 28273.45916908493, 16768.770428749376, -17256.194920086255, -9278.253826886872, -20256.24606087757, -29238.87571559855, 5073.801287865793, -11786.18661000569, -10358.33482245622, -10783.956740374177, 0.22112500000000002, 0.93425, 0.1565625, 192.0, 0.0, 0.0, 0.0, 0.0, 0.0, 0.0, 0.0, 0.0, 0.0, 1.6626778215630443E9, 0.0, 2022-09-08 18:57:01.563
102.0, -5904.034483913718, -7756.859988791942, -29612.14984800218, -27357.68584700654, -16492.256998092773, 5522.691371761724, 28372.164472599565, 16783.947263234528, -17263.883920178883, -9298.616266085657, -20257.229537633604, -29247.25761976929, 5074.516543688363, -11794.255589754057, -10368.52721792784, -10781.721565928647, 0.22112500000000002, 0.93425, 0.1565625, 192.0, 0.0, 0.0, 0.0, 0.0, 0.0, 0.0, 0.0, 0.0, 0.0, 1.6626778215630488E9, 0.0, 2022-09-08 18:57:01.563
104.0, -5897.373664066036, -7758.8716457929195, -29606.897188055184, -27359.004599929405, -16489.954768413874, 5501.099586617897, 28402.540493314325, 16752.78893146383, -17249.578803727487, -9295.97876023993, -20239.772825214008, -29240.954427832894, 5090.855668885192, -11801.609313679852, -10342.263918192855, -10775.664243181258, 0.22112500000000002, 0.93425, 0.1565625, 192.0, 0.0, 0.0, 0.0, 0.0, 0.0, 0.0, 0.0, 0.0, 0.0, 1.6626778215630524E9, 0.0, 2022-09-08 18:57:01.563
106.0, -5897.887754188509, -7765.197189473772, -29603.030336264415, -27371.812149502297, -16484.255073577773, 5501.568973251459, 28430.279008183363, 16781.242702155436, -17236.100701820935, -9302.036082987319, -20229.401615786748, -29236.30526498619, 5098.455261999996, -11804.112709058847, -10346.264880450355, -10765.695365154192, 0.22112500000000002, 0.93425, 0.1565625, 192.0, 0.0, 0.0, 0.0, 0.0, 0.0, 0.0, 0.0, 0.0, 0.0, 1.662677821563056E9, 0.0, 2022-09-08 18:57:01.563
108.0, -5916.149129408494, -7791.6840066533105, -29615.524961414932, -27401.159989972115, -16463.669116934434, 5487.129746333331, 28400.081801424243, 16728.35847477418, -17237.106530321424, -9329.014638544875, -20256.067246921928, -29259.908707130995, 5084.172497293055, -11826.57621223643, -10362.872226580648, -10795.981978891132, 0.1775625, 0.9381250000000001, 0.16528125, 192.0, 2.0, 24.0, 14.5, 56.0, 2.5, 56.0, 0.0, 0.0, 0.0, 1.6626778215630596E9, 0.0, 2022-09-08 18:57:01.563
110.0, -5912.975181695841, -7791.706358397765, -29617.089583526802, -27403.641033606655, -16492.41346030396, 5515.225889113652, 28420.15366794511, 16842.777054640897, -17234.021989586592, -9328.679362378045, -20268.897148239274, -29267.709465945896, 5086.295913016309, -11832.544128005997, -10365.934415571024, -10780.715737428158, 0.1775625, 0.9381250000000001, 0.16528125, 192.0, 0.0, 0.0, 0.0, 0.0, 0.0, 0.0, 0.0, 0.0, 0.0, 1.6626778215630631E9, 0.0, 2022-09-08 18:57:01.563
112.0, -5915.277411374737, -7789.694701396787, -29622.968092318548, -27406.85968480822, -16494.581579516125, 5492.427109769239, 28403.9039497261, 16786.920045247083, -17233.060864575014, -9340.905766595099, -20277.971956488127, -29275.756093949807, 5089.916895618069, -11842.021267655047, -10364.95093881499, -10790.997539877599, 0.1775625, 0.9381250000000001, 0.16528125, 192.0, 0.0, 0.0, 0.0, 0.0, 0.0, 0.0, 0.0, 0.0, 0.0, 1.6626778215630667E9, 0.0, 2022-09-08 18:57:01.563
114.0, -5905.844975214598, -7774.003776789163, -29621.559932417862, -27400.109457982715, -16495.766221972255, 5503.290057574518, 28399.880635724145, 16767.541082804335, -17225.483623204665, -9344.392638730125, -20268.517168583534, -29271.5092625033, 5098.097634088711, -11835.896889674294, -10370.650633651094, -10798.015987636565, 0.1775625, 0.9381250000000001, 0.16528125, 192.0, 0.0, 0.0, 0.0, 0.0, 0.0, 0.0, 0.0, 0.0, 0.0, 1.6626778215630703E9, 0.0, 2022-09-08 18:57:01.563
116.0, -5917.020847442252, -7776.283654723604, -29624.555066174875, -27404.289234195858, -16498.850762707087, 5487.934409133722, 28419.594874333725, 16752.923041930564, -17232.278553519078, -9348.818284132276, -20272.987517474594, -29272.3586287926, 5090.855668885192, -11831.739465205606, -10383.86051462418, -10800.720548715657, 0.1775625, 0.9381250000000001, 0.16528125, 192.0, 0.0, 0.0, 0.0, 0.0, 0.0, 0.0, 0.0, 0.0, 0.0, 1.6626778215630746E9, 0.0, 2022-09-08 18:57:01.563
118.0, -5895.049082642685, -7752.210825945238, -29604.32673744282, -27387.10074270973, -16475.87316940703, 5517.371656581361, 28400.081801424243, 16772.726687517963, -17228.814033128507, -9342.716257895978, -20266.751380771566, -29267.08361710115, 5096.421253254563, -11820.72005518914, -10385.894523369614, -10797.099566113899, 0.13478125000000002, 0.9280625, 0.171640625, 192.0, 1.0, 112.0, 14.0, 88.0, 2.5, 72.0, 0.0, 0.0, 0.0, 1.6626778215630782E9, 0.0, 2022-09-08 18:57:01.563
120.0, -5879.6934342018885, -7741.973726984707, -29593.82141754883, -27375.969573970986, -16469.011183859253, 5522.0431711725205, 28385.955498928488, 16777.755830020407, -17206.55169565102, -9315.961219782976, -20249.138206140782, -29249.582201192643, 5117.051913386812, -11794.568514176432, -10366.470857437953, -10773.518475713548, 0.13478125000000002, 0.9280625, 0.171640625, 192.0, 0.0, 0.0, 0.0, 0.0, 0.0, 0.0, 0.0, 0.0, 0.0, 1.662677822042489E9, 0.0, 2022-09-08 18:57:02.042
122.0, -5879.872248157531, -7749.081581721495, -29601.689231597094, -27381.646917062633, -16464.429076245913, 5518.1092641483865, 28395.27617636635, 16774.090143929738, -17195.398175167822, -9310.820318558255, -20244.042008404973, -29251.79502389372, 5127.423122814074, -11786.432479194698, -10367.521389427351, -10775.731298414625, 0.13478125000000002, 0.9280625, 0.171640625, 192.0, 0.0, 0.0, 0.0, 0.0, 0.0, 0.0, 0.0, 0.0, 0.0, 1.662677822042586E9, 0.0, 2022-09-08 18:57:02.042
124.0, -5886.398957538481, -7754.2895381795815, -29605.71254559905, -27385.133789197662, -16450.280422005704, 5513.393046068317, 28449.747377603937, 16770.04447818333, -17197.655701357806, -9315.156556982583, -20253.80972073194, -29256.98062860735, 5120.4270267995635, -11794.121479287325, -10363.162799258567, -10777.318272270952, 0.13478125000000002, 0.9280625, 0.171640625, 192.0, 0.0, 0.0, 0.0, 0.0, 0.0, 0.0, 0.0, 0.0, 0.0, 1.6626778220426383E9, 0.0, 2022-09-08 18:57:02.042
126.0, -5875.625416711023, -7744.812398530531, -29588.635812835197, -27371.208652402005, -16427.660456616934, 5535.409514356794, 28442.930095545067, 16794.609045339712, -17195.197009467724, -9318.308152950782, -20248.53470904049, -29253.44905298341, 5136.296765362831, -11789.405261207256, -10356.010241032869, -10772.22207453514, 0.13478125000000002, 0.9280625, 0.171640625, 192.0, 0.0, 0.0, 0.0, 0.0, 0.0, 0.0, 0.0, 0.0, 0.0, 1.6626778220426435E9, 0.0, 2022-09-08 18:57:02.042
128.0, -5863.577826449612, -7730.484930334679, -29577.057609207346, -27359.161062140593, -16430.72264560731, 5537.488226591137, 28489.39937226765, 16812.937475793064, -17183.887026773336, -9310.730911580433, -20246.25483110605, -29248.106986058592, 5131.8711199606805, -11785.247836738568, -10345.28140369432, -10762.007327319066, 0.13478125000000002, 0.9280625, 0.171640625, 192.0, 0.0, 0.0, 0.0, 0.0, 0.0, 0.0, 0.0, 0.0, 0.0, 1.6626778220426483E9, 0.0, 2022-09-08 18:57:02.042
130.0, -5830.29607895566, -7698.521935763591, -29536.064509876313, -27314.636387185623, -16411.678959331388, 5564.667947848791, 28448.16040374761, 16818.70422586253, -17156.081456670934, -9303.287780676816, -20211.833144644876, -29216.546322887698, 5152.97116672649, -11754.08950496787, -10320.739188282394, -10735.565213628437, 0.088, 0.926, 0.18, 192.0, 1.0, 96.0, 14.0, 120.0, 2.5, 80.0, 0.0, 0.0, 0.0, 1.6626778220426533E9, 0.0, 2022-09-08 18:57:02.042
132.0, -5823.747017830256, -7695.280932817571, -29531.70591970753, -27304.443991714, -16426.922849049908, 5561.717517580691, 28493.06505835832, 16819.888868318663, -17134.2438023381, -9290.055547959275, -20194.018804313997, -29196.87678776703, 5172.327777424786, -11745.104103696836, -10306.098795664167, -10706.060910947432, 0.088, 0.926, 0.18, 192.0, 0.0, 0.0, 0.0, 0.0, 0.0, 0.0, 0.0, 0.0, 0.0, 1.6626778220426583E9, 0.0, 2022-09-08 18:57:02.042
134.0, -5842.29896572816, -7712.692941748255, -29544.021730902405, -27316.17865755304, -16416.015197755718, 5538.605813813903, 28434.34702567423, 16801.359272165213, -17138.557689017976, -9291.061376459764, -20199.740850894555, -29209.282005939724, 5163.834114531769, -11750.870853766306, -10323.309638894754, -10716.342713396873, 0.088, 0.926, 0.18, 192.0, 0.0, 0.0, 0.0, 0.0, 0.0, 0.0, 0.0, 0.0, 0.0, 1.6626778220426688E9, 0.0, 2022-09-08 18:57:02.042
136.0, -5832.084218512085, -7698.678397974778, -29535.617474987208, -27307.97556733794, -16404.81697378361, 5558.476514634671, 28471.49562495895, 16800.733423320464, -17143.139796631312, -9287.395690369092, -20206.781650397978, -29215.607549620578, 5165.376384899186, -11754.782409045984, -10323.264935405843, -10713.258172662041, 0.088, 0.926, 0.18, 192.0, 0.0, 0.0, 0.0, 0.0, 0.0, 0.0, 0.0, 0.0, 0.0, 1.6626778220426738E9, 0.0, 2022-09-08 18:57:02.042
138.0, -5832.575956890101, -7705.898011433842, -29534.499887764443, -27301.918244590554, -16424.15123273745, 5567.953654283721, 28414.34221438673, 16874.114200367236, -17137.082473883926, -9290.88256250412, -20202.758336396022, -29220.636692123022, 5179.010949016923, -11741.974859473094, -10316.42530160252, -10705.569172569416, 0.088, 0.926, 0.18, 192.0, 0.0, 0.0, 0.0, 0.0, 0.0, 0.0, 0.0, 0.0, 0.0, 1.6626778220426908E9, 0.0, 2022-09-08 18:57:02.042
140.0, -5825.110474242029, -7687.56958098049, -29539.774899455893, -27301.60532016818, -16400.52543884819, 5570.680567107269, 28520.89298020518, 16878.115162624737, -17120.96686613165, -9277.091536175196, -20194.018804313997, -29209.50552338428, 5181.536696140372, -11709.274257334979, -10297.314560093231, -10682.25630310253, 0.09, 0.926, 0.164, 192.0, 1.0, 104.0, 14.0, 120.0, 2.5, 16.0, 0.0, 0.0, 0.0, 1.662677822042696E9, 0.0, 2022-09-08 18:57:02.042
142.0, -5840.242605238272, -7704.6686654888, -29560.94200145507, -27329.969683881962, -16393.998729467243, 5541.645651059825, 28423.48407786895, 16834.32809523679, -17135.361389560865, -9302.527821365336, -20215.14120282426, -29234.69593938541, 5154.692251049549, -11751.027315977493, -10326.528290096318, -10724.590507100882, 0.09, 0.926, 0.164, 192.0, 0.0, 0.0, 0.0, 0.0, 0.0, 0.0, 0.0, 0.0, 0.0, 1.6626778220427008E9, 0.0, 2022-09-08 18:57:02.042
144.0, -5817.15325321594, -7675.030252341063, -29546.50277453694, -27308.15438129358, -16394.33400563407, 5585.365663214406, 28455.983514306965, 16873.041316633382, -17122.57619173243, -9280.064318187753, -20194.063507802904, -29214.177037975438, 5169.176181456588, -11721.970048185594, -10314.145423668078, -10715.560402340938, 0.09, 0.926, 0.164, 192.0, 0.0, 0.0, 0.0, 0.0, 0.0, 0.0, 0.0, 0.0, 0.0, 1.6626778220427055E9, 0.0, 2022-09-08 18:57:02.042
146.0, -5835.839311580577, -7690.788232182054, -29555.1752513856, -27309.562541194267, -16418.742110579267, 5564.735003082157, 28451.647275882635, 16839.021961572405, -17143.475072798145, -9291.128431693129, -20200.18788578366, -29215.54049438721, 5153.664070804604, -11730.597821545342, -10317.274667891821, -10721.841242532879, 0.09, 0.926, 0.164, 192.0, 0.0, 0.0, 0.0, 0.0, 0.0, 0.0, 0.0, 0.0, 0.0, 1.6626778220427115E9, 0.0, 2022-09-08 18:57:02.042
148.0, -5831.01133477823, -7681.311092533004, -29548.80500421584, -27291.54703516329, -16393.551694578135, 5561.829276302967, 28479.095218073755, 16864.212377573538, -17135.763720961062, -9276.17511465253, -20191.80598161292, -29202.777648303232, 5159.229655173976, -11717.74556848354, -10306.121147408623, -10706.64205630327, 0.09, 0.926, 0.164, 192.0, 0.0, 0.0, 0.0, 0.0, 0.0, 0.0, 0.0, 0.0, 0.0, 1.662677822042717E9, 0.0, 2022-09-08 18:57:02.042
150.0, -5829.714933599822, -7672.772726151076, -29539.216105844513, -27276.951346033973, -16384.320424118094, 5576.022634032087, 28433.96704601849, 16874.114200367236, -17134.400264549287, -9264.932187191509, -20189.10142053383, -29195.714497055353, 5152.9488149820345, -11697.293722306935, -10308.311618365244, -10698.193096899164, 0.122, 0.93, 0.166, 192.0, 1.5, 104.0, 14.5, 8.0, 2.5, 24.0, 0.0, 0.0, 0.0, 1.6626778220427225E9, 0.0, 2022-09-08 18:57:02.042
152.0, -5817.019142749208, -7659.3169759889815, -29523.011091114415, -27256.834776024196, -16368.450685554826, 5592.697035395746, 28502.78806719638, 16897.091793667292, -17117.1894213187, -9234.913794388032, -20166.190882467137, -29171.44050257689, 5162.425954631085, -11671.320995249867, -10277.846190672659, -10673.270901831496, 0.122, 0.93, 0.166, 192.0, 0.0, 0.0, 0.0, 0.0, 0.0, 0.0, 0.0, 0.0, 0.0, 1.6626778220427272E9, 0.0, 2022-09-08 18:57:02.042
154.0, -5823.970535274808, -7662.043888812529, -29517.669024189596, -27250.084549198695, -16382.755802006222, 5590.595971416948, 28432.514182628893, 16877.377555057712, -17116.787089918507, -9228.431788495993, -20159.84298704183, -29167.596002530576, 5162.872989520191, -11660.25688174449, -10269.173713824, -10670.342823307852, 0.122, 0.93, 0.166, 192.0, 0.0, 0.0, 0.0, 0.0, 0.0, 0.0, 0.0, 0.0, 0.0, 1.662677822042732E9, 0.0, 2022-09-08 18:57:02.042
156.0, -5806.580878088579, -7642.016725780574, -29506.89548336214, -27234.058348424238, -16370.685860000356, 5607.337428013972, 28446.618133380194, 16893.82843897682, -17117.949380630183, -9211.690331898968, -20152.5563183494, -29161.270458849725, 5163.565893598306, -11655.272442730957, -10265.686841688972, -10665.470143016595, 0.122, 0.93, 0.166, 192.0, 0.0, 0.0, 0.0, 0.0, 0.0, 0.0, 0.0, 0.0, 0.0, 1.6626778220427372E9, 0.0, 2022-09-08 18:57:02.042
158.0, -5811.811186291121, -7642.016725780574, -29507.87896011817, -27227.889266954575, -16357.18540634935, 5617.73098918569, 28410.318900384773, 16883.166656871635, -17110.10391832637, -9175.279340181272, -20141.78277752194, -29147.01004588724, 5170.137306468166, -11631.870166286251, -10251.337021748664, -10644.615965439792, 0.122, 0.93, 0.166, 192.0, 0.0, 0.0, 0.0, 0.0, 0.0, 0.0, 0.0, 0.0, 0.0, 1.6626778220427425E9, 0.0, 2022-09-08 18:57:02.042
160.0, -5795.784985516666, -7623.241260438116, -29497.440695457542, -27217.89803718305, -16363.063915141096, 5634.1595213603405, 28439.15265073212, 16900.064575679848, -17104.113650812345, -9182.230732706874, -20137.64770479771, -29148.37350229901, 5170.9643210130125, -11633.904175031683, -10249.705344403428, -10633.551851934417, 0.14400000000000002, 0.9460000000000001, 0.16, 192.0, 2.0, 64.0, 14.5, 72.0, 2.5, 0.0, 0.0, 0.0, 0.0, 1.6626778220427475E9, 0.0, 2022-09-08 18:57:02.042
162.0, -5794.510936082714, -7620.000257492096, -29483.44850342852, -27207.415069033515, -16364.315612830595, 5637.579338262002, 28488.550005978348, 16894.3872325882, -17096.514057697543, -9192.646645623046, -20129.26580062697, -29141.66797896242, 5187.079928765289, -11630.283192429924, -10225.87838481407, -10617.212726737587, 0.14400000000000002, 0.9460000000000001, 0.16, 192.0, 0.0, 0.0, 0.0, 0.0, 0.0, 0.0, 0.0, 0.0, 0.0, 1.6626778220427525E9, 0.0, 2022-09-08 18:57:02.042
164.0, -5796.053206450129, -7622.1013214708955, -29477.68175335905, -27206.76686844431, -16349.563461490092, 5642.094390641974, 28472.456749970526, 16900.601017546775, -17090.27792099451, -9192.713700856411, -20119.520440044456, -29140.751557439755, 5198.009931803934, -11618.749692290985, -10219.508137644309, -10616.653933126205, 0.14400000000000002, 0.9460000000000001, 0.16, 192.0, 0.0, 0.0, 0.0, 0.0, 0.0, 0.0, 0.0, 0.0, 0.0, 1.6626778220427575E9, 0.0, 2022-09-08 18:57:02.042
166.0, -5813.554622358635, -7645.1683217487725, -29492.12098027718, -27230.951455944953, -16365.299089586628, 5611.181928060285, 28487.96886062251, 16856.94806062556, -17094.4353454632, -9201.25206723834, -20130.763367505475, -29152.173298856414, 5198.166394015121, -11645.392971681711, -10209.11457647259, -10623.314752973885, 0.14400000000000002, 0.9460000000000001, 0.16, 192.0, 0.0, 0.0, 0.0, 0.0, 0.0, 0.0, 0.0, 0.0, 0.0, 1.6626778220427656E9, 0.0, 2022-09-08 18:57:02.042
168.0, -5825.378695175493, -7658.46760969968, -29504.526198449876, -27245.189517162984, -16363.28743258565, 5599.983704088176, 28462.510223687917, 16833.38932196967, -17119.022264364037, -9215.646590667557, -20155.238527684036, -29178.838929991598, 5184.956513042034, -11662.11207653428, -10239.401190209532, -10662.229140070574, 0.14400000000000002, 0.9460000000000001, 0.16, 192.0, 0.0, 0.0, 0.0, 0.0, 0.0, 0.0, 0.0, 0.0, 0.0, 1.6626778220427709E9, 0.0, 2022-09-08 18:57:02.042
170.0, -5827.658573109934, -7652.432638696747, -29503.632128671663, -27239.132194415593, -16360.314650573095, 5611.517204227114, 28494.182645581084, 16830.014208556917, -17108.114613069847, -9214.037265066776, -20151.79635903792, -29163.237412361792, 5181.603751373738, -11660.860378844784, -10234.863786085103, -10647.722857919081, 0.154, 0.9560000000000001, 0.16, 192.0, 2.0, 104.0, 14.5, 112.0, 2.5, 0.0, 0.0, 0.0, 0.0, 1.6626778220427756E9, 0.0, 2022-09-08 18:57:02.042
172.0, -5825.892785297965, -7651.695031129722, -29509.331823507768, -27247.134118930593, -16359.018249394687, 5614.735855428678, 28433.855287296214, 16840.541880195367, -17124.43138652222, -9221.122768059107, -20162.74871382102, -29174.01095318925, 5166.2704546773975, -11669.622262671264, -10260.814161397715, -10661.782105181468, 0.154, 0.9560000000000001, 0.16, 192.0, 0.0, 0.0, 0.0, 0.0, 0.0, 0.0, 0.0, 0.0, 0.0, 1.6626778220427806E9, 0.0, 2022-09-08 18:57:02.042
174.0, -5810.805357790632, -7630.930260530742, -29505.08499206126, -27235.846487980663, -16366.215511109294, 5641.870873197422, 28484.839616398767, 16833.366970225212, -17104.29246476799, -9195.77588984679, -20152.109283460293, -29153.737920968288, 5176.507553637928, -11658.289928232423, -10257.595510196152, -10651.321488776384, 0.154, 0.9560000000000001, 0.16, 192.0, 0.0, 0.0, 0.0, 0.0, 0.0, 0.0, 0.0, 0.0, 0.0, 1.662677822042786E9, 0.0, 2022-09-08 18:57:02.042
176.0, -5798.981284973775, -7617.653324324289, -29498.89355884714, -27223.73184248589, -16354.749066203722, 5616.59105021847, 28439.28676119885, 16815.127946749682, -17105.588865946396, -9199.530982915281, -20140.84400425482, -29137.48820274928, 5183.660111863627, -11630.327895918834, -10263.36226026562, -10656.663555701203, 0.154, 0.9560000000000001, 0.16, 192.0, 0.0, 0.0, 0.0, 0.0, 0.0, 0.0, 0.0, 0.0, 0.0, 1.662677822042791E9, 0.0, 2022-09-08 18:57:02.042
178.0, -5796.1649651724065, -7609.204364920183, -29500.74875363693, -27222.524848285302, -16360.135836617452, 5624.391809033372, 28451.20024099353, 16807.32718793478, -17109.165145059247, -9183.750651329834, -20134.876088485253, -29121.46200197482, 5186.252914220442, -11633.904175031683, -10261.596472453652, -10651.746171921037, 0.154, 0.9560000000000001, 0.16, 192.0, 0.0, 0.0, 0.0, 0.0, 0.0, 0.0, 0.0, 0.0, 0.0, 1.662677822042796E9, 0.0, 2022-09-08 18:57:02.042
180.0, -5797.126090183984, -7612.26655391056, -29500.45818095901, -27225.05059540875, -16360.851092440022, 5616.859271151933, 28437.05158675332, 16797.47006862999, -17101.20792403316, -9180.375537917083, -20131.232754139037, -29121.19378104136, 5189.896248566657, -11644.655364114686, -10277.443859272464, -10659.725744691581, 0.148, 0.9380000000000001, 0.152, 192.0, 2.0, 80.0, 14.5, 40.0, 2.0, 96.0, 0.0, 0.0, 0.0, 1.662677822042801E9, 0.0, 2022-09-08 18:57:02.042
182.0, -5800.255334407728, -7618.9944289916075, -29505.64378567264, -27231.689063511978, -16369.724734988778, 5628.236309079684, 28491.276918801897, 16798.967635508496, -17095.977615830616, -9182.498953640337, -20139.659361798687, -29128.547504967155, 5189.560972399828, -11647.426980427144, -10268.391402768064, -10651.477950987572, 0.148, 0.9380000000000001, 0.152, 192.0, 0.0, 0.0, 0.0, 0.0, 0.0, 0.0, 0.0, 0.0, 0.0, 1.662677822042806E9, 0.0, 2022-09-08 18:57:02.042
184.0, -5808.503128111735, -7627.1528157177945, -29516.529085222377, -27234.5277350578, -16371.334060589561, 5612.053646094042, 28444.986456034956, 16775.721821274976, -17098.123383298323, -9196.737014858367, -20147.19189968013, -29138.605789972044, 5186.767004342914, -11659.4522189441, -10279.634330229084, -10655.210692311608, 0.148, 0.9380000000000001, 0.152, 192.0, 0.0, 0.0, 0.0, 0.0, 0.0, 0.0, 0.0, 0.0, 0.0, 1.662677822042811E9, 0.0, 2022-09-08 18:57:02.042
186.0, -5813.800491547643, -7635.266498955071, -29521.13354458017, -27236.6287990366, -16366.90841518741, 5609.617305948414, 28568.502195894984, 16761.08142865675, -17101.900828111273, -9190.746747344345, -20154.031533483452, -29142.226772573802, 5179.279169950387, -11646.264689715468, -10273.599359226151, -10648.371058508284, 0.148, 0.9380000000000001, 0.152, 192.0, 0.0, 0.0, 0.0, 0.0, 0.0, 0.0, 0.0, 0.0, 0.0, 1.662677822042816E9, 0.0, 2022-09-08 18:57:02.042
188.0, -5828.44088416587, -7646.956461305197, -29522.228780058478, -27237.031130436797, -16369.657679755412, 5611.159576315829, 28537.679140291115, 16826.52733642189, -17115.40128176228, -9223.179128548996, -20166.615565611788, -29159.124691382014, 5167.298634922342, -11665.375431224757, -10277.645024972562, -10657.82584641288, 0.148, 0.9380000000000001, 0.152, 192.0, 0.0, 0.0, 0.0, 0.0, 0.0, 0.0, 0.0, 0.0, 0.0, 1.6626778220428212E9, 0.0, 2022-09-08 18:57:02.042
190.0, -5812.995828747253, -7627.84571979591, -29506.87313161768, -27229.63270302209, -16364.069743641585, 5627.20812883474, 28584.84132109181, 16833.434025458577, -17101.409089733253, -9209.924544086998, -20153.159815449693, -29138.91871439442, 5182.184896729576, -11645.527082148443, -10261.88704513157, -10627.360418720296, 0.154, 0.932, 0.156, 192.0, 2.0, 104.0, 14.5, 16.0, 2.0, 112.0, 0.0, 0.0, 0.0, 1.6626778220428264E9, 0.0, 2022-09-08 18:57:02.042
192.0, -5820.10368348404, -7630.013839008074, -29496.188997768048, -27225.14000238657, -16354.61495573699, 5635.075942883008, 28544.541125838892, 16866.402848530157, -17110.550953215476, -9203.621352150602, -20154.210347439093, -29140.930371395396, 5180.93319904008, -11653.976041552549, -10253.996879338847, -10633.373037978774, 0.154, 0.932, 0.156, 192.0, 0.0, 0.0, 0.0, 0.0, 0.0, 0.0, 0.0, 0.0, 0.0, 1.6626778220428317E9, 0.0, 2022-09-08 18:57:02.042
194.0, -5794.5779913160795, -7605.225754407139, -29480.878052816162, -27212.421859791502, -16368.204816365816, 5644.664841254335, 28582.583794901824, 16855.00345885795, -17101.967883344638, -9200.20153524894, -20144.353228134303, -29128.18987705587, 5182.900152552146, -11659.139294521725, -10235.422579696487, -10623.560622162893, 0.154, 0.932, 0.156, 192.0, 0.0, 0.0, 0.0, 0.0, 0.0, 0.0, 0.0, 0.0, 0.0, 1.6626778220428371E9, 0.0, 2022-09-08 18:57:02.042
196.0, -5808.7713490452, -7622.660115082278, -29495.630204156663, -27224.49180179737, -16372.786923979154, 5617.775692674601, 28533.02997744441, 16802.879190788175, -17094.792973374482, -9193.317197956705, -20130.31633261637, -29116.455211216835, 5185.560010142328, -11633.59125060931, -10236.718980874895, -10623.426511696161, 0.154, 0.932, 0.156, 192.0, 0.0, 0.0, 0.0, 0.0, 0.0, 0.0, 0.0, 0.0, 0.0, 1.6626778220428424E9, 0.0, 2022-09-08 18:57:02.042
198.0, -5801.9764187307865, -7619.486167369625, -29495.11611403419, -27219.99910116185, -16371.781095478666, 5616.63575370738, 28598.028850320443, 16834.775130125898, -17111.86970613834, -9198.100471270141, -20150.924641004163, -29136.460022504336, 5168.7962018008475, -11670.091649304826, -10256.544978206752, -10639.363305492796, 0.154, 0.932, 0.156, 192.0, 0.0, 0.0, 0.0, 0.0, 0.0, 0.0, 0.0, 0.0, 0.0, 1.6626778220428488E9, 0.0, 2022-09-08 18:57:02.042
200.0, -5796.947276228342, -7610.41135912077, -29480.45336967151, -27213.80766794773, -16355.844301682033, 5638.004021406654, 28593.6479084072, 16848.834377388284, -17106.95232235817, -9171.993633746342, -20140.396969365713, -29125.060632832126, 5184.777699086392, -11646.063524015372, -10241.636364655062, -10620.05139828341, 0.14700000000000002, 0.9390000000000001, 0.164, 192.0, 2.0, 48.0, 14.5, 72.0, 2.5, 48.0, 0.0, 0.0, 0.0, 1.6626778220428553E9, 0.0, 2022-09-08 18:57:02.042
202.0, -5790.2417528917495, -7602.297675883494, -29483.940241806537, -27218.30036858325, -16348.982316134254, 5651.549178546569, 28633.14344085973, 16855.226976302503, -17094.52475244102, -9173.893532025044, -20136.172489663662, -29126.111164821526, 5196.020626547412, -11648.499864161, -10235.489634929852, -10618.777348849459, 0.14700000000000002, 0.9390000000000001, 0.164, 192.0, 0.0, 0.0, 0.0, 0.0, 0.0, 0.0, 0.0, 0.0, 0.0, 1.6626778220428605E9, 0.0, 2022-09-08 18:57:02.042
204.0, -5808.681942067378, -7618.681504569234, -29500.03349781436, -27237.276999625803, -16353.47501676977, 5620.368495031416, 28565.551765626882, 16817.966618295504, -17104.113650812345, -9186.656378109024, -20143.88384150074, -29135.633007959488, 5184.062443263822, -11655.518311919966, -10252.275795015788, -10628.992096065533, 0.14700000000000002, 0.9390000000000001, 0.164, 192.0, 0.0, 0.0, 0.0, 0.0, 0.0, 0.0, 0.0, 0.0, 0.0, 1.662677822042866E9, 0.0, 2022-09-08 18:57:02.042
206.0, -5818.159081716429, -7626.236394195127, -29508.50480896292, -27254.28667715629, -16377.05610717012, 5602.487099467171, 28649.683731756657, 16837.457339460532, -17116.228296307123, -9201.073253282697, -20160.26767018648, -29158.789415215186, 5171.724280324493, -11683.905027378205, -10260.1212573196, -10650.561529464905, 0.14700000000000002, 0.9390000000000001, 0.164, 192.0, 0.0, 0.0, 0.0, 0.0, 0.0, 0.0, 0.0, 0.0, 0.0, 1.6626778220428715E9, 0.0, 2022-09-08 18:57:02.042
208.0, -5827.2785934541935, -7640.765028091077, -29508.281291518368, -27260.813386537244, -16381.124124660984, 5599.447262221249, 28624.47096401107, 16804.577923366778, -17128.208831335167, -9220.027532580798, -20172.695240103632, -29166.187842629894, 5167.9691872560015, -11682.250998288513, -10265.306862033232, -10652.77435216598, 0.14700000000000002, 0.9390000000000001, 0.164, 192.0, 0.0, 0.0, 0.0, 0.0, 0.0, 0.0, 0.0, 0.0, 0.0, 1.6626778220428767E9, 0.0, 2022-09-08 18:57:02.042
210.0, -5812.459386880325, -7630.527929130546, -29505.286157761355, -27252.520889344323, -16335.548917716613, 5627.453998023749, 28639.9607229186, 16791.949187749527, -17124.409034777767, -9219.714608158423, -20167.95667027911, -29160.085816393595, 5174.272379192398, -11684.285007033946, -10267.564388223218, -10666.654785472725, 0.1395, 0.9355, 0.172, 192.0, 2.0, 16.0, 14.5, 16.0, 2.5, 80.0, 0.0, 0.0, 0.0, 1.662677822042882E9, 0.0, 2022-09-08 18:57:02.042
212.0, -5809.978343245786, -7624.425902894248, -29502.35807923771, -27234.617142035622, -16366.819008209588, 5666.726013031723, 28681.44556062765, 16920.225849178536, -17112.3390927719, -9195.15004100204, -20159.12773121926, -29143.411415029936, 5179.636797861672, -11676.663062174686, -10249.03479206977, -10633.283631000952, 0.1395, 0.9355, 0.172, 192.0, 0.0, 0.0, 0.0, 0.0, 0.0, 0.0, 0.0, 0.0, 0.0, 1.6626778220428872E9, 0.0, 2022-09-08 18:57:02.042
214.0, -5801.462328608314, -7621.609583092879, -29511.65640493112, -27251.850337010663, -16387.874351486487, 5624.771788689111, 28634.75276646051, 16877.846941691274, -17115.803613162472, -9177.000424504331, -20154.389161394734, -29141.01977837322, 5188.97982704399, -11665.911873091683, -10263.786943410272, -10634.870604857279, 0.1395, 0.9355, 0.172, 192.0, 0.0, 0.0, 0.0, 0.0, 0.0, 0.0, 0.0, 0.0, 0.0, 1.6626778220428927E9, 0.0, 2022-09-08 18:57:02.042
216.0, -5827.859738810032, -7638.84277806792, -29524.75452718193, -27266.20015695097, -16369.031830910664, 5615.071131595509, 28679.59036583786, 16854.71288618003, -17131.96392440366, -9211.310352243228, -20162.972231265572, -29148.976999399307, 5177.0216437604, -11685.112021578792, -10265.329213777688, -10650.9638608651, 0.1395, 0.9355, 0.172, 192.0, 0.0, 0.0, 0.0, 0.0, 0.0, 0.0, 0.0, 0.0, 0.0, 1.6626778220428977E9, 0.0, 2022-09-08 18:57:02.042
218.0, -5827.904442298943, -7637.9487082897085, -29515.07622183278, -27258.555860347256, -16362.594528507536, 5642.966108675731, 28638.0608246399, 16857.462150748033, -17137.216584350655, -9203.464889939414, -20166.123827233772, -29150.25104883326, 5171.657225091127, -11676.484248219043, -10266.424449255997, -10651.276785287475, 0.1395, 0.9355, 0.172, 192.0, 0.0, 0.0, 0.0, 0.0, 0.0, 0.0, 0.0, 0.0, 0.0, 1.6626778220429032E9, 0.0, 2022-09-08 18:57:02.042
220.0, -5840.197901749361, -7657.551188177013, -29526.632073716173, -27276.772532078332, -16397.217380668804, 5616.769864174112, 28612.71394642758, 16837.5243946939, -17134.981409905125, -9203.10726202813, -20174.95276629362, -29155.05667389115, 5167.92448376709, -11697.874867662773, -10274.873408660103, -10657.088238845854, 0.12375, 0.93075, 0.183, 192.0, 1.5, 48.0, 14.0, 120.0, 3.0, 8.0, 0.0, 0.0, 0.0, 1.6626778220429084E9, 0.0, 2022-09-08 18:57:02.042
222.0, -5819.969573017308, -7636.652307111301, -29499.89938734763, -27252.900869000063, -16359.912319172898, 5642.362611575439, 28646.800356721924, 16859.026772859906, -17136.613087250364, -9198.480450925881, -20170.080086002363, -29153.24618259027, 5164.772887798892, -11679.702899420608, -10274.2252080709, -10659.166951080198, 0.12375, 0.93075, 0.183, 192.0, 0.0, 0.0, 0.0, 0.0, 0.0, 0.0, 0.0, 0.0, 0.0, 1.6626778220429137E9, 0.0, 2022-09-08 18:57:02.042
224.0, -5829.647878366456, -7649.549263662013, -29508.08012581827, -27270.134063975107, -16388.366089864503, 5617.216899063218, 28691.369735165805, 16850.466054733522, -17127.4935755126, -9204.068387039708, -20159.619469597277, -29147.43472903189, 5176.060518748823, -11692.17517282667, -10247.872501358093, -10647.208767796608, 0.12375, 0.93075, 0.183, 192.0, 0.0, 0.0, 0.0, 0.0, 0.0, 0.0, 0.0, 0.0, 0.0, 1.6626778220429196E9, 0.0, 2022-09-08 18:57:02.042
226.0, -5829.491416155269, -7646.576481649457, -29501.709878648508, -27265.64136333959, -16360.135836617452, 5625.531748000592, 28618.972434875064, 16845.459263975532, -17139.83173845193, -9220.698084914457, -20169.007202268505, -29163.282115850703, 5160.548408096839, -11704.490984021544, -10264.256330043832, -10667.68296571767, 0.12375, 0.93075, 0.183, 192.0, 0.0, 0.0, 0.0, 0.0, 0.0, 0.0, 0.0, 0.0, 0.0, 1.662677822042925E9, 0.0, 2022-09-08 18:57:02.042
228.0, -5829.044381266163, -7649.1022287729065, -29501.396954226133, -27274.24678495488, -16385.6168252965, 5611.49485248266, 28689.91687177621, 16847.15799655414, -17123.179688832723, -9209.745730131357, -20161.429960898156, -29153.447348290367, 5171.6125216022165, -11698.634826974252, -10258.64604218555, -10648.594575952839, 0.12375, 0.93075, 0.183, 192.0, 0.0, 0.0, 0.0, 0.0, 0.0, 0.0, 0.0, 0.0, 0.0, 1.6626778220429304E9, 0.0, 2022-09-08 18:57:02.042
230.0, -5829.53611964418, -7648.27521422806, -29499.74292513644, -27276.951346033973, -16378.330156604072, 5617.239250807674, 28626.7061384566, 16844.72165640851, -17122.48678475461, -9227.940050117975, -20164.17922546616, -29166.389008329992, 5177.111050738222, -11709.564830012898, -10266.402097511542, -10662.609119726316, 0.109875, 0.924375, 0.1865, 192.0, 1.5, 0.0, 14.0, 88.0, 2.5, 120.0, 0.0, 0.0, 0.0, 1.662677822042937E9, 0.0, 2022-09-08 18:57:02.042
232.0, -5812.168814202406, -7630.594984363912, -29495.74196287894, -27263.249726682872, -16361.275775584672, 5641.02150690812, 28762.090654622396, 16866.268738063423, -17131.00279939208, -9216.853584868144, -20163.17339696567, -29152.48622327879, 5183.794222330359, -11697.852515918317, -10250.93469034847, -10648.438113741651, 0.109875, 0.924375, 0.1865, 192.0, 0.0, 0.0, 0.0, 0.0, 0.0, 0.0, 0.0, 0.0, 0.0, 1.6626778220429423E9, 0.0, 2022-09-08 18:57:02.042
234.0, -5813.19699444735, -7631.042019253018, -29504.36973623869, -27271.20694770896, -16358.23593833875, 5624.727085200201, 28672.57191807889, 16848.76732215492, -17110.327435770923, -9208.941067330965, -20145.33670489034, -29135.029510859196, 5190.008007288934, -11682.586274455343, -10252.052277571234, -10647.141712563243, 0.109875, 0.924375, 0.1865, 192.0, 0.0, 0.0, 0.0, 0.0, 0.0, 0.0, 0.0, 0.0, 0.0, 1.6626778220429473E9, 0.0, 2022-09-08 18:57:02.042
236.0, -5822.115340485017, -7643.6484031258115, -29514.472724732488, -27285.847340327186, -16378.19604613734, 5612.858308894433, 28655.204612637117, 16847.448569232056, -17119.446947508688, -9218.462910468927, -20160.781760308953, -29145.981865642294, 5185.425899675596, -11701.093518864336, -10277.488562761375, -10652.036744598956, 0.109875, 0.924375, 0.1865, 192.0, 0.0, 0.0, 0.0, 0.0, 0.0, 0.0, 0.0, 0.0, 0.0, 1.6626778220429528E9, 0.0, 2022-09-08 18:57:02.042
238.0, -5841.762523861233, -7661.552150434512, -29518.049003845335, -27299.236035255915, -16384.63334854047, 5610.801948404544, 28650.466042812594, 16836.786787126875, -17128.09707261289, -9242.468684013926, -20175.913891305197, -29164.600868773567, 5179.3015216948415, -11703.351045054324, -10286.94335066597, -10664.844294171846, 0.109875, 0.924375, 0.1865, 192.0, 0.0, 0.0, 0.0, 0.0, 0.0, 0.0, 0.0, 0.0, 0.0, 1.662677822042958E9, 0.0, 2022-09-08 18:57:02.042
240.0, -5833.134750501484, -7647.492903172124, -29509.778858396872, -27291.234110740916, -16375.312671102605, 5602.2859337670725, 28728.987721084086, 16854.5787757133, -17142.558651275474, -9234.891442643577, -20187.268577488492, -29166.746636241274, 5171.411355902119, -11716.359760327312, -10280.483696518386, -10662.542064492949, 0.09593750000000001, 0.9231875, 0.17625000000000002, 192.0, 1.0, 72.0, 14.0, 104.0, 2.5, 24.0, 0.0, 0.0, 0.0, 1.6626778225220647E9, 0.0, 2022-09-08 18:57:02.522
242.0, -5843.908291328942, -7655.651289898311, -29518.85366664573, -27304.22047426945, -16378.95600544882, 5585.1421457698525, 28629.075423368864, 16822.124042764193, -17123.24674406609, -9238.73594268989, -20179.24430122904, -29168.512424053246, 5176.26168444892, -11710.190678857647, -10280.327234307199, -10671.236893086063, 0.09593750000000001, 0.9231875, 0.17625000000000002, 192.0, 0.0, 0.0, 0.0, 0.0, 0.0, 0.0, 0.0, 0.0, 0.0, 1.6626778225221744E9, 0.0, 2022-09-08 18:57:02.522
244.0, -5838.029782537196, -7659.607548666901, -29519.21129455701, -27309.853113872185, -16402.11241270452, 5600.430738977282, 28605.80725739089, 16827.488461433466, -17135.137872116313, -9242.245166569373, -20192.38712696876, -29185.723267283833, 5168.729146567482, -11725.702789509629, -10296.666359504028, -10691.308759606929, 0.09593750000000001, 0.9231875, 0.17625000000000002, 192.0, 0.0, 0.0, 0.0, 0.0, 0.0, 0.0, 0.0, 0.0, 0.0, 1.6626778225221798E9, 0.0, 2022-09-08 18:57:02.522
246.0, -5835.235814480283, -7654.019612553074, -29504.257977516412, -27295.5927009097, -16350.301069057115, 5583.085785279964, 28615.105583084296, 16834.864537103716, -17121.995046376593, -9249.01774513933, -20177.724382606077, -29181.09645618158, 5173.802992558836, -11716.94090568315, -10287.569199510717, -10681.406936813228, 0.09593750000000001, 0.9231875, 0.17625000000000002, 192.0, 0.0, 0.0, 0.0, 0.0, 0.0, 0.0, 0.0, 0.0, 0.0, 1.6626778225221844E9, 0.0, 2022-09-08 18:57:02.522
248.0, -5839.773218604711, -7655.360717220393, -29513.243378787447, -27302.49938994639, -16362.885101185455, 5590.9535993282325, 28675.410589624717, 16866.559310741344, -17136.121348872348, -9267.480286059414, -20188.363812966803, -29191.177092930928, 5165.108163965722, -11724.585202286864, -10278.784963939783, -10677.048346644444, 0.09593750000000001, 0.9231875, 0.17625000000000002, 192.0, 0.0, 0.0, 0.0, 0.0, 0.0, 0.0, 0.0, 0.0, 0.0, 1.662677822522189E9, 0.0, 2022-09-08 18:57:02.522
250.0, -5834.6770208689, -7647.135275260839, -29493.216215755492, -27288.373087450636, -16375.871464713988, 5593.926381340788, 28569.306858695374, 16846.979182598494, -17125.146642344793, -9254.583329508701, -20183.871112331286, -29186.796151017686, 5169.243236689954, -11709.31896082389, -10282.964740152926, -10672.287425075463, 0.09796875000000001, 0.93359375, 0.16612500000000002, 192.0, 1.5, 16.0, 14.5, 64.0, 2.0, 112.0, 0.0, 0.0, 0.0, 1.6626778225221932E9, 0.0, 2022-09-08 18:57:02.522
252.0, -5833.179453990395, -7640.921490302264, -29499.787628625352, -27291.25646248537, -16381.034717683164, 5595.15572728583, 28580.32626871184, 16867.453380519557, -17105.92414211323, -9232.857433898143, -20173.544606392934, -29175.95555495686, 5182.430765918585, -11696.17613508417, -10281.578931996695, -10664.39725928274, 0.09796875000000001, 0.93359375, 0.16612500000000002, 192.0, 0.0, 0.0, 0.0, 0.0, 0.0, 0.0, 0.0, 0.0, 0.0, 1.6626778225221975E9, 0.0, 2022-09-08 18:57:02.522
254.0, -5844.958823318341, -7653.840798597432, -29507.722497906983, -27291.770552607843, -16399.47490685879, 5578.123698010886, 28610.121144070763, 16879.880950436705, -17099.643301921285, -9250.314146317738, -20181.47947567457, -29185.87972949502, 5174.8982280371465, -11709.162498612703, -10287.65860648854, -10666.140695350254, 0.09796875000000001, 0.93359375, 0.16612500000000002, 192.0, 0.0, 0.0, 0.0, 0.0, 0.0, 0.0, 0.0, 0.0, 0.0, 1.6626778225222023E9, 0.0, 2022-09-08 18:57:02.522
0.0, -5840.533177916191, -7648.968118306175, -29511.343480508745, -27292.508160174868, -16394.33400563407, 5586.885581837366, 28592.351507228796, 16859.026772859906, -17118.374063774834, -9238.937108389988, -20188.14029552225, -29199.58134884612, 5163.6329488316715, -11709.944809668637, -10292.665397246528, -10667.995890140044, 0.09796875000000001, 0.93359375, 0.16612500000000002, 192.0, 0.0, 0.0, 0.0, 0.0, 0.0, 0.0, 0.0, 0.0, 0.0, 1.6626778225222065E9, 0.0, 2022-09-08 18:57:02.522
2.0, -5858.951015347364, -7676.907798875309, -29523.5698847258, -27299.97364282294, -16379.693613015845, 5565.606721115914, 28618.95008313061, 16809.65176935813, -17124.20786907767, -9259.321899333227, -20200.701975906133, -29192.92052899844, 5165.666957577105, -11717.23147836107, -10292.285417590789, -10677.696547233647, 0.09796875000000001, 0.93359375, 0.16612500000000002, 192.0, 0.0, 0.0, 0.0, 0.0, 0.0, 0.0, 0.0, 0.0, 0.0, 1.6626778225222118E9, 0.0, 2022-09-08 18:57:02.522
4.0, -5846.724611130311, -7659.89812134482, -29504.570901938787, -27289.356564206668, -16373.52453154618, 5615.16053857333, 28623.28632155494, 16952.702933872097, -17142.15631987528, -9333.954374069497, -20197.6174351713, -29219.96613978936, 5167.9691872560015, -11701.741719453541, -10291.65956874604, -10658.809323168913, 0.09398437500000001, 0.9417968750000001, 0.15106250000000002, 192.0, 1.0, 104.0, 14.5, 88.0, 2.0, 32.0, 0.0, 0.0, 0.0, 1.662677822522216E9, 0.0, 2022-09-08 18:57:02.522
6.0, -5851.485532699291, -7659.249920755616, -29512.394012498145, -27297.11261953266, -16361.119313373485, 5619.832053164489, 28587.769399615456, 16911.62042756324, -17098.078679809416, -9205.007160306832, -20184.273443731483, -29186.68439229541, 5153.529960337873, -11706.480289278066, -10287.680958232995, -10645.286517773453, 0.09398437500000001, 0.9417968750000001, 0.15106250000000002, 192.0, 0.0, 0.0, 0.0, 0.0, 0.0, 0.0, 0.0, 0.0, 0.0, 1.6626778225222287E9, 0.0, 2022-09-08 18:57:02.522
8.0, -5844.623547151512, -7656.0312695540515, -29512.59517819824, -27307.21560802646, -16381.05706942762, 5590.506564439126, 28603.88500736773, 16901.472735580533, -17120.810403920463, -9248.615413739135, -20191.873036846286, -29197.949671500883, 5174.495896636951, -11714.862193448806, -10295.03468215879, -10661.960919137111, 0.09398437500000001, 0.9417968750000001, 0.15106250000000002, 192.0, 0.0, 0.0, 0.0, 0.0, 0.0, 0.0, 0.0, 0.0, 0.0, 1.6626778225222332E9, 0.0, 2022-09-08 18:57:02.522
10.0, -5861.029727581707, -7672.593912195434, -29523.726346936983, -27322.92888437854, -16400.23486617027, 5590.238343505663, 28625.007405877997, 16881.356165570756, -17128.700569713186, -9240.032343868297, -20200.679624161676, -29221.530761901235, 5168.460925634018, -11718.12554813928, -10299.616789772128, -10671.549817508438, 0.09398437500000001, 0.9417968750000001, 0.15106250000000002, 192.0, 0.0, 0.0, 0.0, 0.0, 0.0, 0.0, 0.0, 0.0, 0.0, 1.6626778225222375E9, 0.0, 2022-09-08 18:57:02.522
12.0, -5833.447674923858, -7651.18094100725, -29497.79832336883, -27300.867712601153, -16385.996804952243, 5613.39475076136, 28632.875219926267, 16894.20841863256, -17156.662602026772, -9209.67867489799, -20198.399746227235, -29212.72417458584, 5165.711661066015, -11710.145975368736, -10283.590588997673, -10664.956052894122, 0.09398437500000001, 0.9417968750000001, 0.15106250000000002, 192.0, 0.0, 0.0, 0.0, 0.0, 0.0, 0.0, 0.0, 0.0, 0.0, 1.662677822522242E9, 0.0, 2022-09-08 18:57:02.522
14.0, -5852.759582133243, -7667.073031314973, -29529.761317939916, -27303.549921935788, -16388.7684212647, 5590.1936400167515, 28582.56144315737, 16883.27841559391, -17120.229258564625, -9237.797169422767, -20204.032385829974, -29217.48509615482, 5143.918710222091, -11708.626056745776, -10303.327179351709, -10667.124172106287, 0.09398437500000001, 0.9417968750000001, 0.15106250000000002, 192.0, 0.0, 0.0, 0.0, 0.0, 0.0, 0.0, 0.0, 0.0, 0.0, 1.6626778225222464E9, 0.0, 2022-09-08 18:57:02.522
16.0, -5814.851023537043, -7645.749467104611, -29485.50486391841, -27276.571366378234, -16354.011458636698, 5626.425817778804, 28604.868484123766, 16934.575669118844, -17085.271130236524, -9185.449383908437, -20184.452257687124, -29202.040040736207, 5163.16356219811, -11700.311207808401, -10288.597379755662, -10646.784084651958, 0.094, 0.98, 0.14200000000000002, 192.0, 1.0, 120.0, 15.0, 80.0, 2.0, 56.0, 0.0, 0.0, 0.0, 1.6626778225222511E9, 0.0, 2022-09-08 18:57:02.522
18.0, -5822.070636996107, -7652.6561561413, -29499.02766931387, -27287.88134907262, -16352.04450512463, 5614.735855428678, 28655.33872310385, 16919.935276500615, -17087.79687735997, -9154.782790515756, -20171.108266247305, -29195.02159297724, 5162.202437186532, -11703.93219041016, -10268.301995790243, -10624.298229729919, 0.094, 0.98, 0.14200000000000002, 192.0, 0.0, 0.0, 0.0, 0.0, 0.0, 0.0, 0.0, 0.0, 0.0, 1.6626778225222557E9, 0.0, 2022-09-08 18:57:02.522
20.0, -5838.230948237294, -7669.487019716146, -29526.542666738354, -27300.666546901055, -16371.646985011934, 5617.9545066302435, 28611.059917337887, 16888.419316818632, -17106.57234270243, -9204.336607973171, -20191.42600195718, -29218.178000232936, 5189.449213677552, -11704.066300876893, -10277.443859272464, -10643.230157283564, 0.094, 0.98, 0.14200000000000002, 192.0, 0.0, 0.0, 0.0, 0.0, 0.0, 0.0, 0.0, 0.0, 0.0, 1.66267782252226E9, 0.0, 2022-09-08 18:57:02.522
22.0, -5843.7294773733, -7676.460763986202, -29512.617529942698, -27305.226302769937, -16389.975415465287, 5608.700884425746, 28664.994676708542, 16917.320122399346, -17192.850076299917, -9192.62429387859, -20214.291836534958, -29231.07495678365, 5167.231579688976, -11716.806795216418, -10288.485621033386, -10650.807398653913, 0.094, 0.98, 0.14200000000000002, 192.0, 0.0, 0.0, 0.0, 0.0, 0.0, 0.0, 0.0, 0.0, 0.0, 1.6626778225222645E9, 0.0, 2022-09-08 18:57:02.522
24.0, -5835.079352269096, -7666.603644681412, -29512.46106773151, -27308.489657460414, -16383.024022939686, 5617.4851199966815, 28580.32626871184, 16908.222962406035, -17081.76190635704, -9126.172557612963, -20183.96051930911, -29224.369433447057, 5103.39499752462, -11724.808719731418, -10291.167830368022, -10656.663555701203, 0.094, 0.98, 0.14200000000000002, 192.0, 0.0, 0.0, 0.0, 0.0, 0.0, 0.0, 0.0, 0.0, 0.0, 1.6626778225222688E9, 0.0, 2022-09-08 18:57:02.522
26.0, -5819.679000339389, -7648.118752016873, -29500.994622825936, -27297.6937648885, -16352.648002224923, 5645.648318010369, 28687.94991826414, 16934.50861388548, -17045.015638472516, -9079.971501823844, -20184.60871989831, -29202.06239248066, 5093.694340431016, -11703.239286332046, -10276.393327283064, -10634.803549623914, 0.096, 0.978, 0.156, 192.0, 1.5, 0.0, 15.0, 72.0, 2.0, 112.0, 0.0, 0.0, 0.0, 1.6626778225222733E9, 0.0, 2022-09-08 18:57:02.522
28.0, -5815.678038081889, -7646.218853738172, -29495.205521012012, -27295.525645676335, -16370.171769877885, 5645.1342278878965, 28626.52732450096, 16924.137404458215, -17073.24589171957, -9059.40789692496, -20174.930414549162, -29203.515255870254, 5086.474726971952, -11697.628998473763, -10272.213551069923, -10638.91627060369, 0.096, 0.978, 0.156, 192.0, 0.0, 0.0, 0.0, 0.0, 0.0, 0.0, 0.0, 0.0, 0.0, 1.6626778225222776E9, 0.0, 2022-09-08 18:57:02.522
30.0, -5823.434093407881, -7650.823313095965, -29512.08108807577, -27318.01150059837, -16371.892854200943, 5634.315983571528, 28666.939278476155, 16918.281247410923, -17030.46465283211, -9053.283518944207, -20171.912929047696, -29189.50071209678, 5094.588410209228, -11701.60760898681, -10277.533266250286, -10632.948354834123, 0.096, 0.978, 0.156, 192.0, 0.0, 0.0, 0.0, 0.0, 0.0, 0.0, 0.0, 0.0, 0.0, 1.662677822522282E9, 0.0, 2022-09-08 18:57:02.522
32.0, -5809.3748461454925, -7633.008972765086, -29498.379468724666, -27292.26229098586, -16362.61688025199, 5648.978727934209, 28651.293057357438, 16922.438671879612, -17037.46074884662, -9039.514844359737, -20184.966347809597, -29203.6940698259, 5048.923796287036, -11699.953579897116, -10282.718870963916, -10646.694677674137, 0.096, 0.978, 0.156, 192.0, 0.0, 0.0, 0.0, 0.0, 0.0, 0.0, 0.0, 0.0, 0.0, 1.6626778225222864E9, 0.0, 2022-09-08 18:57:02.522
34.0, -5806.357360644026, -7632.405475664792, -29493.395029711133, -27293.670450886544, -16356.961888904798, 5647.391754077882, 28703.037345771474, 16930.060616738872, -17010.191620611145, -9012.35747484654, -20174.416324426693, -29199.648404079486, 5010.679961524005, -11707.284952078457, -10275.767478438316, -10637.999849081023, 0.096, 0.978, 0.156, 192.0, 0.0, 0.0, 0.0, 0.0, 0.0, 0.0, 0.0, 0.0, 0.0, 1.6626778225222907E9, 0.0, 2022-09-08 18:57:02.522
36.0, -5794.779157016177, -7619.84379528091, -29478.5087679039, -27278.96300303495, -16332.71024617079, 5658.657033283357, 28678.517482104002, 16922.68454106862, -16956.88271008524, -8983.143744843454, -20158.367771907782, -29192.96523248735, 4997.760653228838, -11698.12073685178, -10259.718925919406, -10636.323468246874, 0.088, 0.966, 0.164, 192.0, 1.0, 96.0, 15.0, 24.0, 2.5, 16.0, 0.0, 0.0, 0.0, 1.6626778225222952E9, 0.0, 2022-09-08 18:57:02.522
38.0, -5781.4351655763585, -7606.0751206964405, -29481.92858480556, -27275.945517533484, -16331.123272314462, 5676.69489105879, 28674.00242972403, 16933.43573015162, -16941.63882036672, -8940.429561189361, -20150.924641004163, -29184.58332831661, 4991.748033970361, -11684.530876222954, -10258.489579974364, -10632.143692033731, 0.088, 0.966, 0.164, 192.0, 0.0, 0.0, 0.0, 0.0, 0.0, 0.0, 0.0, 0.0, 0.0, 1.6626778225223007E9, 0.0, 2022-09-08 18:57:02.522
40.0, -5789.772366258188, -7620.156719703284, -29483.381448195156, -27270.134063975107, -16335.794786905622, 5654.566664048036, 28695.10247648984, 16917.67775031063, -16922.01398873496, -8907.416034628874, -20147.281306657947, -29176.82727299062, 4972.838458161171, -11667.252977759003, -10256.343812506653, -10633.216575767587, 0.088, 0.966, 0.164, 192.0, 0.0, 0.0, 0.0, 0.0, 0.0, 0.0, 0.0, 0.0, 0.0, 1.6626778225223053E9, 0.0, 2022-09-08 18:57:02.522
42.0, -5792.543982570646, -7621.207251692683, -29497.485398946454, -27270.022305252827, -16351.485711513247, 5670.905789244865, 28698.812866069424, 16925.232639936523, -16927.512517870968, -8917.139043466932, -20154.41151313919, -29183.57749981612, 4961.439068488964, -11662.536759678933, -10249.817103125704, -10627.695694887125, 0.088, 0.966, 0.164, 192.0, 0.0, 0.0, 0.0, 0.0, 0.0, 0.0, 0.0, 0.0, 0.0, 1.6626778225223167E9, 0.0, 2022-09-08 18:57:02.522
44.0, -5788.140688912951, -7606.499803841091, -29479.31343070429, -27255.91835450153, -16339.929859629854, 5682.1710684503405, 28677.310487903418, 16909.63112230672, -16911.4416136076, -8862.734897462715, -20160.37942890876, -29185.075066694626, 4944.004707813824, -11668.884655104239, -10258.26606252981, -10624.857023341301, 0.088, 0.966, 0.164, 192.0, 0.0, 0.0, 0.0, 0.0, 0.0, 0.0, 0.0, 0.0, 0.0, 1.6626778225223217E9, 0.0, 2022-09-08 18:57:02.522
46.0, -5788.543020313146, -7607.304466641483, -29484.364924951187, -27259.02524698082, -16326.205888534296, 5677.588960837003, 28669.375618621783, 16912.11216594126, -16901.3386251138, -8833.23059478171, -20143.548565333913, -29177.00608694626, 4948.609167171618, -11645.437675170622, -10244.139760034057, -10610.686017356637, 0.084, 0.9560000000000001, 0.176, 192.0, 1.0, 80.0, 14.5, 112.0, 2.5, 64.0, 0.0, 0.0, 0.0, 1.662677822522326E9, 0.0, 2022-09-08 18:57:02.522
48.0, -5783.491526066247, -7604.756367773577, -29475.938317291537, -27249.279886398304, -16319.790937875623, 5687.759004564167, 28646.979170677565, 16914.190878175603, -16899.52813381292, -8825.31807724453, -20149.762350292487, -29181.789360259696, 4936.941556565947, -11647.516387404965, -10238.55182392023, -10608.227325466552, 0.084, 0.9560000000000001, 0.176, 192.0, 0.0, 0.0, 0.0, 0.0, 0.0, 0.0, 0.0, 0.0, 0.0, 1.6626778225223303E9, 0.0, 2022-09-08 18:57:02.522
50.0, -5787.984226701764, -7610.79133877651, -29489.751695364917, -27265.842529039688, -16344.914298643387, 5661.987443207198, 28644.63223750976, 16870.67203172112, -16889.5369040414, -8810.677684626304, -20146.07431245736, -29180.87293873703, 4933.253518730822, -11649.706858361586, -10255.740315406361, -10625.661686141693, 0.084, 0.9560000000000001, 0.176, 192.0, 0.0, 0.0, 0.0, 0.0, 0.0, 0.0, 0.0, 0.0, 0.0, 1.6626778225223348E9, 0.0, 2022-09-08 18:57:02.522
52.0, -5799.428319862881, -7626.236394195127, -29493.12680877767, -27273.86680529914, -16353.944403403331, 5651.727992502212, 28679.366848393303, 16865.62053747422, -16905.49604958249, -8809.895373570369, -20152.46691137158, -29190.126560941528, 4928.917280306492, -11652.612585140776, -10242.709248388917, -10636.636392669248, 0.084, 0.9560000000000001, 0.176, 192.0, 0.0, 0.0, 0.0, 0.0, 0.0, 0.0, 0.0, 0.0, 0.0, 1.662677822522339E9, 0.0, 2022-09-08 18:57:02.522
54.0, -5784.676168522378, -7614.613487078368, -29478.955802793003, -27260.701627814964, -16342.075627097563, 5676.69489105879, 28634.61865599378, 16898.231732634515, -16880.596206259277, -8799.658274609837, -20142.4533298556, -29196.07212496664, 4939.087324033657, -11650.176244995147, -10246.665507157506, -10633.0601135564, 0.084, 0.9560000000000001, 0.176, 192.0, 0.0, 0.0, 0.0, 0.0, 0.0, 0.0, 0.0, 0.0, 0.0, 1.6626778225223436E9, 0.0, 2022-09-08 18:57:02.522
56.0, -5790.5323255696685, -7615.351094645393, -29482.800302839318, -27268.48003488541, -16340.198080563317, 5667.374213620927, 28696.980023024087, 16870.515569509935, -16896.10831691126, -8773.462030108218, -20148.153024691706, -29194.328688899124, 4937.656812388517, -11640.92262279065, -10237.456588441919, -10625.304058230407, 0.10400000000000001, 0.934, 0.178, 192.0, 1.5, 32.0, 14.5, 24.0, 2.5, 72.0, 0.0, 0.0, 0.0, 1.6626778225223482E9, 0.0, 2022-09-08 18:57:02.522
58.0, -5775.422546317881, -7605.605734062879, -29468.092854987724, -27250.06219745424, -16322.808423377088, 5665.45196359777, 28672.57191807889, 16863.363011284233, -16887.86052320725, -8764.54368407055, -20138.228850153548, -29187.10907544006, 4956.74520215335, -11627.690390073109, -10235.780207607771, -10627.427473953661, 0.10400000000000001, 0.934, 0.178, 192.0, 0.0, 0.0, 0.0, 0.0, 0.0, 0.0, 0.0, 0.0, 0.0, 1.6626778225223527E9, 0.0, 2022-09-08 18:57:02.522
60.0, -5772.42741256087, -7602.208268905672, -29472.674962601064, -27252.20796492195, -16330.408016491892, 5667.21775140974, 28638.887839184743, 16854.042333846373, -16874.270662578423, -8751.244396119642, -20132.41739659517, -29175.508520067757, 4964.478905734886, -11616.335703889812, -10238.820044853694, -10611.468328412573, 0.10400000000000001, 0.934, 0.178, 192.0, 0.0, 0.0, 0.0, 0.0, 0.0, 0.0, 0.0, 0.0, 0.0, 1.6626778225223567E9, 0.0, 2022-09-08 18:57:02.522
62.0, -5786.62077028999, -7621.676638326245, -29487.047134285825, -27275.766703577843, -16337.024132850664, 5647.056477911053, 28665.82169125339, 16838.597278427755, -16881.04324114838, -8741.431980303763, -20133.512632073478, -29180.604717803566, 4974.224266317399, -11615.039302711404, -10244.497387945341, -10617.793872093425, 0.10400000000000001, 0.934, 0.178, 192.0, 0.0, 0.0, 0.0, 0.0, 0.0, 0.0, 0.0, 0.0, 0.0, 1.6626778225223613E9, 0.0, 2022-09-08 18:57:02.522
64.0, -5794.019197704697, -7630.393818663814, -29490.39989595412, -27281.600508880678, -16319.478013453248, 5653.583187292003, 28730.015901329032, 16838.798444127853, -16906.72539552753, -8762.062640436012, -20159.485359130547, -29213.17120947495, 4966.714080180416, -11637.189881466615, -10249.973565336892, -10625.885203586246, 0.10400000000000001, 0.934, 0.178, 192.0, 0.0, 0.0, 0.0, 0.0, 0.0, 0.0, 0.0, 0.0, 0.0, 1.6626778225223656E9, 0.0, 2022-09-08 18:57:02.522
66.0, -5787.827764490577, -7624.582365105434, -29479.06756151528, -27260.902793515063, -16317.46635645227, 5675.107917202463, 28606.254292279995, 16838.597278427755, -16896.264779122448, -8735.888747678846, -20147.638934569233, -29204.521084370743, 4983.8355164331815, -11627.265706928458, -10251.515835704307, -10616.743340104025, 0.1, 0.918, 0.162, 192.0, 1.5, 16.0, 14.0, 88.0, 2.5, 8.0, 0.0, 0.0, 0.0, 1.66267782252237E9, 0.0, 2022-09-08 18:57:02.522
68.0, -5800.344741385548, -7636.026458266552, -29479.246375470924, -27265.306087172758, -16332.777301404156, 5649.40341107886, 28756.949753397676, 16820.939400308063, -16906.568933316343, -8746.371715828385, -20152.623373582766, -29209.416116406457, 4996.710121239438, -11633.524195375943, -10238.104789031124, -10603.28758994193, 0.1, 0.918, 0.162, 192.0, 0.0, 0.0, 0.0, 0.0, 0.0, 0.0, 0.0, 0.0, 0.0, 1.6626778225223753E9, 0.0, 2022-09-08 18:57:02.522
70.0, -5812.280572924683, -7646.956461305197, -29484.543738906832, -27274.224433210427, -16316.237010507228, 5647.3023471000615, 28655.405778337215, 16817.76545259541, -16905.831325749317, -8756.094724666444, -20154.61267883929, -29220.189657233914, 5011.7751970023155, -11644.54360539241, -10239.177672764978, -10630.489662944039, 0.1, 0.918, 0.162, 192.0, 0.0, 0.0, 0.0, 0.0, 0.0, 0.0, 0.0, 0.0, 0.0, 1.662677822522381E9, 0.0, 2022-09-08 18:57:02.522
72.0, -5819.567241617113, -7643.827217081454, -29480.6098318827, -27263.249726682872, -16321.84729836551, 5670.481106100215, 28703.64084287177, 16941.661172111177, -16938.286058698424, -8763.962538714712, -20171.108266247305, -29229.77855560524, 5006.500185310863, -11641.749637335497, -10242.12810303308, -10599.890124784724, 0.1, 0.918, 0.162, 192.0, 0.0, 0.0, 0.0, 0.0, 0.0, 0.0, 0.0, 0.0, 0.0, 1.6626778225223856E9, 0.0, 2022-09-08 18:57:02.522
74.0, -5832.978288290297, -7651.94090031873, -29466.058846242293, -27256.92418300202, -16322.249629765705, 5681.276998672128, 28619.419469764172, 16902.791488503397, -16958.469683941566, -8753.926605454279, -20164.64861209972, -29221.530761901235, 5033.56814784624, -11617.989732979506, -10234.55086166273, -10597.543191616916, 0.1, 0.918, 0.162, 192.0, 0.0, 0.0, 0.0, 0.0, 0.0, 0.0, 0.0, 0.0, 0.0, 1.66267782252239E9, 0.0, 2022-09-08 18:57:02.522
76.0, -5833.514730157224, -7653.8631503418865, -29459.666247328074, -27254.666656812034, -16324.32834200005, 5671.911617745354, 28721.857514602845, 16905.652511793676, -16950.31129721538, -8768.924625983791, -20162.145216720728, -29224.63765438052, 5043.581729362218, -11627.846852284296, -10224.269059213288, -10604.360473675784, 0.098, 0.936, 0.148, 192.0, 1.5, 8.0, 14.5, 32.0, 2.0, 80.0, 0.0, 0.0, 0.0, 1.6626778225223944E9, 0.0, 2022-09-08 18:57:02.522
78.0, -5846.277576241205, -7665.396650480825, -29459.308619416788, -27249.97279047642, -16296.969806786754, 5671.129306689419, 28694.811903811922, 16904.222000148537, -16982.341347019836, -8777.038309221067, -20167.733152834553, -29228.59391314911, 5037.099723470178, -11628.472701129043, -10214.009608508302, -10605.478060898551, 0.098, 0.936, 0.148, 192.0, 0.0, 0.0, 0.0, 0.0, 0.0, 0.0, 0.0, 0.0, 0.0, 1.6626778225223987E9, 0.0, 2022-09-08 18:57:02.522
80.0, -5838.208596492839, -7660.211045767194, -29460.090930472725, -27245.34597937417, -16317.332245985539, 5693.235181955717, 28720.6281686578, 16922.505727112977, -16980.68731793014, -8777.619454576905, -20161.921699276176, -29219.54145664471, 5061.172552248544, -11625.455215627577, -10209.740425317339, -10593.877505526247, 0.098, 0.936, 0.148, 192.0, 0.0, 0.0, 0.0, 0.0, 0.0, 0.0, 0.0, 0.0, 0.0, 1.6626778225224032E9, 0.0, 2022-09-08 18:57:02.522
82.0, -5850.30089024316, -7673.7562029071105, -29468.69635208802, -27254.219621922926, -16311.476088938249, 5668.223579910228, 28637.166754861686, 16879.456267292055, -16995.841800670838, -8799.010074020634, -20168.359001679302, -29225.330558458634, 5059.473819669941, -11618.302657401879, -10224.179652235467, -10597.833764294835, 0.098, 0.936, 0.148, 192.0, 0.0, 0.0, 0.0, 0.0, 0.0, 0.0, 0.0, 0.0, 0.0, 1.6626778225224075E9, 0.0, 2022-09-08 18:57:02.522
84.0, -5852.267843755227, -7672.102173817418, -29487.40476219711, -27268.368276163135, -16318.315722741572, 5645.73772498819, 28627.823725679365, 16860.792560671875, -17012.3150363344, -8805.223858979209, -20185.94982456563, -29238.003997564796, 5052.47772365543, -11641.123788490748, -10251.202911281933, -10619.984343050044, 0.098, 0.936, 0.148, 192.0, 0.0, 0.0, 0.0, 0.0, 0.0, 0.0, 0.0, 0.0, 0.0, 1.662677822522412E9, 0.0, 2022-09-08 18:57:02.522
86.0, -5850.6808698989, -7670.09051681644, -29474.485453901943, -27255.091339956685, -16308.771527859155, 5665.429611853316, 28611.57400746036, 16906.12189842724, -17012.247981101034, -8799.658274609837, -20174.90806280471, -29221.419003178955, 5066.984005806924, -11624.20351793808, -10244.251518756333, -10603.57816261985, 0.096, 0.937, 0.14500000000000002, 192.0, 1.0, 120.0, 14.5, 40.0, 2.0, 56.0, 0.0, 0.0, 0.0, 1.6626778225224164E9, 0.0, 2022-09-08 18:57:02.522
88.0, -5844.2435674957715, -7663.228531268661, -29483.82848308426, -27259.11465395864, -16320.819118120566, 5680.405280638371, 28632.13761235924, 16896.600055289276, -17017.210068370114, -8833.431760481806, -20180.004260540518, -29232.59487540661, 5069.330938974731, -11642.509596646976, -10240.943460576947, -10612.697674357614, 0.096, 0.937, 0.14500000000000002, 192.0, 0.0, 0.0, 0.0, 0.0, 0.0, 0.0, 0.0, 0.0, 0.0, 1.662677822522421E9, 0.0, 2022-09-08 18:57:02.522
90.0, -5826.228061464794, -7641.793208336021, -29460.940296762026, -27234.885362969086, -16304.904676068387, 5677.320739903538, 28615.396155762217, 16892.53203779841, -17008.381129310266, -8798.004245520146, -20165.252109200013, -29210.287834440212, 5080.037424568824, -11616.469814356544, -10243.625669911584, -10595.24096193802, 0.096, 0.937, 0.14500000000000002, 192.0, 0.0, 0.0, 0.0, 0.0, 0.0, 0.0, 0.0, 0.0, 0.0, 1.6626778225224252E9, 0.0, 2022-09-08 18:57:02.522
92.0, -5847.171646019417, -7669.218798782683, -29482.82265458377, -27269.97760176392, -16311.61019940498, 5646.184759877296, 28690.229796198586, 16870.560272998842, -16995.68533845965, -8804.106271756444, -20158.23366144105, -29210.556055373676, 5082.540819947818, -11621.901288259183, -10230.12521626058, -10608.763767333481, 0.096, 0.937, 0.14500000000000002, 192.0, 0.0, 0.0, 0.0, 0.0, 0.0, 0.0, 0.0, 0.0, 0.0, 1.6626778225224595E9, 0.0, 2022-09-08 18:57:02.522
94.0, -5846.344631474571, -7664.390821980336, -29479.69341036003, -27270.35758141966, -16326.138833300929, 5649.671632012324, 28639.938371174143, 16910.34637812929, -17009.49871653303, -8850.41908626784, -20176.875016316775, -29235.254732996793, 5077.064642556267, -11637.033419255427, -10238.484768686863, -10618.173851749165, 0.096, 0.937, 0.14500000000000002, 192.0, 0.0, 0.0, 0.0, 0.0, 0.0, 0.0, 0.0, 0.0, 0.0, 1.662677822522464E9, 0.0, 2022-09-08 18:57:02.522
96.0, -5859.77802989221, -7684.954426879219, -29495.02670705637, -27285.06502927125, -16330.51977521417, 5650.833922723999, 28618.167772074674, 16892.308520353858, -17018.193545126145, -8853.011888624655, -20185.502789676524, -29237.4005004645, 5068.928607574536, -11648.432808927633, -10268.972548123902, -10638.893918859234, 0.1, 0.9435, 0.14950000000000002, 192.0, 1.5, 32.0, 14.5, 88.0, 2.0, 104.0, 0.0, 0.0, 0.0, 1.6626778225224683E9, 0.0, 2022-09-08 18:57:02.522
98.0, -5836.174587747406, -7657.931167832753, -29465.142424719626, -27256.655962068555, -16320.796766376112, 5668.514152588147, 28710.16755225272, 16902.120936169737, -17013.99141716855, -8836.672763427827, -20177.52321690598, -29228.92918931594, 5081.736157147427, -11631.803111052885, -10240.854053599127, -10619.62671513876, 0.1, 0.9435, 0.14950000000000002, 192.0, 0.0, 0.0, 0.0, 0.0, 0.0, 0.0, 0.0, 0.0, 0.0, 1.6626778225224729E9, 0.0, 2022-09-08 18:57:02.522
100.0, -5841.96368956133, -7658.668775399778, -29474.39604692412, -27266.69189532899, -16338.56640321808, 5657.561797805047, 28653.997618436533, 16877.422258546623, -17008.85051594383, -8793.422137906808, -20166.928490034163, -29203.649366336987, 5088.754604906393, -11632.272497686447, -10240.608184410117, -10620.453729683606, 0.1, 0.9435, 0.14950000000000002, 192.0, 0.0, 0.0, 0.0, 0.0, 0.0, 0.0, 0.0, 0.0, 0.0, 1.6626778225224771E9, 0.0, 2022-09-08 18:57:02.522
102.0, -5855.888826356987, -7679.590008209945, -29480.11809350468, -27278.40420942357, -16329.871574624965, 5643.904881942854, 28660.278458628472, 16838.15024353865, -17020.048739915936, -8832.69415291478, -20180.60775764081, -29216.322805443146, 5079.500982701896, -11643.247204214002, -10263.518722476807, -10633.127168789766, 0.1, 0.9435, 0.14950000000000002, 192.0, 0.0, 0.0, 0.0, 0.0, 0.0, 0.0, 0.0, 0.0, 0.0, 1.6626778225224829E9, 0.0, 2022-09-08 18:57:02.522
104.0, -5840.4214191939145, -7657.685298643744, -29454.97238099246, -27258.466453369434, -16318.47218495276, 5685.4567748852705, 28668.66036279921, 16941.772930833453, -17016.785385225463, -8828.380266234906, -20173.589309881845, -29212.3441949301, 5080.015072824368, -11637.3463436778, -10247.224300768888, -10621.638372139738, 0.1, 0.9435, 0.14950000000000002, 192.0, 0.0, 0.0, 0.0, 0.0, 0.0, 0.0, 0.0, 0.0, 0.0, 1.6626778230022776E9, 0.0, 2022-09-08 18:57:03.002
106.0, -5856.4476199683695, -7674.627920940867, -29463.890727030128, -27271.095188986685, -16334.699551427311, 5668.715318288246, 28644.878106698765, 16890.11804939724, -17020.719292249596, -8808.733082858693, -20171.24237671404, -29202.48707562531, 5087.592314194717, -11644.521253647954, -10233.41092269551, -10611.28951445693, 0.10200000000000001, 0.94475, 0.15775, 192.0, 1.5, 32.0, 14.5, 72.0, 2.5, 24.0, 0.0, 0.0, 0.0, 1.6626778230023816E9, 0.0, 2022-09-08 18:57:03.002
108.0, -5855.419439723425, -7680.461726243702, -29469.12103523267, -27270.29052618629, -16310.47026043776, 5651.504475057659, 28606.723678913557, 16883.97131967203, -17027.268353375002, -8809.962428803734, -20179.42311518468, -29212.433601907924, 5081.5126397028735, -11640.497939645998, -10257.88608287407, -10628.276840242963, 0.10200000000000001, 0.94475, 0.15775, 192.0, 0.0, 0.0, 0.0, 0.0, 0.0, 0.0, 0.0, 0.0, 0.0, 1.662677823002391E9, 0.0, 2022-09-08 18:57:03.002
110.0, -5849.429172209403, -7676.259598286105, -29458.079273471747, -27263.83087203871, -16341.785054419644, 5666.658957798357, 28699.86339805882, 16907.217133905546, -17009.14108862175, -8799.099480998455, -20161.11703647578, -29188.15960742946, 5093.090843330722, -11630.193785452102, -10224.067893513191, -10601.901781785702, 0.10200000000000001, 0.94475, 0.15775, 192.0, 0.0, 0.0, 0.0, 0.0, 0.0, 0.0, 0.0, 0.0, 0.0, 1.6626778230023956E9, 0.0, 2022-09-08 18:57:03.002
112.0, -5857.609910680046, -7690.587066481957, -29476.11713124718, -27283.5898141372, -16347.61885972248, 5631.499663770159, 28634.082214126855, 16872.63898523319, -17025.770786496494, -8842.215996052742, -20185.525141420978, -29222.983625290828, 5082.764337392371, -11654.065448530371, -10255.494446217352, -10642.134921805255, 0.10200000000000001, 0.94475, 0.15775, 192.0, 0.0, 0.0, 0.0, 0.0, 0.0, 0.0, 0.0, 0.0, 0.0, 1.6626778230024002E9, 0.0, 2022-09-08 18:57:03.002
114.0, -5859.330995003104, -7684.797964668031, -29484.32022146228, -27281.01936352484, -16348.848205667522, 5657.427687338315, 28633.925751915667, 16882.33964232679, -17021.83687947236, -8807.950771802756, -20184.027574542473, -29217.21687522136, 5084.731290904438, -11656.658250887187, -10253.080457816179, -10634.20005252362, 0.10200000000000001, 0.94475, 0.15775, 192.0, 0.0, 0.0, 0.0, 0.0, 0.0, 0.0, 0.0, 0.0, 0.0, 1.6626778230024047E9, 0.0, 2022-09-08 18:57:03.002
116.0, -5867.6011404515675, -7697.158479351817, -29490.44459944303, -27288.484846172913, -16363.466246541293, 5641.312079586039, 28532.068852432833, 16858.28916529288, -17021.45689981662, -8811.527050915605, -20189.213179256105, -29215.62990136503, 5081.199715280499, -11651.07031477336, -10276.639196472073, -10649.44394224214, 0.101, 0.938375, 0.159875, 192.0, 1.5, 16.0, 14.5, 16.0, 2.5, 8.0, 0.0, 0.0, 0.0, 1.6626778230024257E9, 0.0, 2022-09-08 18:57:03.002
118.0, -5873.546704476679, -7702.433491043269, -29493.08210528876, -27296.285604987814, -16355.017287137187, 5641.960280175243, 28659.965534206098, 16868.995650886973, -17038.310115135922, -8820.043065553078, -20203.630054429777, -29230.516163172266, 5075.947055333502, -11675.16549529618, -10269.620748713107, -10655.724782434081, 0.101, 0.938375, 0.159875, 192.0, 0.0, 0.0, 0.0, 0.0, 0.0, 0.0, 0.0, 0.0, 0.0, 1.66267782300243E9, 0.0, 2022-09-08 18:57:03.002
120.0, -5860.716803159333, -7686.85432515792, -29481.97328829447, -27285.042677526795, -16345.607202721501, 5659.3946408503825, 28589.602242660792, 16865.262909562935, -17028.296533619945, -8823.798158621568, -20195.359908981314, -29239.300398743202, 5081.95967459198, -11665.934224836139, -10277.577969739195, -10659.144599335743, 0.101, 0.938375, 0.159875, 192.0, 0.0, 0.0, 0.0, 0.0, 0.0, 0.0, 0.0, 0.0, 0.0, 1.6626778230024345E9, 0.0, 2022-09-08 18:57:03.002
122.0, -5858.660442669445, -7688.083671102962, -29473.904308546105, -27280.929956547017, -16341.38272301945, 5665.943701975787, 28663.251240641028, 16912.000407218984, -17019.735815493565, -8782.559190101527, -20184.42990594267, -29216.814543821165, 5091.570924707762, -11664.235492257536, -10261.708231175928, -10637.10577930281, 0.101, 0.938375, 0.159875, 192.0, 0.0, 0.0, 0.0, 0.0, 0.0, 0.0, 0.0, 0.0, 0.0, 1.6626778230024388E9, 0.0, 2022-09-08 18:57:03.002
124.0, -5859.912140358942, -7688.396595525336, -29469.21044221049, -27284.59564263769, -16354.19027259234, 5661.4510013402705, 28566.624649360736, 16882.96549117154, -17021.99334168355, -8822.769978376626, -20188.833199600365, -29238.87571559855, 5092.263828785876, -11659.96630906657, -10265.440972499964, -10640.503244460017, 0.101, 0.938375, 0.159875, 192.0, 0.0, 0.0, 0.0, 0.0, 0.0, 0.0, 0.0, 0.0, 0.0, 1.6626778230024433E9, 0.0, 2022-09-08 18:57:03.002
126.0, -5858.638090924989, -7676.885447130853, -29466.505881131397, -27283.63451762611, -16343.483786998248, 5655.21486463724, 28696.555339879436, 16892.308520353858, -17023.13328065077, -8746.192901872742, -20188.09559203334, -29224.369433447057, 5097.248267799409, -11659.295756732912, -10257.863731129615, -10633.507148445506, 0.0895, 0.9441875, 0.1609375, 192.0, 1.0, 56.0, 14.5, 88.0, 2.5, 8.0, 0.0, 0.0, 0.0, 1.6626778230024476E9, 0.0, 2022-09-08 18:57:03.002
128.0, -5867.757602662755, -7692.822240927487, -29483.984945295448, -27301.202988767982, -16347.28358355565, 5649.761038990145, 28622.48165875455, 16851.449531489558, -17028.140071408758, -8772.813829519013, -20191.850685101832, -29236.752299875297, 5093.783747408837, -11662.872035845761, -10264.636309699574, -10642.134921805255, 0.0895, 0.9441875, 0.1609375, 192.0, 0.0, 0.0, 0.0, 0.0, 0.0, 0.0, 0.0, 0.0, 0.0, 1.6626778230024524E9, 0.0, 2022-09-08 18:57:03.002
130.0, -5840.935509316387, -7671.208104039205, -29468.338724176734, -27280.035886768805, -16361.052258140118, 5661.652167040368, 28683.546624606446, 16935.31327668587, -17027.916553964205, -8793.332730928985, -20191.47070544609, -29239.54626793221, 5097.225916054955, -11666.291852747423, -10274.582835982184, -10649.935680620156, 0.0895, 0.9441875, 0.1609375, 192.0, 0.0, 0.0, 0.0, 0.0, 0.0, 0.0, 0.0, 0.0, 0.0, 1.662677823002457E9, 0.0, 2022-09-08 18:57:03.002
132.0, -5832.195977234362, -7663.832028368954, -29460.739131061928, -27270.335229675202, -16349.161130089895, 5670.659920055857, 28596.575986930846, 16934.06157899637, -17014.63961775775, -8777.798268532548, -20172.67288835918, -29217.328633943634, 5106.837166170736, -11646.3988001822, -10257.662565429517, -10622.28657272894, 0.0895, 0.9441875, 0.1609375, 192.0, 0.0, 0.0, 0.0, 0.0, 0.0, 0.0, 0.0, 0.0, 0.0, 1.6626778230024617E9, 0.0, 2022-09-08 18:57:03.002
