%OpenBCI Raw EEG Data
%Number of channels = 16
%Sample Rate = 125 Hz
%Board = OpenBCI_GUI$BoardCytonSerialDaisy
Sample Index, EXG Channel 0, EXG Channel 1, EXG Channel 2, EXG Channel 3, EXG Channel 4, EXG Channel 5, EXG Channel 6, EXG Channel 7, EXG Channel 8, EXG Channel 9, EXG Channel 10, EXG Channel 11, EXG Channel 12, EXG Channel 13, EXG Channel 14, EXG Channel 15, Accel Channel 0, Accel Channel 1, Accel Channel 2, Other, Other, Other, Other, Other, Other, Other, Analog Channel 0, Analog Channel 1, Analog Channel 2, Timestamp, Other, Timestamp (Formatted)
180.0, 9049.260204942251, -1038.3726404157449, -33201.8847110134, -15863.368316098253, -202.66326697626914, 22684.2043023353, 34237.03870022758, 26420.052518850865, 3041.111295355713, 2434.7084682832324, -15651.026743772834, -26363.167329212112, 4753.880769476983, -2307.9293737327307, -9902.448642545778, -1233.9504043996817, 0.0, 0.0, 0.0, 192.0, 0.0, 0.0, 0.0, 0.0, 0.0, 0.0, 0.0, 0.0, 0.0, 1.6626773234314363E9, 0.0, 2022-09-08 18:48:43.431
182.0, 9059.005565524765, -1024.693372809097, -33185.45617883875, -15855.165225883155, -195.55541223948148, 22686.171255847366, 34183.39451353485, 26428.43442302161, 3022.961678858004, 2425.0972181674506, -15648.299830949287, -26366.765960069413, 4754.216045643812, -2321.854510528387, -9911.702264750274, -1248.3002243399887, 0.242, 0.906, 0.274, 192.0, 3.5, 72.0, 14.0, 40.0, 4.0, 72.0, 0.0, 0.0, 0.0, 1.6626773234314413E9, 0.0, 2022-09-08 18:48:43.431
184.0, 9055.921024789934, -1031.756524056974, -33187.11020792845, -15856.953365439578, -190.74978718159048, 22677.476427254252, 34241.35258690746, 26425.886324153704, 3016.211452032501, 2420.179834387283, -15648.925679794036, -26364.284916434877, 4744.671850761396, -2327.442446642214, -9914.831508974017, -1257.1068116553797, 0.242, 0.906, 0.274, 192.0, 0.0, 0.0, 0.0, 0.0, 0.0, 0.0, 0.0, 0.0, 0.0, 1.662677323431446E9, 0.0, 2022-09-08 18:48:43.431
186.0, 9067.342766206595, -1023.9110617531612, -33168.1782803748, -15836.590926240795, -183.03843534450954, 22709.93116020336, 34201.320612588, 26527.318540491884, 3012.12108279718, 2432.6074043044337, -15640.163795967555, -26350.44918661704, 4750.483304319776, -2316.2218709256495, -9900.571096011532, -1234.777418944528, 0.242, 0.906, 0.274, 192.0, 0.0, 0.0, 0.0, 0.0, 0.0, 0.0, 0.0, 0.0, 0.0, 1.6626773234314501E9, 0.0, 2022-09-08 18:48:43.431
188.0, 9054.646975355981, -1033.9693467580494, -33180.807015992046, -15843.318801321842, -182.43493824421626, 22707.226599124268, 34262.18441273981, 26511.471153673072, 3029.4883882389536, 2431.6462792928555, -15637.883918033114, -26346.962314482014, 4755.288929377667, -2310.857452256376, -9889.127002850415, -1215.5102152240534, 0.242, 0.906, 0.274, 192.0, 0.0, 0.0, 0.0, 0.0, 0.0, 0.0, 0.0, 0.0, 0.0, 1.6626773234314547E9, 0.0, 2022-09-08 18:48:43.431
190.0, 9047.919100274934, -1031.9129862681611, -33192.04994345307, -15853.600603771283, -191.33093253742845, 22690.932177416347, 34178.05244661003, 26454.34009484531, 3005.035579804847, 2424.5384245560676, -15645.394104170098, -26349.35395113873, 4749.2763101191895, -2316.534795348024, -9903.3874158129, -1228.4295235192208, 0.242, 0.906, 0.274, 192.0, 0.0, 0.0, 0.0, 0.0, 0.0, 0.0, 0.0, 0.0, 0.0, 1.6626773234314587E9, 0.0, 2022-09-08 18:48:43.431
192.0, 9035.69269605788, -1049.2579399654794, -33203.02464998062, -15868.95625221208, -220.924642196255, 22699.761116476195, 34232.97068273672, 26465.2477461395, 2998.4194634460764, 2411.462654049713, -15665.62243290215, -26370.185776971077, 4729.65147848743, -2340.8534933153983, -9920.95588695477, -1250.714212741162, 0.242, 0.904, 0.28, 192.0, 3.5, 72.0, 14.0, 32.0, 4.0, 96.0, 0.0, 0.0, 0.0, 1.6626773234314632E9, 0.0, 2022-09-08 18:48:43.431
194.0, 9050.69071658739, -1033.0082217464712, -33191.7370190307, -15864.016516687456, -206.08308387793113, 22671.86613939597, 34140.50151592511, 26459.70451351458, 2992.8985825656155, 2407.1264156253833, -15661.688525878017, -26367.145939725156, 4732.691315733351, -2334.505597890091, -9934.903375494883, -1259.7666692455614, 0.242, 0.904, 0.28, 192.0, 0.0, 0.0, 0.0, 0.0, 0.0, 0.0, 0.0, 0.0, 0.0, 1.6626773234314678E9, 0.0, 2022-09-08 18:48:43.431
196.0, 9047.36030666355, -1036.7409630705074, -33176.1802048898, -15859.143836396199, -209.10056937939757, 22676.917633642868, 34221.37012736441, 26468.198176407597, 3011.338771741244, 2417.296459352548, -15643.717723335949, -26347.677570304582, 4742.07904840458, -2335.0420397570183, -9909.780014727117, -1246.8920644393045, 0.242, 0.904, 0.28, 192.0, 0.0, 0.0, 0.0, 0.0, 0.0, 0.0, 0.0, 0.0, 0.0, 1.6626773234314723E9, 0.0, 2022-09-08 18:48:43.431
198.0, 9041.392390893983, -1039.1996549605913, -33171.84396646547, -15854.47232180504, -209.14527286830818, 22681.365630789474, 34131.82903907645, 26450.585001776817, 2974.078413734247, 2415.3742093293918, -15658.022839787345, -26351.432663373074, 4727.304545319623, -2334.9973362681076, -9918.988933442704, -1260.39251809031, 0.242, 0.904, 0.28, 192.0, 0.0, 0.0, 0.0, 0.0, 0.0, 0.0, 0.0, 0.0, 0.0, 1.6626773234314768E9, 0.0, 2022-09-08 18:48:43.431
200.0, 9028.495434343271, -1045.2569777079796, -33180.29292586958, -15859.389705585207, -219.2929648510176, 22677.76699993217, 34197.40905730832, 26458.765740247458, 2991.311608709289, 2421.5879942879674, -15646.33287743722, -26337.820450999792, 4736.781684968672, -2334.0362112565294, -9901.331055323011, -1238.3536980573772, 0.242, 0.904, 0.28, 192.0, 0.0, 0.0, 0.0, 0.0, 0.0, 0.0, 0.0, 0.0, 0.0, 1.662677323431481E9, 0.0, 2022-09-08 18:48:43.431
202.0, 9020.113530172532, -1056.7010708690966, -33177.588364790485, -15860.306127107875, -213.77208397055674, 22686.618290736475, 34120.78727731553, 26457.55874604687, 2958.141619937613, 2405.181813857772, -15670.897444593604, -26350.963276739512, 4715.189899824846, -2352.5211039210685, -9921.24645963269, -1246.1768086167347, 0.242, 0.905, 0.278, 192.0, 3.5, 72.0, 14.0, 40.0, 4.0, 80.0, 0.0, 0.0, 0.0, 1.6626773234314854E9, 0.0, 2022-09-08 18:48:43.431
204.0, 9017.11839641552, -1062.5125244274766, -33183.3327631155, -15872.599586558294, -225.41734283177172, 22681.2538720672, 34201.410019565825, 26453.647190767195, 2969.0269194873476, 2402.007866145118, -15665.801246857793, -26351.231497672976, 4718.050923115125, -2352.118772520873, -9917.87134621994, -1244.4780760381313, 0.242, 0.905, 0.278, 192.0, 0.0, 0.0, 0.0, 0.0, 0.0, 0.0, 0.0, 0.0, 0.0, 1.6626773234314897E9, 0.0, 2022-09-08 18:48:43.431
206.0, 9014.749111503257, -1060.9926058045157, -33186.193786405776, -15874.946519726102, -236.97319471516548, 22670.05564809509, 34141.44028919224, 26431.004873633967, 2964.1318874516355, 2397.068130620495, -15665.309508479777, -26353.64548607415, 4718.833234171061, -2359.8748278468643, -9924.554517812076, -1261.040718679514, 0.242, 0.905, 0.278, 192.0, 0.0, 0.0, 0.0, 0.0, 0.0, 0.0, 0.0, 0.0, 0.0, 1.6626773234314942E9, 0.0, 2022-09-08 18:48:43.431
208.0, 9004.44495730936, -1067.0946320408145, -33197.36965863343, -15889.184580944131, -254.116982712386, 22648.1956420178, 34205.58979577897, 26419.35961477275, 2941.802494740784, 2379.432604245258, -15679.234645275432, -26363.614364101217, 4695.810937382095, -2368.793173884532, -9946.68274482283, -1275.5022973420976, 0.242, 0.905, 0.278, 192.0, 0.0, 0.0, 0.0, 0.0, 0.0, 0.0, 0.0, 0.0, 0.0, 1.6626773234314985E9, 0.0, 2022-09-08 18:48:43.431
210.0, 9029.098931443565, -1053.594178389809, -33173.45329206625, -15861.177845141632, -235.74384877012358, 22659.706790412285, 34151.923257341776, 26423.1370595857, 2941.53427380732, 2387.3451217824368, -15677.088877807722, -26358.473462876496, 4696.2132687822905, -2367.1614965392946, -9949.96845125776, -1283.4595183681868, 0.242, 0.905, 0.278, 192.0, 0.0, 0.0, 0.0, 0.0, 0.0, 0.0, 0.0, 0.0, 0.0, 1.6626773234315028E9, 0.0, 2022-09-08 18:48:43.431
212.0, 9018.12422491601, -1061.8643238382726, -33182.14812065937, -15873.292490636408, -248.21612217618494, 22650.989610074714, 34203.10875214443, 26457.62580128024, 2948.4633145884654, 2404.265392335104, -15662.493188678407, -26339.49683183394, 4704.349303764022, -2353.012842299085, -9930.00834345917, -1269.6908437837176, 0.239, 0.9065000000000001, 0.28, 192.0, 3.5, 48.0, 14.0, 48.0, 4.0, 104.0, 0.0, 0.0, 0.0, 1.6626773234315093E9, 0.0, 2022-09-08 18:48:43.431
214.0, 9020.717027272824, -1064.4794779395436, -33175.46494906723, -15872.644290047205, -234.8721307363666, 22668.423970749853, 34172.17393781828, 26497.52366513296, 2922.4458840424877, 2383.277104291571, -15680.084011564733, -26359.032256487877, 4684.903286087905, -2375.0293105875626, -9936.49034935121, -1266.5168960710641, 0.239, 0.9065000000000001, 0.28, 192.0, 0.0, 0.0, 0.0, 0.0, 0.0, 0.0, 0.0, 0.0, 0.0, 1.6626773234315135E9, 0.0, 2022-09-08 18:48:43.431
216.0, 9016.604306293048, -1061.3725854602558, -33179.488263069186, -15884.311900652874, -237.375526115361, 22670.837959151027, 34207.02030742411, 26453.155452389175, 2926.312735833256, 2384.5511537255234, -15676.552435940795, -26356.84178553126, 4690.982960579749, -2370.380147740859, -9938.278488907634, -1266.069861181958, 0.239, 0.9065000000000001, 0.28, 192.0, 0.0, 0.0, 0.0, 0.0, 0.0, 0.0, 0.0, 0.0, 0.0, 1.662677323431518E9, 0.0, 2022-09-08 18:48:43.431
218.0, 9023.779216263201, -1054.2200272345576, -33170.01112342014, -15872.197255158098, -243.81282851848945, 22680.605671477995, 34172.30804828501, 26442.918353428646, 2938.5167883058534, 2376.9962640996296, -15676.977119085446, -26355.50068086394, 4689.843021612528, -2362.489981948135, -9941.407733131378, -1270.294340884011, 0.239, 0.9065000000000001, 0.28, 192.0, 0.0, 0.0, 0.0, 0.0, 0.0, 0.0, 0.0, 0.0, 0.0, 1.6626773234315224E9, 0.0, 2022-09-08 18:48:43.431
220.0, 9023.779216263201, -1064.6135884062753, -33173.609754277444, -15869.626804545738, -241.30943313949504, 22677.655241209894, 34179.48295825517, 26444.61708600725, 2930.470160301943, 2384.439395003247, -15666.58355791373, -26343.475442346986, 4695.721530404274, -2364.2781215045597, -9937.697343551796, -1264.5052390700864, 0.239, 0.9065000000000001, 0.28, 192.0, 0.0, 0.0, 0.0, 0.0, 0.0, 0.0, 0.0, 0.0, 0.0, 1.662677323431527E9, 0.0, 2022-09-08 18:48:43.431
222.0, 9011.195184134864, -1076.9741030900602, -33178.348324101964, -15882.009670973977, -247.90319775381064, 22664.087732325523, 34175.21377506421, 26420.43249850661, 2916.567375250742, 2362.534685437046, -15687.929473868548, -26357.802910542836, 4680.723509874762, -2381.2654472905933, -9953.947061770805, -1285.6276375803516, 0.2375, 0.90425, 0.28, 192.0, 3.5, 48.0, 14.0, 24.0, 4.0, 96.0, 0.0, 0.0, 0.0, 1.6626773234315312E9, 0.0, 2022-09-08 18:48:43.431
224.0, 9032.518748345226, -1050.4202306771554, -33157.69531222526, -15868.911548723168, -236.86143599288894, 22674.213072563776, 34163.12148131389, 26437.241010337, 2935.5887097822083, 2382.2042205577163, -15667.075296291745, -26336.077014932278, 4697.889649616439, -2363.9875488266407, -9938.524358096643, -1271.0319484510362, 0.2375, 0.90425, 0.28, 192.0, 0.0, 0.0, 0.0, 0.0, 0.0, 0.0, 0.0, 0.0, 0.0, 1.6626773234315357E9, 0.0, 2022-09-08 18:48:43.431
226.0, 9015.464367325827, -1062.0878412828256, -33170.21228912023, -15887.128220454244, -262.81181130550044, 22646.027522805634, 34173.55974597451, 26387.17310275711, 2914.667476972041, 2369.597836684923, -15682.542703454817, -26346.425872615084, 4680.701158130308, -2381.04192984604, -9953.455323392787, -1295.775329563061, 0.2375, 0.90425, 0.28, 192.0, 0.0, 0.0, 0.0, 0.0, 0.0, 0.0, 0.0, 0.0, 0.0, 1.6626773234315403E9, 0.0, 2022-09-08 18:48:43.431
228.0, 9021.253469139752, -1061.082012782337, -33163.551469272556, -15879.260406405976, -245.35509888590562, 22664.53476721463, 34127.246931463116, 26403.60163493176, 2938.025049927837, 2373.241171031138, -15668.595214914707, -26333.953599209024, 4680.388233707933, -2370.916589607786, -9940.91599475336, -1285.359416646888, 0.2375, 0.90425, 0.28, 192.0, 0.0, 0.0, 0.0, 0.0, 0.0, 0.0, 0.0, 0.0, 0.0, 1.6626773234315448E9, 0.0, 2022-09-08 18:48:43.431
230.0, 9030.21651866633, -1055.6728906241526, -33153.09085286747, -15871.90668248018, -250.9430349997324, 22666.658182937885, 34174.74438843064, 26424.768736930935, 2931.4536370579767, 2375.0069588431074, -15668.371697470153, -26333.46186083101, 4673.481544671243, -2383.142993824839, -9930.768302770652, -1277.4245473652538, 0.2375, 0.90425, 0.28, 192.0, 0.0, 0.0, 0.0, 0.0, 0.0, 0.0, 0.0, 0.0, 0.0, 1.6626773234315493E9, 0.0, 2022-09-08 18:48:43.431
232.0, 9016.336085359584, -1066.2005622626023, -33169.89936469786, -15890.90566526719, -276.4016719343271, 22648.307400740076, 34132.678405365754, 26450.60735352127, 2920.657744486063, 2361.7523743811103, -15671.657403905083, -26342.626076057684, 4658.215303208269, -2387.1216043378836, -9949.63317509093, -1286.2534864251002, 0.23575000000000002, 0.9061250000000001, 0.281, 192.0, 3.5, 40.0, 14.0, 48.0, 4.0, 104.0, 0.0, 0.0, 0.0, 1.6626773234315536E9, 0.0, 2022-09-08 18:48:43.431
234.0, 9017.543079560171, -1065.6194169067642, -33164.110262883936, -15891.643272834215, -273.4512416662266, 22654.029447320634, 34177.784225676565, 26454.675371012137, 2896.0037703518597, 2349.525970164057, -15683.43677323303, -26349.577468583284, 4645.2065879352795, -2397.8727934208864, -9952.516550125665, -1288.935695759737, 0.23575000000000002, 0.9061250000000001, 0.281, 192.0, 0.0, 0.0, 0.0, 0.0, 0.0, 0.0, 0.0, 0.0, 0.0, 1.662677323431558E9, 0.0, 2022-09-08 18:48:43.431
236.0, 9011.485756812783, -1066.111155284781, -33157.33768431398, -15883.574293085849, -266.7233665851792, 22666.322906771053, 34116.80866680249, 26402.394640731174, 2898.887145386594, 2355.9409208227303, -15672.484418449929, -26334.132413164665, 4650.928634515838, -2392.530726496068, -9935.797445273096, -1285.4488236247091, 0.23575000000000002, 0.9061250000000001, 0.281, 192.0, 0.0, 0.0, 0.0, 0.0, 0.0, 0.0, 0.0, 0.0, 0.0, 1.6626773234315624E9, 0.0, 2022-09-08 18:48:43.431
238.0, 9005.182564876386, -1068.7710128749625, -33158.790547703575, -15880.847380262303, -271.8195643209892, 22664.91474687037, 34183.729789701676, 26446.651094752684, 2898.0824825862032, 2350.442391686725, -15688.48826747993, -26335.965256210002, 4639.171616932347, -2397.1351858538615, -9938.837282519018, -1279.391500877321, 0.23575000000000002, 0.9061250000000001, 0.281, 192.0, 0.0, 0.0, 0.0, 0.0, 0.0, 0.0, 0.0, 0.0, 0.0, 1.6626773234315667E9, 0.0, 2022-09-08 18:48:43.431
240.0, 9018.906535971944, -1050.9119690551722, -33149.40281503234, -15860.417885830151, -246.80796227550059, 22684.02548837966, 34111.8018760445, 26460.48682457052, 2879.1058515436475, 2353.6163393993784, -15683.72734591095, -26322.040119414345, 4629.895642983394, -2387.9039153938193, -9945.855730277985, -1266.3157303709663, 0.23575000000000002, 0.9061250000000001, 0.281, 192.0, 0.0, 0.0, 0.0, 0.0, 0.0, 0.0, 0.0, 0.0, 0.0, 1.6626773234315712E9, 0.0, 2022-09-08 18:48:43.431
242.0, 9014.413835336427, -1057.9974720475045, -33152.912038911825, -15868.464513834062, -267.30451194101715, 22675.10714234199, 34192.51402527261, 26467.974658963045, 2892.695712172474, 2355.695051633722, -15677.267691763365, -26308.271444829876, 4636.154131430881, -2372.3918047418365, -9935.126892939435, -1255.1398581433127, 0.236875, 0.9090625000000001, 0.28150000000000003, 192.0, 3.5, 56.0, 14.0, 64.0, 4.0, 104.0, 0.0, 0.0, 0.0, 1.6626773234315755E9, 0.0, 2022-09-08 18:48:43.431
244.0, 9017.207803393341, -1066.0217483069598, -33154.18608834578, -15879.28275815043, -266.56690437399203, 22650.2967059966, 34120.51905638207, 26456.552917546385, 2893.5897819506863, 2354.041022544029, -15677.67002316356, -26309.81371519729, 4650.436896137821, -2371.8106593859984, -9942.078285465037, -1268.193276905212, 0.236875, 0.9090625000000001, 0.28150000000000003, 192.0, 0.0, 0.0, 0.0, 0.0, 0.0, 0.0, 0.0, 0.0, 0.0, 1.6626773234315813E9, 0.0, 2022-09-08 18:48:43.431
246.0, 9012.871564969011, -1066.8487628518062, -33154.74488195716, -15888.75989779948, -269.2044102197183, 22652.174252530844, 34181.494615256146, 26451.81434772186, 2877.8318021096948, 2324.6261268408452, -15696.847819906214, -26328.835049728757, 4629.292145883101, -2400.4879475221574, -9964.474733409255, -1300.2009749652118, 0.236875, 0.9090625000000001, 0.28150000000000003, 192.0, 0.0, 0.0, 0.0, 0.0, 0.0, 0.0, 0.0, 0.0, 0.0, 1.6626773234315856E9, 0.0, 2022-09-08 18:48:43.431
248.0, 9017.900707471455, -1060.6126261487755, -33152.46500402272, -15885.720060553558, -256.53097111355913, 22645.982819316723, 34106.90684400879, 26458.67633326964, 2902.6422384550856, 2355.4938859336244, -15677.088877807722, -26304.62811048366, 4643.284337912123, -2381.5113164796016, -9952.270680936657, -1292.0649399834801, 0.236875, 0.9090625000000001, 0.28150000000000003, 192.0, 0.0, 0.0, 0.0, 0.0, 0.0, 0.0, 0.0, 0.0, 0.0, 1.66267732343159E9, 0.0, 2022-09-08 18:48:43.431
250.0, 9018.817128994124, -1064.658291895186, -33158.857602936936, -15888.446973377106, -257.40268914731615, 22678.839883666027, 34188.758932204124, 26504.408002425196, 2881.0728050557145, 2339.445333414714, -15693.316244282276, -26312.406517554107, 4635.7518000306845, -2382.2042205577163, -9963.424201419855, -1289.583896348941, 0.236875, 0.9090625000000001, 0.28150000000000003, 192.0, 0.0, 0.0, 0.0, 0.0, 0.0, 0.0, 0.0, 0.0, 0.0, 1.6626773234315944E9, 0.0, 2022-09-08 18:48:43.431
252.0, 9017.11839641552, -1056.9469400581052, -33148.19582083176, -15882.076726207344, -259.5708083594809, 22668.066342838567, 34106.57156784196, 26501.323461690365, 2877.47417419841, 2337.076048502451, -15695.238494305433, -26309.83606694175, 4627.816930749051, -2371.0283483300627, -9964.675899109352, -1284.0630154684802, 0.23643750000000002, 0.9055312500000001, 0.28375000000000006, 192.0, 3.5, 48.0, 14.0, 24.0, 4.0, 120.0, 0.0, 0.0, 0.0, 1.662677323431599E9, 0.0, 2022-09-08 18:48:43.431
254.0, 9000.287532840674, -1078.4493182241104, -33164.71375998423, -15903.914380540178, -288.0469307955421, 22650.833147863526, 34182.50044375664, 26498.1048104888, 2892.8074708947506, 2327.4200948977586, -15702.323997297764, -26314.574636766272, 4632.980183718227, -2377.9573891112077, -9957.858617050484, -1282.9677799901701, 0.23643750000000002, 0.9055312500000001, 0.28375000000000006, 192.0, 0.0, 0.0, 0.0, 0.0, 0.0, 0.0, 0.0, 0.0, 0.0, 1.6626773234316032E9, 0.0, 2022-09-08 18:48:43.431
0.0, 9011.68692251288, -1068.5474954304095, -33145.424204519295, -15884.311900652874, -263.0800322389641, 22655.9964008327, 34129.99619603112, 26490.795790051914, 2863.7502031028516, 2317.898251759798, -15714.595105003727, -26323.9623694375, 4623.637154535908, -2393.491851507646, -9970.174428245358, -1302.1902802217342, 0.23643750000000002, 0.9055312500000001, 0.28375000000000006, 192.0, 0.0, 0.0, 0.0, 0.0, 0.0, 0.0, 0.0, 0.0, 0.0, 1.6626773234316075E9, 0.0, 2022-09-08 18:48:43.431
2.0, 9003.908515442434, -1075.4541844670994, -33151.235658077676, -15888.983415244034, -265.96340727369875, 22654.275316509644, 34184.355638546425, 26481.318650402864, 2879.307017243745, 2329.31999317646, -15705.766165943882, -26311.91477917609, 4637.830512265028, -2379.2761420340707, -9957.433933905833, -1295.1047772294019, 0.23643750000000002, 0.9055312500000001, 0.28375000000000006, 192.0, 0.0, 0.0, 0.0, 0.0, 0.0, 0.0, 0.0, 0.0, 0.0, 1.662677323431612E9, 0.0, 2022-09-08 18:48:43.431
4.0, 9011.128128901497, -1067.7428326300185, -33131.70023342374, -15868.24099638951, -265.7398898291457, 22686.752401203204, 34148.59284741794, 26549.714988436102, 2882.6597789120415, 2320.8710337723537, -15707.621360733672, -26310.68543323105, 4640.199797177291, -2383.8135461584984, -9953.432971648333, -1286.3652451473768, 0.23643750000000002, 0.9055312500000001, 0.28375000000000006, 192.0, 0.0, 0.0, 0.0, 0.0, 0.0, 0.0, 0.0, 0.0, 0.0, 1.6626773234316163E9, 0.0, 2022-09-08 18:48:43.431
6.0, 9002.902686941945, -1073.3754722327558, -33139.99273061666, -15876.086458693322, -270.03142476456463, 22675.308308042087, 34185.98731589167, 26532.548848694427, 2876.445993953466, 2323.441484384714, -15705.475593265963, -26303.756392449905, 4632.600204062486, -2379.723176923177, -9948.046201234603, -1276.9104572427818, 0.23643750000000002, 0.9055312500000001, 0.28375000000000006, 192.0, 0.0, 0.0, 0.0, 0.0, 0.0, 0.0, 0.0, 0.0, 0.0, 1.6626773234316208E9, 0.0, 2022-09-08 18:48:43.431
8.0, 9004.981399176288, -1062.4901726830212, -33130.73910841216, -15866.0952289218, -272.5571718880143, 22676.917633642868, 34166.67540868228, 26530.15721203771, 2865.7395083593738, 2327.308336175482, -15712.136413113645, -26301.074183115266, 4635.505930841677, -2373.665854175789, -9953.321212926056, -1279.6597218107847, 0.23600000000000002, 0.902, 0.28200000000000003, 192.0, 3.5, 48.0, 14.0, 24.0, 4.0, 104.0, 0.0, 0.0, 0.0, 1.662677323431625E9, 0.0, 2022-09-08 18:48:43.431
10.0, 8988.374053045995, -1089.781652662951, -33138.31634978251, -15886.010633231477, -291.06441629700856, 22665.205319548288, 34199.84539745395, 26491.66750808567, 2855.5918163766646, 2320.535757605524, -15716.047968393323, -26304.762220950393, 4634.120122685447, -2382.8300694024647, -9959.333832184533, -1286.6781695697512, 0.23600000000000002, 0.902, 0.28200000000000003, 192.0, 0.0, 0.0, 0.0, 0.0, 0.0, 0.0, 0.0, 0.0, 0.0, 1.6626773234316294E9, 0.0, 2022-09-08 18:48:43.431
12.0, 8994.140803115464, -1082.8302601373507, -33137.19876255975, -15890.52568561145, -288.56102091801415, 22650.54257518561, 34168.687065683254, 26457.80461523588, 2855.3235954432007, 2300.5756498069345, -15727.603820276718, -26315.803982711313, 4622.318401613045, -2397.626924231878, -9972.186085246336, -1301.899707543815, 0.23600000000000002, 0.902, 0.28200000000000003, 192.0, 0.0, 0.0, 0.0, 0.0, 0.0, 0.0, 0.0, 0.0, 0.0, 1.6626773234316337E9, 0.0, 2022-09-08 18:48:43.431
14.0, 8989.066957124109, -1086.4512427391103, -33146.58649523097, -15905.456650907596, -307.3364862604721, 22643.72529312674, 34159.36638824539, 26509.99593853902, 2855.0777262541924, 2305.7836062650213, -15729.615477277695, -26318.754412979415, 4620.954945201272, -2408.132244125872, -9984.211323763291, -1315.6013268949184, 0.23600000000000002, 0.902, 0.28200000000000003, 192.0, 0.0, 0.0, 0.0, 0.0, 0.0, 0.0, 0.0, 0.0, 0.0, 1.6626773234316392E9, 0.0, 2022-09-08 18:48:43.431
16.0, 8991.860925181023, -1078.0693385683703, -33153.113204611924, -15908.38472943124, -305.9506781042431, 22651.39194147491, 34166.943629615744, 26521.82001135588, 2852.0378890082707, 2297.6922747722, -15730.196622633532, -26318.35208157922, 4617.423369577333, -2410.2556598491265, -9982.244370251223, -1301.6314866103514, 0.23600000000000002, 0.902, 0.28200000000000003, 192.0, 0.0, 0.0, 0.0, 0.0, 0.0, 0.0, 0.0, 0.0, 0.0, 1.6626773234316435E9, 0.0, 2022-09-08 18:48:43.431
18.0, 8988.77638444619, -1086.0489113389149, -33156.86829768042, -15909.077633509354, -304.00607633663134, 22655.19173803231, 34142.334358970445, 26502.552807635406, 2833.0389062212594, 2294.8088997374657, -15733.25881162391, -26314.39582281063, 4616.730465499219, -2408.8698516928976, -9996.415376235887, -1302.2796871995554, 0.242, 0.904, 0.28400000000000003, 192.0, 3.5, 72.0, 14.0, 32.0, 4.0, 112.0, 0.0, 0.0, 0.0, 1.662677323431648E9, 0.0, 2022-09-08 18:48:43.431
20.0, 8961.350793999529, -1108.0877313718477, -33169.36292283093, -15924.522688927973, -317.52888173209215, 22627.140298740902, 34166.67540868228, 26478.345868390308, 2834.1341416995697, 2285.8682019553426, -15749.776750776382, -26327.650407272627, 4594.468128021733, -2413.8766424508863, -10004.149079817424, -1311.7568268486057, 0.242, 0.904, 0.28400000000000003, 192.0, 0.0, 0.0, 0.0, 0.0, 0.0, 0.0, 0.0, 0.0, 0.0, 1.6626773234316535E9, 0.0, 2022-09-08 18:48:43.431
22.0, 8982.54024774316, -1090.854536396806, -33145.51361149712, -15910.932828299145, -303.31317225851683, 22642.183022759324, 34122.93304478324, 26505.972624537066, 2817.1691676579917, 2285.1529461327727, -15745.038180951857, -26323.716500248494, 4593.4846512656995, -2414.1225116398946, -10005.490184484743, -1310.2816117145553, 0.242, 0.904, 0.28400000000000003, 192.0, 0.0, 0.0, 0.0, 0.0, 0.0, 0.0, 0.0, 0.0, 0.0, 1.662677323431658E9, 0.0, 2022-09-08 18:48:43.431
24.0, 8989.402233290939, -1083.590219448831, -33134.069518336, -15903.377938673251, -307.89527987185477, 22641.512470425663, 34180.06410361101, 26483.10678995929, 2835.2293771778795, 2292.4843183141134, -15729.503718555417, -26309.903122175114, 4602.023017647626, -2413.7425319841545, -9985.507724941699, -1302.4137976662873, 0.242, 0.904, 0.28400000000000003, 192.0, 0.0, 0.0, 0.0, 0.0, 0.0, 0.0, 0.0, 0.0, 0.0, 1.6626773234316623E9, 0.0, 2022-09-08 18:48:43.431
26.0, 8992.687939725869, -1080.3715682472669, -33130.31442526751, -15895.66658683617, -293.76897737610074, 22655.594069432507, 34130.107954753395, 26518.06491828739, 2835.2740806667903, 2297.6922747722, -15719.892468439635, -26301.141238348635, 4612.304820097068, -2406.5452702695457, -9981.774983617663, -1290.9250010162593, 0.242, 0.904, 0.28400000000000003, 192.0, 0.0, 0.0, 0.0, 0.0, 0.0, 0.0, 0.0, 0.0, 0.0, 1.6626773234316669E9, 0.0, 2022-09-08 18:48:43.431
28.0, 8959.272081765184, -1109.0488563834258, -33155.03545463508, -15919.873526081268, -313.1702915633073, 22632.57177264354, 34200.8735776989, 26496.361374421285, 2830.803731775729, 2271.9430651596863, -15740.97016346099, -26326.286950860853, 4593.261133821146, -2434.2837851385816, -9996.370672746978, -1307.420588424276, 0.24, 0.9, 0.28, 192.0, 3.5, 64.0, 14.0, 16.0, 4.0, 96.0, 0.0, 0.0, 0.0, 1.662677323431671E9, 0.0, 2022-09-08 18:48:43.431
30.0, 8972.459610993816, -1099.7728824344733, -33136.639968948366, -15898.23703744853, -311.4492072402486, 22649.87202285195, 34120.452001148704, 26509.258330971996, 2817.0350571912595, 2267.182143590706, -15733.929363957568, -26318.039157156847, 4590.914200653338, -2421.81151173252, -9996.482431469254, -1306.1241872458681, 0.24, 0.9, 0.28, 192.0, 0.0, 0.0, 0.0, 0.0, 0.0, 0.0, 0.0, 0.0, 0.0, 1.6626773234316757E9, 0.0, 2022-09-08 18:48:43.431
32.0, 8975.901779639933, -1103.6397342252415, -33130.962625856715, -15895.644235091715, -313.2373467966732, 22656.68930491082, 34193.028115395085, 26500.272929700965, 2819.091417681148, 2267.182143590706, -15734.577564546773, -26308.807886696803, 4598.603200745964, -2414.726008740188, -9989.106355799004, -1298.6363528533404, 0.24, 0.9, 0.28, 192.0, 0.0, 0.0, 0.0, 0.0, 0.0, 0.0, 0.0, 0.0, 0.0, 1.6626773234316797E9, 0.0, 2022-09-08 18:48:43.431
34.0, 8988.709329212825, -1088.1946788066243, -33104.49816042163, -15876.33232788233, -295.3783029768828, 22651.90603159738, 34113.187684200726, 26442.583077261817, 2824.612298561609, 2279.11797512984, -15720.808889962304, -26296.134447590644, 4595.920991411328, -2414.949526184741, -9983.049033051615, -1296.579992363452, 0.24, 0.9, 0.28, 192.0, 0.0, 0.0, 0.0, 0.0, 0.0, 0.0, 0.0, 0.0, 0.0, 1.662677323431684E9, 0.0, 2022-09-08 18:48:43.431
36.0, 8967.609282447014, -1109.9205744171827, -33114.824666359986, -15895.95715951409, -318.24413755466196, 22641.4454151923, 34201.85705445493, 26510.264159472485, 2819.672563036986, 2268.3891377912923, -15718.417253305586, -26297.788476680336, 4599.720787968729, -2408.6686859927995, -9962.172503730359, -1284.353588146399, 0.24, 0.9, 0.28, 192.0, 0.0, 0.0, 0.0, 0.0, 0.0, 0.0, 0.0, 0.0, 0.0, 1.6626773234316883E9, 0.0, 2022-09-08 18:48:43.431
38.0, 8973.130163327476, -1101.2257458240683, -33111.29309073604, -15896.538304869928, -312.3656287629162, 22647.972124573247, 34135.919408311776, 26539.701406920125, 2818.2644031363016, 2262.7117946996445, -15719.244267850432, -26301.83414242675, 4592.612933231942, -2421.1856628877717, -9965.726431098752, -1282.6101520788852, 0.242, 0.902, 0.28, 192.0, 3.5, 72.0, 14.0, 24.0, 4.0, 96.0, 0.0, 0.0, 0.0, 1.6626773234316928E9, 0.0, 2022-09-08 18:48:43.431
40.0, 8971.096154582043, -1101.9633533910935, -33116.92573033878, -15905.72487184106, -316.4559979982374, 22659.013886334167, 34211.87063597091, 26517.461421187094, 2798.7513302268185, 2261.1695243322283, -15727.693227254538, -26310.77484020887, 4583.068738349526, -2429.9922502031627, -9973.840114336028, -1298.837518553438, 0.242, 0.902, 0.28, 192.0, 0.0, 0.0, 0.0, 0.0, 0.0, 0.0, 0.0, 0.0, 0.0, 1.6626773234316971E9, 0.0, 2022-09-08 18:48:43.431
42.0, 8974.717137183803, -1104.8467284258281, -33115.092887293446, -15904.584932873839, -309.37049500590507, 22649.179118773834, 34147.25174275062, 26503.469229158072, 2799.1089581381034, 2275.318178572438, -15722.01588416289, -26301.029479626355, 4576.609084201942, -2425.4548460787355, -9977.550503915609, -1295.0153702515806, 0.242, 0.902, 0.28, 192.0, 0.0, 0.0, 0.0, 0.0, 0.0, 0.0, 0.0, 0.0, 0.0, 1.662677323431702E9, 0.0, 2022-09-08 18:48:43.431
44.0, 8962.669546922392, -1115.9331936756605, -33133.17544855779, -15927.406063962706, -321.8651201564217, 22635.43279593382, 34207.93672894678, 26469.360467119273, 2812.475301322377, 2267.539771501991, -15724.005189419413, -26302.01295638239, 4579.626569703409, -2434.7755235165982, -9978.131649271447, -1305.3418761899325, 0.242, 0.902, 0.28, 192.0, 0.0, 0.0, 0.0, 0.0, 0.0, 0.0, 0.0, 0.0, 0.0, 1.662677323431706E9, 0.0, 2022-09-08 18:48:43.431
46.0, 8971.163209815408, -1107.2160133380908, -33118.49035245065, -15909.703482354103, -319.9875736221759, 22633.756415099673, 34136.14292575633, 26499.490618645028, 2784.9826556423495, 2250.4183352492255, -15736.812738992303, -26315.40165131112, 4565.7237846522075, -2450.8017242910537, -9990.961550588794, -1325.54785317753, 0.242, 0.902, 0.28, 192.0, 0.0, 0.0, 0.0, 0.0, 0.0, 0.0, 0.0, 0.0, 0.0, 1.6626773234317105E9, 0.0, 2022-09-08 18:48:43.431
0.0, 4308.298743760436, -691.0041798358178, -16500.638902263512, -8059.100277316604, -371.2624754026503, 11234.187928937428, 17065.3780776713, 13250.248223572758, 1402.2366884036885, 1133.881644473272, -7860.393269108924, -13147.765475245176, 2290.0256264240297, -1216.4713402356315, -4991.8150892037265, -654.0790979956506, 0.244, 0.91, 0.3, 192.0, 3.5, 80.0, 14.0, 56.0, 4.5, 48.0, 0.0, 0.0, 0.0, 1.662677324003321E9, 0.0, 2022-09-08 18:48:44.003
2.0, 8631.483749328107, -1367.7926501980603, -32987.55383343146, -16101.101470124899, -727.5045785313342, 22486.905454028303, 34093.6969630357, 26513.48281067405, 2118.7218569185566, 1781.9034197215344, -15949.176663062175, -26295.374488279165, 4159.145553010172, -2853.7813250757845, -10209.44985263942, -1550.4958093757402, 0.244, 0.91, 0.3, 192.0, 0.0, 0.0, 0.0, 0.0, 0.0, 0.0, 0.0, 0.0, 0.0, 1.6626773240034337E9, 0.0, 2022-09-08 18:48:44.003
4.0, 8615.837528209393, -1384.7799759840937, -32998.75205740357, -16111.271513852063, -732.3772588225912, 22465.470131095666, 34155.544239943534, 26504.765630336482, 2123.505130231992, 1785.3232366231964, -15948.953145617623, -26285.562072463283, 4157.335061709293, -2855.569464632209, -10200.419747879476, -1548.6629663304052, 0.244, 0.91, 0.3, 192.0, 0.0, 0.0, 0.0, 0.0, 0.0, 0.0, 0.0, 0.0, 0.0, 1.6626773240034485E9, 0.0, 2022-09-08 18:48:44.003
6.0, 8617.402150321264, -1390.4573190757417, -33006.15048481828, -16122.939124457733, -737.8310844696862, 22452.97550594515, 34091.03710544552, 26508.2077989826, 2110.2058422810846, 1770.2134573714088, -15958.430285266673, -26299.040174369835, 4148.796695327365, -2867.929979315994, -10213.942553274937, -1569.9641787963128, 0.244, 0.91, 0.3, 192.0, 0.0, 0.0, 0.0, 0.0, 0.0, 0.0, 0.0, 0.0, 0.0, 1.6626773240034533E9, 0.0, 2022-09-08 18:48:44.003
8.0, 8617.268039854533, -1384.5341067950853, -33009.05621159747, -16122.46973782417, -734.2995088457476, 22451.902622211295, 34168.351789516426, 26461.626763537737, 2129.5177494904697, 1768.335910837163, -15951.76946541899, -26301.4094592821, 4153.177637240606, -2875.8648485976278, -10213.607277108107, -1587.2197255158098, 0.28, 0.914, 0.318, 192.0, 4.0, 96.0, 14.0, 72.0, 4.5, 120.0, 0.0, 0.0, 0.0, 1.662677324003458E9, 0.0, 2022-09-08 18:48:44.003
10.0, 8611.344827573876, -1385.6740457623062, -33015.739383189604, -16126.649514037314, -747.7776107522977, 22466.78888401853, 34168.28473428306, 26537.82386038588, 2124.9132901326766, 1780.5399633097607, -15951.277727040975, -26298.72724994746, 4143.633442358189, -2881.273970755812, -10221.653905112018, -1584.6939783923601, 0.28, 0.914, 0.318, 192.0, 0.0, 0.0, 0.0, 0.0, 0.0, 0.0, 0.0, 0.0, 0.0, 1.6626773240034635E9, 0.0, 2022-09-08 18:48:44.003
12.0, 8602.314722813931, -1402.3931506148758, -33032.57024676445, -16141.044037466532, -760.7639742808312, 22450.53916579952, 34317.12500061095, 26516.880275831256, 2113.1339208047298, 1768.5817800261714, -15960.82192192339, -26311.043061142336, 4140.079514989796, -2881.6539504115526, -10222.547974890229, -1578.860173089525, 0.28, 0.914, 0.318, 192.0, 0.0, 0.0, 0.0, 0.0, 0.0, 0.0, 0.0, 0.0, 0.0, 1.6626773240034685E9, 0.0, 2022-09-08 18:48:44.003
14.0, 8597.866725667325, -1404.8965459938702, -33032.033804897525, -16136.19370891973, -759.8699045026189, 22455.724770513152, 34292.158102054374, 26514.868618830278, 2082.3108652008614, 1751.1921228399424, -15978.099820387342, -26316.988625167447, 4128.05427647284, -2897.5236889748203, -10227.711227859405, -1594.5287459526953, 0.28, 0.914, 0.318, 192.0, 0.0, 0.0, 0.0, 0.0, 0.0, 0.0, 0.0, 0.0, 0.0, 1.6626773240034733E9, 0.0, 2022-09-08 18:48:44.003
16.0, 8579.292426024966, -1427.3376974269984, -33037.30881658898, -16136.95366823121, -797.5549456542666, 22429.90850566727, 34411.4717139568, 26503.44687741362, 2098.2029555085846, 1745.559483237205, -15977.809247709423, -26309.45608728601, 4112.76568326541, -2909.660686214052, -10225.476053413875, -1581.3635684685194, 0.28, 0.914, 0.318, 192.0, 0.0, 0.0, 0.0, 0.0, 0.0, 0.0, 0.0, 0.0, 0.0, 1.662677324003478E9, 0.0, 2022-09-08 18:48:44.003
18.0, 8576.967844601613, -1427.2035869602666, -33023.76365944906, -16129.935220472244, -788.7930618277862, 22421.616008474353, 34394.10440851503, 26475.998935222502, 2067.9386935160987, 1733.4224859979734, -15992.896675216756, -26322.17422988108, 4086.2118108525056, -2928.212634111957, -10230.616954638595, -1601.6142489450276, 0.29, 0.93, 0.342, 192.0, 4.5, 8.0, 14.5, 8.0, 5.0, 88.0, 0.0, 0.0, 0.0, 1.6626773240034828E9, 0.0, 2022-09-08 18:48:44.003
20.0, 8552.246815234044, -1455.411488462864, -33049.26699987257, -16155.215043451197, -823.795893644797, 22403.645205932287, 34506.2431104473, 26460.66563852616, 2067.4693068825372, 1727.432218483951, -15993.187247894675, -26328.097442161732, 4090.4362905545586, -2930.7160294909513, -10229.052332526724, -1597.6579901764383, 0.29, 0.93, 0.342, 192.0, 0.0, 0.0, 0.0, 0.0, 0.0, 0.0, 0.0, 0.0, 0.0, 1.6626773240034873E9, 0.0, 2022-09-08 18:48:44.003
22.0, 8543.328469196376, -1454.7856396181155, -33053.46912783017, -16161.898215043333, -824.5335012118222, 22392.67049940473, 34448.91088591944, 26459.43629258112, 2033.4276000771047, 1710.6460583980154, -16020.881059274801, -26356.46180587552, 4065.7599646758995, -2958.432192615532, -10261.417658498009, -1636.4159150619407, 0.29, 0.93, 0.342, 192.0, 0.0, 0.0, 0.0, 0.0, 0.0, 0.0, 0.0, 0.0, 0.0, 1.662677324003492E9, 0.0, 2022-09-08 18:48:44.003
24.0, 8531.124416723778, -1470.7000816702941, -33075.61970658538, -16190.8213723685, -842.0349171203277, 22386.90374933526, 34533.57929391614, 26456.463510568563, 2034.8134082333338, 1690.1495087324988, -16030.939344279688, -26373.78440782838, 4062.5413134743353, -2968.982215998437, -10265.306862033232, -1635.5889005170943, 0.29, 0.93, 0.342, 192.0, 0.0, 0.0, 0.0, 0.0, 0.0, 0.0, 0.0, 0.0, 0.0, 1.662677324003497E9, 0.0, 2022-09-08 18:48:44.003
26.0, 8525.156500954212, -1478.567895718562, -33095.69157310624, -16203.025424841098, -846.862893922674, 22378.52184516452, 34478.25872638926, 26466.790016506915, 2008.415998031616, 1678.6383603380157, -16048.8877950773, -26392.22459700401, 4057.869798883176, -2983.533201638842, -10285.624597743106, -1660.108764184566, 0.29, 0.93, 0.342, 192.0, 0.0, 0.0, 0.0, 0.0, 0.0, 0.0, 0.0, 0.0, 0.0, 1.6626773240035017E9, 0.0, 2022-09-08 18:48:44.003
28.0, 8525.648239332228, -1477.606770706984, -33113.55061692603, -16221.35385529445, -862.4867632969336, 22373.24683347307, 34506.153703469485, 26444.8406034518, 2027.0350011628868, 1675.5538196031832, -16052.978164312623, -26383.686230622083, 4058.5850547057457, -2980.985102770937, -10299.169754883022, -1670.4129183784628, 0.296, 0.886, 0.336, 192.0, 4.5, 32.0, 13.5, 88.0, 5.0, 64.0, 0.0, 0.0, 0.0, 1.6626773240035064E9, 0.0, 2022-09-08 18:48:44.003
30.0, 8519.859137518304, -1476.8915148844142, -33118.311538495014, -16225.488928018682, -865.057213909294, 22363.233251957092, 34430.47069674381, 26444.170051118144, 2001.576364228292, 1666.501363098784, -16070.881911621324, -26392.001079559457, 4034.579281160746, -3002.5768879147636, -10321.834423760703, -1691.4906133998172, 0.296, 0.886, 0.336, 192.0, 0.0, 0.0, 0.0, 0.0, 0.0, 0.0, 0.0, 0.0, 0.0, 1.662677324003511E9, 0.0, 2022-09-08 18:48:44.003
32.0, 8524.888280020748, -1471.86237238197, -33118.95973908422, -16226.047721630064, -866.9347604435397, 22376.823112585917, 34409.50476044473, 26451.65788551067, 1998.134195582175, 1673.922142257946, -16065.808065629968, -26387.061344034835, 4055.0758308262625, -2986.3942249291213, -10315.464176590942, -1681.9017150284906, 0.296, 0.886, 0.336, 192.0, 0.0, 0.0, 0.0, 0.0, 0.0, 0.0, 0.0, 0.0, 0.0, 1.6626773240035155E9, 0.0, 2022-09-08 18:48:44.003
34.0, 8528.375152155775, -1465.0450903231015, -33107.22507324518, -16220.772709938612, -868.0970511552157, 22380.019412043028, 34303.08810509302, 26427.04861486538, 1998.424768260094, 1675.307950414175, -16066.65743191927, -26392.98455631549, 4050.0466883238187, -2986.528335395853, -10322.37086562763, -1685.2768284412418, 0.296, 0.886, 0.336, 192.0, 0.0, 0.0, 0.0, 0.0, 0.0, 0.0, 0.0, 0.0, 0.0, 1.6626773240035205E9, 0.0, 2022-09-08 18:48:44.003
36.0, 8534.298364436432, -1460.060651309568, -33105.77220985558, -16230.87569843241, -872.1427169016263, 22384.243891745078, 34259.25633421616, 26429.84258292229, 1987.360654754717, 1686.5061743862839, -16060.063667304954, -26393.766867371425, 4052.1477523026174, -2981.9685795269706, -10325.030723217813, -1675.5091161142727, 0.296, 0.886, 0.336, 192.0, 0.0, 0.0, 0.0, 0.0, 0.0, 0.0, 0.0, 0.0, 0.0, 1.6626773240035264E9, 0.0, 2022-09-08 18:48:44.003
38.0, 8539.439265661153, -1446.8954738253922, -33096.987974284646, -16229.646352487369, -871.5392198013329, 22373.537406150986, 34179.21473732171, 26404.160428543142, 1994.0214746023983, 1687.8025755646916, -16061.270661505541, -26406.23914077749, 4050.3372610017377, -2991.5574778982973, -10325.634220318107, -1678.8171742936581, 0.27, 0.872, 0.314, 192.0, 4.0, 56.0, 13.5, 32.0, 4.5, 104.0, 0.0, 0.0, 0.0, 1.6626773240035331E9, 0.0, 2022-09-08 18:48:44.003
40.0, 8551.419800689197, -1441.128723755923, -33081.2076426992, -16229.556945509548, -864.7219377424643, 22368.754132837552, 34054.87198291683, 26349.175137183087, 1995.6308002031806, 1708.3438287191188, -16044.328039208418, -26396.963166828536, 4071.5937699787346, -2979.666349848074, -10309.719778265928, -1661.5392758297057, 0.27, 0.872, 0.314, 192.0, 0.0, 0.0, 0.0, 0.0, 0.0, 0.0, 0.0, 0.0, 0.0, 1.662677324003538E9, 0.0, 2022-09-08 18:48:44.003
42.0, 8546.904748309225, -1448.8400755930038, -33074.2562501736, -16241.895108448876, -850.6179869911656, 22373.023316028513, 34043.785517667, 26412.22940829151, 1981.9962360854431, 1700.2524972262977, -16057.426161459229, -26417.70558568306, 4068.0174908658855, -2992.2950854653222, -10327.623525574629, -1681.5440871172057, 0.27, 0.872, 0.314, 192.0, 0.0, 0.0, 0.0, 0.0, 0.0, 0.0, 0.0, 0.0, 0.0, 1.6626773240035427E9, 0.0, 2022-09-08 18:48:44.003
44.0, 8575.60438818984, -1431.2716044511324, -33061.58281106744, -16228.998151898166, -837.4975129959004, 22387.216673757634, 34115.86989353537, 26424.589922975294, 1997.0613118483202, 1706.2204129958645, -16037.019018771533, -26419.717242684037, 4093.230258611472, -2988.9423237970263, -10279.254350573345, -1652.3303571141194, 0.27, 0.872, 0.314, 192.0, 0.0, 0.0, 0.0, 0.0, 0.0, 0.0, 0.0, 0.0, 0.0, 1.6626773240035472E9, 0.0, 2022-09-08 18:48:44.003
46.0, 8589.149545329756, -1426.153054970867, -33070.29999140501, -16213.910724390833, -837.0504781067942, 22393.452810460665, 34163.85908888091, 26449.57917327633, 2015.3003353238507, 1707.628572896549, -16027.519527378026, -26423.248818307977, 4105.389607595159, -2985.276637706356, -10276.013347627324, -1652.8667989810467, 0.27, 0.872, 0.314, 192.0, 0.0, 0.0, 0.0, 0.0, 0.0, 0.0, 0.0, 0.0, 0.0, 1.662677324003552E9, 0.0, 2022-09-08 18:48:44.003
48.0, 8577.996024846558, -1441.0393167781017, -33098.35143069642, -16227.277067575107, -853.4343067925342, 22387.86487434684, 34162.18270804676, 26455.010647178966, 1998.3800647711832, 1692.1611657334765, -16030.358198923852, -26443.164222617655, 4098.773491236388, -3001.146376269624, -10287.099812877157, -1673.13983120201, 0.20400000000000001, 0.8240000000000001, 0.28, 192.0, 3.0, 48.0, 12.5, 96.0, 4.0, 96.0, 0.0, 0.0, 0.0, 1.6626773240035565E9, 0.0, 2022-09-08 18:48:44.003
50.0, 8560.896940338247, -1456.1714477743444, -33113.12593378138, -16241.984515426699, -879.5634960607882, 22379.170045753723, 34180.19821407774, 26411.290635024387, 1990.0428640893538, 1681.7005493283928, -16036.773149582525, -26451.926106444134, 4085.675368985578, -3027.8343591492608, -10308.80335674326, -1683.6227993515492, 0.20400000000000001, 0.8240000000000001, 0.28, 192.0, 0.0, 0.0, 0.0, 0.0, 0.0, 0.0, 0.0, 0.0, 0.0, 1.6626773240035613E9, 0.0, 2022-09-08 18:48:44.003
52.0, 8530.766788812494, -1469.67190142535, -33118.579759428474, -16253.138035909897, -879.1164611716821, 22362.026257756504, 34183.32745830148, 26378.12064625271, 1988.6123524442141, 1657.180685660921, -16045.825606086924, -26460.732693759524, 4080.512116016402, -3045.5369407578637, -10328.785816286305, -1707.4721106853617, 0.20400000000000001, 0.8240000000000001, 0.28, 192.0, 0.0, 0.0, 0.0, 0.0, 0.0, 0.0, 0.0, 0.0, 0.0, 1.662677324003566E9, 0.0, 2022-09-08 18:48:44.003
54.0, 8515.63465781625, -1492.8283086810482, -33122.40190773033, -16249.517053308136, -881.2175251504809, 22358.293516432466, 34305.81501791657, 26441.532545272417, 2003.9903526294654, 1637.7793714737145, -16053.380495712818, -26458.363408847265, 4068.0845460992514, -3044.8440366797495, -10330.216327931445, -1703.0911687721216, 0.20400000000000001, 0.8240000000000001, 0.28, 192.0, 0.0, 0.0, 0.0, 0.0, 0.0, 0.0, 0.0, 0.0, 0.0, 1.6626773240035708E9, 0.0, 2022-09-08 18:48:44.003
56.0, 8515.478195605063, -1501.0984541295118, -33110.53313142456, -16244.845538716978, -890.1582229326037, 22346.51414710452, 34297.90250037939, 26346.336465637265, 2002.9621723845212, 1621.1049701100553, -16055.168635269241, -26450.696760499093, 4072.107860101207, -3043.3017663123333, -10332.943240754992, -1707.494462429817, 0.20400000000000001, 0.8240000000000001, 0.28, 192.0, 0.0, 0.0, 0.0, 0.0, 0.0, 0.0, 0.0, 0.0, 0.0, 1.6626773240035756E9, 0.0, 2022-09-08 18:48:44.003
58.0, 8493.528782549953, -1523.1596259068997, -33119.40677397332, -16253.07098067653, -913.5828511217655, 22345.396559881756, 34402.17338826339, 26437.66569348165, 2005.0185328744094, 1611.60547871655, -16060.60010917188, -26445.220583107544, 4065.6929094425336, -3047.1686181031014, -10330.126920953622, -1707.0027240518004, 0.194, 0.8420000000000001, 0.275, 192.0, 2.5, 96.0, 13.0, 112.0, 4.0, 56.0, 0.0, 0.0, 0.0, 1.6626773240035803E9, 0.0, 2022-09-08 18:48:44.003
60.0, 8498.58027679685, -1515.4706258142742, -33101.74889585363, -16241.291611348584, -904.731560317464, 22356.863004787327, 34308.56428248457, 26395.93498658359, 1977.8164598723008, 1595.7357401532818, -16076.93923436871, -26454.876536712236, 4058.6297581946565, -3051.817780949805, -10347.963613028958, -1711.5401281762277, 0.194, 0.8420000000000001, 0.275, 192.0, 0.0, 0.0, 0.0, 0.0, 0.0, 0.0, 0.0, 0.0, 0.0, 1.6626773240035856E9, 0.0, 2022-09-08 18:48:44.003
62.0, 8514.807643271404, -1506.284058843143, -33072.378703639355, -16224.21487858473, -896.3049526578133, 22373.60446138435, 34365.22595467877, 26371.54923338285, 2007.8125009313228, 1623.474255022318, -16043.74689385258, -26421.684196196104, 4077.896961915131, -3025.6662399370957, -10316.313542880243, -1680.7170725723593, 0.194, 0.8420000000000001, 0.275, 192.0, 0.0, 0.0, 0.0, 0.0, 0.0, 0.0, 0.0, 0.0, 0.0, 1.6626773240035903E9, 0.0, 2022-09-08 18:48:44.003
64.0, 8514.49471884903, -1507.3345908325423, -33066.701360547704, -16208.322788277006, -897.3554846472126, 22363.121493234816, 34200.24772885415, 26325.951674694024, 1997.7318641819793, 1626.2905748236865, -16041.914050807245, -26411.89413212468, 4066.989310620941, -3018.625440433674, -10322.437920860997, -1687.7131685868703, 0.194, 0.8420000000000001, 0.275, 192.0, 0.0, 0.0, 0.0, 0.0, 0.0, 0.0, 0.0, 0.0, 0.0, 1.662677324003595E9, 0.0, 2022-09-08 18:48:44.003
66.0, 8522.630753830761, -1498.282134328143, -33062.946267479216, -16202.690148674268, -903.6139730946986, 22355.588955353374, 34171.413978506804, 26331.472555574484, 2027.124408140708, 1623.4295515334072, -16032.414559413739, -26393.27512899341, 4067.324586787771, -3010.7129228964955, -10324.159005184056, -1685.7685668192587, 0.194, 0.8420000000000001, 0.275, 192.0, 0.0, 0.0, 0.0, 0.0, 0.0, 0.0, 0.0, 0.0, 0.0, 1.6626773240036006E9, 0.0, 2022-09-08 18:48:44.003
68.0, 8540.512149395008, -1484.6475702104058, -33033.33020607593, -16180.718383874702, -891.5663828332881, 22378.231272486602, 33966.023798706985, 26336.92638122158, 2035.0592774223421, 1639.7463249857815, -16021.17163195272, -26356.394750642154, 4071.6384734676453, -3003.8732890931715, -10321.297981893777, -1679.7112440718704, 0.201, 0.8860000000000001, 0.2725, 192.0, 3.0, 64.0, 14.5, 8.0, 4.0, 56.0, 0.0, 0.0, 0.0, 1.6626773240036066E9, 0.0, 2022-09-08 18:48:44.003
70.0, 8539.238099961054, -1489.319084801565, -33032.30202583099, -16180.114886774409, -889.7558915324082, 22386.032031301504, 33929.322234311374, 26352.41614012911, 2048.962062473543, 1654.632586793016, -16012.208582426141, -26313.389994310142, 4089.09518588724, -2985.4554516619983, -10310.546792810774, -1659.9970054622897, 0.201, 0.8860000000000001, 0.2725, 192.0, 0.0, 0.0, 0.0, 0.0, 0.0, 0.0, 0.0, 0.0, 0.0, 1.662677324003611E9, 0.0, 2022-09-08 18:48:44.003
72.0, 8555.130190268777, -1470.7000816702941, -33007.62569995233, -16150.230604437664, -868.7452517444196, 22396.112668050846, 33766.378017232186, 26334.40063409813, 2045.2069694050515, 1655.2584356377645, -16016.276599917008, -26295.530950490353, 4089.47516554298, -2976.8947335356156, -10308.713949765439, -1653.1350199145104, 0.201, 0.8860000000000001, 0.2725, 192.0, 0.0, 0.0, 0.0, 0.0, 0.0, 0.0, 0.0, 0.0, 0.0, 1.662677324003616E9, 0.0, 2022-09-08 18:48:44.003
74.0, 8565.88137935178, -1459.3677472314534, -33006.91044412976, -16147.570746847481, -871.6956820125201, 22397.409069229256, 33759.806604362326, 26345.241230158954, 2066.9999202489757, 1683.1310609735324, -15999.110460175332, -26268.753560632893, 4104.227316883483, -2948.887997733116, -10288.664434989028, -1626.2905748236865, 0.201, 0.8860000000000001, 0.2725, 192.0, 0.0, 0.0, 0.0, 0.0, 0.0, 0.0, 0.0, 0.0, 0.0, 1.6626773240036209E9, 0.0, 2022-09-08 18:48:44.003
76.0, 8593.686949454182, -1435.5631393865515, -32984.75986537455, -16126.023665192566, -845.7229549554534, 22410.976578113627, 33649.03135884182, 26343.45309060253, 2073.4372226521045, 1700.140738504021, -15991.935550205179, -26253.040284280814, 4108.720017518999, -2936.8180557272503, -10287.74801346636, -1615.9417171408793, 0.201, 0.8860000000000001, 0.2725, 192.0, 0.0, 0.0, 0.0, 0.0, 0.0, 0.0, 0.0, 0.0, 0.0, 1.6626773240036256E9, 0.0, 2022-09-08 18:48:44.003
78.0, 8595.519792499517, -1435.3619736864537, -32987.26326075355, -16129.063502438486, -848.2934055678137, 22418.956150884173, 33696.97585069846, 26364.97782051299, 2089.1057955152746, 1714.0211718107669, -15979.776201221492, -26238.71281608496, 4118.487729845969, -2920.3895235525997, -10274.024042370802, -1598.2838390211869, 0.20950000000000002, 0.9080000000000001, 0.26425, 192.0, 3.0, 104.0, 14.5, 8.0, 4.0, 0.0, 0.0, 0.0, 0.0, 1.6626773240036304E9, 0.0, 2022-09-08 18:48:44.003
80.0, 8621.537223045496, -1408.450473362264, -32967.8842983108, -16113.28317085304, -823.3712105001463, 22430.444947534197, 33702.38497285664, 26369.671686848604, 2087.407062936671, 1705.6169158955713, -15987.196980380653, -26246.781795833325, 4115.29143038886, -2932.3030033472783, -10277.734431950383, -1603.3800367569968, 0.20950000000000002, 0.9080000000000001, 0.26425, 192.0, 0.0, 0.0, 0.0, 0.0, 0.0, 0.0, 0.0, 0.0, 0.0, 1.6626773240036356E9, 0.0, 2022-09-08 18:48:44.003
82.0, 8624.308839357953, -1413.7031333092611, -32976.57912690391, -16129.398778605317, -842.6384142206209, 22430.78022370103, 33830.14754416318, 26390.257643491943, 2120.599403452802, 1740.396230268029, -15960.330183545375, -26223.647740322085, 4147.522645893413, -2904.76565417834, -10246.844321113149, -1573.696920120349, 0.20950000000000002, 0.9080000000000001, 0.26425, 192.0, 0.0, 0.0, 0.0, 0.0, 0.0, 0.0, 0.0, 0.0, 0.0, 1.6626773240036404E9, 0.0, 2022-09-08 18:48:44.003
84.0, 8625.60524053636, -1420.9450985127805, -32971.19235649018, -16127.163604159787, -842.5266554983444, 22429.372063800343, 33952.456289822614, 26385.27320447841, 2091.7433013610007, 1713.9541165774008, -15981.407878566728, -26245.10541499918, 4114.285601888371, -2929.7772562238288, -10261.864693387115, -1604.564679213128, 0.20950000000000002, 0.9080000000000001, 0.26425, 192.0, 0.0, 0.0, 0.0, 0.0, 0.0, 0.0, 0.0, 0.0, 0.0, 1.662677324003645E9, 0.0, 2022-09-08 18:48:44.003
86.0, 8630.433217338708, -1416.9441362552807, -32963.4810046531, -16128.012970449088, -833.6306612051322, 22433.64124699131, 34080.01769542905, 26353.556079096328, 2114.475025472048, 1717.6421544125265, -15963.34766904684, -26239.025740507335, 4126.377895638692, -2925.731590477418, -10242.195158266444, -1589.7454726392596, 0.20950000000000002, 0.9080000000000001, 0.26425, 192.0, 0.0, 0.0, 0.0, 0.0, 0.0, 0.0, 0.0, 0.0, 0.0, 1.66267732400365E9, 0.0, 2022-09-08 18:48:44.003
88.0, 8624.822929480426, -1424.1637497143447, -32974.76863560303, -16127.342418115428, -841.1184955976601, 22419.581999728918, 34184.62385947989, 26404.249835520965, 2116.017295839464, 1709.461415941884, -15968.10859061582, -26246.133595244122, 4121.48286360298, -2934.1805498815243, -10250.912338604014, -1595.1098913085332, 0.22675, 0.9260000000000002, 0.260125, 192.0, 3.5, 80.0, 14.5, 64.0, 4.0, 0.0, 0.0, 0.0, 0.0, 1.6626773240036547E9, 0.0, 2022-09-08 18:48:44.003
90.0, 8610.741330473582, -1440.0334882776128, -32994.79579863499, -16140.306429899507, -884.4361763520452, 22408.942569368195, 34250.852078300966, 26449.2438971095, 2103.545022433403, 1708.9249740749567, -15977.362212820319, -26245.820670821748, 4112.095130931751, -2935.72282024894, -10265.753896922339, -1593.9028971079467, 0.22675, 0.9260000000000002, 0.260125, 192.0, 0.0, 0.0, 0.0, 0.0, 0.0, 0.0, 0.0, 0.0, 0.0, 1.6626773240036595E9, 0.0, 2022-09-08 18:48:44.003
92.0, 8578.666577180216, -1463.0781368110345, -33001.568377204945, -16159.461874897705, -902.0493509828271, 22380.86877833233, 34328.25616934969, 26393.610405160238, 2068.9445220165876, 1673.564514346661, -16011.739195792581, -26268.217118765966, 4070.9232176450755, -2979.889867292627, -10293.961798424936, -1624.0330486337004, 0.22675, 0.9260000000000002, 0.260125, 192.0, 0.0, 0.0, 0.0, 0.0, 0.0, 0.0, 0.0, 0.0, 0.0, 1.662677324003664E9, 0.0, 2022-09-08 18:48:44.003
94.0, 8576.78903064597, -1465.6262356789393, -32992.09123755589, -16158.545453375036, -900.0153422373942, 22388.3342609804, 34313.23579707573, 26365.26839319091, 2049.8114287628446, 1676.1349649590213, -16010.174573680708, -26257.331819216233, 4073.381909535159, -2977.3864719136327, -10286.384557054587, -1621.0826183656, 0.22675, 0.9260000000000002, 0.260125, 192.0, 0.0, 0.0, 0.0, 0.0, 0.0, 0.0, 0.0, 0.0, 0.0, 1.6626773240036688E9, 0.0, 2022-09-08 18:48:44.003
96.0, 8566.082545051879, -1464.732165900727, -32985.63158340831, -16160.422999909282, -895.992028235439, 22391.99994707107, 34358.363969130995, 26354.36074189672, 2024.9786406729986, 1671.821078279147, -16032.74983558057, -26274.743828146915, 4047.476237711458, -2995.245515733423, -10287.278626832798, -1627.5422725131837, 0.22675, 0.9260000000000002, 0.260125, 192.0, 0.0, 0.0, 0.0, 0.0, 0.0, 0.0, 0.0, 0.0, 0.0, 1.6626773240036736E9, 0.0, 2022-09-08 18:48:44.003
98.0, 8569.480010209085, -1464.8886281119144, -32977.160272259745, -16159.730095831168, -899.277734670369, 22388.42366795822, 34256.6858836038, 26356.84178553126, 2022.676410994102, 1683.108709229077, -16020.702245319158, -26263.299734985798, 4062.5189617298797, -2973.050233489303, -10271.65475745854, -1612.276031050209, 0.233375, 0.9410000000000001, 0.2660625, 192.0, 3.5, 64.0, 14.5, 112.0, 4.0, 64.0, 0.0, 0.0, 0.0, 1.6626773240036786E9, 0.0, 2022-09-08 18:48:44.003
100.0, 8579.35948125833, -1456.6631861523613, -32967.459615166146, -16154.700953328724, -889.666484554587, 22404.829848388417, 34256.6858836038, 26369.135244981677, 2010.964096899521, 1676.1573167034767, -16036.08024550441, -26275.28027001384, 4054.449981981514, -2983.220277216468, -10280.908379663037, -1617.4839875082955, 0.233375, 0.9410000000000001, 0.2660625, 192.0, 0.0, 0.0, 0.0, 0.0, 0.0, 0.0, 0.0, 0.0, 0.0, 1.6626773240036843E9, 0.0, 2022-09-08 18:48:44.003
102.0, 8583.628664449294, -1454.9421018293026, -32971.706446612654, -16166.457970912215, -885.0620251967938, 22402.348804753878, 34096.40152411479, 26366.229518202486, 2006.5384514973703, 1678.6830638269264, -16028.190079711687, -26271.59223217872, 4069.135078088651, -2980.8733440486603, -10279.70138546245, -1613.8183014176252, 0.233375, 0.9410000000000001, 0.2660625, 192.0, 0.0, 0.0, 0.0, 0.0, 0.0, 0.0, 0.0, 0.0, 0.0, 1.6626773240036893E9, 0.0, 2022-09-08 18:48:44.003
104.0, 8576.297292267955, -1461.4241077213417, -32981.80943510645, -16185.926340332788, -893.5780398342657, 22396.67146166223, 34112.695945822714, 26352.662009318115, 1989.8640501337113, 1688.2272587093425, -16033.956829781155, -26277.224871781455, 4076.7793746923658, -2986.8636115626828, -10280.662510474029, -1620.2332520762984, 0.233375, 0.9410000000000001, 0.2660625, 192.0, 0.0, 0.0, 0.0, 0.0, 0.0, 0.0, 0.0, 0.0, 0.0, 1.662677324003694E9, 0.0, 2022-09-08 18:48:44.003
106.0, 8586.824963906403, -1454.7632878736601, -32974.05337978046, -16192.274235758096, -880.7928420058302, 22401.454734975665, 33974.830386022375, 26347.63286681567, 1995.742558925457, 1680.4488516388956, -16033.26392570304, -26289.227758553956, 4070.2750170558716, -2995.849012833716, -10295.168792625522, -1644.5743017881277, 0.233375, 0.9410000000000001, 0.2660625, 192.0, 0.0, 0.0, 0.0, 0.0, 0.0, 0.0, 0.0, 0.0, 0.0, 1.6626773240036988E9, 0.0, 2022-09-08 18:48:44.003
108.0, 8587.942551129168, -1451.2764157386323, -32980.69184788369, -16199.002110839143, -877.8647634821849, 22406.975615856125, 34018.57274992141, 26361.490948377963, 1989.6852361780689, 1680.2029824498873, -16035.230879215109, -26297.140276091133, 4075.5276770028686, -2992.987989543437, -10292.844211202171, -1639.120476141033, 0.2166875, 0.9335, 0.26503125, 192.0, 3.0, 32.0, 14.0, 120.0, 4.0, 32.0, 0.0, 0.0, 0.0, 1.662677324003712E9, 0.0, 2022-09-08 18:48:44.003
110.0, 8614.429368308707, -1423.4261421473198, -32962.117548241324, -16179.176113507285, -863.3137778417799, 22416.43040376072, 33906.94813811161, 26362.87675653419, 1987.1147855657084, 1700.7442356043143, -16026.938382022188, -26292.871092900168, 4089.2069446095165, -2978.861687047683, -10286.2280948434, -1621.149673598966, 0.2166875, 0.9335, 0.26503125, 192.0, 0.0, 0.0, 0.0, 0.0, 0.0, 0.0, 0.0, 0.0, 0.0, 1.6626773240037286E9, 0.0, 2022-09-08 18:48:44.003
112.0, 8589.395414518764, -1451.7234506277384, -32974.656876880756, -16198.331558505484, -881.5528013173106, 22405.321586766433, 33940.98984491704, 26353.086692462766, 1977.6823494055689, 1689.3224941876524, -16037.89073680529, -26311.49009603144, 4075.080642113762, -2989.702283108507, -10285.043452387268, -1623.4071997889519, 0.2166875, 0.9335, 0.26503125, 192.0, 0.0, 0.0, 0.0, 0.0, 0.0, 0.0, 0.0, 0.0, 0.0, 1.6626773240037465E9, 0.0, 2022-09-08 18:48:44.003
114.0, 8616.03869390949, -1428.5670433720402, -32930.98156821508, -16155.393857406838, -840.1126670971713, 22441.68787499522, 33755.69388338255, 26356.97589599799, 1994.3120472803173, 1703.0241135387557, -16016.544820850471, -26302.482343015952, 4097.566497035801, -2964.0648322182697, -10287.859772188636, -1608.5209379817175, 0.2166875, 0.9335, 0.26503125, 192.0, 0.0, 0.0, 0.0, 0.0, 0.0, 0.0, 0.0, 0.0, 0.0, 1.6626773240037572E9, 0.0, 2022-09-08 18:48:44.003
116.0, 8607.545031016472, -1435.6972498532832, -32922.66671927771, -16162.300546443528, -832.2672047933585, 22441.1961366172, 33781.68896218407, 26352.55025059584, 2018.6530969921469, 1707.203889751898, -15995.802401995947, -26286.187921308032, 4118.934764735075, -2935.3875440821107, -10258.333117763177, -1583.5540394251395, 0.2166875, 0.9335, 0.26503125, 192.0, 0.0, 0.0, 0.0, 0.0, 0.0, 0.0, 0.0, 0.0, 0.0, 1.662677324003764E9, 0.0, 2022-09-08 18:48:44.003
118.0, 8615.122272386823, -1422.3756101579202, -32899.82323644438, -16140.418188621783, -802.6734951345319, 22450.650924521797, 33688.52689129435, 26388.69302138007, 2019.1895388590742, 1708.6791048859484, -15994.394242095263, -26281.762275905883, 4128.590718339768, -2929.9784219239264, -10249.303013003233, -1581.4306237018852, 0.2166875, 0.9335, 0.26503125, 192.0, 0.0, 0.0, 0.0, 0.0, 0.0, 0.0, 0.0, 0.0, 0.0, 1.66267732400378E9, 0.0, 2022-09-08 18:48:44.003
120.0, 8598.716091956627, -1438.7594388436603, -32933.79788801645, -16165.049811011531, -828.3109460247691, 22440.3467703279, 33826.37009935023, 26431.94364690109, 2049.610263062747, 1717.53039569025, -15990.125058904297, -26267.121883287655, 4139.207796956039, -2923.6528782430746, -10236.182539007967, -1569.919475307402, 0.224, 0.9380000000000001, 0.27, 192.0, 3.5, 0.0, 14.5, 40.0, 4.0, 56.0, 0.0, 0.0, 0.0, 1.6626773244835749E9, 0.0, 2022-09-08 18:48:44.483
122.0, 8597.643208222773, -1443.9226918128363, -32945.62196083331, -16166.05563951202, -835.6646699505651, 22440.413825561267, 33853.8403932858, 26494.103848231298, 2022.0058586604428, 1680.7170725723593, -16026.35723666635, -26295.62035746817, 4107.244802384949, -2934.3593638371667, -10262.714059676417, -1584.4257574588964, 0.224, 0.9380000000000001, 0.27, 192.0, 0.0, 0.0, 0.0, 0.0, 0.0, 0.0, 0.0, 0.0, 0.0, 1.6626773244836285E9, 0.0, 2022-09-08 18:48:44.483
124.0, 8585.170934816711, -1455.1432675294004, -32961.089367996385, -16184.942863576754, -853.1884376035259, 22443.945401185203, 34025.45708721365, 26491.064010985378, 2015.1438731126636, 1674.436232380418, -16033.286277447496, -26294.323956289765, 4110.463453586513, -2920.858910186161, -10261.708231175928, -1581.5647341686172, 0.224, 0.9380000000000001, 0.27, 192.0, 0.0, 0.0, 0.0, 0.0, 0.0, 0.0, 0.0, 0.0, 0.0, 1.6626773244836648E9, 0.0, 2022-09-08 18:48:44.483
126.0, 8576.140830056767, -1456.8196483635484, -32965.559716887445, -16203.24894228565, -853.9707486594616, 22434.0435783915, 34113.76882955657, 26474.031981710432, 2021.1117888822305, 1660.600502562583, -16060.287184749508, -26312.96531116549, 4092.38089232217, -2934.2029016259794, -10276.706251705438, -1604.0282373462007, 0.224, 0.9380000000000001, 0.27, 192.0, 0.0, 0.0, 0.0, 0.0, 0.0, 0.0, 0.0, 0.0, 0.0, 1.662677324483746E9, 0.0, 2022-09-08 18:48:44.483
128.0, 8582.89105688227, -1453.4668866952525, -32965.33619944289, -16209.753299922146, -860.1174783846711, 22447.63343902033, 34251.880258545905, 26506.598473381815, 2036.9815274454986, 1669.0941654555995, -16059.571928926938, -26307.287968073844, 4111.022247197896, -2925.15044512158, -10270.380708024586, -1607.403350758952, 0.224, 0.9380000000000001, 0.27, 192.0, 0.0, 0.0, 0.0, 0.0, 0.0, 0.0, 0.0, 0.0, 0.0, 1.6626773244837556E9, 0.0, 2022-09-08 18:48:44.483
130.0, 8551.911539067214, -1483.507631243185, -32997.857987625364, -16245.113759650441, -896.2378974244473, 22397.67729016272, 34297.65663119038, 26459.9950861925, 2010.2711928214067, 1650.989252446801, -16087.08692635142, -26332.992474197446, 4089.1398893761507, -2936.7957039827947, -10289.89378093407, -1627.117589368533, 0.248, 0.86, 0.28400000000000003, 192.0, 3.5, 96.0, 13.0, 112.0, 4.0, 112.0, 0.0, 0.0, 0.0, 1.6626773244837608E9, 0.0, 2022-09-08 18:48:44.483
132.0, 8573.592731188863, -1467.3696717464534, -32987.26326075355, -16243.8844137054, -900.8647085266958, 22423.91823815325, 34366.76822504619, 26460.66563852616, 1989.4617187335157, 1646.2059791333652, -16103.09077538142, -26350.69505580605, 4069.9173891445867, -2955.3923553696104, -10313.608981801151, -1645.4013163329741, 0.248, 0.86, 0.28400000000000003, 192.0, 0.0, 0.0, 0.0, 0.0, 0.0, 0.0, 0.0, 0.0, 0.0, 1.6626773244837713E9, 0.0, 2022-09-08 18:48:44.483
134.0, 8556.493646680552, -1490.3249133020538, -33006.86574064085, -16272.494646608193, -923.1941012375476, 22394.682156405706, 34390.14814974644, 26425.32753054232, 1974.7989743708342, 1642.4732378093288, -16108.9022289398, -26362.474425133994, 4060.3061390288044, -2967.797573542306, -10314.592458557185, -1650.4751623243287, 0.248, 0.86, 0.28400000000000003, 192.0, 0.0, 0.0, 0.0, 0.0, 0.0, 0.0, 0.0, 0.0, 0.0, 1.6626773244837773E9, 0.0, 2022-09-08 18:48:44.483
136.0, 8559.466428693107, -1492.381273791942, -33003.91531037275, -16271.421762874337, -920.6460023696426, 22379.460618431644, 34366.92468725737, 26417.75028917197, 1956.4928956619378, 1635.8347697061026, -16113.61844701987, -26376.623079374207, 4048.415010978581, -2982.9744080274595, -10329.813996531248, -1668.75888928877, 0.248, 0.86, 0.28400000000000003, 192.0, 0.0, 0.0, 0.0, 0.0, 0.0, 0.0, 0.0, 0.0, 0.0, 1.6626773244837835E9, 0.0, 2022-09-08 18:48:44.483
138.0, 8554.325527468387, -1498.7068174727938, -32992.471217211634, -16267.577262828025, -931.1066187747263, 22369.402333426755, 34409.10242904454, 26415.22454204852, 1945.2946716898289, 1635.7677144727368, -16110.71272024068, -26374.209090973032, 4056.9533773605085, -2990.976332542459, -10316.402949858064, -1669.1388689445103, 0.248, 0.86, 0.28400000000000003, 192.0, 0.0, 0.0, 0.0, 0.0, 0.0, 0.0, 0.0, 0.0, 0.0, 1.6626773244837904E9, 0.0, 2022-09-08 18:48:44.483
140.0, 8546.949451798137, -1509.5250617891625, -32982.882318840304, -16263.330431381517, -928.4914646734554, 22384.51211267854, 34393.70207711483, 26414.24106529249, 1942.3665931661837, 1632.6161185045385, -16107.695234739214, -26376.42191367411, 4055.4111069930923, -2997.525393667864, -10314.100720179167, -1669.3176829001527, 0.254, 0.868, 0.28600000000000003, 192.0, 3.5, 120.0, 13.5, 16.0, 4.0, 120.0, 0.0, 0.0, 0.0, 1.6626773244837952E9, 0.0, 2022-09-08 18:48:44.483
142.0, 8528.59866960033, -1518.957497949302, -32986.86092935335, -16263.777466270623, -927.6197466396984, 22350.537461106476, 34413.28220525768, 26375.46078866253, 1921.3336016337398, 1616.9922491302789, -16121.173336645763, -26384.40148644465, 4041.4636184529804, -3014.69153340954, -10319.062807448247, -1677.0290347372336, 0.254, 0.868, 0.28600000000000003, 192.0, 0.0, 0.0, 0.0, 0.0, 0.0, 0.0, 0.0, 0.0, 0.0, 1.6626773244838002E9, 0.0, 2022-09-08 18:48:44.483
144.0, 8518.74155029554, -1534.894291745936, -32978.635487393796, -16245.896070706378, -938.2144735115139, 22347.497623860556, 34348.88682948194, 26393.94568132707, 1915.2762788863515, 1612.2983827946643, -16111.09269989642, -26379.46175092003, 4036.993269561919, -3016.8373008772496, -10306.746996253372, -1671.7093195568705, 0.254, 0.868, 0.28600000000000003, 192.0, 0.0, 0.0, 0.0, 0.0, 0.0, 0.0, 0.0, 0.0, 0.0, 1.6626773244838052E9, 0.0, 2022-09-08 18:48:44.483
146.0, 8507.096291434324, -1543.9690999947907, -32980.35657171685, -16232.507375777648, -946.66343291562, 22352.146786707257, 34330.91602693988, 26420.544257228885, 1909.1742526500527, 1599.5131849662287, -16116.166545887774, -26376.243099718464, 4025.7503421008996, -3028.12493182718, -10306.344664853175, -1657.3818513610188, 0.254, 0.868, 0.28600000000000003, 192.0, 0.0, 0.0, 0.0, 0.0, 0.0, 0.0, 0.0, 0.0, 0.0, 1.66267732448381E9, 0.0, 2022-09-08 18:48:44.483
148.0, 8502.983570454548, -1544.863169773003, -32979.10487402736, -16223.969009395722, -940.6284619126872, 22354.069036730416, 34146.84941135042, 26390.503512680953, 1896.5008135438936, 1604.4976239797622, -16108.47754579515, -26347.521108093395, 4018.2625077083717, -3027.78965566035, -10326.684752307505, -1660.7346130293147, 0.254, 0.868, 0.28600000000000003, 192.0, 0.0, 0.0, 0.0, 0.0, 0.0, 0.0, 0.0, 0.0, 0.0, 1.662677324483815E9, 0.0, 2022-09-08 18:48:44.483
150.0, 8505.77753851146, -1541.443352871341, -32968.912478555736, -16215.385939524884, -931.6207088971984, 22364.306135690946, 34180.04175186655, 26412.78820190289, 1904.9050694590892, 1600.5860687000834, -16113.126708641854, -26326.93515145006, 4023.0457810218077, -3027.208510304512, -10302.94719969597, -1647.8376564786026, 0.28600000000000003, 0.908, 0.312, 192.0, 4.0, 120.0, 14.0, 48.0, 4.5, 96.0, 0.0, 0.0, 0.0, 1.66267732448382E9, 0.0, 2022-09-08 18:48:44.483
152.0, 8511.141957180735, -1523.2043293958104, -32962.51987964152, -16209.552134222047, -921.8306448257739, 22376.57724339691, 34043.562000222446, 26411.1341728132, 1901.3287903462399, 1606.665743191927, -16106.75646147209, -26301.521218004375, 4040.167217274573, -2998.3300564682554, -10300.264990361333, -1636.6394325064937, 0.28600000000000003, 0.908, 0.312, 192.0, 0.0, 0.0, 0.0, 0.0, 0.0, 0.0, 0.0, 0.0, 0.0, 1.6626773244838247E9, 0.0, 2022-09-08 18:48:44.483
154.0, 8532.867852791293, -1504.0488843976123, -32963.19043197518, -16204.63475044188, -916.3321156897683, 22403.220522787637, 34111.153675455294, 26426.869800909735, 1918.2490608989074, 1627.3187550686307, -16098.95570265719, -26280.376467749655, 4058.7191651724775, -2988.852916819205, -10282.160077352533, -1616.791083430181, 0.28600000000000003, 0.908, 0.312, 192.0, 0.0, 0.0, 0.0, 0.0, 0.0, 0.0, 0.0, 0.0, 0.0, 1.6626773244838297E9, 0.0, 2022-09-08 18:48:44.483
156.0, 8530.923251023682, -1506.2617070986876, -32975.10391176986, -16215.788270925079, -911.5711941207879, 22418.799688672985, 34040.6339216988, 26447.031074408424, 1920.327773133251, 1618.534519497695, -16102.733147470135, -26280.220005538467, 4073.5830752352567, -2991.4904226649314, -10284.84228668717, -1612.2983827946643, 0.28600000000000003, 0.908, 0.312, 192.0, 0.0, 0.0, 0.0, 0.0, 0.0, 0.0, 0.0, 0.0, 0.0, 1.6626773244838347E9, 0.0, 2022-09-08 18:48:44.483
158.0, 8525.469425376587, -1521.4832450727517, -32985.25160375257, -16238.542346780581, -919.1260837466817, 22405.276883277522, 34165.73663541515, 26442.828946450823, 1902.7593019913797, 1610.152615326955, -16117.775871488557, -26296.06739235728, 4057.2439500384276, -3002.3086669813, -10290.094946634168, -1615.7181996963263, 0.28600000000000003, 0.908, 0.312, 192.0, 0.0, 0.0, 0.0, 0.0, 0.0, 0.0, 0.0, 0.0, 0.0, 1.6626773244838395E9, 0.0, 2022-09-08 18:48:44.483
160.0, 8548.514073910008, -1501.411378551886, -32969.5830308894, -16234.87666068991, -910.8559382982181, 22407.869685634338, 34120.49670463761, 26441.286676083408, 1916.326810875751, 1617.953374141857, -16105.61652250487, -26293.184017322543, 4075.438270025047, -2994.932591311049, -10286.541019265775, -1628.659859735949, 0.264, 0.856, 0.312, 192.0, 4.0, 32.0, 13.0, 96.0, 4.5, 96.0, 0.0, 0.0, 0.0, 1.6626773244838445E9, 0.0, 2022-09-08 18:48:44.483
162.0, 8554.996079802046, -1494.2811720706432, -32983.19524326268, -16258.167178412341, -916.3321156897683, 22398.414897729745, 34260.08334876101, 26453.66954251165, 1931.1460174496196, 1623.7424759557816, -16102.934313170234, -26298.459029013997, 4085.675368985578, -2995.849012833716, -10279.075536617702, -1638.3605168295524, 0.264, 0.856, 0.312, 192.0, 0.0, 0.0, 0.0, 0.0, 0.0, 0.0, 0.0, 0.0, 0.0, 1.6626773244838495E9, 0.0, 2022-09-08 18:48:44.483
164.0, 8547.038858775957, -1502.8195384525704, -32996.9862695916, -16285.592768859002, -928.4914646734554, 22360.394580411266, 34201.074743398996, 26426.109841598256, 1919.6572207995919, 1613.2595078062425, -16116.814746476979, -26322.755375236917, 4070.5879414782457, -3013.3057252533113, -10303.394234585076, -1665.339072387108, 0.264, 0.856, 0.312, 192.0, 0.0, 0.0, 0.0, 0.0, 0.0, 0.0, 0.0, 0.0, 0.0, 1.6626773244838555E9, 0.0, 2022-09-08 18:48:44.483
166.0, 8540.31098369491, -1514.8224252250702, -33011.17962732072, -16305.284655724128, -968.0540523593489, 22346.782368037984, 34289.07356131954, 26375.639602618172, 1899.7418164899132, 1599.6919989218711, -16142.273383411573, -26353.913707007614, 4050.4713714684694, -3034.5398824858526, -10334.217290188944, -1694.8880785570238, 0.264, 0.856, 0.312, 192.0, 0.0, 0.0, 0.0, 0.0, 0.0, 0.0, 0.0, 0.0, 0.0, 1.6626773244838605E9, 0.0, 2022-09-08 18:48:44.483
168.0, 8534.611288858807, -1514.1071694025004, -33002.887130127805, -16294.980501530232, -969.7974884268629, 22354.359609408333, 34255.21066846975, 26381.451056176553, 1895.226764109941, 1588.2032022718433, -16154.253918439617, -26368.665858348115, 4047.5432929448243, -3034.115199341202, -10349.371772929642, -1697.883212314035, 0.264, 0.856, 0.312, 192.0, 0.0, 0.0, 0.0, 0.0, 0.0, 0.0, 0.0, 0.0, 0.0, 1.6626773244838655E9, 0.0, 2022-09-08 18:48:44.483
170.0, 8509.107948435301, -1527.9428992203354, -33007.983327863614, -16304.234123734728, -978.8722966757175, 22349.598687839352, 34329.59727401701, 26390.97289931451, 1878.3064935572736, 1592.5841441850835, -16159.953613275722, -26370.588108371274, 4046.3362987442374, -3029.8683678946936, -10348.924738040536, -1674.4138806359626, 0.254, 0.848, 0.28200000000000003, 192.0, 3.5, 120.0, 13.0, 64.0, 4.0, 104.0, 0.0, 0.0, 0.0, 1.6626773244838705E9, 0.0, 2022-09-08 18:48:44.483
172.0, 8533.292535935943, -1516.5658612925843, -32953.55683011494, -16271.019431474142, -941.1202002907039, 22393.072830804926, 34375.88773678395, 26466.90177522919, 1891.7398919749132, 1589.6113621725276, -16152.57753760547, -26371.593936871763, 4041.4412667085253, -3034.5398824858526, -10330.28338316481, -1653.7832205037143, 0.254, 0.848, 0.28200000000000003, 192.0, 0.0, 0.0, 0.0, 0.0, 0.0, 0.0, 0.0, 0.0, 0.0, 1.6626773244838753E9, 0.0, 2022-09-08 18:48:44.483
174.0, 8526.341143410342, -1531.9662132222907, -32928.47817283609, -16289.504324138681, -970.3786337827008, 22384.489760934088, 34418.57956869359, 26429.104975355265, 1904.3015723587957, 1605.4811007357957, -16131.611601306393, -26354.964238997014, 4064.3965082641257, -3021.8440916352383, -10300.80143222826, -1627.4305137909073, 0.254, 0.848, 0.28200000000000003, 192.0, 0.0, 0.0, 0.0, 0.0, 0.0, 0.0, 0.0, 0.0, 0.0, 1.6626773244838803E9, 0.0, 2022-09-08 18:48:44.483
176.0, 8516.439320616642, -1543.2314924277655, -32910.2167976161, -16292.968844529254, -981.7333199659968, 22352.392655896267, 34309.59246272951, 26395.1303237832, 1888.521240773349, 1573.02636778669, -16147.011953236099, -26372.488006649975, 4032.5229206708577, -3040.3960395331433, -10337.033609990312, -1662.3215868856416, 0.254, 0.848, 0.28200000000000003, 192.0, 0.0, 0.0, 0.0, 0.0, 0.0, 0.0, 0.0, 0.0, 0.0, 1.662677324483885E9, 0.0, 2022-09-08 18:48:44.483
178.0, 8514.673532804673, -1542.4715331162852, -32889.78730318395, -16282.999966502186, -979.4981455204661, 22358.740551321574, 34325.17162861486, 26412.385870502698, 1887.4483570394943, 1570.9029520634356, -16135.076121696964, -26359.971029755, 4041.6200806641677, -3043.07824886778, -10319.241621403888, -1651.9280257139237, 0.254, 0.848, 0.28200000000000003, 192.0, 0.0, 0.0, 0.0, 0.0, 0.0, 0.0, 0.0, 0.0, 0.0, 1.66267732448389E9, 0.0, 2022-09-08 18:48:44.483
180.0, 8526.743474810539, -1526.0206491971792, -32863.479299960054, -16263.352783125973, -954.1736190526032, 22351.789158795975, 34216.00570869514, 26364.351971668242, 1878.8429354242012, 1574.50158292074, -16131.343380372928, -26356.26064017542, 4035.9203858280644, -3049.2026268485342, -10323.935487739504, -1663.7520985307813, 0.254, 0.908, 0.274, 192.0, 3.5, 120.0, 14.0, 48.0, 4.0, 72.0, 0.0, 0.0, 0.0, 1.6626773244838953E9, 0.0, 2022-09-08 18:48:44.483
182.0, 8527.235213188555, -1518.3316491045534, -32850.58234340934, -16255.864948733444, -953.1901422965697, 22356.214804198124, 34100.76011428358, 26356.662971575617, 1896.9702001774551, 1597.3897692429746, -16102.487278281127, -26328.11979390619, 4053.6900226700336, -3032.2376528069562, -10303.505993307352, -1653.8502757370802, 0.254, 0.908, 0.274, 192.0, 0.0, 0.0, 0.0, 0.0, 0.0, 0.0, 0.0, 0.0, 0.0, 1.6626773244839E9, 0.0, 2022-09-08 18:48:44.483
184.0, 8529.246870189532, -1522.7572945067043, -32848.458927686086, -16249.092370163486, -964.4330697575891, 22342.021446469003, 33995.81867406591, 26340.07797718978, 1881.8157174367568, 1592.3382749960751, -16108.008159161587, -26327.06926191679, 4051.924234858064, -3028.6837254385623, -10315.955914968958, -1659.5052670842729, 0.254, 0.908, 0.274, 192.0, 0.0, 0.0, 0.0, 0.0, 0.0, 0.0, 0.0, 0.0, 0.0, 1.662677324483905E9, 0.0, 2022-09-08 18:48:44.483
186.0, 8547.776466342983, -1498.0809686280452, -32831.38219492223, -16229.892221676377, -933.9676420650056, 22372.37511543931, 33893.98412632753, 26368.867024048213, 1882.6650837260586, 1609.0126763597343, -16095.781754944535, -26307.936168663047, 4066.609330965201, -3007.337809483744, -10324.717798795438, -1640.4168773194406, 0.254, 0.908, 0.274, 192.0, 0.0, 0.0, 0.0, 0.0, 0.0, 0.0, 0.0, 0.0, 0.0, 1.66267732448391E9, 0.0, 2022-09-08 18:48:44.483
188.0, 8546.301251208932, -1496.605753493995, -32823.38027040724, -16221.7785384391, -942.9530433360391, 22382.09812427737, 33909.607995701794, 26366.69890483605, 1900.8370519682232, 1617.9980776307677, -16087.712775196169, -26297.788476680336, 4075.058290369307, -3008.3883414731436, -10311.038531188791, -1618.534519497695, 0.254, 0.908, 0.274, 192.0, 0.0, 0.0, 0.0, 0.0, 0.0, 0.0, 0.0, 0.0, 0.0, 1.6626773244839149E9, 0.0, 2022-09-08 18:48:44.483
190.0, 8545.049553519435, -1502.4619105412855, -32822.46384888457, -16232.127396121909, -945.1435142926591, 22388.758944125053, 33914.81595215988, 26371.54923338285, 1888.4318337955278, 1608.498586237262, -16087.109278095875, -26301.096534859724, 4073.739537446444, -3000.855803591705, -10317.47583359192, -1615.0699991071224, 0.248, 0.915, 0.275, 192.0, 3.5, 72.0, 14.0, 104.0, 4.0, 80.0, 0.0, 0.0, 0.0, 1.66267732448392E9, 0.0, 2022-09-08 18:48:44.483
192.0, 8549.497550666041, -1500.8525849405034, -32816.495933115, -16234.921364178821, -936.1357612771704, 22395.598577928376, 34073.692151748204, 26379.417047431118, 1896.2549443548853, 1608.9456211263682, -16088.606844974382, -26299.420154025574, 4069.6715199555783, -3008.1871757730455, -10298.074519404712, -1608.3868275149857, 0.248, 0.915, 0.275, 192.0, 0.0, 0.0, 0.0, 0.0, 0.0, 0.0, 0.0, 0.0, 0.0, 1.6626773244839249E9, 0.0, 2022-09-08 18:48:44.483
194.0, 8533.158425469212, -1509.6591722558944, -32832.030395511436, -16261.922271480833, -949.4574009725334, 22379.080638775904, 34102.145922439806, 26321.146049636132, 1908.3248863607512, 1604.8552518910471, -16087.690423451713, -26298.9060639031, 4075.7511944474218, -3005.5496699273194, -10304.109490407645, -1621.2837840656978, 0.248, 0.915, 0.275, 192.0, 0.0, 0.0, 0.0, 0.0, 0.0, 0.0, 0.0, 0.0, 0.0, 1.6626773244839296E9, 0.0, 2022-09-08 18:48:44.483
196.0, 8501.888334976236, -1549.3558704085196, -32866.67559941716, -16296.902751553387, -978.0452821308711, 22360.975725767104, 34259.59161038299, 26379.908785809137, 1883.5591535042709, 1568.8689433180027, -16125.598982047915, -26333.998302697935, 4053.1759325475614, -3037.1103330982132, -10334.2396419334, -1654.1855519039098, 0.248, 0.915, 0.275, 192.0, 0.0, 0.0, 0.0, 0.0, 0.0, 0.0, 0.0, 0.0, 0.0, 1.6626773244839356E9, 0.0, 2022-09-08 18:48:44.483
198.0, 8512.795986270427, -1541.957442993813, -32848.99536955301, -16287.000928759686, -947.6692614161088, 22375.370249196323, 34270.16398551035, 26398.728954640505, 1874.0596621107654, 1549.1323529639667, -16135.187880419242, -26337.93220972207, 4046.6268714221565, -3038.585548232263, -10335.37958090062, -1644.8872262105021, 0.248, 0.915, 0.275, 192.0, 0.0, 0.0, 0.0, 0.0, 0.0, 0.0, 0.0, 0.0, 0.0, 1.6626773244839408E9, 0.0, 2022-09-08 18:48:44.483
200.0, 8487.024424913458, -1567.0361002726675, -32871.19065179714, -16306.849277836, -987.6565322466532, 22363.277955446, 34369.94217275884, 26370.543404882363, 1879.9605226469664, 1532.6814690448607, -16143.078046211964, -26338.714520778005, 4041.173045775062, -3051.214283849512, -10333.367923899643, -1653.984386203812, 0.252, 0.9155, 0.2775, 192.0, 4.0, 0.0, 14.0, 80.0, 4.0, 96.0, 0.0, 0.0, 0.0, 1.6626773244839456E9, 0.0, 2022-09-08 18:48:44.483
202.0, 8490.958331937592, -1564.1750769823882, -32864.57453543837, -16297.439193420316, -997.0666166623374, 22349.75515005054, 34315.158047098885, 26341.08380569027, 1857.3182055137404, 1525.1042276745115, -16156.444389396238, -26334.758262009414, 4021.8834903101315, -3061.3843275766767, -10362.179322502532, -1664.8920374980019, 0.252, 0.9155, 0.2775, 192.0, 0.0, 0.0, 0.0, 0.0, 0.0, 0.0, 0.0, 0.0, 0.0, 1.6626773244839504E9, 0.0, 2022-09-08 18:48:44.483
204.0, 8480.050680643402, -1571.059414274623, -32864.64159067173, -16309.240914492717, -1002.9674771985385, 22328.85626898483, 34436.10333634655, 26308.33850006324, 1841.202597761464, 1513.3025066021094, -16152.644592838837, -26323.78355548186, 4011.646391349601, -3071.9343509595815, -10341.146330970088, -1665.4508311093846, 0.252, 0.9155, 0.2775, 192.0, 0.0, 0.0, 0.0, 0.0, 0.0, 0.0, 0.0, 0.0, 0.0, 1.6626773244839551E9, 0.0, 2022-09-08 18:48:44.483
206.0, 8476.496753275009, -1581.8106033576255, -32859.38893072474, -16311.99017906072, -1025.8780152652282, 22324.430623582677, 34327.83148620504, 26316.96627342299, 1814.0005247593554, 1494.6835034708386, -16165.072162755987, -26330.511430562907, 4002.7280453119333, -3098.778796050405, -10366.157933015578, -1695.2680582127641, 0.252, 0.9155, 0.2775, 192.0, 0.0, 0.0, 0.0, 0.0, 0.0, 0.0, 0.0, 0.0, 0.0, 1.6626773244839602E9, 0.0, 2022-09-08 18:48:44.483
208.0, 8488.767860980972, -1573.5181061647065, -32834.73495659053, -16299.450850421294, -1015.4621023490552, 22341.32854239089, 34357.5593063306, 26360.954506511036, 1816.5709753717156, 1502.797186708115, -16148.755389303613, -26304.20342733901, 4008.673609337045, -3076.918789973115, -10358.178360245032, -1663.6850432974152, 0.252, 0.9155, 0.2775, 192.0, 0.0, 0.0, 0.0, 0.0, 0.0, 0.0, 0.0, 0.0, 0.0, 1.662677324483965E9, 0.0, 2022-09-08 18:48:44.483
210.0, 8498.245000630022, -1566.8796380614804, -32817.09943021529, -16287.425611904338, -1004.3309336103123, 22338.66868480071, 34210.12719990339, 26325.370529338186, 1821.0189725183218, 1516.2529368702099, -16144.9108892573, -26289.272462042867, 4013.5015861393913, -3086.8429645112715, -10350.444656663496, -1667.3283776436303, 0.242, 0.92475, 0.27775000000000005, 192.0, 3.5, 32.0, 14.5, 24.0, 4.0, 88.0, 0.0, 0.0, 0.0, 1.66267732448397E9, 0.0, 2022-09-08 18:48:44.483
212.0, 8507.900954234714, -1558.0954024905448, -32808.11402894426, -16284.899864780888, -996.9772096845162, 22350.515109362022, 34203.98047017818, 26321.92836069207, 1831.881920323601, 1528.4346375983523, -16135.701970541713, -26267.837139110226, 4032.2323479929387, -3090.1510226906566, -10342.018049003846, -1666.6131218210605, 0.242, 0.92475, 0.27775000000000005, 192.0, 0.0, 0.0, 0.0, 0.0, 0.0, 0.0, 0.0, 0.0, 0.0, 1.6626773244839747E9, 0.0, 2022-09-08 18:48:44.483
214.0, 8504.570544310875, -1557.2907396901537, -32799.88858698471, -16285.637472347913, -997.8042242293626, 22332.209030653125, 34049.909895647754, 26288.66896494257, 1817.4873968943832, 1530.4015911104193, -16133.533851329548, -26254.739016859417, 4033.774618360355, -3090.2180779240225, -10340.632240847617, -1667.9318747439236, 0.242, 0.92475, 0.27775000000000005, 192.0, 0.0, 0.0, 0.0, 0.0, 0.0, 0.0, 0.0, 0.0, 0.0, 1.6626773244839797E9, 0.0, 2022-09-08 18:48:44.483
216.0, 8509.465576346585, -1551.4345826428632, -32791.2384618805, -16283.581111858024, -996.5078230509548, 22349.5763360949, 34071.16640462475, 26313.30058733232, 1808.300829923252, 1525.3053933746094, -16134.00323796311, -26239.58453411872, 4040.569548674768, -3101.729226318506, -10329.27755466432, -1658.857066495069, 0.242, 0.92475, 0.27775000000000005, 192.0, 0.0, 0.0, 0.0, 0.0, 0.0, 0.0, 0.0, 0.0, 0.0, 1.6626773244839847E9, 0.0, 2022-09-08 18:48:44.483
218.0, 8506.1575181672, -1555.6143588560055, -32789.56208104635, -16283.156428713373, -986.7848142128962, 22357.42179839871, 33943.47088855158, 26300.850665670714, 1808.0549607342437, 1527.6299747979613, -16132.19274666223, -26216.94221698549, 4045.2187115214724, -3099.6505140841623, -10332.47385412143, -1660.9804822183232, 0.242, 0.92475, 0.27775000000000005, 192.0, 0.0, 0.0, 0.0, 0.0, 0.0, 0.0, 0.0, 0.0, 0.0, 1.6626773244839897E9, 0.0, 2022-09-08 18:48:44.483
220.0, 8499.675512275162, -1555.3237861780867, -32796.58052880532, -16296.813344575567, -992.1715846266252, 22366.407199669746, 33951.49516481104, 26318.553247279317, 1814.1122834816317, 1534.7154777902936, -16129.175261160764, -26191.908263195546, 4047.319775500271, -3085.9712464775143, -10337.748865812882, -1652.7326885143148, 0.219, 0.924375, 0.28287500000000004, 192.0, 3.0, 16.0, 14.0, 112.0, 4.5, 0.0, 0.0, 0.0, 0.0, 1.6626773244839945E9, 0.0, 2022-09-08 18:48:44.483
222.0, 8521.669628819183, -1536.213044668799, -32773.66999073863, -16284.765754314156, -969.663377960131, 22367.837711314885, 33858.60131485478, 26307.98087215196, 1817.5321003832937, 1533.9108149899025, -16125.263705881085, -26162.51571923682, 4053.935891859042, -3071.6437782816624, -10332.607964588162, -1651.212769891354, 0.219, 0.924375, 0.28287500000000004, 192.0, 0.0, 0.0, 0.0, 0.0, 0.0, 0.0, 0.0, 0.0, 0.0, 1.6626773244839993E9, 0.0, 2022-09-08 18:48:44.483
224.0, 8533.963088269602, -1519.471588071774, -32762.11413885524, -16272.002908230175, -970.4903925049773, 22392.067002304437, 33902.74601015401, 26349.398654627643, 1843.750696629369, 1551.501637876229, -16102.219057347664, -26119.08627976016, 4077.360520048204, -3052.89066468366, -10311.440862588986, -1625.0835806231, 0.219, 0.924375, 0.28287500000000004, 192.0, 0.0, 0.0, 0.0, 0.0, 0.0, 0.0, 0.0, 0.0, 0.0, 1.6626773244840043E9, 0.0, 2022-09-08 18:48:44.484
226.0, 8516.864003761293, -1528.1440649204333, -32772.261830837946, -16284.922216525343, -968.791659926374, 22357.1759292097, 33917.63227196124, 26269.625278666652, 1840.1520657720646, 1540.6163383264945, -16119.027569178053, -26116.73934659235, 4070.476182755969, -3053.7400309729614, -10326.036551718302, -1642.8085139761586, 0.219, 0.924375, 0.28287500000000004, 192.0, 0.0, 0.0, 0.0, 0.0, 0.0, 0.0, 0.0, 0.0, 0.0, 1.662677324484009E9, 0.0, 2022-09-08 18:48:44.484
228.0, 8502.380073354254, -1552.2392454432543, -32788.466845568044, -16298.377966687438, -987.7682909689297, 22374.833807329396, 33998.97027003411, 26380.73580035398, 1827.7691993438245, 1534.760181279204, -16124.928429714255, -26112.201942467924, 4071.4373077675473, -3050.9684146605036, -10330.797473287283, -1644.7307639993148, 0.219, 0.924375, 0.28287500000000004, 192.0, 0.0, 0.0, 0.0, 0.0, 0.0, 0.0, 0.0, 0.0, 0.0, 1.6626773244840152E9, 0.0, 2022-09-08 18:48:44.484
230.0, 8475.669738730161, -1581.2294580017876, -32810.66212781217, -16326.295295512116, -1008.8683377347396, 22356.99711525406, 34089.18191065573, 26332.746605008437, 1836.754600614858, 1500.1149773734783, -16143.234508423151, -26125.50123041883, 4057.3333570162486, -3069.3415486027657, -10336.228947189922, -1652.0397844362003, 0.20950000000000002, 0.9111875, 0.2924375, 192.0, 3.0, 32.0, 14.0, 8.0, 4.5, 56.0, 0.0, 0.0, 0.0, 1.66267732448402E9, 0.0, 2022-09-08 18:48:44.484
232.0, 8475.87090443026, -1583.9116673364244, -32823.983767507525, -16329.893926369421, -1015.6409163046976, 22359.254641444048, 34147.00587356161, 26358.674628576595, 1809.0160857458218, 1476.8691631399588, -16164.669831355792, -26146.109538806624, 4028.1419787576174, -3096.2306971825, -10365.219159748454, -1685.790918563714, 0.20950000000000002, 0.9111875, 0.2924375, 192.0, 0.0, 0.0, 0.0, 0.0, 0.0, 0.0, 0.0, 0.0, 0.0, 1.662677324484025E9, 0.0, 2022-09-08 18:48:44.484
234.0, 8486.219762113067, -1567.661949117416, -32806.34824113229, -16313.621856405958, -995.2337736170023, 22354.605478597343, 34214.21756913872, 26386.03316378989, 1817.397989916562, 1492.1130528584783, -16162.747581332635, -26130.150393265536, 4033.2381764934275, -3081.590304564274, -10360.346479457197, -1665.7414037873036, 0.20950000000000002, 0.9111875, 0.2924375, 192.0, 0.0, 0.0, 0.0, 0.0, 0.0, 0.0, 0.0, 0.0, 0.0, 1.6626773244840298E9, 0.0, 2022-09-08 18:48:44.484
236.0, 8489.39370982572, -1570.2100479853211, -32806.14707543219, -16329.37983624695, -1025.5427390983987, 22345.24009767057, 34238.42450838381, 26363.346143167753, 1843.2589582513522, 1494.5270412596515, -16147.347229402929, -26113.475991901876, 4044.6375661656343, -3075.711795772528, -10344.230871704922, -1656.2195606493428, 0.20950000000000002, 0.9111875, 0.2924375, 192.0, 0.0, 0.0, 0.0, 0.0, 0.0, 0.0, 0.0, 0.0, 0.0, 1.6626773244840348E9, 0.0, 2022-09-08 18:48:44.484
238.0, 8483.761070222983, -1573.831030587081, -32806.61646206575, -16336.599449706013, -1036.2492246924908, 22320.966103192106, 34297.947203868294, 26332.992474197446, 1823.9694027864223, 1471.057709581579, -16164.870997055888, -26122.461393172907, 4025.280955467338, -3108.3453426772767, -10353.484493909418, -1680.2476859387978, 0.20950000000000002, 0.9111875, 0.2924375, 192.0, 0.0, 0.0, 0.0, 0.0, 0.0, 0.0, 0.0, 0.0, 0.0, 1.6626773244840395E9, 0.0, 2022-09-08 18:48:44.484
240.0, 8483.425794056153, -1570.1206410075, -32803.30840388637, -16344.444912009825, -1038.8643787937617, 22321.211972381112, 34223.89587448786, 26329.326788106777, 1803.6293153320928, 1485.2734190551544, -16157.561976619003, -26113.341881435143, 4023.8280920777433, -3106.1548717206565, -10357.105476511178, -1678.95128476039, 0.19575, 0.8965937500000001, 0.29721875, 192.0, 2.5, 88.0, 13.5, 72.0, 4.5, 56.0, 0.0, 0.0, 0.0, 1.6626773249631884E9, 0.0, 2022-09-08 18:48:44.963
242.0, 8493.148802894211, -1568.9359985513686, -32788.131569401216, -16339.549879974114, -1021.8770530077283, 22328.900972473737, 34201.38766782137, 26319.648482757628, 1809.1278444680984, 1497.9021546724027, -16156.265575440595, -26114.72768959137, 4023.4034089330926, -3106.4230926541204, -10356.166703244055, -1681.5440871172057, 0.19575, 0.8965937500000001, 0.29721875, 192.0, 0.0, 0.0, 0.0, 0.0, 0.0, 0.0, 0.0, 0.0, 0.0, 1.6626773249633071E9, 0.0, 2022-09-08 18:48:44.963
244.0, 8500.435471586641, -1568.5560188956285, -32786.946926945086, -16347.842377167033, -1033.7681810579516, 22337.79696676695, 34049.52991599201, 26309.38903205264, 1804.366922899118, 1502.9760006637575, -16145.134406701853, -26111.911369790003, 4033.5287491713466, -3099.270534428422, -10355.697316610494, -1682.0358254952223, 0.19575, 0.8965937500000001, 0.29721875, 192.0, 0.0, 0.0, 0.0, 0.0, 0.0, 0.0, 0.0, 0.0, 0.0, 1.662677324963317E9, 0.0, 2022-09-08 18:48:44.963
246.0, 8510.20318391361, -1553.5132948772068, -32778.85559545226, -16344.310801543093, -1026.1909396876026, 22349.241059928067, 33986.31918267241, 26317.122735634177, 1806.0209519888106, 1499.5114802731848, -16144.732075301657, -26115.867628558593, 4034.959260816486, -3099.5164036174306, -10362.67106088055, -1686.7520435752922, 0.19575, 0.8965937500000001, 0.29721875, 192.0, 0.0, 0.0, 0.0, 0.0, 0.0, 0.0, 0.0, 0.0, 0.0, 1.6626773249633217E9, 0.0, 2022-09-08 18:48:44.963
248.0, 8518.585088084352, -1540.0128412262013, -32766.539784257388, -16343.774359676167, -1007.7731022564295, 22344.90482150374, 33830.326358118815, 26308.673776230073, 1799.9189257525118, 1534.6260708124723, -16126.738921015136, -26092.3088899027, 4058.51799947238, -3079.8692202412153, -10350.109380496668, -1676.559648103672, 0.19575, 0.8965937500000001, 0.29721875, 192.0, 0.0, 0.0, 0.0, 0.0, 0.0, 0.0, 0.0, 0.0, 0.0, 1.6626773249633265E9, 0.0, 2022-09-08 18:48:44.963
250.0, 8511.007846714003, -1547.9924139967459, -32782.3871710762, -16356.850130182522, -1034.01405024696, 22330.2197253966, 33891.88306234873, 26288.66896494257, 1807.78673980078, 1521.72911426176, -16137.490110098137, -26108.40214591052, 4047.7221069004668, -3093.973170992514, -10340.699296080982, -1690.23891571032, 0.19575, 0.8965937500000001, 0.29721875, 192.0, 0.0, 0.0, 0.0, 0.0, 0.0, 0.0, 0.0, 0.0, 0.0, 1.6626773249633312E9, 0.0, 2022-09-08 18:48:44.963
252.0, 8519.501509607018, -1535.9671754797907, -32769.24434533648, -16347.708266700301, -1023.4863786085104, 22334.354798120832, 33771.25069752344, 26209.253216892866, 1797.0579024622325, 1533.5308353341622, -16136.998371720121, -26106.36813716509, 4062.2060373075055, -3081.9255807311038, -10350.399953174587, -1693.4799186563396, 0.15, 0.884, 0.296, 192.0, 2.0, 88.0, 13.5, 80.0, 4.5, 32.0, 0.0, 0.0, 0.0, 1.662677324963336E9, 0.0, 2022-09-08 18:48:44.963
254.0, 8505.934000722647, -1556.1731524673883, -32776.19573786208, -16353.743237703233, -1034.6622508361638, 22319.692053758154, 33877.868518575255, 26225.212362433955, 1803.7410740543694, 1515.1129979029893, -16143.94976424572, -26124.964788551904, 4054.5617407037907, -3095.8060140378493, -10345.437865905507, -1706.1980612514094, 0.15, 0.884, 0.296, 192.0, 0.0, 0.0, 0.0, 0.0, 0.0, 0.0, 0.0, 0.0, 0.0, 1.6626773249633408E9, 0.0, 2022-09-08 18:48:44.963
0.0, 8495.003997684002, -1572.6910916198603, -32778.09563614078, -16348.445874267325, -1041.2336637060241, 22323.536553804464, 33800.57618624881, 26335.987607954456, 1782.7751377552913, 1504.2053466087993, -16156.511444629605, -26137.146489280047, 4049.04085982333, -3093.213211681034, -10345.504921138874, -1677.9231045154459, 0.15, 0.884, 0.296, 192.0, 0.0, 0.0, 0.0, 0.0, 0.0, 0.0, 0.0, 0.0, 0.0, 1.6626773249633465E9, 0.0, 2022-09-08 18:48:44.963
2.0, 8497.239172129533, -1572.668739875405, -32763.321133055826, -16332.062045581586, -1026.5709193433427, 22344.86011801483, 33920.53799874044, 26358.78638729887, 1795.7391495393695, 1495.7116837157828, -16161.071200498487, -26138.17466952499, 4050.985461590941, -3092.9002872586593, -10339.894633280592, -1662.7015665413817, 0.15, 0.884, 0.296, 192.0, 0.0, 0.0, 0.0, 0.0, 0.0, 0.0, 0.0, 0.0, 0.0, 1.6626773249633512E9, 0.0, 2022-09-08 18:48:44.963
4.0, 8479.782459709939, -1585.990379570768, -32763.16467084464, -16333.917240371376, -1026.1238844542365, 22335.51708883251, 33894.31940249436, 26332.83601198626, 1799.5165943523164, 1502.1042826300006, -16153.493959128138, -26124.316587962698, 4056.819266893777, -3071.9119992151263, -10321.47679584942, -1637.4440953068847, 0.15, 0.884, 0.296, 192.0, 0.0, 0.0, 0.0, 0.0, 0.0, 0.0, 0.0, 0.0, 0.0, 1.6626773249633725E9, 0.0, 2022-09-08 18:48:44.963
6.0, 8459.017689110959, -1602.5753739566057, -32775.70399948407, -16352.692705713835, -1036.2715764369461, 22333.08074868688, 34039.69514843168, 26297.095572602222, 1787.8936872355566, 1470.0518810810902, -16164.714534844701, -26140.253381759332, 4044.5928626767236, -3098.689389072584, -10322.259106905354, -1652.084487925111, 0.168, 0.914, 0.3, 192.0, 2.5, 32.0, 14.0, 72.0, 4.5, 48.0, 0.0, 0.0, 0.0, 1.6626773249633772E9, 0.0, 2022-09-08 18:48:44.963
8.0, 8461.208160067577, -1593.8134901301255, -32769.736083714495, -16339.505176485203, -1032.4717798795439, 22328.878620729283, 34046.82535491292, 26261.77981636284, 1791.5146698373164, 1469.7166049142606, -16165.653308111825, -26139.672236403494, 4043.2741097538606, -3092.207383180545, -10319.688656292994, -1655.437249593407, 0.168, 0.914, 0.3, 192.0, 0.0, 0.0, 0.0, 0.0, 0.0, 0.0, 0.0, 0.0, 0.0, 1.6626773249633818E9, 0.0, 2022-09-08 18:48:44.963
10.0, 8457.028383854435, -1592.114757551522, -32776.70982798455, -16345.718961443778, -1039.400820660689, 22352.258545429533, 34189.54124326006, 26332.120756163687, 1812.8605857921345, 1477.9420468738135, -16163.57459587748, -26134.2184107564, 4048.5267697008576, -3083.7360720319834, -10311.79849050027, -1646.7200692558372, 0.168, 0.914, 0.3, 192.0, 0.0, 0.0, 0.0, 0.0, 0.0, 0.0, 0.0, 0.0, 0.0, 1.6626773249633863E9, 0.0, 2022-09-08 18:48:44.963
12.0, 8458.414192010665, -1599.8708128775136, -32776.06162739535, -16337.337057273038, -1030.594233345298, 22334.958295221128, 34178.99121987715, 26293.92162488957, 1812.368847414118, 1469.448383980797, -16168.313165702006, -26136.587695668662, 4038.1108567846845, -3084.6971970435616, -10319.80041501527, -1650.5198658132394, 0.168, 0.914, 0.3, 192.0, 0.0, 0.0, 0.0, 0.0, 0.0, 0.0, 0.0, 0.0, 0.0, 1.6626773249633913E9, 0.0, 2022-09-08 18:48:44.963
14.0, 8443.215005781056, -1617.148711341466, -32801.140284674206, -16352.111560357996, -1067.3852047187336, 22319.89321945825, 34249.17569746682, 26287.797246908816, 1795.8285565171907, 1463.256950766677, -16185.903988588332, -26148.90350686354, 4025.5938798897128, -3099.85167978426, -10335.75956055636, -1664.0873746976108, 0.168, 0.914, 0.3, 192.0, 0.0, 0.0, 0.0, 0.0, 0.0, 0.0, 0.0, 0.0, 0.0, 1.662677324963396E9, 0.0, 2022-09-08 18:48:44.963
16.0, 8444.757276148472, -1618.8474439200693, -32795.619403793746, -16344.534318987648, -1073.7107483995853, 22315.109946144814, 34207.33323184648, 26261.221022751455, 1801.5058996088387, 1455.8585233519702, -16189.323805489996, -26148.434120229977, 4007.287801180816, -3106.981886265503, -10346.220176961444, -1667.5295433437282, 0.2, 0.93, 0.314, 192.0, 3.0, 32.0, 14.5, 8.0, 4.5, 104.0, 0.0, 0.0, 0.0, 1.6626773249634006E9, 0.0, 2022-09-08 18:48:44.963
18.0, 8447.506540716475, -1618.7803886867034, -32793.58539504831, -16342.656772453402, -1086.138318316736, 22310.617245509296, 34225.77342102211, 26265.981944320436, 1792.945181482456, 1456.1043925409786, -16181.478343186182, -26141.102748048634, 4004.158556957073, -3116.1908049810895, -10354.467970665452, -1671.239932923309, 0.2, 0.93, 0.314, 192.0, 0.0, 0.0, 0.0, 0.0, 0.0, 0.0, 0.0, 0.0, 0.0, 1.6626773249634051E9, 0.0, 2022-09-08 18:48:44.963
20.0, 8452.647441941195, -1609.951449626857, -32768.01499939144, -16328.128138557451, -1072.0790710543479, 22304.045832639436, 34147.85523985091, 26258.471758183452, 1783.4903935778611, 1465.4921252122076, -16174.594005893947, -26131.446794443942, 3992.8932777515984, -3121.979906795014, -10356.166703244055, -1663.3050636416751, 0.2, 0.93, 0.314, 192.0, 0.0, 0.0, 0.0, 0.0, 0.0, 0.0, 0.0, 0.0, 0.0, 1.66267732496341E9, 0.0, 2022-09-08 18:48:44.963
22.0, 8465.790267680915, -1593.6793796633935, -32744.14333631317, -16320.461490209282, -1053.1694952451583, 22328.520992817997, 34104.872835263355, 26275.92847060305, 1772.1580591390205, 1480.512497486174, -16152.48813062765, -26112.961901779403, 4009.4112169040704, -3114.8944038026816, -10338.464121635452, -1652.1962466473874, 0.2, 0.93, 0.314, 192.0, 0.0, 0.0, 0.0, 0.0, 0.0, 0.0, 0.0, 0.0, 0.0, 1.662677324963415E9, 0.0, 2022-09-08 18:48:44.963
24.0, 8462.169285079157, -1600.1613855554326, -32746.46791773652, -16334.252516538207, -1054.622358634753, 22310.594893764843, 34055.90016316178, 26249.776929590338, 1772.0686521611992, 1481.4512707532967, -16155.460912640205, -26111.620797112086, 4018.8883565531205, -3125.533834163408, -10323.33199063921, -1652.5538745586723, 0.2, 0.93, 0.314, 192.0, 0.0, 0.0, 0.0, 0.0, 0.0, 0.0, 0.0, 0.0, 0.0, 1.6626773249634197E9, 0.0, 2022-09-08 18:48:44.963
26.0, 8486.711500491083, -1570.6123793855168, -32735.895542609163, -16321.914353598877, -1024.1345791977144, 22330.867925985807, 33994.119941487304, 26287.126694575156, 1776.270780118797, 1493.185936592333, -16143.078046211964, -26090.96778523538, 4037.6638218955786, -3118.5824416378073, -10308.713949765439, -1645.9601099443569, 0.17200000000000001, 0.924, 0.316, 192.0, 2.5, 48.0, 14.0, 112.0, 4.5, 112.0, 0.0, 0.0, 0.0, 1.6626773249634242E9, 0.0, 2022-09-08 18:48:44.963
28.0, 8485.079823145847, -1575.6862253768713, -32751.6311707057, -16340.37689451896, -1034.6846025806192, 22314.88642870026, 33995.885729299276, 26268.842967610715, 1755.5060095198166, 1490.2131545797772, -16150.252956182117, -26086.519788088775, 4024.6998101115005, -3132.015840055447, -10311.910249222547, -1655.6160635490494, 0.17200000000000001, 0.924, 0.316, 192.0, 0.0, 0.0, 0.0, 0.0, 0.0, 0.0, 0.0, 0.0, 0.0, 1.6626773249634287E9, 0.0, 2022-09-08 18:48:44.963
30.0, 8504.481137333052, -1550.1605332089107, -32749.597161960264, -16334.766606660678, -1033.6340705912198, 22325.27998987198, 33911.46319049158, 26278.834197382235, 1752.3767652960737, 1507.1781286213552, -16143.413322378794, -26067.341991346122, 4041.8212463642653, -3116.011991025447, -10321.90147899407, -1656.666595538449, 0.17200000000000001, 0.924, 0.316, 192.0, 0.0, 0.0, 0.0, 0.0, 0.0, 0.0, 0.0, 0.0, 0.0, 1.6626773249634335E9, 0.0, 2022-09-08 18:48:44.963
32.0, 8493.037044171935, -1559.056527502123, -32771.12189187072, -16357.163054604896, -1037.433867148622, 22318.32859734638, 33949.952894443624, 26269.893499600115, 1753.851980430124, 1512.766064735182, -16146.363752646896, -26064.726837244853, 4051.6560139246008, -3112.5698223793297, -10321.007409215857, -1666.7025287988818, 0.17200000000000001, 0.924, 0.316, 192.0, 0.0, 0.0, 0.0, 0.0, 0.0, 0.0, 0.0, 0.0, 0.0, 1.6626773249634385E9, 0.0, 2022-09-08 18:48:44.963
34.0, 8484.498677790009, -1561.537571136662, -32777.31332508485, -16364.695592486334, -1042.6641753511637, 22307.13037337427, 33898.74504789651, 26283.595118951216, 1737.4234482554732, 1497.186898849833, -16163.954575533222, -26088.911424745493, 4036.6579933950898, -3124.505653918464, -10345.61667986115, -1694.1951744789094, 0.17200000000000001, 0.924, 0.316, 192.0, 0.0, 0.0, 0.0, 0.0, 0.0, 0.0, 0.0, 0.0, 0.0, 1.662677324963443E9, 0.0, 2022-09-08 18:48:44.963
36.0, 8480.788288210428, -1577.4520131888407, -32777.91682218514, -16358.459455783304, -1050.8449138218061, 22329.817393996407, 33961.17347016018, 26322.867133959193, 1739.6809744454592, 1501.187861107333, -16165.362735433906, -26087.97265147837, 4027.583185146235, -3117.5319096484077, -10338.218252446444, -1678.3924911490074, 0.17200000000000001, 0.896, 0.302, 192.0, 2.5, 48.0, 14.0, 0.0, 4.5, 56.0, 0.0, 0.0, 0.0, 1.662677324963449E9, 0.0, 2022-09-08 18:48:44.963
38.0, 8472.67460497315, -1582.8834870914802, -32776.70982798455, -16350.8598626685, -1042.9323962846277, 22331.337312619366, 33896.21930077306, 26311.423040798076, 1750.1192391060877, 1488.7379394457269, -16168.62609012438, -26090.16312243499, 4021.4588071654807, -3114.112092746746, -10343.694429837995, -1673.85508702458, 0.17200000000000001, 0.896, 0.302, 192.0, 0.0, 0.0, 0.0, 0.0, 0.0, 0.0, 0.0, 0.0, 0.0, 1.6626773249634538E9, 0.0, 2022-09-08 18:48:44.963
40.0, 8466.080840358834, -1588.5608301831282, -32773.49117678299, -16335.772435161167, -1031.309489167868, 22341.75322553554, 34019.53387493299, 26358.026427987388, 1758.6129019991045, 1490.5707824910621, -16164.982755778165, -26075.2545088833, 4029.41602819157, -3093.012045980936, -10337.458293134963, -1656.0854501826109, 0.17200000000000001, 0.896, 0.302, 192.0, 0.0, 0.0, 0.0, 0.0, 0.0, 0.0, 0.0, 0.0, 0.0, 1.6626773249634583E9, 0.0, 2022-09-08 18:48:44.963
42.0, 8446.81363663836, -1613.438321761885, -32784.555290288365, -16338.745217173722, -1041.211311961569, 22314.88642870026, 33985.894499527756, 26319.223799612977, 1746.565311737694, 1476.444479995308, -16176.225683239185, -26086.96682297788, 4010.998190760397, -3101.9974472519693, -10346.086066494712, -1663.1933049193985, 0.17200000000000001, 0.896, 0.302, 192.0, 0.0, 0.0, 0.0, 0.0, 0.0, 0.0, 0.0, 0.0, 0.0, 1.6626773249634633E9, 0.0, 2022-09-08 18:48:44.963
44.0, 8433.693162643094, -1625.8211881901252, -32793.69715377058, -16338.700513684811, -1066.9381698296274, 22321.882524714772, 34122.776582572056, 26334.87002073169, 1748.688727460948, 1462.0499565660903, -16194.241189270162, -26101.763677807296, 4003.644466834601, -3111.809863067849, -10344.364982171654, -1668.3342061441192, 0.17200000000000001, 0.896, 0.302, 192.0, 0.0, 0.0, 0.0, 0.0, 0.0, 0.0, 0.0, 0.0, 0.0, 1.6626773249634678E9, 0.0, 2022-09-08 18:48:44.963
46.0, 8447.1936162941, -1609.504414737751, -32778.43091230761, -16328.619876935469, -1036.4280386481332, 22335.450033599143, 34116.8533702914, 26340.748529523436, 1745.6488902150263, 1465.2909595121098, -16205.81939289801, -26114.526523891276, 4007.1983942029947, -3100.5669356068297, -10348.678868851528, -1665.5178863427504, 0.212, 0.886, 0.324, 192.0, 3.0, 80.0, 13.5, 88.0, 5.0, 16.0, 0.0, 0.0, 0.0, 1.6626773249634724E9, 0.0, 2022-09-08 18:48:44.963
48.0, 8435.503653943975, -1625.307098067653, -32796.82639799433, -16354.61495573699, -1060.0985360263035, 22317.613341523807, 34302.75282892619, 26359.009904743423, 1753.6955182189367, 1468.5766659470398, -16204.835916141978, -26119.98034953837, 4016.9661065299642, -3099.3822931506984, -10332.876185521625, -1665.0708514536443, 0.212, 0.886, 0.324, 192.0, 0.0, 0.0, 0.0, 0.0, 0.0, 0.0, 0.0, 0.0, 0.0, 1.6626773249634771E9, 0.0, 2022-09-08 18:48:44.963
50.0, 8443.952613348081, -1620.2556038207538, -32787.39396183419, -16348.781150434155, -1047.8050765758844, 22329.638580040762, 34219.78315350809, 26346.627038315182, 1732.6178231975823, 1465.022738578646, -16215.296532547061, -26130.329207221177, 3999.6658563215565, -3119.3871044381985, -10348.410647918065, -1684.6062761075827, 0.212, 0.886, 0.324, 192.0, 0.0, 0.0, 0.0, 0.0, 0.0, 0.0, 0.0, 0.0, 0.0, 1.662677324963482E9, 0.0, 2022-09-08 18:48:44.963
52.0, 8445.606642437773, -1621.2614323212424, -32790.5902612913, -16358.884138927955, -1062.1996000051022, 22331.65023704174, 34277.02597105813, 26356.64061983116, 1728.3486400066186, 1472.376462504442, -16209.35096852195, -26122.640207128552, 3999.263524921361, -3113.0615607573463, -10350.779932830326, -1676.8502207815911, 0.212, 0.886, 0.324, 192.0, 0.0, 0.0, 0.0, 0.0, 0.0, 0.0, 0.0, 0.0, 0.0, 1.6626773249634867E9, 0.0, 2022-09-08 18:48:44.963
54.0, 8444.690220915107, -1616.0758276076112, -32774.45230179457, -16360.359354062004, -1051.8730940667504, 22315.914608945204, 34205.70155450125, 26317.83799145675, 1704.1193490170658, 1457.6243111639394, -16221.01857912762, -26137.906448591526, 3982.6338270466126, -3135.4580087015643, -10359.00537478988, -1691.4459099109067, 0.212, 0.886, 0.324, 192.0, 0.0, 0.0, 0.0, 0.0, 0.0, 0.0, 0.0, 0.0, 0.0, 1.6626773249634914E9, 0.0, 2022-09-08 18:48:44.963
56.0, 8444.176130792634, -1607.2021850588544, -32766.29391506838, -16361.231072095761, -1083.1878880486356, 22312.405385065722, 34235.92111300482, 26349.622172072195, 1709.886099086535, 1479.9090003858805, -16206.288779531573, -26122.014358283803, 3976.062414176752, -3125.109151018757, -10343.783836815815, -1679.1077469715772, 0.203, 0.892, 0.326, 192.0, 3.0, 8.0, 14.0, 8.0, 5.0, 32.0, 0.0, 0.0, 0.0, 1.662677324963496E9, 0.0, 2022-09-08 18:48:44.963
58.0, 8460.58231122283, -1600.3178477666197, -32745.350330513756, -16357.274813327173, -1072.6825681546413, 22308.180905363668, 34087.17025365475, 26328.611532284205, 1684.628627852038, 1473.6505119383946, -16209.82035515551, -26124.16012575151, 3969.9827396849087, -3134.1169040342456, -10366.895540582604, -1691.9600000333787, 0.203, 0.892, 0.326, 192.0, 0.0, 0.0, 0.0, 0.0, 0.0, 0.0, 0.0, 0.0, 0.0, 1.6626773249635007E9, 0.0, 2022-09-08 18:48:44.963
60.0, 8471.065279372368, -1581.40827195743, -32736.25317052045, -16351.75393244671, -1069.910951842183, 22336.120585932804, 34099.44136136072, 26337.060491688313, 1707.8744420855573, 1489.4531952682967, -16192.922436347299, -26097.31568066069, 3974.6319025316125, -3127.1878632531007, -10357.507807911374, -1683.2204679513536, 0.203, 0.892, 0.326, 192.0, 0.0, 0.0, 0.0, 0.0, 0.0, 0.0, 0.0, 0.0, 0.0, 1.6626773249635055E9, 0.0, 2022-09-08 18:48:44.963
62.0, 8470.685299716628, -1576.893219577458, -32731.04521406236, -16351.66452546889, -1048.6320911207308, 22317.680396757176, 33980.977115747584, 26310.908950675603, 1713.9988200663115, 1485.541639988618, -16196.275198015595, -26088.486741600842, 3978.029367688819, -3129.423037698631, -10357.060773022267, -1689.4119011654736, 0.203, 0.892, 0.326, 192.0, 0.0, 0.0, 0.0, 0.0, 0.0, 0.0, 0.0, 0.0, 0.0, 1.6626773249635103E9, 0.0, 2022-09-08 18:48:44.963
64.0, 8475.893256174715, -1568.6454258734498, -32732.43102221859, -16352.960926647298, -1045.3910881747113, 22326.151707905738, 33982.027647736984, 26307.556189007308, 1737.6916691889369, 1486.9050964003918, -16185.725174632691, -26070.806511736693, 3998.548269098791, -3115.9672875365363, -10339.67111583604, -1681.3652731615632, 0.203, 0.892, 0.326, 192.0, 0.0, 0.0, 0.0, 0.0, 0.0, 0.0, 0.0, 0.0, 0.0, 1.6626773249635148E9, 0.0, 2022-09-08 18:48:44.963
66.0, 8459.665889700162, -1580.5142021792178, -32749.641865449175, -16368.070705899085, -1064.4347744506329, 22317.188658379157, 33925.6565482207, 26335.69703527654, 1716.9939538233227, 1475.8409828950148, -16213.329579034995, -26086.83271251115, 3993.2509056628833, -3128.774837109427, -10354.199749731988, -1689.5460116322056, 0.1865, 0.882, 0.314, 192.0, 2.5, 40.0, 13.5, 32.0, 4.5, 56.0, 0.0, 0.0, 0.0, 1.6626773249635203E9, 0.0, 2022-09-08 18:48:44.963
68.0, 8467.354889792787, -1582.0788242910892, -32758.67197020912, -16376.318499603094, -1055.9411115576163, 22332.432548097677, 33926.528266254456, 26339.049796944833, 1726.3816864945516, 1467.6602444243724, -16213.083709845987, -26088.665555556483, 4002.795100545299, -3124.550357407374, -10356.256110221877, -1681.8570115395798, 0.1865, 0.882, 0.314, 192.0, 0.0, 0.0, 0.0, 0.0, 0.0, 0.0, 0.0, 0.0, 0.0, 1.6626773249635265E9, 0.0, 2022-09-08 18:48:44.963
70.0, 8472.92047416216, -1578.2343242447764, -32749.686568938087, -16361.722810473779, -1038.5738061158427, 22326.57639105039, 33936.09481288133, 26337.328712621777, 1722.917166103979, 1454.092735540001, -16223.387864039883, -26098.92500626147, 3998.861193521165, -3121.242299227989, -10354.535025898818, -1676.6714068259487, 0.1865, 0.882, 0.314, 192.0, 0.0, 0.0, 0.0, 0.0, 0.0, 0.0, 0.0, 0.0, 0.0, 1.662677324963531E9, 0.0, 2022-09-08 18:48:44.963
72.0, 8479.53659052093, -1574.0098445427234, -32742.064624078826, -16352.893871413931, -1036.2715764369461, 22348.682266316686, 33930.77509770097, 26342.514317335408, 1744.10661984761, 1484.446404510308, -16207.719291176712, -26088.576148578664, 4017.390789674615, -3109.217060711034, -10347.114246739657, -1670.7481945452923, 0.1865, 0.882, 0.314, 192.0, 0.0, 0.0, 0.0, 0.0, 0.0, 0.0, 0.0, 0.0, 0.0, 1.6626773249635358E9, 0.0, 2022-09-08 18:48:44.963
74.0, 8452.513331474463, -1590.9971703287567, -32742.511658967935, -16350.971621390776, -1050.2190649770575, 22339.65216155674, 33953.41741483419, 26355.07599771929, 1743.5031227473169, 1478.9702271187577, -16213.441337757271, -26090.900730002017, 4024.2080717334834, -3102.712703074539, -10351.450485163985, -1662.2545316522755, 0.1865, 0.882, 0.314, 192.0, 0.0, 0.0, 0.0, 0.0, 0.0, 0.0, 0.0, 0.0, 0.0, 1.6626773249635406E9, 0.0, 2022-09-08 18:48:44.963
76.0, 8434.296659743388, -1608.923269381913, -32743.6292461907, -16351.888042913442, -1057.9304168141387, 22340.07684470139, 33976.2161941786, 26362.720294323004, 1740.016250612289, 1461.737032143716, -16219.20808782674, -26102.993023752337, 4009.590030859713, -3107.652438599162, -10363.72159286995, -1660.0640606956556, 0.19225, 0.892, 0.31, 192.0, 3.0, 24.0, 14.0, 24.0, 4.5, 72.0, 0.0, 0.0, 0.0, 1.662677324963545E9, 0.0, 2022-09-08 18:48:44.963
78.0, 8417.242278723988, -1623.9659934003346, -32757.643789964175, -16360.672278484379, -1081.176231047658, 22313.74648973304, 34090.41125660077, 26333.707730020014, 1738.2951662892303, 1438.737087099205, -16236.083654890497, -26121.567323394698, 3987.394748615593, -3131.8370260998045, -10368.370755716653, -1669.4517933668844, 0.19225, 0.892, 0.31, 192.0, 0.0, 0.0, 0.0, 0.0, 0.0, 0.0, 0.0, 0.0, 0.0, 1.66267732496355E9, 0.0, 2022-09-08 18:48:44.963
80.0, 8423.545470660385, -1632.8619876935468, -32752.90522013965, -16352.133912102452, -1075.565943189376, 22321.41313808121, 34090.99240195661, 26333.797136997837, 1722.693648659426, 1449.1306482709228, -16223.097291361964, -26116.247608214333, 3994.301437652283, -3121.7563893504607, -10364.302738225788, -1667.306025899175, 0.19225, 0.892, 0.31, 192.0, 0.0, 0.0, 0.0, 0.0, 0.0, 0.0, 0.0, 0.0, 0.0, 1.6626773249635549E9, 0.0, 2022-09-08 18:48:44.963
82.0, 8405.954647774059, -1651.9056739694684, -32772.77592096042, -16360.359354062004, -1088.1946788066243, 22307.577408263376, 34193.229281095184, 26311.378337309165, 1704.9463635619122, 1420.7886363015934, -16241.895108448876, -26138.956980580926, 3972.754355997367, -3141.135351793212, -10376.015052320368, -1680.2253341943426, 0.19225, 0.892, 0.31, 192.0, 0.0, 0.0, 0.0, 0.0, 0.0, 0.0, 0.0, 0.0, 0.0, 1.6626773249635594E9, 0.0, 2022-09-08 18:48:44.963
84.0, 8442.410342980666, -1619.8979759094686, -32733.14627804116, -16330.050388580608, -1062.6019314052978, 22333.460728342623, 34193.85512993993, 26350.762111039414, 1722.0901515591327, 1446.0908110250011, -16220.079805860498, -26121.12028850559, 3981.7621090128555, -3125.198557996578, -10357.306642211275, -1663.3050636416751, 0.19225, 0.892, 0.31, 192.0, 0.0, 0.0, 0.0, 0.0, 0.0, 0.0, 0.0, 0.0, 0.0, 1.662677324963564E9, 0.0, 2022-09-08 18:48:44.963
86.0, 8423.500767171476, -1639.0757726521222, -32741.885810123185, -16344.556670732103, -1092.1285858307583, 22312.159515876712, 34291.88988112091, 26326.666930516592, 1734.3165557761856, 1446.515494169652, -16210.557962722536, -26112.581922123663, 3982.4773648354253, -3129.2218719985335, -10348.790627573804, -1657.2477408942868, 0.194125, 0.914, 0.313, 192.0, 3.0, 16.0, 14.5, 32.0, 4.5, 112.0, 0.0, 0.0, 0.0, 1.6626773249635687E9, 0.0, 2022-09-08 18:48:44.963
88.0, 8426.42884569512, -1634.4713132943289, -32732.05104256285, -16341.762702675189, -1095.3248852878673, 22315.758146734017, 34205.187464378774, 26334.780613753872, 1712.5459566767165, 1450.248235493688, -16213.687206946279, -26110.346747678133, 3980.8233357457325, -3135.7709331239384, -10351.696354352995, -1654.9902147043008, 0.194125, 0.914, 0.313, 192.0, 0.0, 0.0, 0.0, 0.0, 0.0, 0.0, 0.0, 0.0, 0.0, 1.6626773249635737E9, 0.0, 2022-09-08 18:48:44.963
90.0, 8419.879784569715, -1634.761885972248, -32738.84597287726, -16362.281604085161, -1111.5522517624202, 22313.299454843935, 34250.717967834236, 26312.853552443215, 1693.2340494673313, 1433.5291306411184, -16224.103119862453, -26119.779183838273, 3965.959425682953, -3165.4764015050414, -10354.915005554558, -1664.6461683089935, 0.194125, 0.914, 0.313, 192.0, 0.0, 0.0, 0.0, 0.0, 0.0, 0.0, 0.0, 0.0, 0.0, 1.6626773249635785E9, 0.0, 2022-09-08 18:48:44.963
92.0, 8422.159662504157, -1633.4431330493849, -32746.95965611454, -16360.627574995468, -1107.4842342715544, 22329.99620795205, 34124.587073872935, 26309.83606694175, 1686.9755610198451, 1432.6350608629061, -16211.899067389855, -26108.111573232603, 3970.7203472519336, -3170.43848877412, -10359.944148057002, -1662.1651246744543, 0.194125, 0.914, 0.313, 192.0, 0.0, 0.0, 0.0, 0.0, 0.0, 0.0, 0.0, 0.0, 0.0, 1.662677324963583E9, 0.0, 2022-09-08 18:48:44.963
94.0, 8425.400665450175, -1629.7103917253485, -32754.5816009738, -16367.333098332061, -1120.4035425667219, 22323.402443337734, 34194.43627529577, 26310.126639619666, 1670.144697444999, 1429.5281683836185, -16222.337332050483, -26107.30691043221, 3973.424908331026, -3179.4685935340635, -10370.807095862281, -1665.9425694874012, 0.194125, 0.914, 0.313, 192.0, 0.0, 0.0, 0.0, 0.0, 0.0, 0.0, 0.0, 0.0, 0.0, 1.6626773249635875E9, 0.0, 2022-09-08 18:48:44.963
96.0, 8441.113941802258, -1613.0136386172342, -32736.61079843173, -16360.38170580646, -1103.1703475916802, 22323.782422993474, 34040.008072854056, 26302.080011615755, 1665.8308107651249, 1436.5019126536743, -16210.937942378278, -26080.082485685645, 3974.9224752095315, -3166.839857916815, -10374.919816842059, -1661.8969037409906, 0.1790625, 0.924, 0.3115, 192.0, 2.5, 16.0, 14.5, 24.0, 4.5, 88.0, 0.0, 0.0, 0.0, 1.6626773249635923E9, 0.0, 2022-09-08 18:48:44.963
98.0, 8418.695142113584, -1629.0398393916894, -32773.737045972, -16398.0220434692, -1123.17515887918, 22296.647405224732, 34088.10902692188, 26286.76906666387, 1664.0426712087003, 1428.8129125610487, -16227.92526816431, -26083.792875265226, 3972.0614519192522, -3179.3791865562425, -10383.257017523887, -1685.6344563525267, 0.1790625, 0.924, 0.3115, 192.0, 0.0, 0.0, 0.0, 0.0, 0.0, 0.0, 0.0, 0.0, 0.0, 1.6626773249635973E9, 0.0, 2022-09-08 18:48:44.963
100.0, 8448.132389561224, -1590.572487184106, -32750.558286971846, -16369.590624522047, -1097.9847428780488, 22317.792155479452, 33991.191862963664, 26296.49207550193, 1652.6879850254043, 1426.287165437599, -16231.456843788248, -26075.813302494684, 3966.4511640609703, -3175.847610932304, -10388.330863515243, -1696.8773838135462, 0.1790625, 0.924, 0.3115, 192.0, 0.0, 0.0, 0.0, 0.0, 0.0, 0.0, 0.0, 0.0, 0.0, 1.6626773249636033E9, 0.0, 2022-09-08 18:48:44.963
102.0, 8444.176130792634, -1607.3809990144969, -32773.5358802719, -16391.093002688052, -1115.3520483198224, 22305.006957651014, 34047.3841485243, 26274.520310702363, 1683.6227993515492, 1435.2725667086324, -16223.790195440079, -26060.54706103171, 3986.679492793023, -3161.676604947639, -10379.904255855592, -1691.691779099915, 0.1790625, 0.924, 0.3115, 192.0, 0.0, 0.0, 0.0, 0.0, 0.0, 0.0, 0.0, 0.0, 0.0, 1.6626773249636078E9, 0.0, 2022-09-08 18:48:44.963
104.0, 8447.126561060735, -1601.7483594117593, -32758.76137718694, -16385.6168252965, -1120.7388187335514, 22300.17898084867, 33955.18320264616, 26263.43384545253, 1688.3613691760743, 1431.5845288735068, -16226.673570474813, -26058.893031942014, 3983.863172991654, -3161.229570058533, -10387.637959437128, -1698.4867094143283, 0.1790625, 0.924, 0.3115, 192.0, 0.0, 0.0, 0.0, 0.0, 0.0, 0.0, 0.0, 0.0, 0.0, 1.6626773254425247E9, 0.0, 2022-09-08 18:48:45.442
106.0, 8421.533813659407, -1628.056362635656, -32781.96248793155, -16410.20374419734, -1128.137246148258, 22303.12941111677, 34017.85749409885, 26284.57859570725, 1671.4634503678622, 1410.2833164075992, -16246.20899512875, -26071.857043726093, 3976.487097321403, -3177.367529555265, -10386.72153791446, -1704.43227343944, 0.16853125000000002, 0.918, 0.30774999999999997, 192.0, 2.0, 120.0, 14.0, 64.0, 4.5, 64.0, 0.0, 0.0, 0.0, 1.6626773254425757E9, 0.0, 2022-09-08 18:48:45.442
108.0, 8431.167415519645, -1611.9407548833794, -32754.71571144053, -16381.414697338903, -1093.492042242532, 22319.088556657858, 33955.02674043497, 26342.603724313227, 1670.6811393119265, 1422.6438310913838, -16246.901899206865, -26063.58689827763, 3984.9807602144197, -3165.3422910383097, -10375.791534875814, -1687.310837186675, 0.16853125000000002, 0.918, 0.30774999999999997, 192.0, 0.0, 0.0, 0.0, 0.0, 0.0, 0.0, 0.0, 0.0, 0.0, 1.6626773254426947E9, 0.0, 2022-09-08 18:48:45.442
110.0, 8404.032397750903, -1642.1603133869546, -32776.35220007327, -16399.519610347703, -1109.4064842947107, 22305.006957651014, 34030.620340182824, 26361.937983267067, 1678.370139404552, 1409.6127640739398, -16246.074884662019, -26069.06307566918, 3972.26261761935, -3158.167381068156, -10370.985909817924, -1667.3954328769962, 0.16853125000000002, 0.918, 0.30774999999999997, 192.0, 0.0, 0.0, 0.0, 0.0, 0.0, 0.0, 0.0, 0.0, 0.0, 1.6626773254427013E9, 0.0, 2022-09-08 18:48:45.442
112.0, 8393.482374367997, -1647.2565111227646, -32773.938211672095, -16386.309729374618, -1134.7980659959396, 22306.07984138487, 34005.98871779307, 26311.355985564707, 1674.9056190139795, 1375.6381125018731, -16267.711373294756, -26088.64320381203, 3954.4482772884703, -3176.7416807105164, -10387.123869314655, -1689.0989767430995, 0.16853125000000002, 0.918, 0.30774999999999997, 192.0, 0.0, 0.0, 0.0, 0.0, 0.0, 0.0, 0.0, 0.0, 0.0, 1.6626773254427075E9, 0.0, 2022-09-08 18:48:45.442
114.0, 8416.2364502235, -1641.4450575643848, -32758.716673698033, -16368.7636099772, -1116.112007631303, 22325.101175916338, 34083.616326286356, 26338.714520778005, 1693.1893459784205, 1400.1803279138003, -16255.350858610971, -26066.470273312363, 3970.496829807381, -3143.303471005377, -10376.819715120759, -1666.8813427545242, 0.16853125000000002, 0.918, 0.30774999999999997, 192.0, 0.0, 0.0, 0.0, 0.0, 0.0, 0.0, 0.0, 0.0, 0.0, 1.662677325442714E9, 0.0, 2022-09-08 18:48:45.442
116.0, 8404.926467529114, -1654.0961449260885, -32766.696246468575, -16375.089153658051, -1121.6328885117637, 22303.710556472608, 34138.46750717968, 26318.754412979415, 1728.0804190731549, 1406.3047058945544, -16243.236213116195, -26065.106816900592, 3969.491001306892, -3151.5736164538407, -10365.465028937464, -1665.7637555317588, 0.18626562500000002, 0.913, 0.310875, 192.0, 3.0, 48.0, 14.0, 48.0, 4.5, 104.0, 0.0, 0.0, 0.0, 1.6626773254427428E9, 0.0, 2022-09-08 18:48:45.442
118.0, 8396.879839525203, -1660.9581304738679, -32785.02467692193, -16392.635273055468, -1141.8388654993612, 22300.134277359757, 34178.834757665965, 26315.424003055574, 1710.5342996757388, 1390.0773394200016, -16263.93392848181, -26085.513959588287, 3950.6037772421573, -3165.4093462716755, -10381.804154134292, -1688.7189970873592, 0.18626562500000002, 0.913, 0.310875, 192.0, 0.0, 0.0, 0.0, 0.0, 0.0, 0.0, 0.0, 0.0, 0.0, 1.662677325442749E9, 0.0, 2022-09-08 18:48:45.442
120.0, 8399.1820692041, -1664.981444475823, -32789.651488024174, -16395.33983413456, -1144.8787027452831, 22286.65617545321, 34186.81433043651, 26297.319090046774, 1697.2797152137418, 1380.734310237683, -16277.12145771044, -26103.797686552727, 3940.3666782816267, -3173.143049853212, -10392.823564150758, -1708.43323569694, 0.18626562500000002, 0.913, 0.310875, 192.0, 0.0, 0.0, 0.0, 0.0, 0.0, 0.0, 0.0, 0.0, 0.0, 1.6626773254427552E9, 0.0, 2022-09-08 18:48:45.442
122.0, 8402.557182616853, -1660.4440403513959, -32789.673839768635, -16404.14642144995, -1149.2819964029786, 22286.209140564104, 34175.66080995331, 26308.696127974526, 1687.0426162532112, 1383.5506300390518, -16276.786181543612, -26103.663576085997, 3931.15775956604, -3174.662968476173, -10402.099538099712, -1719.3408869911298, 0.18626562500000002, 0.913, 0.310875, 192.0, 0.0, 0.0, 0.0, 0.0, 0.0, 0.0, 0.0, 0.0, 0.0, 1.6626773254427612E9, 0.0, 2022-09-08 18:48:45.442
124.0, 8401.66311283864, -1657.6053688055717, -32787.215147878545, -16403.788793538664, -1161.4860488755762, 22284.063373096393, 34183.28275481257, 26285.15974106309, 1680.5382586167168, 1383.8859062058814, -16280.094239722997, -26106.390488909543, 3929.3472682651604, -3189.8174512168707, -10402.703035200006, -1724.302974260208, 0.18626562500000002, 0.913, 0.310875, 192.0, 0.0, 0.0, 0.0, 0.0, 0.0, 0.0, 0.0, 0.0, 0.0, 1.6626773254427674E9, 0.0, 2022-09-08 18:48:45.442
126.0, 8406.71460708554, -1661.8298485076248, -32777.38038031821, -16404.034662727674, -1159.5190953635092, 22294.50163775702, 34123.98357677264, 26302.281177315854, 1663.6403398085047, 1390.971409198214, -16269.946547740288, -26100.53433186225, 3928.9225851205097, -3186.3082273373875, -10401.317227043775, -1717.2174712678757, 0.18626562500000002, 0.913, 0.310875, 192.0, 0.0, 0.0, 0.0, 0.0, 0.0, 0.0, 0.0, 0.0, 0.0, 1.6626773254427736E9, 0.0, 2022-09-08 18:48:45.442
128.0, 8411.47552865452, -1651.1904181468985, -32770.25017383697, -16408.080328474087, -1157.7980110404505, 22293.115829600792, 34118.932082525745, 26293.429886511552, 1645.0213366772339, 1385.5175835511188, -16279.624853089435, -26109.698547088927, 3910.1918232669623, -3201.06037867789, -10413.521279516373, -1720.7937503807248, 0.19, 0.894, 0.32, 192.0, 2.5, 120.0, 13.5, 120.0, 5.0, 0.0, 0.0, 0.0, 0.0, 1.6626773254427795E9, 0.0, 2022-09-08 18:48:45.442
130.0, 8433.939031832104, -1630.9620894148457, -32733.548609441354, -16399.363148136516, -1137.2791096304786, 22331.09144343036, 34083.01282918607, 26320.87782870267, 1649.3575751015635, 1409.903336751859, -16250.142902152886, -26089.649032312518, 3945.5075795063476, -3173.2548085754884, -10396.288084541331, -1694.8433750681133, 0.19, 0.894, 0.32, 192.0, 0.0, 0.0, 0.0, 0.0, 0.0, 0.0, 0.0, 0.0, 0.0, 1.662677325442786E9, 0.0, 2022-09-08 18:48:45.442
132.0, 8433.760217876461, -1634.7171824833374, -32741.34936825626, -16426.78873858318, -1143.6717085446965, 22315.93696068966, 34200.918281187805, 26282.00814509489, 1655.727822271326, 1418.1511304558671, -16250.254660875162, -26087.39150612253, 3961.846704703177, -3177.4569365330863, -10368.616624905662, -1689.5460116322056, 0.19, 0.894, 0.32, 192.0, 0.0, 0.0, 0.0, 0.0, 0.0, 0.0, 0.0, 0.0, 0.0, 1.6626773254427977E9, 0.0, 2022-09-08 18:48:45.442
134.0, 8435.749523132983, -1627.0952376240775, -32738.331882754792, -16437.45052068836, -1141.9059207327273, 22308.873809441782, 34084.242175131105, 26286.2549765414, 1644.7531157437702, 1398.5039470796523, -16259.575338313025, -26090.811323024194, 3955.4317540445036, -3187.7610907269827, -10389.62726469365, -1712.4789014433507, 0.19, 0.894, 0.32, 192.0, 0.0, 0.0, 0.0, 0.0, 0.0, 0.0, 0.0, 0.0, 0.0, 1.6626773254428036E9, 0.0, 2022-09-08 18:48:45.442
