%OpenBCI Raw EEG Data
%Number of channels = 16
%Sample Rate = 125 Hz
%Board = OpenBCI_GUI$BoardCytonSerialDaisy
Sample Index, EXG Channel 0, EXG Channel 1, EXG Channel 2, EXG Channel 3, EXG Channel 4, EXG Channel 5, EXG Channel 6, EXG Channel 7, EXG Channel 8, EXG Channel 9, EXG Channel 10, EXG Channel 11, EXG Channel 12, EXG Channel 13, EXG Channel 14, EXG Channel 15, Accel Channel 0, Accel Channel 1, Accel Channel 2, Other, Other, Other, Other, Other, Other, Other, Analog Channel 0, Analog Channel 1, Analog Channel 2, Timestamp, Other, Timestamp (Formatted)
254.0, -6132.312850035769, -9984.054861552104, -30283.149216550497, -27300.420677712045, -16942.152910489192, 6833.151797431922, 19935.006789565898, 15178.57792122101, -17820.263543160385, -10391.124831572155, -17009.11873687729, -31284.507368148254, 4865.863009198071, -11556.723601427508, -9216.563012190225, -11575.4320115366, 0.096, 0.465, 0.109, 192.0, 3.0, 0.0, 14.5, 8.0, 3.0, 104.0, 0.0, 0.0, 0.0, 1.66267771724745E9, 0.0, 2022-09-08 18:55:17.247
0.0, -6136.827902415741, -9990.000425577215, -30276.913079847465, -27299.16898002255, -16944.052808767894, 6811.895288454925, 19889.543341343804, 15159.847159367462, -17817.447223359017, -10389.91783737157, -17005.207181597612, -31280.90873729095, 4881.531582061241, -11554.890758382173, -9216.942991845965, -11581.735203472997, 0.096, 0.465, 0.109, 192.0, 0.0, 0.0, 0.0, 0.0, 0.0, 0.0, 0.0, 0.0, 0.0, 1.662677717247455E9, 0.0, 2022-09-08 18:55:17.247
2.0, -6134.838597159219, -9991.475640711265, -30282.255146772284, -27299.057221300274, -16943.426959923145, 6805.614448262983, 19899.758088559876, 15159.71304890073, -17814.22857215745, -10398.411500264585, -17007.64352174324, -31281.892214046984, 4887.96888446437, -11557.595319461265, -9216.786529634777, -11579.343566816278, 0.096, 0.465, 0.109, 192.0, 0.0, 0.0, 0.0, 0.0, 0.0, 0.0, 0.0, 0.0, 0.0, 1.662677717247459E9, 0.0, 2022-09-08 18:55:17.247
4.0, -6135.710315192976, -9990.11218429949, -30281.98692583882, -27296.151494521084, -16946.936183802627, 6801.38996856093, 19878.7921522608, 15148.671287139809, -17813.222743656963, -10396.57865721925, -17011.778594467472, -31284.03798151469, 4882.6938727729175, -11547.939365856573, -9224.989619849875, -11581.712851728542, 0.096, 0.465, 0.109, 192.0, 0.0, 0.0, 0.0, 0.0, 0.0, 0.0, 0.0, 0.0, 0.0, 1.6626777172474632E9, 0.0, 2022-09-08 18:55:17.247
6.0, -6133.0951610917045, -9985.463021452788, -30284.065638073163, -27302.5440934353, -16943.806939578884, 6801.412320305386, 19905.323672929248, 15146.86079583893, -17804.013824941376, -10394.231724051444, -17014.907838691215, -31279.56763262363, 4873.552009290696, -11557.885892139184, -9214.39489297806, -11575.76728770343, 0.096, 0.465, 0.109, 192.0, 0.0, 0.0, 0.0, 0.0, 0.0, 0.0, 0.0, 0.0, 0.0, 1.6626777172474673E9, 0.0, 2022-09-08 18:55:17.247
8.0, -6134.637431459121, -9987.765251131685, -30281.13755954952, -27299.951291078483, -16949.953669304094, 6796.561991758585, 19867.8397974777, 15144.29034522657, -17804.103231919198, -10395.550476974306, -17016.360702080812, -31281.020496013225, 4863.985462663825, -11551.560348458332, -9230.689314685978, -11584.842095952285, 0.096, 0.465, 0.109, 192.0, 0.0, 0.0, 0.0, 0.0, 0.0, 0.0, 0.0, 0.0, 0.0, 1.6626777172474713E9, 0.0, 2022-09-08 18:55:17.247
10.0, -6141.544120495811, -9991.766213389184, -30286.300812518697, -27305.673337659042, -16957.50855892999, 6795.466756280274, 19926.535478417336, 15130.342856686457, -17805.24317088642, -10399.082052598245, -17016.07012940289, -31274.04675174317, 4866.824134209649, -11558.779961917397, -9226.174262306007, -11583.143363373681, 0.2, 0.926, 0.224, 192.0, 3.0, 32.0, 14.0, 120.0, 3.5, 0.0, 0.0, 0.0, 0.0, 1.6626777172474756E9, 0.0, 2022-09-08 18:55:17.247
12.0, -6142.8405216742185, -9985.463021452788, -30275.057885057675, -27300.264215500858, -16948.992544292516, 6788.135384098934, 19874.500617325382, 15128.174737474292, -17807.210124398487, -10410.839070181737, -17019.534649793466, -31275.656077343952, 4844.807665921172, -11565.999575376462, -9232.522157731313, -11590.251218110468, 0.2, 0.926, 0.224, 192.0, 0.0, 0.0, 0.0, 0.0, 0.0, 0.0, 0.0, 0.0, 0.0, 1.6626777172474797E9, 0.0, 2022-09-08 18:55:17.247
14.0, -6133.78806516982, -9982.3561289735, -30273.672076901446, -27302.052355057283, -16955.6533641402, 6796.941971414325, 19895.153629202086, 15129.739359586163, -17795.542513792814, -10397.517430486374, -17012.27033284549, -31266.491862117276, 4892.6180473110735, -11563.652642208654, -9222.083893070685, -11580.595264505777, 0.2, 0.926, 0.224, 192.0, 0.0, 0.0, 0.0, 0.0, 0.0, 0.0, 0.0, 0.0, 0.0, 1.6626777172474835E9, 0.0, 2022-09-08 18:55:17.247
16.0, -6141.164140840071, -9989.59809417702, -30279.46117871537, -27303.97460508044, -16958.06735254137, 6792.359863800987, 19834.848622661666, 15120.485737381667, -17803.991473196922, -10389.91783737157, -17016.047777658438, -31268.525870862708, 4881.688044272429, -11561.015136362927, -9228.767064662823, -11589.58066577681, 0.2, 0.926, 0.224, 192.0, 0.0, 0.0, 0.0, 0.0, 0.0, 0.0, 0.0, 0.0, 0.0, 1.6626777172474875E9, 0.0, 2022-09-08 18:55:17.247
18.0, -6135.151521581593, -9988.279341254156, -30280.221138026853, -27294.765686364855, -16972.08189631485, 6789.923523655359, 19877.31693712675, 15142.748074859152, -17802.42685108505, -10402.300703799809, -17017.12066139229, -31264.189632438378, 4868.321701088154, -11556.321270027312, -9232.656268198047, -11581.109354628248, 0.2, 0.926, 0.224, 192.0, 0.0, 0.0, 0.0, 0.0, 0.0, 0.0, 0.0, 0.0, 0.0, 1.6626777172474916E9, 0.0, 2022-09-08 18:55:17.247
20.0, -6135.106818092682, -9989.911018599394, -30280.489358960316, -27290.29533747379, -16965.97987007855, 6785.162602086378, 19808.607674671137, 15119.792833303552, -17805.220819141963, -10401.697206699517, -17022.440376572657, -31262.915583004426, 4861.05738414018, -11548.56521470132, -9239.406495023548, -11582.741031973486, 0.20400000000000001, 0.934, 0.218, 192.0, 3.0, 48.0, 14.5, 24.0, 3.0, 104.0, 0.0, 0.0, 0.0, 1.6626777172474957E9, 0.0, 2022-09-08 18:55:17.247
22.0, -6126.702562177487, -9977.371689959966, -30278.61181242607, -27286.674354872033, -16963.20825376609, 6784.447346263808, 19918.198277735508, 15104.034853462561, -17800.817525484268, -10393.047081595312, -17018.484117804066, -31253.75136777775, 4860.878570184537, -11544.743066399464, -9225.771930905812, -11578.628310993709, 0.20400000000000001, 0.934, 0.218, 192.0, 0.0, 0.0, 0.0, 0.0, 0.0, 0.0, 0.0, 0.0, 0.0, 1.6626777172474997E9, 0.0, 2022-09-08 18:55:17.247
24.0, -6135.64325995961, -9981.59616966202, -30276.063713558164, -27290.407096196068, -16961.17424502066, 6782.748613685205, 19877.49575108239, 15144.200938248747, -17792.837952713722, -10394.119965329166, -17023.13328065077, -31251.024454954204, 4854.798895692694, -11549.90631936864, -9219.15581454704, -11576.996633648472, 0.20400000000000001, 0.934, 0.218, 192.0, 0.0, 0.0, 0.0, 0.0, 0.0, 0.0, 0.0, 0.0, 0.0, 1.6626777172475038E9, 0.0, 2022-09-08 18:55:17.247
26.0, -6129.317716278758, -9975.82941959255, -30269.782873366225, -27293.82691309773, -16947.897308814205, 6788.537715499129, 19871.416076590547, 15142.435150436779, -17794.067298658767, -10395.081090340746, -17022.03804517246, -31247.872858986004, 4866.712375487373, -11546.71001991153, -9217.121805801607, -11573.174485346615, 0.20400000000000001, 0.934, 0.218, 192.0, 0.0, 0.0, 0.0, 0.0, 0.0, 0.0, 0.0, 0.0, 0.0, 1.662677717247508E9, 0.0, 2022-09-08 18:55:17.247
28.0, -6138.459579760979, -9985.351262730512, -30272.442730956405, -27299.370145722645, -16942.10820700028, 6783.083889852034, 19879.93209122802, 15133.650914865842, -17804.863191230677, -10398.500907242407, -17028.40829234222, -31252.76789102172, 4857.525808516241, -11565.060802109338, -9213.433767966482, -11581.131706372704, 0.20400000000000001, 0.934, 0.218, 192.0, 0.0, 0.0, 0.0, 0.0, 0.0, 0.0, 0.0, 0.0, 0.0, 1.662677717247512E9, 0.0, 2022-09-08 18:55:17.247
30.0, -6129.675344190043, -9974.778887603152, -30272.912117589967, -27291.614090396655, -16961.17424502066, 6782.368634029464, 19874.74648651439, 15136.131958500382, -17800.594008039716, -10385.894523369614, -17022.775652739485, -31246.330588618588, 4874.334320346632, -11546.866482122718, -9216.115977301119, -11579.611787749744, 0.20400000000000001, 0.934, 0.216, 192.0, 3.0, 48.0, 14.5, 24.0, 3.0, 96.0, 0.0, 0.0, 0.0, 1.6626777172475183E9, 0.0, 2022-09-08 18:55:17.247
32.0, -6144.092219363716, -9987.497030198221, -30278.90238510399, -27294.050430542284, -16966.516311945477, 6781.318102040065, 19847.231489089907, 15113.981379745172, -17801.66689177357, -10394.790517662826, -17029.65999003172, -31245.41416709592, 4862.018509151758, -11556.120104327216, -9231.15870131954, -11589.178334376615, 0.20400000000000001, 0.934, 0.216, 192.0, 0.0, 0.0, 0.0, 0.0, 0.0, 0.0, 0.0, 0.0, 0.0, 1.6626777172475224E9, 0.0, 2022-09-08 18:55:17.247
34.0, -6131.30702153528, -9976.231750992745, -30266.854794842577, -27276.191386722494, -16964.415247966677, 6787.53188699864, 19841.934125654, 15122.787967060563, -17804.505563319395, -10392.19771530601, -17031.33637086587, -31245.436518840375, 4868.589922021619, -11550.308650768835, -9231.739846675378, -11590.877066955218, 0.20400000000000001, 0.934, 0.216, 192.0, 0.0, 0.0, 0.0, 0.0, 0.0, 0.0, 0.0, 0.0, 0.0, 1.6626777172475264E9, 0.0, 2022-09-08 18:55:17.247
36.0, -6123.282745275825, -9969.839152078528, -30273.292097245707, -27279.745314090887, -16968.41621022418, 6772.846790891504, 19861.35779158566, 15117.200030946737, -17790.446316057005, -10371.276482495843, -17034.309152878424, -31238.440422825865, 4859.3362998171215, -11543.558423943332, -9233.282117042794, -11584.842095952285, 0.20400000000000001, 0.934, 0.216, 192.0, 0.0, 0.0, 0.0, 0.0, 0.0, 0.0, 0.0, 0.0, 0.0, 1.6626777172475307E9, 0.0, 2022-09-08 18:55:17.247
38.0, -6137.096123349205, -9977.863428337983, -30266.296001231196, -27271.899851787075, -16955.899233329204, 6780.96047412878, 19858.7873409733, 15132.198051476247, -17794.201409125497, -10382.206485534489, -17031.2693156325, -31238.03809142567, 4860.118610873057, -11541.613822175721, -9231.516329230826, -11577.600130748766, 0.20400000000000001, 0.934, 0.216, 192.0, 0.0, 0.0, 0.0, 0.0, 0.0, 0.0, 0.0, 0.0, 0.0, 1.6626777172475348E9, 0.0, 2022-09-08 18:55:17.247
40.0, -6136.202053570993, -9980.098602783513, -30263.211460496364, -27277.376029178624, -16953.239375739024, 6778.211209560777, 19853.512329281846, 15117.75882455812, -17797.19654288251, -10390.096651327212, -17035.4714435901, -31239.401547837446, 4852.183741591423, -11551.292127524868, -9220.742788403368, -11567.430087021601, 0.196, 0.932, 0.21, 192.0, 3.0, 16.0, 14.5, 16.0, 3.0, 72.0, 0.0, 0.0, 0.0, 1.6626777172475388E9, 0.0, 2022-09-08 18:55:17.247
42.0, -6135.866777404163, -9987.586437176042, -30265.13371051952, -27283.142779248094, -16954.669887384163, 6773.986729858724, 19785.898302304544, 15136.131958500382, -17784.388993309618, -10388.308511770787, -17031.71635052161, -31242.642550783465, 4889.757024020794, -11558.645851450665, -9232.58921296468, -11576.14726735917, 0.196, 0.932, 0.21, 192.0, 0.0, 0.0, 0.0, 0.0, 0.0, 0.0, 0.0, 0.0, 0.0, 1.6626777172475429E9, 0.0, 2022-09-08 18:55:17.247
44.0, -6126.59080345521, -9982.087908040037, -30259.277553472228, -27283.232186225916, -16945.997410535503, 6758.832247118026, 19937.04079831133, 15129.4711386527, -17783.13729562012, -10407.732177702448, -17037.818376757907, -31245.3247601181, 4878.357634348587, -11559.517569484422, -9222.508576215336, -11579.924712172116, 0.196, 0.932, 0.21, 192.0, 0.0, 0.0, 0.0, 0.0, 0.0, 0.0, 0.0, 0.0, 0.0, 1.662677717247547E9, 0.0, 2022-09-08 18:55:17.247
46.0, -6116.532518450323, -9969.63798637843, -30255.209535981365, -27279.030058268316, -16944.231622723535, 6747.835188846015, 19874.142989414097, 15096.6140743034, -17771.29087105881, -10405.206430578999, -17022.239210872558, -31232.65132101194, 4877.016529681269, -11563.652642208654, -9219.804015136244, -11590.944122188583, 0.196, 0.932, 0.21, 192.0, 0.0, 0.0, 0.0, 0.0, 0.0, 0.0, 0.0, 0.0, 0.0, 1.6626777172475507E9, 0.0, 2022-09-08 18:55:17.247
48.0, -6102.652085143577, -9957.925672283849, -30252.884954558012, -27277.018401267338, -16935.15681447468, 6747.455209190275, 19913.392652677616, 15097.485792337155, -17758.617431952647, -10385.402784991596, -17016.494812547542, -31216.4686580263, 4890.718149032373, -11559.159941573136, -9214.73016914489, -11592.86637221174, 0.196, 0.932, 0.21, 192.0, 0.0, 0.0, 0.0, 0.0, 0.0, 0.0, 0.0, 0.0, 0.0, 1.6626777172475548E9, 0.0, 2022-09-08 18:55:17.247
50.0, -6098.807585097264, -9958.30565193959, -30244.771271320737, -27268.25651744086, -16937.459044153577, 6769.628139689939, 19878.099248182687, 15195.028805140115, -17757.544548218793, -10383.301721012798, -17011.80094621193, -31212.601806235532, 4878.670558770962, -11557.170636316614, -9214.081968555685, -11591.189991377592, 0.196, 0.922, 0.22, 192.0, 3.0, 16.0, 14.0, 104.0, 3.0, 112.0, 0.0, 0.0, 0.0, 1.662677717247559E9, 0.0, 2022-09-08 18:55:17.247
52.0, -6104.037893299806, -9958.752686828695, -30248.772233578235, -27275.654944855567, -16944.008105278983, 6763.704927409283, 19911.89508579911, 15161.680002412797, -17756.315202273752, -10386.72153791446, -17012.717367734596, -31206.723297443787, 4882.716224517372, -11557.23769154998, -9199.218058492906, -11579.589436005288, 0.196, 0.922, 0.22, 192.0, 0.0, 0.0, 0.0, 0.0, 0.0, 0.0, 0.0, 0.0, 0.0, 1.6626777172475631E9, 0.0, 2022-09-08 18:55:17.247
54.0, -6108.754111379875, -9963.200683975301, -30249.398082422984, -27274.537357632802, -16954.111093772783, 6756.150037783389, 19841.397683787072, 15136.355475944934, -17769.100400102187, -10398.411500264585, -17022.596838783844, -31216.401602792932, 4862.107916129579, -11558.198816561558, -9207.10822428563, -11589.91594194364, 0.196, 0.922, 0.22, 192.0, 0.0, 0.0, 0.0, 0.0, 0.0, 0.0, 0.0, 0.0, 0.0, 1.6626777172475672E9, 0.0, 2022-09-08 18:55:17.247
56.0, -6099.165213008549, -9957.277471694646, -30243.653684097968, -27270.245822697383, -16944.388084934722, 6759.793372129604, 19893.723117556943, 15142.435150436779, -17758.46096974146, -10398.322093286764, -17019.51229804901, -31213.5182277582, 4885.8678204855705, -11548.676973423599, -9203.643703895057, -11578.628310993709, 0.196, 0.922, 0.22, 192.0, 0.0, 0.0, 0.0, 0.0, 0.0, 0.0, 0.0, 0.0, 0.0, 1.6626777172475712E9, 0.0, 2022-09-08 18:55:17.247
58.0, -6089.5986663816775, -9951.153093713892, -30231.963721747845, -27259.718151058933, -16935.089759241317, 6770.455154234785, 19851.21009960295, 15147.486644683677, -17758.349211019184, -10388.420270493063, -17008.157611865714, -31204.532826487164, 4901.402282882009, -11548.073476323305, -9198.100471270141, -11576.639005737186, 0.196, 0.922, 0.22, 192.0, 0.0, 0.0, 0.0, 0.0, 0.0, 0.0, 0.0, 0.0, 0.0, 1.6626777172475753E9, 0.0, 2022-09-08 18:55:17.247
60.0, -6102.786195610309, -9964.899416553906, -30244.32423643163, -27275.140854733094, -16947.07029426936, 6752.350241225987, 19895.645367580102, 15143.619792892909, -17763.22189131044, -10384.821639635758, -17008.425832799177, -31200.733029929765, 4894.339131634132, -11545.324211755302, -9196.669959625002, -11575.364956303234, 0.198, 0.92, 0.22, 192.0, 3.0, 24.0, 14.0, 96.0, 3.0, 112.0, 0.0, 0.0, 0.0, 1.6626777172475803E9, 0.0, 2022-09-08 18:55:17.247
62.0, -6100.863945587153, -9956.964547272271, -30231.248465925273, -27260.098130714672, -16930.060616738872, 6757.602901172984, 19873.427733591525, 15149.632412151386, -17764.540644233304, -10387.079165825746, -17013.32086483489, -31203.28112879767, 4886.448965841409, -11548.296993767857, -9192.065500267208, -11570.916959156628, 0.198, 0.92, 0.22, 192.0, 0.0, 0.0, 0.0, 0.0, 0.0, 0.0, 0.0, 0.0, 0.0, 1.662677717247586E9, 0.0, 2022-09-08 18:55:17.247
64.0, -6103.948486321984, -9960.719640340763, -30236.590532850092, -27270.91637503104, -16943.15873898968, 6749.399810957887, 19867.191596888497, 15130.5216706421, -17762.79720816579, -10388.800250148804, -17016.785385225463, -31207.013870121704, 4882.895038473015, -11554.376668259702, -9193.7195293569, -11573.800334191363, 0.198, 0.92, 0.22, 192.0, 0.0, 0.0, 0.0, 0.0, 0.0, 0.0, 0.0, 0.0, 0.0, 1.66267771724759E9, 0.0, 2022-09-08 18:55:17.247
66.0, -6108.284724746314, -9969.794448589617, -30243.340759675597, -27274.82793031072, -16946.77972159144, 6732.099560749479, 19784.78071508178, 15120.105757725927, -17759.444446497495, -10394.589351962728, -17019.624056771285, -31209.517265500697, 4878.15646864849, -11555.829531649297, -9208.225811508395, -11587.747822731475, 0.198, 0.92, 0.22, 192.0, 0.0, 0.0, 0.0, 0.0, 0.0, 0.0, 0.0, 0.0, 0.0, 1.6626777172475948E9, 0.0, 2022-09-08 18:55:17.247
68.0, -6105.311942733758, -9968.609806133487, -30248.66047485596, -27277.867767556643, -16952.859396083284, 6734.625307872929, 19901.590931605213, 15124.933734528273, -17766.597004723193, -10393.829392651247, -17026.441338830155, -31219.195570849846, 4851.4684857688535, -11558.62349970621, -9220.318105258717, -11606.769157262941, 0.198, 0.92, 0.22, 192.0, 0.0, 0.0, 0.0, 0.0, 0.0, 0.0, 0.0, 0.0, 0.0, 1.662677717247599E9, 0.0, 2022-09-08 18:55:17.247
70.0, -6087.519954147334, -9948.068552979059, -30229.16975369093, -27257.81825278023, -16936.475567397545, 6745.0859242780125, 19866.342230599195, 15126.721874084697, -17752.068370827245, -10380.507752955884, -17008.22466709908, -31199.950718873828, 4898.071872958169, -11552.119142069716, -9204.403663206538, -11595.392119335189, 0.199, 0.922, 0.21400000000000002, 192.0, 3.0, 32.0, 14.0, 112.0, 3.0, 64.0, 0.0, 0.0, 0.0, 1.6626777172476032E9, 0.0, 2022-09-08 18:55:17.247
72.0, -6092.124413505127, -9952.985936759227, -30240.45738464086, -27267.854186040662, -16945.77389309095, 6734.602956128473, 19864.375277087125, 15128.174737474292, -17747.575670191727, -10375.232741264432, -17005.207181597612, -31187.903128612415, 4899.032997969746, -11533.94717382755, -9204.224849250895, -11591.391157077689, 0.199, 0.922, 0.21400000000000002, 192.0, 0.0, 0.0, 0.0, 0.0, 0.0, 0.0, 0.0, 0.0, 0.0, 1.6626777172476072E9, 0.0, 2022-09-08 18:55:17.247
74.0, -6105.602515411677, -9964.63119562044, -30247.520535888736, -27271.676334342523, -16943.4493116676, 6731.965450282747, 19837.799052929768, 15105.778289530075, -17755.152911562076, -10386.162744303077, -17023.803832984428, -31195.949756616326, 4885.465489085375, -11546.419447233611, -9206.370616718605, -11589.223037865524, 0.199, 0.922, 0.21400000000000002, 192.0, 0.0, 0.0, 0.0, 0.0, 0.0, 0.0, 0.0, 0.0, 0.0, 1.6626777172476113E9, 0.0, 2022-09-08 18:55:17.247
76.0, -6115.63844867211, -9973.706003869296, -30260.21632673935, -27281.578157136224, -16959.296698486414, 6731.42900841582, 19829.104224336654, 15125.269010695101, -17769.36862103565, -10393.874096140158, -17043.4733681051, -31209.89724515644, 4873.730823246339, -11555.38249676019, -9219.200518035952, -11595.034491423905, 0.199, 0.922, 0.21400000000000002, 192.0, 0.0, 0.0, 0.0, 0.0, 0.0, 0.0, 0.0, 0.0, 0.0, 1.6626777172476153E9, 0.0, 2022-09-08 18:55:17.247
78.0, -6123.439207487012, -9978.824553349561, -30257.13178600452, -27281.01936352484, -16941.482358155532, 6731.965450282747, 19826.93610512449, 15124.37494091689, -17772.207292581475, -10394.63405545164, -17051.65410657574, -31212.735916702262, 4867.159410376479, -11569.598206233764, -9221.726265159401, -11591.122936144226, 0.199, 0.922, 0.21400000000000002, 192.0, 0.0, 0.0, 0.0, 0.0, 0.0, 0.0, 0.0, 0.0, 0.0, 1.6626777172476194E9, 0.0, 2022-09-08 18:55:17.247
80.0, -6126.367286010657, -9983.987806318737, -30251.722663846336, -27279.722962346434, -16947.606736136288, 6734.960584039758, 19833.97690462791, 15129.225269463692, -17781.170342108053, -10394.72346242946, -17049.351876896846, -31214.457001025323, 4862.309081829677, -11553.639060692676, -9215.780701134288, -11587.144325631181, 0.1975, 0.925, 0.21200000000000002, 192.0, 3.0, 16.0, 14.5, 0.0, 3.0, 72.0, 0.0, 0.0, 0.0, 1.6626777172476237E9, 0.0, 2022-09-08 18:55:17.247
82.0, -6122.723951664442, -9977.774021360163, -30250.76153883476, -27277.174863478525, -16946.82442508035, 6720.700171077272, 19853.042942648288, 15125.403121161835, -17770.70972570297, -10392.823564150758, -17052.07878972039, -31212.043012624148, 4899.301218903211, -11560.344584029268, -9210.505689442836, -11581.95872091755, 0.1975, 0.925, 0.21200000000000002, 192.0, 0.0, 0.0, 0.0, 0.0, 0.0, 0.0, 0.0, 0.0, 0.0, 1.6626777172476275E9, 0.0, 2022-09-08 18:55:17.247
84.0, -6112.062169559261, -9967.06753576607, -30250.76153883476, -27273.710343087954, -16947.27145996946, 6717.816796042538, 19843.275230321316, 15105.241847663146, -17763.08778084371, -10383.636997179628, -17042.17696692669, -31203.50464624222, 4898.6083148250955, -11550.308650768835, -9204.068387039708, -11577.756592959953, 0.1975, 0.925, 0.21200000000000002, 192.0, 0.0, 0.0, 0.0, 0.0, 0.0, 0.0, 0.0, 0.0, 0.0, 1.6626777172476315E9, 0.0, 2022-09-08 18:55:17.247
86.0, -6123.618021442655, -9976.321157970568, -30268.41941695445, -27287.45666592797, -16957.12857927425, 6720.588412354996, 19791.57564539619, 15121.290400182057, -17770.016821624857, -10393.605875206695, -17055.230385688592, -31212.69121321335, 4876.68125351444, -11561.149246829658, -9220.698084914457, -11588.507782042954, 0.1975, 0.925, 0.21200000000000002, 192.0, 0.0, 0.0, 0.0, 0.0, 0.0, 0.0, 0.0, 0.0, 0.0, 1.6626777172476356E9, 0.0, 2022-09-08 18:55:17.247
88.0, -6121.315791763758, -9971.649643379407, -30263.122053518542, -27278.694782101487, -16950.087779770827, 6718.889679776393, 19824.00802660084, 15139.596478890953, -17767.58048147923, -10386.453316980997, -17054.38101939929, -31209.539617245155, 4878.044709926214, -11551.314479269324, -9230.152872819051, -11587.412546564645, 0.1975, 0.925, 0.21200000000000002, 192.0, 0.0, 0.0, 0.0, 0.0, 0.0, 0.0, 0.0, 0.0, 0.0, 1.6626777172476397E9, 0.0, 2022-09-08 18:55:17.247
90.0, -6127.30605927778, -9978.73514637174, -30265.826614597634, -27285.579119393722, -16943.49401515651, 6721.191909455289, 19892.672585567547, 15145.676153382798, -17779.382202551627, -10390.901314127603, -17064.79693231546, -31212.668861468897, 4868.276997599244, -11563.898511397661, -9219.200518035952, -11584.10448838526, 0.19375, 0.9245000000000001, 0.21600000000000003, 192.0, 2.5, 120.0, 14.0, 112.0, 3.0, 112.0, 0.0, 0.0, 0.0, 1.6626777172476437E9, 0.0, 2022-09-08 18:55:17.247
92.0, -6128.982440111929, -9980.903265583906, -30253.66726561395, -27282.047543769782, -16935.559145874875, 6730.33377293751, 19891.42088787805, 15152.649897652853, -17779.22574034044, -10395.48342174094, -17067.367382927823, -31214.50170451423, 4865.080698142136, -11549.99572634646, -9211.958552832431, -11586.362014575245, 0.19375, 0.9245000000000001, 0.21600000000000003, 192.0, 0.0, 0.0, 0.0, 0.0, 0.0, 0.0, 0.0, 0.0, 0.0, 1.6626777172476475E9, 0.0, 2022-09-08 18:55:17.247
94.0, -6123.729780164931, -9977.237579493234, -30252.12499524653, -27284.081552515217, -16944.522195401456, 6726.086941491001, 19877.138123171106, 15142.591612647966, -17765.926452389533, -10392.890619384125, -17062.47235089211, -31205.672765454387, 4893.892096745026, -11551.068610080316, -9209.76808187581, -11579.678842983109, 0.19375, 0.9245000000000001, 0.21600000000000003, 192.0, 0.0, 0.0, 0.0, 0.0, 0.0, 0.0, 0.0, 0.0, 0.0, 1.662677717247653E9, 0.0, 2022-09-08 18:55:17.247
96.0, -6122.321620264247, -9971.627291634954, -30259.94810580589, -27283.388648437103, -16942.10820700028, 6718.66616233184, 19835.653285462056, 15132.578031131987, -17776.90115891709, -10385.62630243615, -17065.892167793772, -31206.969166632793, 4876.234218625334, -11557.260043294436, -9223.290887271272, -11597.694349014086, 0.19375, 0.9245000000000001, 0.21600000000000003, 192.0, 0.0, 0.0, 0.0, 0.0, 0.0, 0.0, 0.0, 0.0, 0.0, 1.6626777172476573E9, 0.0, 2022-09-08 18:55:17.247
98.0, -6111.995114325895, -9961.88193105244, -30263.770254107745, -27278.35950593466, -16957.217986252068, 6713.033522729102, 19845.21983208893, 15135.707275355731, -17766.172321578542, -10380.820677378259, -17054.31396416592, -31187.523148956676, 4884.213791395878, -11540.317420997313, -9219.379331991593, -11580.081174383304, 0.19375, 0.9245000000000001, 0.21600000000000003, 192.0, 0.0, 0.0, 0.0, 0.0, 0.0, 0.0, 0.0, 0.0, 0.0, 1.662677717247661E9, 0.0, 2022-09-08 18:55:17.247
100.0, -6116.711332405965, -9969.660338122885, -30264.485509930317, -27279.499444901878, -16955.921585073662, 6705.970371481225, 19828.36661676963, 15114.60722858992, -17772.31905130375, -10389.202581549, -17059.544272368465, -31193.513416470698, 4875.697776758406, -11557.170636316614, -9229.884651885588, -11591.324101844324, 0.19287500000000002, 0.92425, 0.21800000000000003, 192.0, 3.0, 0.0, 14.0, 112.0, 3.0, 112.0, 0.0, 0.0, 0.0, 1.6626777172476652E9, 0.0, 2022-09-08 18:55:17.247
102.0, -6119.706466162976, -9968.945082300315, -30266.81009135367, -27281.242880969392, -16961.576576420855, 6704.4057493693535, 19844.124596610618, 15110.829783776973, -17777.549359506294, -10395.639883952128, -17069.80372307345, -31197.112047328003, 4863.471372541353, -11556.209511305036, -9231.337515275183, -11596.979093191516, 0.19287500000000002, 0.92425, 0.21800000000000003, 192.0, 0.0, 0.0, 0.0, 0.0, 0.0, 0.0, 0.0, 0.0, 0.0, 1.6626777172476692E9, 0.0, 2022-09-08 18:55:17.247
104.0, -6124.199166798493, -9973.437782935833, -30263.50203317428, -27280.59468038019, -16948.746675103506, 6695.576810309507, 19818.35303525365, 15119.926943770284, -17781.595025252704, -10392.48828798393, -17072.776505086007, -31197.044992094638, 4871.965035434369, -11561.350412529757, -9235.137311832585, -11603.215229894548, 0.19287500000000002, 0.92425, 0.21800000000000003, 192.0, 0.0, 0.0, 0.0, 0.0, 0.0, 0.0, 0.0, 0.0, 0.0, 1.6626777172476733E9, 0.0, 2022-09-08 18:55:17.247
106.0, -6125.182643554526, -9973.124858513458, -30260.305733717174, -27284.48388391541, -16954.803997850897, 6700.293028389577, 19844.92925941101, 15130.678132853287, -17773.10136235969, -10388.375567004154, -17069.155522484245, -31188.6630879239, 4874.088451157624, -11556.947118872062, -9223.8273291382, -11588.798354720873, 0.19287500000000002, 0.92425, 0.21800000000000003, 192.0, 0.0, 0.0, 0.0, 0.0, 0.0, 0.0, 0.0, 0.0, 0.0, 1.662677717247678E9, 0.0, 2022-09-08 18:55:17.247
108.0, -6128.982440111929, -9977.17052425987, -30258.629352883025, -27290.49650317389, -16957.93324207464, 6693.676912030806, 19777.270528944795, 15122.89972578284, -17773.861321671167, -10397.383320019642, -17071.18953122968, -31199.481332240266, 4872.859105212582, -11564.412601520135, -9239.54060549028, -11596.017968179938, 0.19287500000000002, 0.92425, 0.21800000000000003, 192.0, 0.0, 0.0, 0.0, 0.0, 0.0, 0.0, 0.0, 0.0, 0.0, 1.662677717247682E9, 0.0, 2022-09-08 18:55:17.247
110.0, -6126.099065077194, -9974.488314925233, -30259.903402316977, -27296.710288132464, -16950.221890237557, 6698.080205688501, 19860.8884049521, 15128.554717130033, -17783.47257178695, -10403.328884044753, -17076.50924641004, -31207.259739310713, 4872.210904623378, -11563.943214886573, -9238.467721756426, -11603.952837461573, 0.1944375, 0.925125, 0.22000000000000003, 192.0, 3.0, 16.0, 14.0, 120.0, 3.0, 120.0, 0.0, 0.0, 0.0, 1.662677717247686E9, 0.0, 2022-09-08 18:55:17.247
112.0, -6112.598611426189, -9959.892625795917, -30247.83346031111, -27275.610241366656, -16938.509576142977, 6713.525261107119, 19806.439555458972, 15144.111531270926, -17763.0430773548, -10380.77597388935, -17061.46652239162, -31189.624212935476, 4884.01262569578, -11554.62253744871, -9218.217041279917, -11589.737127987997, 0.1944375, 0.925125, 0.22000000000000003, 192.0, 0.0, 0.0, 0.0, 0.0, 0.0, 0.0, 0.0, 0.0, 0.0, 1.6626777172476902E9, 0.0, 2022-09-08 18:55:17.247
114.0, -6112.6656666595545, -9961.948986285804, -30262.47385292934, -27289.088343273204, -16951.74180886052, 6692.872249230415, 19839.542488997282, 15117.937638513762, -17760.919661631546, -10382.541761701317, -17060.28187993549, -31180.951736086816, 4886.381910608043, -11547.581737945287, -9225.660172183534, -11589.066575654339, 0.1944375, 0.925125, 0.22000000000000003, 192.0, 0.0, 0.0, 0.0, 0.0, 0.0, 0.0, 0.0, 0.0, 0.0, 1.6626777172476945E9, 0.0, 2022-09-08 18:55:17.247
116.0, -6109.581125924722, -9959.937329284827, -30254.89661155899, -27281.466398413944, -16937.3472854313, 6692.827545741505, 19876.22170164844, 15120.798661804041, -17763.266594799352, -10384.374604746652, -17068.194397472667, -31184.50566345521, 4873.954340690892, -11553.661412437132, -9219.424035480504, -11602.768195005441, 0.1944375, 0.925125, 0.22000000000000003, 192.0, 0.0, 0.0, 0.0, 0.0, 0.0, 0.0, 0.0, 0.0, 0.0, 1.6626777172476983E9, 0.0, 2022-09-08 18:55:17.247
118.0, -6118.365361495657, -9973.549541658109, -30268.441768698904, -27289.982413051417, -16959.296698486414, 6694.526278320108, 19854.62991650461, 15151.599365663455, -17754.16943480604, -10377.982005832435, -17059.790141557474, -31177.12958778496, 4875.854238969593, -11547.00059258945, -9218.328800002195, -11581.042299394883, 0.1944375, 0.925125, 0.22000000000000003, 192.0, 0.0, 0.0, 0.0, 0.0, 0.0, 0.0, 0.0, 0.0, 0.0, 1.6626777172477024E9, 0.0, 2022-09-08 18:55:17.247
0.0, -3063.395984577654, -4983.03085363279, -15121.513917626611, -13651.931423179081, -8470.461782272076, 3315.7248277336157, 9912.372817083933, 7574.134477869807, -8882.024452927644, -5195.6182951472165, -8532.018486501991, -15593.359243078143, 2442.91155849833, -5774.863752706498, -4610.091997395993, -5792.812203504111, 0.19021875, 0.9265625, 0.22400000000000003, 192.0, 2.5, 104.0, 14.5, 0.0, 3.5, 16.0, 0.0, 0.0, 0.0, 1.6626777178133297E9, 0.0, 2022-09-08 18:55:17.813
2.0, -6117.292477761803, -9953.477675137243, -30233.84126828209, -27295.279776487325, -16922.237506179514, 6633.058981068013, 19828.83600340319, 15153.14163603087, -17734.432844452007, -10353.708011353972, -17176.756820292096, -31106.00633692817, 4792.571639129119, -11558.198816561558, -9226.688352428479, -11577.734241215498, 0.19021875, 0.9265625, 0.22400000000000003, 192.0, 0.0, 0.0, 0.0, 0.0, 0.0, 0.0, 0.0, 0.0, 0.0, 1.6626777178134644E9, 0.0, 2022-09-08 18:55:17.813
4.0, -6121.248736530392, -9958.909149039882, -30243.832498053613, -27304.376936480636, -16921.231677679025, 6625.9287745867705, 19825.907924879542, 15154.482740698188, -17729.828385094213, -10357.798380589293, -17174.231073168645, -31105.089915405504, 4788.347159427066, -11551.314479269324, -9229.437616996482, -11575.856694681252, 0.19021875, 0.9265625, 0.22400000000000003, 192.0, 0.0, 0.0, 0.0, 0.0, 0.0, 0.0, 0.0, 0.0, 0.0, 1.6626777178135004E9, 0.0, 2022-09-08 18:55:17.813
6.0, -6119.7735213963415, -9957.791561817117, -30236.50112587227, -27300.39832596759, -16925.81378529236, 6620.385541961854, 19815.223791029908, 15129.89582179735, -17731.728283372915, -10363.252206236388, -17177.226206925658, -31110.230816630225, 4791.52110713972, -11559.696383440065, -9243.206291580951, -11585.691462241586, 0.19021875, 0.9265625, 0.22400000000000003, 192.0, 0.0, 0.0, 0.0, 0.0, 0.0, 0.0, 0.0, 0.0, 0.0, 1.6626777178135123E9, 0.0, 2022-09-08 18:55:17.813
8.0, -6117.895974862096, -9955.534035627132, -30232.41075663695, -27297.78317186632, -16924.40562539168, 6619.066789038991, 19849.891346680088, 15130.029932264082, -17727.302637970763, -10352.411610175564, -17179.48373311564, -31105.089915405504, 4796.080863008602, -11565.463133509533, -9232.656268198047, -11582.495162784477, 0.188, 0.926, 0.23600000000000002, 192.0, 2.5, 112.0, 14.0, 120.0, 3.5, 48.0, 0.0, 0.0, 0.0, 1.6626777178135183E9, 0.0, 2022-09-08 18:55:17.813
10.0, -6131.128207579638, -9968.475695666755, -30241.32910267462, -27303.952253335985, -16929.323009171847, 6618.552698916519, 19819.425918987505, 15123.65968509432, -17738.277344498318, -10359.407706190075, -17191.151343721314, -31109.24733987419, 4787.676607093407, -11570.425220778612, -9230.890480386077, -11586.496125041976, 0.188, 0.926, 0.23600000000000002, 192.0, 0.0, 0.0, 0.0, 0.0, 0.0, 0.0, 0.0, 0.0, 0.0, 1.6626777178135245E9, 0.0, 2022-09-08 18:55:17.813
12.0, -6128.714219178465, -9964.54178864262, -30244.458346898362, -27302.052355057283, -16929.859451038774, 6624.721780386184, 19832.43463426049, 15148.89480458436, -17739.61844916564, -10376.015052320368, -17199.242675214133, -31112.6448050314, 4783.474479135809, -11569.374688789212, -9229.459968740937, -11584.707985485553, 0.188, 0.926, 0.23600000000000002, 192.0, 0.0, 0.0, 0.0, 0.0, 0.0, 0.0, 0.0, 0.0, 0.0, 1.662677717813531E9, 0.0, 2022-09-08 18:55:17.813
14.0, -6131.083504090728, -9970.017966034171, -30243.430166653416, -27300.152456778582, -16920.96345674556, 6620.7655216175945, 19791.374479696093, 15140.892880069361, -17747.75448414737, -10379.144296544111, -17201.857829315406, -31116.265787633158, 4787.631903604496, -11585.758517474953, -9233.39387576507, -11580.036470894394, 0.188, 0.926, 0.23600000000000002, 192.0, 0.0, 0.0, 0.0, 0.0, 0.0, 0.0, 0.0, 0.0, 0.0, 1.662677717813538E9, 0.0, 2022-09-08 18:55:17.813
16.0, -6116.5995736836885, -9957.344526928011, -30244.704216087368, -27292.709325874966, -16916.515459598955, 6633.528367701575, 19854.965192671443, 15143.396275448356, -17743.217080022943, -10381.088898311722, -17194.951140278714, -31109.336746852012, 4785.597894859064, -11564.032621864393, -9223.357942504637, -11571.341642301279, 0.188, 0.926, 0.23600000000000002, 192.0, 0.0, 0.0, 0.0, 0.0, 0.0, 0.0, 0.0, 0.0, 0.0, 1.6626777178135445E9, 0.0, 2022-09-08 18:55:17.813
18.0, -6110.832823614219, -9947.420352389856, -30246.447652154882, -27283.63451762611, -16909.854639751273, 6632.902518856826, 19803.66793914651, 15147.196072005758, -17734.924582830023, -10361.687584124516, -17189.273797187067, -31097.78089496862, 4775.114926709524, -11557.95294737255, -9229.236451296383, -11564.412601520135, 0.196, 0.926, 0.23600000000000002, 192.0, 3.0, 16.0, 14.0, 120.0, 3.5, 48.0, 0.0, 0.0, 0.0, 1.6626777178135517E9, 0.0, 2022-09-08 18:55:17.813
20.0, -6097.242962985392, -9937.853805762983, -30228.521553101727, -27277.599546623176, -16911.48631709651, 6639.049248582036, 19864.26351836485, 15141.4740254252, -17723.79341409128, -10347.270708950844, -17174.83457026894, -31081.933508149807, 4792.5939908735745, -11553.013211847927, -9222.82150063771, -11564.81493292033, 0.196, 0.926, 0.23600000000000002, 192.0, 0.0, 0.0, 0.0, 0.0, 0.0, 0.0, 0.0, 0.0, 0.0, 1.6626777178135583E9, 0.0, 2022-09-08 18:55:17.813
22.0, -6110.609306169666, -9948.58264310153, -30234.623579338026, -27291.658793885566, -16929.12184347175, 6619.6479343948295, 19815.96139859693, 15129.493490397155, -17724.016931535833, -10346.555453128274, -17179.1037534599, -31081.262955816146, 4786.827240804105, -11560.769267173919, -9221.323933759206, -11570.179351589602, 0.196, 0.926, 0.23600000000000002, 192.0, 0.0, 0.0, 0.0, 0.0, 0.0, 0.0, 0.0, 0.0, 0.0, 1.6626777178135653E9, 0.0, 2022-09-08 18:55:17.813
24.0, -6105.848384600686, -9939.954869741783, -30235.294131671686, -27287.993107794897, -16910.480488596022, 6640.010373593614, 19850.941878669488, 15156.136769787881, -17732.22002175093, -10355.339688699209, -17186.50218087461, -31091.05301988757, 4781.999264001759, -11568.391212033179, -9226.710704172934, -11580.572912761321, 0.196, 0.926, 0.23600000000000002, 192.0, 0.0, 0.0, 0.0, 0.0, 0.0, 0.0, 0.0, 0.0, 0.0, 1.662677717813572E9, 0.0, 2022-09-08 18:55:17.813
26.0, -6112.866832359652, -9945.63221283343, -30239.36214916255, -27282.27106121434, -16927.82544229334, 6624.9900013196475, 19796.604787898636, 15129.962877030717, -17724.03928328029, -10348.455351406974, -17185.362241907387, -31086.895595418882, 4780.479345378798, -11559.606976462243, -9222.061541326231, -11562.847979408263, 0.196, 0.926, 0.23600000000000002, 192.0, 0.0, 0.0, 0.0, 0.0, 0.0, 0.0, 0.0, 0.0, 0.0, 1.6626777178135781E9, 0.0, 2022-09-08 18:55:17.813
28.0, -6109.357608480169, -9944.849901777496, -30238.40102415097, -27280.080590257716, -16931.20055570609, 6616.541041915541, 19849.399608302072, 15122.5197461271, -17723.905172813556, -10344.208519960466, -17184.557579106997, -31086.448560529778, 4783.765051813728, -11551.85092113625, -9228.454140240448, -11566.67012771012, 0.194, 0.928, 0.23800000000000002, 192.0, 3.0, 8.0, 14.5, 0.0, 3.5, 56.0, 0.0, 0.0, 0.0, 1.6626777178135846E9, 0.0, 2022-09-08 18:55:17.813
30.0, -6116.465463216957, -9951.622480347452, -30247.386425422006, -27276.750180333875, -16941.68352385563, 6615.69167562624, 19831.138233082085, 15155.510920943132, -17726.721492614925, -10351.919871797547, -17188.826762297962, -31085.643897729387, 4781.865153535027, -11557.416505505624, -9228.16356756253, -11568.033584121893, 0.194, 0.928, 0.23800000000000002, 192.0, 0.0, 0.0, 0.0, 0.0, 0.0, 0.0, 0.0, 0.0, 0.0, 1.6626777178135922E9, 0.0, 2022-09-08 18:55:17.813
32.0, -6099.858117086664, -9938.68082030783, -30239.540963118194, -27262.020380737828, -16928.406587649177, 6624.542966430541, 19826.31025627974, 15148.157197017337, -17725.84977458117, -10350.623470619139, -17185.138724462835, -31085.375676795924, 4781.306359923645, -11557.103581083249, -9234.802035665756, -11568.167694588625, 0.194, 0.928, 0.23800000000000002, 192.0, 0.0, 0.0, 0.0, 0.0, 0.0, 0.0, 0.0, 0.0, 0.0, 1.6626777178135989E9, 0.0, 2022-09-08 18:55:17.813
34.0, -6101.06511128725, -9936.535052840121, -30229.080346713108, -27268.211813951948, -16918.236543922012, 6616.049303537525, 19820.78937539928, 15094.445955091234, -17711.723472085414, -10342.487435637408, -17174.812218524483, -31073.19397606778, 4796.147918241968, -11550.845092635762, -9223.268535526817, -11559.584624717787, 0.194, 0.928, 0.23800000000000002, 192.0, 0.0, 0.0, 0.0, 0.0, 0.0, 0.0, 0.0, 0.0, 0.0, 1.6626777178136053E9, 0.0, 2022-09-08 18:55:17.813
36.0, -6111.995114325895, -9950.862521035973, -30227.9851112348, -27278.270098956837, -16920.71758755655, 6617.88214658286, 19823.538639967283, 15154.862720353929, -17726.8332513372, -10355.339688699209, -17189.296148931524, -31093.15408386637, 4783.541534369175, -11559.942252629073, -9219.602849436147, -11577.287206326391, 0.194, 0.928, 0.23800000000000002, 192.0, 0.0, 0.0, 0.0, 0.0, 0.0, 0.0, 0.0, 0.0, 0.0, 1.6626777178136115E9, 0.0, 2022-09-08 18:55:17.813
38.0, -6111.168099781049, -9948.962622757272, -30242.446689897384, -27285.288546715805, -16927.11018647077, 6624.922946086282, 19830.311218537237, 15168.34082226048, -17735.349265974673, -10353.730363098426, -17201.83547757095, -31094.025801900127, 4772.410365630432, -11566.781886432396, -9223.603811693647, -11559.875197395706, 0.196, 0.922, 0.246, 192.0, 3.0, 16.0, 14.0, 104.0, 3.5, 88.0, 0.0, 0.0, 0.0, 1.6626777178136208E9, 0.0, 2022-09-08 18:55:17.813
40.0, -6100.774538609331, -9939.105503452482, -30241.418509652438, -27282.24870946988, -16913.185049675114, 6624.766483875094, 19818.01775908682, 15165.636261181387, -17731.12478627262, -10354.2444532209, -17198.817992069482, -31096.685659490307, 4781.70869132384, -11569.486447511488, -9234.153835076551, -11573.263892324436, 0.196, 0.922, 0.246, 192.0, 0.0, 0.0, 0.0, 0.0, 0.0, 0.0, 0.0, 0.0, 0.0, 1.662677717813627E9, 0.0, 2022-09-08 18:55:17.813
42.0, -6105.356646222669, -9939.641945319408, -30247.162907977454, -27282.338116447703, -16930.10532022778, 6644.033687595569, 19838.559012241247, 15188.367985292434, -17713.243390708376, -10310.18916489949, -17196.225189712666, -31087.633202985908, 4781.485173879287, -11551.962679858529, -9224.766102405323, -11552.253252536448, 0.196, 0.922, 0.246, 192.0, 0.0, 0.0, 0.0, 0.0, 0.0, 0.0, 0.0, 0.0, 0.0, 1.6626777178136327E9, 0.0, 2022-09-08 18:55:17.813
44.0, -6096.974742051929, -9933.450512105288, -30242.066710241645, -27272.8386250542, -16925.38910214771, 6623.246565252133, 19797.63296814358, 15158.595461677965, -17728.397873449074, -10346.130769983623, -17195.621692612374, -31075.473854002223, 4787.497793137764, -11552.879101381195, -9229.348210018661, -11564.166732331125, 0.196, 0.922, 0.246, 192.0, 0.0, 0.0, 0.0, 0.0, 0.0, 0.0, 0.0, 0.0, 0.0, 1.6626777178136399E9, 0.0, 2022-09-08 18:55:17.813
46.0, -6072.387823151091, -9921.425273588333, -30256.438881926406, -27291.5917386522, -16915.82255552084, 6632.321373500989, 19795.509552420324, 15153.23104300869, -17720.70887335645, -10330.976287242924, -17202.662492115796, -31086.11328436295, 4787.408386159943, -11572.950967902061, -9231.06929434172, -11565.731354442996, 0.196, 0.922, 0.246, 192.0, 0.0, 0.0, 0.0, 0.0, 0.0, 0.0, 0.0, 0.0, 0.0, 1.6626777178136458E9, 0.0, 2022-09-08 18:55:17.813
48.0, -6116.465463216957, -9964.653547364896, -30254.47192841434, -27299.325442233738, -16912.44744210809, 6607.175660988768, 19799.488162933372, 15131.572202631498, -17708.16954471702, -10335.42428438953, -17222.376730725377, -31121.719613280253, 4750.282138619678, -11561.663336952131, -9250.984698651399, -11583.948026174072, 0.194, 0.922, 0.248, 192.0, 3.0, 0.0, 14.0, 104.0, 3.5, 104.0, 0.0, 0.0, 0.0, 1.6626777178136525E9, 0.0, 2022-09-08 18:55:17.813
50.0, -6091.543268149289, -9941.899471509394, -30236.478774127816, -27287.523721161335, -16918.68357881112, 6628.521576943586, 19805.25491300284, 15145.743208616163, -17704.03447199279, -10348.768275829349, -17237.240640788157, -31113.4941713207, 4769.884618506982, -11577.66718598213, -9234.667925199023, -11574.314424313836, 0.194, 0.922, 0.248, 192.0, 0.0, 0.0, 0.0, 0.0, 0.0, 0.0, 0.0, 0.0, 0.0, 1.6626777178136587E9, 0.0, 2022-09-08 18:55:17.813
52.0, -6131.26231804637, -9963.468904908766, -30236.456422383362, -27281.980488536417, -16937.79432032041, 6633.617774679396, 19711.310531057185, 15122.5197461271, -17748.67090567004, -10331.37861864312, -17220.901515591326, -31104.464066560755, 4777.975949999804, -11563.205607319547, -9234.332649032194, -11569.017060877928, 0.194, 0.922, 0.248, 192.0, 0.0, 0.0, 0.0, 0.0, 0.0, 0.0, 0.0, 0.0, 0.0, 1.6626777178136652E9, 0.0, 2022-09-08 18:55:17.813
54.0, -6098.740529863898, -9916.4408345748, -30239.585666607105, -27277.130159989618, -16933.43573015162, 6617.993905305137, 19903.580236861737, 15125.336065928468, -17747.17333879153, -10387.906180370592, -17208.630407885365, -31088.326107064022, 4788.302455938156, -11578.516552271432, -9223.000314593353, -11560.81397066283, 0.194, 0.922, 0.248, 192.0, 0.0, 0.0, 0.0, 0.0, 0.0, 0.0, 0.0, 0.0, 0.0, 1.6626777178136716E9, 0.0, 2022-09-08 18:55:17.813
56.0, -6015.793206190254, -9843.954127306239, -30235.338835160597, -27266.803654051266, -16891.570912786832, 6663.03267038258, 19852.908832181554, 15147.441941194767, -17729.64957113857, -10325.053074962269, -17237.486509977163, -31130.906180251382, 4782.356891913044, -11594.922732701629, -9221.145119803563, -11570.022889378417, 0.194, 0.922, 0.248, 192.0, 0.0, 0.0, 0.0, 0.0, 0.0, 0.0, 0.0, 0.0, 0.0, 1.6626777178136785E9, 0.0, 2022-09-08 18:55:17.813
58.0, -6019.011857391818, -9922.72167476674, -30236.32231191663, -27265.44019763949, -16868.839188675785, 6674.9461501772585, 19885.162399430563, 15196.660482485353, -17646.434026531464, -10345.482569394419, -17242.694466435252, -31161.796291088616, 4779.495868622765, -11589.513610543443, -9224.16260530503, -11559.76343867343, 0.192, 0.926, 0.247, 192.0, 2.5, 120.0, 14.5, 8.0, 3.5, 88.0, 0.0, 0.0, 0.0, 1.662677717813685E9, 0.0, 2022-09-08 18:55:17.813
60.0, -6124.489739476412, -9866.61879618392, -30193.295203840164, -27226.369348331613, -16924.763253302965, 6609.88022206786, 19827.49489873587, 15170.173665305814, -17777.079972872732, -10366.895540582604, -17202.88600956035, -31101.2901188481, 4791.051720506158, -11547.358220500735, -9214.193727277961, -11545.458322222034, 0.192, 0.926, 0.247, 192.0, 0.0, 0.0, 0.0, 0.0, 0.0, 0.0, 0.0, 0.0, 0.0, 1.6626777178136916E9, 0.0, 2022-09-08 18:55:17.813
62.0, -6068.230398682404, -9856.314641990024, -30194.569253274116, -27239.355711860146, -16887.4358400626, 6639.228062537678, 19850.204271102462, 15150.370019718412, -17808.28300813234, -10340.498130380885, -17143.34096233141, -31048.741167633674, 4813.805796361661, -11579.254159838458, -9204.895401584554, -11547.134703056181, 0.192, 0.926, 0.247, 192.0, 0.0, 0.0, 0.0, 0.0, 0.0, 0.0, 0.0, 0.0, 0.0, 1.662677717813698E9, 0.0, 2022-09-08 18:55:17.813
64.0, -6026.47734003989, -9882.846162658472, -30235.36118690505, -27312.89295111811, -16871.18612184359, 6756.440610461308, 19807.624197915102, 15120.508089126122, -17692.903303254046, -10291.257237345844, -17210.329140463968, -31157.929439297848, 4804.529822412708, -11633.948878520594, -9213.389064477571, -11563.295014297368, 0.192, 0.926, 0.247, 192.0, 0.0, 0.0, 0.0, 0.0, 0.0, 0.0, 0.0, 0.0, 0.0, 1.6626777178137047E9, 0.0, 2022-09-08 18:55:17.813
66.0, -6030.031267408284, -9875.42538349931, -30241.373806163527, -27268.86001454115, -16872.102543366258, 6661.021013381603, 19825.170317312517, 15090.824972489474, -17775.98473739442, -10313.340760867686, -17238.201765799735, -31155.694264852318, 4795.2985519526665, -11630.149081963193, -9232.365695520128, -11573.889741169185, 0.192, 0.926, 0.247, 192.0, 0.0, 0.0, 0.0, 0.0, 0.0, 0.0, 0.0, 0.0, 0.0, 1.6626777178137114E9, 0.0, 2022-09-08 18:55:17.813
68.0, -6063.760049791343, -9848.066848286015, -30250.470966156838, -27263.92027901653, -16934.665076096666, 6616.764559360095, 19762.00428748182, 15069.970794912673, -17818.654217559604, -10299.66149326104, -17173.851093512905, -31108.465028818257, 4813.112892283546, -11577.890703426685, -9210.081006298185, -11554.443723493066, 0.19, 0.929, 0.2445, 192.0, 2.5, 112.0, 14.5, 16.0, 3.5, 72.0, 0.0, 0.0, 0.0, 1.6626777178137193E9, 0.0, 2022-09-08 18:55:17.813
70.0, -6026.7902644622645, -9844.758790106629, -30297.320222535163, -27294.96685206495, -16911.128689185225, 6649.442809753753, 19765.87113927259, 15068.763800712086, -17817.313112892283, -10232.472149428386, -17176.466247614175, -31164.12087251197, 4822.567680188141, -11593.313407100846, -9218.708779657934, -11561.640985207676, 0.19, 0.929, 0.2445, 192.0, 0.0, 0.0, 0.0, 0.0, 0.0, 0.0, 0.0, 0.0, 0.0, 1.662677717813728E9, 0.0, 2022-09-08 18:55:17.813
72.0, -6022.722246971399, -9871.491476475177, -30318.889655934534, -27326.50516349139, -16895.549523299876, 6728.500929892174, 19820.990541099374, 15064.472265776667, -17793.597912025205, -10263.429315498986, -17192.358337921898, -31218.167390604904, 4838.325660029132, -11612.737073032507, -9204.113090528619, -11551.67210718061, 0.19, 0.929, 0.2445, 192.0, 0.0, 0.0, 0.0, 0.0, 0.0, 0.0, 0.0, 0.0, 0.0, 1.6626777178137343E9, 0.0, 2022-09-08 18:55:17.813
74.0, -6029.181901118983, -9863.355441493446, -30336.368720098584, -27320.000805854896, -16916.20253517658, 6654.851931911938, 19824.54446846777, 15033.872727617352, -17817.067243703277, -10207.326436916166, -17206.238771228644, -31253.81842301112, 4847.154599088979, -11564.792581175874, -9186.790488575756, -11539.937441341574, 0.19, 0.929, 0.2445, 192.0, 0.0, 0.0, 0.0, 0.0, 0.0, 0.0, 0.0, 0.0, 0.0, 1.6626777178137412E9, 0.0, 2022-09-08 18:55:17.813
76.0, -6029.517177285812, -9876.252398044158, -30362.073226222186, -27335.93759965153, -16916.046072965393, 6659.74696394765, 19780.735049335366, 15005.4413086702, -17820.39765362712, -10226.683047614462, -17187.06097448599, -31330.574313470643, 4853.8154189366605, -11584.305654085358, -9175.636968092558, -11537.612859918221, 0.19, 0.929, 0.2445, 192.0, 0.0, 0.0, 0.0, 0.0, 0.0, 0.0, 0.0, 0.0, 0.0, 1.662677717813748E9, 0.0, 2022-09-08 18:55:17.813
78.0, -6022.252860337837, -9860.695583903263, -30382.614479376614, -27329.41089027058, -16899.77400300193, 6690.637074784884, 19782.7690580808, 14996.187686465704, -17840.134243981152, -10219.865765555593, -17181.83066628345, -31388.286517654244, 4860.7444597178055, -11611.463023598555, -9177.62627334908, -11558.020002605916, 0.192, 0.9225000000000001, 0.24225, 192.0, 3.0, 8.0, 14.0, 80.0, 3.5, 64.0, 0.0, 0.0, 0.0, 1.6626777178137543E9, 0.0, 2022-09-08 18:55:17.813
80.0, -6025.71738072841, -9878.889903889883, -30400.853502852144, -27325.924018135553, -16895.281302366413, 6718.956735009759, 19812.809802628733, 14997.953474277672, -17849.56668014129, -10213.048483496725, -17182.63532908384, -31428.1173262736, 4864.767773719761, -11613.072349199338, -9151.832360247656, -11555.069572337816, 0.192, 0.9225000000000001, 0.24225, 192.0, 0.0, 0.0, 0.0, 0.0, 0.0, 0.0, 0.0, 0.0, 0.0, 1.6626777178137608E9, 0.0, 2022-09-08 18:55:17.813
82.0, -6041.855340225142, -9883.181438825302, -30422.02060485132, -27348.36516956868, -16897.87410472323, 6736.547557896085, 19752.10246468812, 14956.423933079712, -17905.289579068372, -10212.601448607618, -17156.461436326677, -31460.84028015617, 4867.181762120934, -11622.325971403834, -9167.43387787746, -11578.5836075048, 0.192, 0.9225000000000001, 0.24225, 192.0, 0.0, 0.0, 0.0, 0.0, 0.0, 0.0, 0.0, 0.0, 0.0, 1.6626777178137674E9, 0.0, 2022-09-08 18:55:17.813
84.0, -6018.676581224988, -9869.613929940931, -30418.64549143857, -27333.434204272537, -16903.05970943686, 6737.531034652118, 19800.471639689404, 14987.895189272786, -17904.44021277907, -10182.247779637311, -17144.05621815398, -31478.922841420514, 4867.829962710138, -11607.998503207982, -9156.95090972792, -11572.213360335036, 0.192, 0.9225000000000001, 0.24225, 192.0, 0.0, 0.0, 0.0, 0.0, 0.0, 0.0, 0.0, 0.0, 0.0, 1.662677717813774E9, 0.0, 2022-09-08 18:55:17.813
86.0, -6018.140139358061, -9861.254377514646, -30417.751421660356, -27323.73354717893, -16888.374613329725, 6768.9799391007355, 19810.127593294095, 15005.620122625844, -17881.999061345945, -10139.712409938862, -17109.902752626273, -31509.365917368643, 4869.3722330775545, -11600.53302055991, -9134.912089694988, -11551.627403691698, 0.192, 0.9225000000000001, 0.24225, 192.0, 0.0, 0.0, 0.0, 0.0, 0.0, 0.0, 0.0, 0.0, 0.0, 1.6626777178137803E9, 0.0, 2022-09-08 18:55:17.813
88.0, -6001.309275783215, -9859.354479235946, -30440.371387049126, -27312.6470819291, -16848.052066332348, 6786.079023609045, 19829.953590625955, 14994.712471331653, -17903.97082614551, -10161.483009038331, -17096.514057697543, -31538.95962702747, 4870.579227278141, -11593.112241400748, -9133.19100537193, -11551.493293224967, 0.192, 0.9192500000000001, 0.24312499999999998, 192.0, 3.0, 0.0, 14.0, 80.0, 3.5, 80.0, 0.0, 0.0, 0.0, 1.6626777178137863E9, 0.0, 2022-09-08 18:55:17.813
90.0, -6033.786360476775, -9872.810229398041, -30443.858259184155, -27298.341965477703, -16901.986825703007, 6818.645515280427, 19774.05187774323, 14985.615311338344, -17907.860029680734, -10171.049555665202, -17081.493685423575, -31535.740975825905, 4876.457736069887, -11614.994599222493, -9124.18325235644, -11559.271700295414, 0.192, 0.9192500000000001, 0.24312499999999998, 192.0, 0.0, 0.0, 0.0, 0.0, 0.0, 0.0, 0.0, 0.0, 0.0, 1.6626777178137925E9, 0.0, 2022-09-08 18:55:17.813
92.0, -6003.611505462111, -9831.906537044828, -30461.493785559393, -27287.724886861433, -16906.233657149514, 6833.799998021126, 19777.874026045087, 14975.042936210983, -17892.459677751027, -10137.276069793234, -17061.13124622479, -31527.113202466157, 4883.677349528951, -11604.86925898424, -9117.857708675589, -11548.14053155667, 0.192, 0.9192500000000001, 0.24312499999999998, 192.0, 0.0, 0.0, 0.0, 0.0, 0.0, 0.0, 0.0, 0.0, 0.0, 1.662677717813799E9, 0.0, 2022-09-08 18:55:17.813
94.0, -6020.867052181608, -9907.254267603668, -30462.946648948986, -27283.276889714827, -16890.453325564067, 6864.533646647174, 19762.920709004487, 14963.19651164967, -17938.951306218067, -10158.219654347857, -17055.476254877598, -31519.781830284817, 4886.851297241605, -11635.759369821475, -9123.870327934066, -11569.642909722676, 0.192, 0.9192500000000001, 0.24312499999999998, 192.0, 0.0, 0.0, 0.0, 0.0, 0.0, 0.0, 0.0, 0.0, 0.0, 1.6626777178138058E9, 0.0, 2022-09-08 18:55:17.813
96.0, -6049.186712406482, -9852.581900665988, -30454.69885524498, -27260.813386537244, -16838.440816216567, 6871.149763005944, 19875.8417219927, 15027.92716359224, -17912.50919252744, -10104.62017114403, -17016.159536380714, -31518.95481573997, 4871.965035434369, -11608.132613674714, -9118.058874375687, -11554.041392092871, 0.192, 0.9192500000000001, 0.24312499999999998, 192.0, 0.0, 0.0, 0.0, 0.0, 0.0, 0.0, 0.0, 0.0, 0.0, 1.662677717813812E9, 0.0, 2022-09-08 18:55:17.813
98.0, -6031.037095908773, -9881.080374846504, -30442.9865411504, -27243.468432839923, -16885.647700506175, 6891.087519060078, 19836.904983151555, 15009.218753483148, -17934.6821230271, -10164.96988117336, -16977.491018473032, -31513.121010437135, 4881.598637294607, -11627.511576117466, -9094.008397341777, -11542.95492684304, 0.19, 0.920625, 0.2465625, 192.0, 2.5, 112.0, 14.0, 104.0, 3.5, 104.0, 0.0, 0.0, 0.0, 1.6626777178138182E9, 0.0, 2022-09-08 18:55:17.813
100.0, -6014.675618967488, -9853.744191377664, -30448.395663308584, -27242.19438340597, -16905.071366437838, 6864.578350136084, 19842.515271009837, 14995.003044009572, -17932.35754160375, -10127.329543510621, -16958.134407774738, -31463.187213323978, 4900.7764340372605, -11591.122936144226, -9084.46420245936, -11531.220261004002, 0.19, 0.920625, 0.2465625, 192.0, 0.0, 0.0, 0.0, 0.0, 0.0, 0.0, 0.0, 0.0, 0.0, 1.6626777178138244E9, 0.0, 2022-09-08 18:55:17.813
102.0, -6033.115808143117, -9854.66061290033, -30435.990445135885, -27253.951400989463, -16898.29878786788, 6880.917475332913, 19825.706759179444, 14988.029299739517, -17901.936817400077, -10121.629848674518, -16951.96532630507, -31509.32121387973, 4889.488803087331, -11630.77493080794, -9094.36602525306, -11556.56713921632, 0.19, 0.920625, 0.2465625, 192.0, 0.0, 0.0, 0.0, 0.0, 0.0, 0.0, 0.0, 0.0, 0.0, 1.6626777178138328E9, 0.0, 2022-09-08 18:55:17.813
104.0, -6036.267404111315, -9881.013319613137, -30444.59586675118, -27250.710398043444, -16887.48054355151, 6871.797963595148, 19859.144968884586, 14984.564779348944, -17973.417696168148, -10152.229386833833, -16884.261892349947, -31441.528372946785, 4893.10978568909, -11627.042189483904, -9078.697452389892, -11554.533130470889, 0.19, 0.920625, 0.2465625, 192.0, 0.0, 0.0, 0.0, 0.0, 0.0, 0.0, 0.0, 0.0, 0.0, 1.6626777178138392E9, 0.0, 2022-09-08 18:55:17.813
106.0, -6046.079819927195, -9886.355386537956, -30428.12263108762, -27246.754139274854, -16901.718604769543, 6870.5239141611955, 19810.10524154964, 14969.700869286165, -17960.74425706199, -10123.060360319658, -16854.846996646764, -31402.479875383364, 4882.202134394901, -11638.083951244826, -9088.554571694682, -11561.372764274212, 0.19, 0.920625, 0.2465625, 192.0, 0.0, 0.0, 0.0, 0.0, 0.0, 0.0, 0.0, 0.0, 0.0, 1.6626777178138466E9, 0.0, 2022-09-08 18:55:17.813
108.0, -6026.902023184541, -9865.52356070561, -30429.106107843654, -27270.15641571956, -16907.91003798366, 6932.929984680412, 19845.64451523358, 14991.78439280801, -17931.26230612544, -10115.483118949309, -16817.117252006203, -31401.54110211624, 4901.223468926367, -11676.84187613033, -9076.46227794436, -11558.779961917397, 0.187, 0.9223125000000001, 0.25428125, 192.0, 2.5, 96.0, 14.0, 112.0, 4.0, 24.0, 0.0, 0.0, 0.0, 1.6626777178138535E9, 0.0, 2022-09-08 18:55:17.813
110.0, -6046.929186216496, -9891.831563929507, -30437.242142825384, -27258.958191747453, -16928.652456838186, 6876.782402608682, 19781.204435968928, 14952.311212099936, -17958.46437912755, -10135.800854659183, -16797.313606418804, -31409.721840586884, 4909.5830213526515, -11685.246132045524, -9061.665423114948, -11564.01027011994, 0.187, 0.9223125000000001, 0.25428125, 192.0, 0.0, 0.0, 0.0, 0.0, 0.0, 0.0, 0.0, 0.0, 0.0, 1.6626777178138607E9, 0.0, 2022-09-08 18:55:17.813
112.0, -6038.7037442569435, -9868.719860162719, -30455.816442467745, -27259.5840405922, -16914.14617468669, 6858.878655299981, 19780.600938868636, 14958.077962169406, -17955.89392851519, -10126.971915599337, -16766.021164181373, -31361.330313841143, 4901.044654970724, -11651.003259539993, -9064.481742916316, -11559.159941573136, 0.187, 0.9223125000000001, 0.25428125, 192.0, 0.0, 0.0, 0.0, 0.0, 0.0, 0.0, 0.0, 0.0, 0.0, 1.6626777178138678E9, 0.0, 2022-09-08 18:55:17.813
114.0, -6034.903947699541, -9865.814133383528, -30465.092416416697, -27265.797825550777, -16895.48246806651, 6889.835821370581, 19828.21015455844, 14958.413238336236, -17961.258347184463, -10122.367456241544, -16724.536326472324, -31348.120432868058, 4904.308009661199, -11675.83604762984, -9056.524521890226, -11564.636118964687, 0.187, 0.9223125000000001, 0.25428125, 192.0, 0.0, 0.0, 0.0, 0.0, 0.0, 0.0, 0.0, 0.0, 0.0, 1.662677717813875E9, 0.0, 2022-09-08 18:55:17.813
116.0, -6032.534662787279, -9871.647938686365, -30472.647306042592, -27266.289563928793, -16924.38327364722, 6893.41210048343, 19812.228657272895, 14969.455000097156, -17937.610201550746, -10105.76011011125, -16685.39842193108, -31357.105834139093, 4909.851242286115, -11680.440506987634, -9028.942469232377, -11559.025831106404, 0.187, 0.9223125000000001, 0.25428125, 192.0, 0.0, 0.0, 0.0, 0.0, 0.0, 0.0, 0.0, 0.0, 0.0, 1.6626777178138824E9, 0.0, 2022-09-08 18:55:17.813
118.0, -6030.523005786301, -9867.401107239855, -30483.8455300147, -27264.59083135019, -16913.05093920838, 6917.46257751734, 19777.114066733608, 14967.041011695983, -17950.350695890273, -10127.106026066069, -16649.792093013777, -31356.97172367236, 4914.7462743218275, -11678.69707092012, -9032.049361711664, -11556.410677005135, 0.187, 0.9223125000000001, 0.25428125, 192.0, 0.0, 0.0, 0.0, 0.0, 0.0, 0.0, 0.0, 0.0, 0.0, 1.662677717813889E9, 0.0, 2022-09-08 18:55:17.813
120.0, -6018.855395180631, -9863.891883360373, -30480.291602646306, -27265.57430810622, -16894.655453521664, 6943.524711552229, 19858.11678863964, 14976.294633900481, -17940.27005914093, -10093.80192682766, -16610.94476115045, -31363.878412709048, 4906.54318410673, -11682.027480843959, -9019.55473656115, -11550.263947279924, 0.188, 0.916, 0.26, 192.0, 2.5, 112.0, 14.0, 80.0, 4.0, 16.0, 0.0, 0.0, 0.0, 1.6626777182947176E9, 0.0, 2022-09-08 18:55:18.294
122.0, -6024.309220827726, -9870.28448227459, -30482.012686969363, -27279.477093157424, -16893.046127920883, 6956.801647758681, 19828.657189447546, 14946.030371907995, -17940.44887309657, -10076.971063252815, -16580.121705546582, -31385.693715297428, 4918.993105768336, -11671.298643505412, -9018.906535971944, -11550.71098216903, 0.188, 0.916, 0.26, 192.0, 0.0, 0.0, 0.0, 0.0, 0.0, 0.0, 0.0, 0.0, 0.0, 1.662677718294824E9, 0.0, 2022-09-08 18:55:18.294
124.0, -6030.075970897195, -9868.518694462622, -30479.71045729047, -27282.87455831463, -16921.857526523774, 6948.062115676656, 19834.28982905028, 14982.374308392324, -17945.008628965454, -10093.690168105384, -16537.832205037143, -31397.137808458545, 4924.02224827078, -11679.07705057586, -9030.507091344249, -11572.123953357215, 0.188, 0.916, 0.26, 192.0, 0.0, 0.0, 0.0, 0.0, 0.0, 0.0, 0.0, 0.0, 0.0, 1.66267771829493E9, 0.0, 2022-09-08 18:55:18.294
126.0, -6025.829139450686, -9865.344746749968, -30487.622974827646, -27281.131122247116, -16903.886723981705, 6964.848275762592, 19828.880706892098, 14971.421953609224, -17949.21075692305, -10097.177040240413, -16526.164594431473, -31420.897712814538, 4926.97267853888, -11687.101326835314, -9034.061018712642, -11576.214322592536, 0.188, 0.916, 0.26, 192.0, 0.0, 0.0, 0.0, 0.0, 0.0, 0.0, 0.0, 0.0, 0.0, 1.6626777182949376E9, 0.0, 2022-09-08 18:55:18.294
128.0, -6031.618241264611, -9877.459392244744, -30486.03600097132, -27272.928032032018, -16900.15398265767, 6975.264188678764, 19833.86514590563, 14999.294578944991, -17943.756931275955, -10057.703859532341, -16508.327902356137, -31416.74028834585, 4909.49361437483, -11672.393878983723, -9028.003695965255, -11563.585586975287, 0.188, 0.916, 0.26, 192.0, 0.0, 0.0, 0.0, 0.0, 0.0, 0.0, 0.0, 0.0, 0.0, 1.6626777182949448E9, 0.0, 2022-09-08 18:55:18.294
130.0, -6033.406380821036, -9877.615854455931, -30484.40432362608, -27287.322555461236, -16894.521343054934, 7013.2845059972415, 19827.204326057952, 14988.386927650801, -17937.587849806292, -10063.247092157257, -16492.704032981877, -31414.34865168913, 4916.713227833895, -11676.59600694132, -9027.35549537605, -11560.322232284812, 0.188, 0.914, 0.256, 192.0, 2.5, 112.0, 14.0, 72.0, 4.0, 0.0, 0.0, 0.0, 0.0, 1.6626777182949522E9, 0.0, 2022-09-08 18:55:18.294
132.0, -6028.444293551957, -9866.19411303927, -30470.568593808246, -27272.279831442815, -16903.149116414683, 7004.790843104225, 19821.839907388676, 14971.44430535368, -17930.59175379178, -10071.114906205525, -16484.858570678065, -31434.018186809804, 4903.190422438433, -11690.74466118153, -9038.754885048256, -11575.81199119234, 0.188, 0.914, 0.256, 192.0, 0.0, 0.0, 0.0, 0.0, 0.0, 0.0, 0.0, 0.0, 0.0, 1.6626777182949595E9, 0.0, 2022-09-08 18:55:18.294
134.0, -6045.76689550482, -9865.590615938976, -30474.9942392104, -27283.388648437103, -16916.068424709847, 6999.739348857325, 19824.00802660084, 14968.359764618846, -17964.253480941472, -10055.960423464827, -16486.132620112017, -31420.674195369986, 4913.963963265892, -11688.196562313624, -9030.328277388606, -11564.278491053403, 0.188, 0.914, 0.256, 192.0, 0.0, 0.0, 0.0, 0.0, 0.0, 0.0, 0.0, 0.0, 0.0, 1.662677718294976E9, 0.0, 2022-09-08 18:55:18.294
136.0, -6077.238151697892, -9919.413616587355, -30482.102093947185, -27289.557729906766, -16912.358035130266, 6997.593581389616, 19780.332717935173, 14964.023526194516, -17960.856015784266, -10093.131374494002, -16481.774029943233, -31421.009471536814, 4910.052407986213, -11682.16159131069, -9047.248547941274, -11569.039412622382, 0.188, 0.914, 0.256, 192.0, 0.0, 0.0, 0.0, 0.0, 0.0, 0.0, 0.0, 0.0, 0.0, 1.6626777182949836E9, 0.0, 2022-09-08 18:55:18.294
138.0, -6064.095325958172, -9907.254267603668, -30468.64634378509, -27273.911508788053, -16887.48054355151, 6980.986235259323, 19872.10898066866, 14957.273299369015, -17972.389515923205, -10094.316016950133, -16477.72836419682, -31434.956960076925, 4924.379876182065, -11692.108117593303, -9036.720876302825, -11559.651679951154, 0.188, 0.914, 0.256, 192.0, 0.0, 0.0, 0.0, 0.0, 0.0, 0.0, 0.0, 0.0, 0.0, 1.6626777182949908E9, 0.0, 2022-09-08 18:55:18.294
140.0, -6045.72219201591, -9892.122136607426, -30481.453893357982, -27278.96300303495, -16884.887741194696, 7015.944363587423, 19839.900116908564, 14977.233407167603, -17940.60533530776, -10068.298586404157, -16473.325070539126, -31430.151335019036, 4918.635477857051, -11696.98079788456, -9026.036742453187, -11553.214377548025, 0.192, 0.914, 0.258, 192.0, 3.0, 0.0, 14.0, 72.0, 4.0, 8.0, 0.0, 0.0, 0.0, 1.662677718294998E9, 0.0, 2022-09-08 18:55:18.294
142.0, -6060.608453823144, -9866.439982228278, -30494.619070842156, -27283.612165881656, -16909.362901373257, 7007.785976861236, 19830.22181155942, 14998.512267889057, -17952.719980802536, -10074.333557407088, -16472.095724594084, -31410.392392920545, 4910.655905086506, -11682.541570966432, -9042.085294972097, -11540.898566353151, 0.192, 0.914, 0.258, 192.0, 0.0, 0.0, 0.0, 0.0, 0.0, 0.0, 0.0, 0.0, 0.0, 1.662677718295005E9, 0.0, 2022-09-08 18:55:18.295
144.0, -6045.431619337991, -9900.81696520054, -30494.596719097703, -27294.78803810931, -16905.406642604667, 7022.716942157382, 19821.996369599863, 14987.58226485041, -17959.380800650215, -10060.877807244993, -16462.238605289294, -31424.339881460655, 4913.986315010347, -11700.378263041766, -9049.059039242155, -11559.405810762146, 0.192, 0.914, 0.258, 192.0, 0.0, 0.0, 0.0, 0.0, 0.0, 0.0, 0.0, 0.0, 0.0, 1.6626777182950125E9, 0.0, 2022-09-08 18:55:18.295
146.0, -6065.011747480839, -9912.194003128292, -30507.51602739287, -27295.346831720693, -16870.13558985419, 7036.865596397591, 19845.01866638883, 14989.705680573665, -17964.789922808402, -10084.771822067718, -16450.43688421689, -31375.568375059174, 4909.761835308294, -11686.631940201753, -9048.41083865295, -11566.603072476753, 0.192, 0.914, 0.258, 192.0, 0.0, 0.0, 0.0, 0.0, 0.0, 0.0, 0.0, 0.0, 0.0, 1.6626777182950194E9, 0.0, 2022-09-08 18:55:18.295
148.0, -6078.6239598541215, -9906.896639692384, -30511.0028995279, -27303.16994228005, -16911.4416136076, 7005.14847101551, 19780.06449700171, 14957.943851702674, -17974.22235896854, -10094.42777567241, -16461.031611088707, -31386.02899146426, 4886.247800141311, -11707.50846952301, -9066.783972595213, -11589.804183221362, 0.192, 0.914, 0.258, 192.0, 0.0, 0.0, 0.0, 0.0, 0.0, 0.0, 0.0, 0.0, 0.0, 1.6626777182950268E9, 0.0, 2022-09-08 18:55:18.295
150.0, -6067.895122515574, -9900.638151244897, -30499.111771477674, -27296.956157321474, -16896.44359307809, 6996.1407180000215, 19792.58147389668, 14964.604671550354, -17985.018251540452, -10058.955557221838, -16460.584576199602, -31388.06300020969, 4918.724884834872, -11704.69214972164, -9057.619757368537, -11590.29592159938, 0.19, 0.924, 0.248, 192.0, 2.5, 120.0, 14.0, 112.0, 3.5, 96.0, 0.0, 0.0, 0.0, 1.6626777182950337E9, 0.0, 2022-09-08 18:55:18.295
152.0, -6080.523858132823, -9902.068662890037, -30489.433466128525, -27289.557729906766, -16890.185104630604, 7007.182479760943, 19785.093639504154, 14954.948717945663, -17994.6965568896, -10072.165438194925, -16453.186148784895, -31390.11936069958, 4915.528585377763, -11696.64552171773, -9065.487571416805, -11588.86540995424, 0.19, 0.924, 0.248, 192.0, 0.0, 0.0, 0.0, 0.0, 0.0, 0.0, 0.0, 0.0, 0.0, 1.6626777182950408E9, 0.0, 2022-09-08 18:55:18.295
154.0, -6064.587064336189, -9911.769319983641, -30482.03503871382, -27285.02032578234, -16919.06355846686, 7012.569250174672, 19831.294695293273, 14955.127531901306, -17992.28256848843, -10080.882618532494, -16448.559337682647, -31388.755904287806, 4902.184593937945, -11713.275219592479, -9059.005565524765, -11577.063688881837, 0.19, 0.924, 0.248, 192.0, 0.0, 0.0, 0.0, 0.0, 0.0, 0.0, 0.0, 0.0, 0.0, 1.662677718295048E9, 0.0, 2022-09-08 18:55:18.295
156.0, -6068.453916126957, -9896.72659596522, -30475.21775665495, -27282.785151336808, -16887.413488318147, 7044.308727301208, 19821.7281486664, 14990.935026518706, -17963.426466396628, -10066.510446847731, -16435.125939265006, -31378.809378005193, 4912.01936149828, -11714.482213793066, -9049.617832853537, -11559.76343867343, 0.19, 0.924, 0.248, 192.0, 0.0, 0.0, 0.0, 0.0, 0.0, 0.0, 0.0, 0.0, 0.0, 1.662677718295055E9, 0.0, 2022-09-08 18:55:18.295
158.0, -6067.805715537753, -9924.95684921227, -30465.07006467224, -27269.843491297186, -16899.259912879457, 7053.1376663610545, 19814.553238696248, 14996.25474169907, -17977.88804505921, -10073.864170773528, -16441.11620677903, -31384.084389696647, 4910.119463219579, -11679.322919764867, -9046.868568285534, -11547.179406545092, 0.19, 0.924, 0.248, 192.0, 0.0, 0.0, 0.0, 0.0, 0.0, 0.0, 0.0, 0.0, 0.0, 1.6626777182950616E9, 0.0, 2022-09-08 18:55:18.295
160.0, -6083.295474445281, -9912.506927550665, -30453.804785466767, -27276.25844195586, -16897.851752978775, 7051.282471571264, 19810.842849116667, 14996.29944518798, -17984.83943758481, -10089.152763980957, -16443.284325991193, -31368.773444744762, 4906.833756784649, -11692.93513213815, -9044.722800817824, -11549.347525757257, 0.192, 0.932, 0.25, 192.0, 3.0, 0.0, 14.5, 16.0, 3.5, 104.0, 0.0, 0.0, 0.0, 1.6626777182950685E9, 0.0, 2022-09-08 18:55:18.295
162.0, -6063.514180602334, -9914.742101996197, -30442.293637072282, -27268.6364970966, -16890.207456375058, 7065.16290487801, 19928.345969718215, 15026.92133509175, -17997.289359246417, -10081.039080743682, -16422.608962370035, -31356.703502738896, 4914.858033044104, -11692.912780393694, -9015.687884770381, -11542.507891953934, 0.192, 0.932, 0.25, 192.0, 0.0, 0.0, 0.0, 0.0, 0.0, 0.0, 0.0, 0.0, 0.0, 1.6626777182950752E9, 0.0, 2022-09-08 18:55:18.295
164.0, -6064.6317678251, -9894.15614535286, -30437.15273584756, -27262.892098771586, -16877.601072502264, 7029.556575960705, 19882.480190095925, 15025.222602513148, -17953.055256969365, -10065.504618347242, -16412.64008434297, -31323.91349362296, 4908.554841107708, -11681.759259910496, -9014.30207661415, -11549.660450179632, 0.192, 0.932, 0.25, 192.0, 0.0, 0.0, 0.0, 0.0, 0.0, 0.0, 0.0, 0.0, 0.0, 1.662677718295082E9, 0.0, 2022-09-08 18:55:18.295
166.0, -6060.451991611957, -9902.091014634492, -30446.495765029882, -27284.10390425967, -16876.930520168607, 7020.481767711851, 19875.104114425674, 14997.998177766583, -17963.359411163263, -10067.762144537228, -16412.885953531975, -31322.170057555446, 4909.426559141464, -11687.54836172442, -9026.729646531301, -11564.278491053403, 0.192, 0.932, 0.25, 192.0, 0.0, 0.0, 0.0, 0.0, 0.0, 0.0, 0.0, 0.0, 0.0, 1.6626777182950933E9, 0.0, 2022-09-08 18:55:18.295
168.0, -6068.275102171315, -9920.732369510219, -30461.516137303846, -27294.810389853763, -16880.81972370383, 7031.411770750496, 19822.264590533327, 15017.488898931611, -17992.819010355357, -10042.169397135902, -16437.025837543708, -31346.73462471183, 4891.142832177024, -11718.12554813928, -9058.379716680016, -11583.255122095958, 0.192, 0.932, 0.25, 192.0, 0.0, 0.0, 0.0, 0.0, 0.0, 0.0, 0.0, 0.0, 0.0, 1.6626777182951E9, 0.0, 2022-09-08 18:55:18.295
170.0, -6065.101154458661, -9904.370892568933, -30438.27032307033, -27272.436293654002, -16929.501823127488, 7031.836453895146, 19859.144968884586, 15051.754123181598, -17977.37395493674, -10105.849517089071, -16435.304753220647, -31321.946540110894, 4901.625800326562, -11689.001225114016, -9049.12609447552, -11572.168656846126, 0.184, 0.918, 0.252, 192.0, 2.5, 96.0, 14.0, 88.0, 3.5, 112.0, 0.0, 0.0, 0.0, 1.662677718295107E9, 0.0, 2022-09-08 18:55:18.295
172.0, -6068.811544038242, -9903.655636746364, -30452.64249475509, -27291.770552607843, -16897.87410472323, 7039.927785387968, 19848.527890268313, 15033.448044472701, -17997.624635413245, -10057.167417665412, -16424.330046693092, -31292.688106618894, 4899.278867158755, -11706.45793753361, -9049.662536342446, -11567.452438766055, 0.184, 0.918, 0.252, 192.0, 0.0, 0.0, 0.0, 0.0, 0.0, 0.0, 0.0, 0.0, 0.0, 1.662677718295114E9, 0.0, 2022-09-08 18:55:18.295
174.0, -6079.026291254318, -9907.254267603668, -30461.493785559393, -27291.435276441014, -16886.63117726221, 7067.711003745914, 19862.810654975256, 15027.837756614419, -17983.431277684125, -10066.912778247926, -16445.832424859098, -31316.135086552513, 4871.473297056353, -11721.701827252129, -9077.982196567322, -11580.729374972509, 0.184, 0.918, 0.252, 192.0, 0.0, 0.0, 0.0, 0.0, 0.0, 0.0, 0.0, 0.0, 0.0, 1.6626777182951214E9, 0.0, 2022-09-08 18:55:18.295
176.0, -6074.421831896524, -9906.181383869814, -30436.012796880343, -27268.01064825185, -16931.982866762028, 7054.3670123060965, 19854.384047315605, 15026.787224625019, -17989.645062642703, -10073.394784139966, -16427.928677550397, -31276.23722269979, 4901.514041604286, -11673.846742373318, -9047.852045041567, -11541.926746598096, 0.184, 0.918, 0.252, 192.0, 0.0, 0.0, 0.0, 0.0, 0.0, 0.0, 0.0, 0.0, 0.0, 1.6626777182951288E9, 0.0, 2022-09-08 18:55:18.295
178.0, -6083.362529678647, -9915.949096196782, -30424.278131041305, -27269.30704943026, -16916.44840436559, 7043.705230200914, 19863.235338119906, 15033.671561917254, -18014.343740265816, -10071.89721726146, -16426.855793816543, -31276.527795377708, 4902.631628827051, -11685.849629145818, -9043.828731039612, -11546.66531642262, 0.184, 0.918, 0.252, 192.0, 0.0, 0.0, 0.0, 0.0, 0.0, 0.0, 0.0, 0.0, 0.0, 1.662677718295136E9, 0.0, 2022-09-08 18:55:18.295
180.0, -6069.727965560909, -9921.089997421503, -30396.003174305344, -27256.76772079083, -16902.076232680825, 7055.708116973415, 19851.433617047504, 15040.645306187309, -17980.32438520484, -10055.133408919979, -16427.883974061486, -31278.025362256216, 4901.06700671518, -11690.007053614505, -9031.132940188998, -11529.163900514115, 0.188, 0.914, 0.256, 192.0, 2.5, 112.0, 14.0, 72.0, 4.0, 0.0, 0.0, 0.0, 0.0, 1.6626777182951434E9, 0.0, 2022-09-08 18:55:18.295
182.0, -6065.972872492418, -9902.269828590135, -30382.525072398792, -27245.524793329812, -16902.21034314756, 7060.983128664867, 19861.514253796846, 15031.16816653826, -17978.08921075931, -10065.772839280706, -16440.15508176745, -31277.04188550018, 4910.9911812533355, -11663.229663757047, -9036.609117580547, -11530.482653436979, 0.188, 0.914, 0.256, 192.0, 0.0, 0.0, 0.0, 0.0, 0.0, 0.0, 0.0, 0.0, 0.0, 1.6626777182951505E9, 0.0, 2022-09-08 18:55:18.295
184.0, -6069.750317305365, -9904.862630946951, -30387.218938734408, -27258.958191747453, -16906.188953660603, 7045.158093590509, 19872.6901260245, 15020.104053032883, -17978.782114837424, -10061.883635745482, -16421.401968169448, -31252.56672532162, 4918.6801813459615, -11664.369602724268, -9024.44976859686, -11518.926801553584, 0.188, 0.914, 0.256, 192.0, 0.0, 0.0, 0.0, 0.0, 0.0, 0.0, 0.0, 0.0, 0.0, 1.662677718295158E9, 0.0, 2022-09-08 18:55:18.295
186.0, -6079.719195332432, -9912.953962439771, -30384.49202591086, -27267.11657847364, -16882.49610453798, 7068.023928168289, 19831.741730182377, 15010.269285472546, -18003.927827349642, -10066.577502081098, -16433.181337497394, -31262.692065559873, 4897.580134580152, -11677.624187186264, -9056.390411423494, -11551.493293224967, 0.188, 0.914, 0.256, 192.0, 0.0, 0.0, 0.0, 0.0, 0.0, 0.0, 0.0, 0.0, 0.0, 1.6626777182951648E9, 0.0, 2022-09-08 18:55:18.295
188.0, -6088.279913458814, -9924.710980023263, -30371.840938549154, -27261.662752826545, -16920.762291045463, 7063.531227532772, 19866.74456199939, 14995.785355065509, -17997.401117968693, -10080.480287132297, -16436.176471254406, -31265.50838536124, 4903.145718949523, -11686.78840241294, -9046.510940374248, -11549.839264135273, 0.188, 0.914, 0.256, 192.0, 0.0, 0.0, 0.0, 0.0, 0.0, 0.0, 0.0, 0.0, 0.0, 1.6626777182951722E9, 0.0, 2022-09-08 18:55:18.295
190.0, -6081.06029999975, -9914.116253151447, -30368.756397814323, -27275.140854733094, -16900.668072780143, 7038.497273742828, 19799.59992165565, 14974.573549577422, -17986.381707952227, -10091.030310515203, -16442.278497490704, -31272.4821296313, 4887.991236208825, -11703.865135176795, -9057.79857132418, -11567.497142254966, 0.192, 0.916, 0.255, 192.0, 3.0, 16.0, 14.0, 88.0, 3.5, 120.0, 0.0, 0.0, 0.0, 1.6626777182951791E9, 0.0, 2022-09-08 18:55:18.295
192.0, -6075.405308652557, -9930.947116726295, -30356.328827897174, -27274.224433210427, -16893.873142465727, 7031.568232961683, 19828.053692347254, 14992.410241652757, -17961.504216373472, -10069.952615493848, -16453.29790750717, -31271.163376708435, 4899.994122981325, -11673.444410973121, -9064.191170238397, -11558.936424128584, 0.192, 0.916, 0.255, 192.0, 0.0, 0.0, 0.0, 0.0, 0.0, 0.0, 0.0, 0.0, 0.0, 1.6626777182951863E9, 0.0, 2022-09-08 18:55:18.295
194.0, -6092.213820482948, -9928.220203902747, -30356.418234874993, -27273.419770410037, -16909.00527346197, 7024.840357880636, 19866.699858510477, 14971.600767564865, -18011.795641397912, -10104.307246721655, -16453.990811585285, -31261.99916148176, 4903.682160816451, -11692.286931548946, -9053.149408477475, -11567.452438766055, 0.192, 0.916, 0.255, 192.0, 0.0, 0.0, 0.0, 0.0, 0.0, 0.0, 0.0, 0.0, 0.0, 1.6626777182951934E9, 0.0, 2022-09-08 18:55:18.295
196.0, -6075.695881330476, -9910.897601949884, -30346.002321958822, -27253.39260737808, -16898.455250079067, 7081.323216119196, 19886.30233839778, 15033.291582261514, -17997.736394135525, -10087.968121524826, -16431.30379096315, -31240.832059482585, 4899.949419492415, -11699.595951985832, -9046.689754329891, -11550.28629902438, 0.192, 0.916, 0.255, 192.0, 0.0, 0.0, 0.0, 0.0, 0.0, 0.0, 0.0, 0.0, 0.0, 1.6626777182952E9, 0.0, 2022-09-08 18:55:18.295
198.0, -6068.968006249429, -9922.520509066642, -30358.38518838706, -27247.91642998653, -16904.24435189299, 7036.1726923194765, 19821.415224244025, 15026.608410669376, -17973.529454890428, -10064.275272402201, -16439.97626781181, -31232.18193437838, 4886.717186774872, -11666.35890798079, -9057.239777712795, -11533.90247033864, 0.192, 0.916, 0.255, 192.0, 0.0, 0.0, 0.0, 0.0, 0.0, 0.0, 0.0, 0.0, 0.0, 1.6626777182952092E9, 0.0, 2022-09-08 18:55:18.295
200.0, -6086.648236113577, -9906.29314259209, -30351.925534239475, -27256.074816712717, -16912.223924663536, 7052.333003560663, 19889.811562277268, 15017.488898931611, -17976.144608991697, -10076.814601041628, -16456.40479998646, -31242.307274616633, 4870.512172044775, -11696.913742651193, -9072.528370920227, -11540.652697164143, 0.192, 0.919, 0.2555, 192.0, 3.0, 0.0, 14.0, 104.0, 4.0, 0.0, 0.0, 0.0, 0.0, 1.662677718295216E9, 0.0, 2022-09-08 18:55:18.295
202.0, -6071.761974306342, -9924.241593389701, -30337.173382898975, -27246.038883452286, -16924.763253302965, 7054.724640217381, 19850.271326335827, 15004.167259236248, -17995.680033645636, -10086.939941279881, -16453.901404607466, -31233.925370445893, 4920.535376135752, -11670.605739427298, -9059.072620758132, -11545.346563499757, 0.192, 0.919, 0.2555, 192.0, 0.0, 0.0, 0.0, 0.0, 0.0, 0.0, 0.0, 0.0, 0.0, 1.6626777182952228E9, 0.0, 2022-09-08 18:55:18.295
204.0, -6107.9718003239395, -9938.077323207537, -30345.7117492809, -27267.384799407104, -16918.527116599933, 7073.455402070928, 19866.342230599195, 15016.393663453302, -17980.994937538497, -10084.61535985653, -16457.500035464767, -31219.799067950138, 4897.513079346786, -11688.733004180553, -9059.720821347335, -11540.652697164143, 0.192, 0.919, 0.2555, 192.0, 0.0, 0.0, 0.0, 0.0, 0.0, 0.0, 0.0, 0.0, 0.0, 1.6626777182952297E9, 0.0, 2022-09-08 18:55:18.295
206.0, -6092.303227460769, -9935.998610973193, -30336.30166486522, -27255.448967867967, -16891.414450575645, 7038.161997575999, 19849.578422257713, 15005.6424743703, -18020.356359524296, -10082.067260988624, -16471.805151916167, -31224.381175563478, 4882.15743090599, -11689.761184425495, -9062.648899870981, -11537.121121540204, 0.192, 0.919, 0.2555, 192.0, 0.0, 0.0, 0.0, 0.0, 0.0, 0.0, 0.0, 0.0, 0.0, 1.6626777182952366E9, 0.0, 2022-09-08 18:55:18.295
208.0, -6096.505355418367, -9937.138549940413, -30345.041196947244, -27259.651095825568, -16905.16077341566, 7054.702288472926, 19860.39666657408, 15012.504459918078, -18003.436088971626, -10100.753319353262, -16476.342556040592, -31215.46282952581, 4892.7298060333505, -11673.891445862228, -9047.27089968573, -11528.470996436, 0.192, 0.919, 0.2555, 192.0, 0.0, 0.0, 0.0, 0.0, 0.0, 0.0, 0.0, 0.0, 0.0, 1.6626777182952435E9, 0.0, 2022-09-08 18:55:18.295
210.0, -6107.167137523549, -9937.809102274074, -30348.14808942653, -27256.92418300202, -16895.169543644137, 7039.1678260764875, 19810.64168341657, 14999.004006267072, -18007.817030884868, -10091.14206923748, -16486.512599767757, -31221.453097039834, 4892.148660677512, -11691.661082704197, -9060.346670192084, -11535.109464539226, 0.195, 0.9205000000000001, 0.25675000000000003, 192.0, 3.0, 24.0, 14.0, 104.0, 4.0, 8.0, 0.0, 0.0, 0.0, 1.6626777182952504E9, 0.0, 2022-09-08 18:55:18.295
212.0, -6107.703579390476, -9924.241593389701, -30336.748699754324, -27252.92322074452, -16890.363918586245, 7071.0190619253, 19840.347151797672, 15018.964114065662, -18018.456461245594, -10107.145918267479, -16480.5893874871, -31208.533788744666, 4887.63360829754, -11678.898236620216, -9063.878245816022, -11541.077380308794, 0.195, 0.9205000000000001, 0.25675000000000003, 192.0, 0.0, 0.0, 0.0, 0.0, 0.0, 0.0, 0.0, 0.0, 0.0, 1.6626777182952576E9, 0.0, 2022-09-08 18:55:18.295
214.0, -6112.978591081928, -9946.816855289562, -30339.654426533514, -27259.651095825568, -16903.909075726162, 7061.564274020705, 19788.133476750074, 15001.35093943488, -17994.048356300398, -10054.284042630678, -16484.679756722424, -31209.338451545056, 4891.455756599397, -11691.92930363766, -9066.60515863957, -11539.870386108207, 0.195, 0.9205000000000001, 0.25675000000000003, 192.0, 0.0, 0.0, 0.0, 0.0, 0.0, 0.0, 0.0, 0.0, 0.0, 1.662677718295265E9, 0.0, 2022-09-08 18:55:18.295
216.0, -6107.122434034638, -9936.803273773585, -30338.402728844016, -27262.668581327034, -16922.863355024263, 7048.15322734752, 19851.92535542552, 15003.519058647045, -18017.115356578273, -10108.598781657074, -16485.12679161153, -31211.953605646326, 4894.942628734426, -11679.144105809226, -9076.998719811287, -11549.951022857551, 0.195, 0.9205000000000001, 0.25675000000000003, 192.0, 0.0, 0.0, 0.0, 0.0, 0.0, 0.0, 0.0, 0.0, 0.0, 1.662677718295272E9, 0.0, 2022-09-08 18:55:18.295
218.0, -6096.125375762627, -9923.77220675614, -30336.43577533195, -27262.847395282675, -16913.609732819765, 7023.476901468862, 19849.421960046526, 14959.039087180983, -18004.486620961026, -10098.272275718722, -16485.59617824509, -31203.772867175685, 4881.017491938769, -11682.899198877716, -9071.634301142014, -11552.163845558625, 0.195, 0.9205000000000001, 0.25675000000000003, 192.0, 0.0, 0.0, 0.0, 0.0, 0.0, 0.0, 0.0, 0.0, 0.0, 1.6626777182952793E9, 0.0, 2022-09-08 18:55:18.295
220.0, -6108.955277079974, -9929.270735892145, -30343.588333557647, -27258.041770224783, -16917.074253210336, 7042.788808678247, 19840.905945409053, 14989.996253251584, -17988.639234142214, -10070.109077705036, -16481.170532842938, -31198.98959386225, 4890.628742054551, -11695.706748450608, -9082.9442838364, -11561.775095674408, 0.1955, 0.9212500000000001, 0.254375, 192.0, 3.0, 16.0, 14.0, 104.0, 3.5, 112.0, 0.0, 0.0, 0.0, 1.662677718295286E9, 0.0, 2022-09-08 18:55:18.295
222.0, -6089.352797192669, -9932.958773727272, -30343.990664957844, -27239.981560704895, -16920.203497434082, 7042.744105189337, 19838.06727386323, 15034.967963095662, -17999.345719736306, -10067.89625500396, -16482.668099721446, -31185.399733233422, 4882.448003583909, -11674.606701684797, -9080.440888457404, -11529.409769703123, 0.1955, 0.9212500000000001, 0.254375, 192.0, 0.0, 0.0, 0.0, 0.0, 0.0, 0.0, 0.0, 0.0, 0.0, 1.662677718295293E9, 0.0, 2022-09-08 18:55:18.295
224.0, -6101.892125832096, -9939.731352297229, -30339.654426533514, -27240.6297612941, -16903.4396890926, 7047.125047102577, 19829.573610970212, 15026.206079269181, -18001.446783715106, -10086.962293024337, -16487.049041634684, -31179.901204097416, 4878.514096559775, -11679.345271509323, -9101.56328696767, -11533.164862771615, 0.1955, 0.9212500000000001, 0.254375, 192.0, 0.0, 0.0, 0.0, 0.0, 0.0, 0.0, 0.0, 0.0, 0.0, 1.6626777182953005E9, 0.0, 2022-09-08 18:55:18.295
226.0, -6106.653047401077, -9932.48938709371, -30339.989702700343, -27257.170052191028, -16937.123767986748, 7032.462302739895, 19850.53954726929, 15006.044805770494, -18000.105679047785, -10092.684339604895, -16489.999471902785, -31176.74960812922, 4884.034977440236, -11688.621245458275, -9087.36992923855, -11527.532223168877, 0.1955, 0.9212500000000001, 0.254375, 192.0, 0.0, 0.0, 0.0, 0.0, 0.0, 0.0, 0.0, 0.0, 0.0, 1.6626777182953076E9, 0.0, 2022-09-08 18:55:18.295
228.0, -6080.434451155002, -9934.232823161225, -30330.7584322403, -27252.29737189977, -16919.53294510042, 7053.294128572242, 19828.232506302895, 15017.39949195379, -17994.383632467227, -10083.810697056138, -16500.080108652128, -31182.829282621064, 4878.558800048685, -11695.684396706152, -9090.968560095855, -11533.14251102716, 0.1955, 0.9212500000000001, 0.254375, 192.0, 0.0, 0.0, 0.0, 0.0, 0.0, 0.0, 0.0, 0.0, 0.0, 1.6626777182953146E9, 0.0, 2022-09-08 18:55:18.295
230.0, -6101.601553154177, -9939.284317408123, -30330.981949684854, -27252.4314823665, -16904.937255971105, 7050.366050048596, 19827.941933624978, 15009.285808716513, -17995.03183305643, -10084.011862756237, -16506.27154186625, -31172.6592388939, 4874.468430813365, -11683.994434356027, -9085.805307126679, -11521.184327743571, 0.19475, 0.9196250000000001, 0.2541875, 192.0, 3.0, 8.0, 14.0, 88.0, 3.5, 120.0, 0.0, 0.0, 0.0, 1.6626777182953231E9, 0.0, 2022-09-08 18:55:18.295
232.0, -6088.34696869218, -9923.459282333766, -30312.295891320216, -27231.644360023067, -16881.266758592934, 7045.403962779518, 19856.619221761135, 15017.377140209335, -17971.98718452301, -10065.839894514073, -16498.51548654026, -31161.997456788715, 4879.028186682247, -11685.26848378998, -9080.038557057209, -11520.75964459892, 0.19475, 0.9196250000000001, 0.2541875, 192.0, 0.0, 0.0, 0.0, 0.0, 0.0, 0.0, 0.0, 0.0, 0.0, 1.66267771829533E9, 0.0, 2022-09-08 18:55:18.295
234.0, -6098.114681019149, -9920.620610787942, -30319.783725712747, -27240.652113038555, -16916.761328787965, 7022.716942157382, 19876.31110862626, 15006.894172059796, -17999.85980985878, -10083.2295517003, -16494.469820793845, -31146.820622303563, 4901.514041604286, -11681.64750118822, -9062.26892021524, -11509.807289815819, 0.19475, 0.9196250000000001, 0.2541875, 192.0, 0.0, 0.0, 0.0, 0.0, 0.0, 0.0, 0.0, 0.0, 0.0, 1.662677718295337E9, 0.0, 2022-09-08 18:55:18.295
236.0, -6107.077730545728, -9935.35041038399, -30328.120926394575, -27251.090377699184, -16896.06361342235, 7022.2028520349095, 19836.234430817894, 15001.574456879433, -18007.884086118233, -10070.80198178315, -16503.25405636478, -31160.432834676845, 4875.407204080487, -11686.564884968388, -9094.343673508605, -11541.636173920177, 0.19475, 0.9196250000000001, 0.2541875, 192.0, 0.0, 0.0, 0.0, 0.0, 0.0, 0.0, 0.0, 0.0, 0.0, 1.6626777182953439E9, 0.0, 2022-09-08 18:55:18.295
238.0, -6096.483003673912, -9936.535052840121, -30324.164667625984, -27255.426616123514, -16935.11211098577, 7004.634380893038, 19863.481207308916, 14985.39179389379, -17967.36037342076, -10089.398633169965, -16505.332768599124, -31150.933343283337, 4902.944553249426, -11685.424946001167, -9092.868458374556, -11547.38057224519, 0.19475, 0.9196250000000001, 0.2541875, 192.0, 0.0, 0.0, 0.0, 0.0, 0.0, 0.0, 0.0, 0.0, 0.0, 1.6626777182953506E9, 0.0, 2022-09-08 18:55:18.295
240.0, -6106.295419489792, -9936.088017951015, -30325.662234504493, -27255.605430079155, -16932.854584795783, 6997.615933134071, 19836.480300006904, 14991.06913698544, -17994.070708044852, -10085.017691256726, -16509.914876212464, -31145.144241469414, 4882.8726867285595, -11692.55515248241, -9107.41944401496, -11559.226996806503, 0.19737500000000002, 0.9198125000000001, 0.25309375, 192.0, 3.0, 32.0, 14.0, 96.0, 3.5, 112.0, 0.0, 0.0, 0.0, 1.662677718773698E9, 0.0, 2022-09-08 18:55:18.773
242.0, -6103.434396199513, -9944.022887232648, -30333.127717152565, -27264.277906927815, -16920.851698023285, 7013.642133908526, 19857.893271195087, 14995.047747498484, -18004.911304105677, -10059.84962700005, -16509.534896556725, -31145.904200780893, 4877.038881425725, -11699.4618415191, -9103.530240479737, -11548.721676912508, 0.19737500000000002, 0.9198125000000001, 0.25309375, 192.0, 0.0, 0.0, 0.0, 0.0, 0.0, 0.0, 0.0, 0.0, 0.0, 1.6626777187738168E9, 0.0, 2022-09-08 18:55:18.773
244.0, -6098.360550208158, -9916.507889808165, -30341.129641667565, -27262.5344708603, -16930.842927794805, 7011.317552485175, 19802.43859320147, 14986.174104949727, -18008.532286707436, -10097.579371640608, -16518.9002774835, -31152.02857876165, 4855.29063407071, -11720.561888284908, -9118.66237147598, -11562.691517197076, 0.19737500000000002, 0.9198125000000001, 0.25309375, 192.0, 0.0, 0.0, 0.0, 0.0, 0.0, 0.0, 0.0, 0.0, 0.0, 1.662677718773834E9, 0.0, 2022-09-08 18:55:18.773
246.0, -6087.877582058619, -9908.707130993263, -30327.6068362721, -27248.475223597914, -16913.274456652936, 7029.1318928160545, 19906.26244619637, 14994.734823076109, -17976.301071202884, -10069.237359671279, -16507.36677734456, -31139.221029188757, 4869.752212733294, -11681.669852932675, -9112.649752217503, -11545.860653622229, 0.19737500000000002, 0.9198125000000001, 0.25309375, 192.0, 0.0, 0.0, 0.0, 0.0, 0.0, 0.0, 0.0, 0.0, 0.0, 1.6626777187738385E9, 0.0, 2022-09-08 18:55:18.773
248.0, -6090.895067560085, -9939.127855196935, -30321.68362399145, -27243.49078458438, -16902.076232680825, 7018.693628155426, 19883.41896336305, 15009.01758778305, -17966.823931553834, -10069.483228860287, -16499.5436667852, -31128.06750870556, 4881.218657638867, -11683.256826789002, -9091.639112429513, -11528.918031325107, 0.19737500000000002, 0.9198125000000001, 0.25309375, 192.0, 0.0, 0.0, 0.0, 0.0, 0.0, 0.0, 0.0, 0.0, 0.0, 1.6626777187738433E9, 0.0, 2022-09-08 18:55:18.773
250.0, -6099.500489175379, -9945.11812271096, -30330.89254270703, -27267.183633707005, -16913.3415118863, 7012.681008896949, 19900.361585660172, 14965.76696226203, -17983.36422245076, -10091.432641915399, -16511.367739602058, -31140.182154200334, 4870.735689489328, -11697.651350218219, -9093.449603730394, -11533.298973238347, 0.19968750000000002, 0.9159062500000001, 0.254546875, 192.0, 3.0, 40.0, 14.0, 64.0, 4.0, 0.0, 0.0, 0.0, 0.0, 1.6626777187738476E9, 0.0, 2022-09-08 18:55:18.773
252.0, -6103.613210155155, -9949.54376811311, -30321.19188561343, -27252.49853759987, -16918.370654388746, 7008.344770472619, 19859.435541562503, 14996.5900178659, -17981.12904800523, -10099.747490852773, -16512.68649252492, -31153.74966308471, 4882.716224517372, -11710.235382346556, -9101.093900334108, -11546.017115833416, 0.19968750000000002, 0.9159062500000001, 0.254546875, 192.0, 0.0, 0.0, 0.0, 0.0, 0.0, 0.0, 0.0, 0.0, 0.0, 1.662677718773852E9, 0.0, 2022-09-08 18:55:18.773
254.0, -6091.9455995494845, -9934.948078983794, -30326.779821727258, -27253.50436610036, -16932.675770840142, 7007.785976861236, 19858.295602595284, 15010.470451172645, -17973.194178723596, -10102.966142054336, -16515.97219895985, -31140.897410022906, 4873.7755267352495, -11697.830164173862, -9095.818888642656, -11527.71103712452, 0.19968750000000002, 0.9159062500000001, 0.254546875, 192.0, 0.0, 0.0, 0.0, 0.0, 0.0, 0.0, 0.0, 0.0, 0.0, 1.6626777187738564E9, 0.0, 2022-09-08 18:55:18.773
0.0, -6108.329428235224, -9949.096733224003, -30316.72153672237, -27248.6316858091, -16919.73411080052, 7007.830680350146, 19812.92156135101, 14991.091488729893, -17980.52555090494, -10086.448202901865, -16518.766167016765, -31140.025691989147, 4871.8979802010035, -11703.306341565412, -9114.460243518382, -11528.09101678026, 0.19968750000000002, 0.9159062500000001, 0.254546875, 192.0, 0.0, 0.0, 0.0, 0.0, 0.0, 0.0, 0.0, 0.0, 0.0, 1.6626777187738607E9, 0.0, 2022-09-08 18:55:18.773
2.0, -6101.6909601319985, -9947.576814601043, -30313.592292498626, -27256.320685901726, -16917.074253210336, 7021.845224123625, 19850.427788547015, 15010.649265128288, -17975.429353169126, -10113.1361857815, -16518.050911194197, -31143.467860635265, 4877.798840737205, -11710.347141068834, -9097.13764156552, -11527.643981891153, 0.19968750000000002, 0.9159062500000001, 0.254546875, 192.0, 0.0, 0.0, 0.0, 0.0, 0.0, 0.0, 0.0, 0.0, 0.0, 1.6626777187738655E9, 0.0, 2022-09-08 18:55:18.773
4.0, -6106.8542131011745, -9963.73712584223, -30326.37749032706, -27268.01064825185, -16915.844907265295, 6997.5488779007055, 19849.019628646332, 14982.150790947771, -17974.825856068834, -10106.788290356195, -16529.80792877769, -31154.755491585198, 4875.854238969593, -11709.207202101614, -9090.722690906847, -11535.489444194967, 0.19968750000000002, 0.9159062500000001, 0.254546875, 192.0, 0.0, 0.0, 0.0, 0.0, 0.0, 0.0, 0.0, 0.0, 0.0, 1.66267771877387E9, 0.0, 2022-09-08 18:55:18.773
6.0, -6104.6860938890095, -9945.743971555707, -30332.658330519003, -27272.928032032018, -16919.890573011708, 7007.741273372326, 19846.82915768971, 14979.043898468484, -17973.574158379335, -10114.343179982088, -16531.953696245397, -31147.53587812613, 4875.96599769187, -11710.45889979111, -9094.298970019696, -11546.173578044603, 0.20400000000000001, 0.914, 0.248, 192.0, 3.0, 48.0, 14.0, 72.0, 3.5, 96.0, 0.0, 0.0, 0.0, 1.6626777187738798E9, 0.0, 2022-09-08 18:55:18.773
8.0, -6115.996076583395, -9958.842093806517, -30340.749662011825, -27270.268174441837, -16927.02077949295, 6991.066872008667, 19819.023587587308, 14969.477351841611, -17978.111562503764, -10119.305267251166, -16533.94300150192, -31147.91585778187, 4887.879477486548, -11711.397673058233, -9111.621571972559, -11554.019040348416, 0.20400000000000001, 0.914, 0.248, 192.0, 0.0, 0.0, 0.0, 0.0, 0.0, 0.0, 0.0, 0.0, 0.0, 1.6626777187738843E9, 0.0, 2022-09-08 18:55:18.773
10.0, -6116.912498106062, -9963.357146186489, -30347.790461515244, -27276.861939056154, -16929.233602194025, 7005.461395437885, 19851.21009960295, 14979.781506035508, -17985.331175962827, -10113.717331137339, -16544.537728373736, -31155.895430552417, 4871.4285935674425, -11697.047853117927, -9122.70803722239, -11553.482598481489, 0.20400000000000001, 0.914, 0.248, 192.0, 0.0, 0.0, 0.0, 0.0, 0.0, 0.0, 0.0, 0.0, 0.0, 1.6626777187738888E9, 0.0, 2022-09-08 18:55:18.773
12.0, -6123.3498005091915, -9961.144323485414, -30356.664104064002, -27277.331325689713, -16897.04709017838, 7005.14847101551, 19853.378218815116, 14965.699907028666, -17991.299091732395, -10115.416063715944, -16571.94096707594, -31170.826395848562, 4865.863009198071, -11709.497774779533, -9114.057912118187, -11541.367952986713, 0.20400000000000001, 0.914, 0.248, 192.0, 0.0, 0.0, 0.0, 0.0, 0.0, 0.0, 0.0, 0.0, 0.0, 1.6626777187738934E9, 0.0, 2022-09-08 18:55:18.773
14.0, -6125.473216232445, -9961.88193105244, -30361.045045977244, -27288.283680472814, -16905.808974004864, 7006.131947771543, 19813.413299729025, 14968.002136707562, -17979.162094493164, -10098.451089674365, -16570.935138575453, -31172.6592388939, 4854.620081737052, -11725.725141254085, -9133.347467583117, -11545.368915244213, 0.20400000000000001, 0.914, 0.248, 192.0, 0.0, 0.0, 0.0, 0.0, 0.0, 0.0, 0.0, 0.0, 0.0, 1.6626777187738976E9, 0.0, 2022-09-08 18:55:18.773
16.0, -6124.7579604098755, -9973.057803280093, -30353.467804606895, -27279.722962346434, -16943.851643067796, 7004.366159959574, 19829.41714875903, 14976.361689133846, -17998.98809182502, -10152.274090322744, -16569.683440885954, -31162.198622488813, 4870.109840644579, -11698.03132987396, -9123.691513978423, -11539.602165174743, 0.198, 0.918, 0.246, 192.0, 3.0, 24.0, 14.0, 88.0, 3.5, 88.0, 0.0, 0.0, 0.0, 1.6626777187739024E9, 0.0, 2022-09-08 18:55:18.773
18.0, -6102.249753743381, -9956.629271105441, -30349.176269671476, -27272.793921565288, -16930.239430694513, 7007.540107672228, 19812.78745088428, 14978.798029279475, -17982.492504417005, -10107.28002873421, -16556.51826340178, -31150.128680482947, 4884.2808466292445, -11705.40740554421, -9127.871290191566, -11537.657563407132, 0.198, 0.918, 0.246, 192.0, 0.0, 0.0, 0.0, 0.0, 0.0, 0.0, 0.0, 0.0, 0.0, 1.6626777187739067E9, 0.0, 2022-09-08 18:55:18.773
20.0, -6095.343064706692, -9965.25704446519, -30351.366740628095, -27276.34784893368, -16929.613581849764, 7022.515776457283, 19835.653285462056, 14957.899148213763, -17975.876388058234, -10095.2324384728, -16569.884606586053, -31161.5057184107, 4856.274110826745, -11709.810699201906, -9145.707982266902, -11547.984069345483, 0.198, 0.918, 0.246, 192.0, 0.0, 0.0, 0.0, 0.0, 0.0, 0.0, 0.0, 0.0, 0.0, 1.6626777187739112E9, 0.0, 2022-09-08 18:55:18.773
22.0, -6120.488777218911, -9961.569006630065, -30339.72148176688, -27263.49559587188, -16906.3901193607, 6988.876401052046, 19852.953535670465, 14961.96716570463, -17941.097073685774, -10106.520069422731, -16564.766057105786, -31144.607799602487, 4869.215770866367, -11701.920533409184, -9137.259022862796, -11546.017115833416, 0.198, 0.918, 0.246, 192.0, 0.0, 0.0, 0.0, 0.0, 0.0, 0.0, 0.0, 0.0, 0.0, 1.6626777187739155E9, 0.0, 2022-09-08 18:55:18.773
24.0, -6119.550003951789, -9966.866370065973, -30333.597103786124, -27258.958191747453, -16916.336645643314, 7003.740311114826, 19861.670716008033, 14982.888398514797, -17998.22813251354, -10129.452959233877, -16569.48227518586, -31145.837145547528, 4858.464581783364, -11706.435585789155, -9131.447569304415, -11546.844130378262, 0.198, 0.918, 0.246, 192.0, 0.0, 0.0, 0.0, 0.0, 0.0, 0.0, 0.0, 0.0, 0.0, 1.66267771877392E9, 0.0, 2022-09-08 18:55:18.773
26.0, -6107.234192756915, -9950.795465802606, -30314.28519657674, -27243.110804928638, -16922.95276200208, 6997.0794912671445, 19867.59392828869, 14997.752308577576, -17989.13097252023, -10112.756206125761, -16550.013905765285, -31128.20161917229, 4881.419823338964, -11686.855457646307, -9099.842202644611, -11530.862633092718, 0.196, 0.92, 0.248, 192.0, 3.0, 16.0, 14.0, 96.0, 3.5, 96.0, 0.0, 0.0, 0.0, 1.6626777187739244E9, 0.0, 2022-09-08 18:55:18.773
28.0, -6103.188527010504, -9936.11036969547, -30335.541705553736, -27261.72980805991, -16931.35701791728, 6993.167935987465, 19879.17213191654, 14979.043898468484, -17967.293318187396, -10088.146935480469, -16554.193681978428, -31132.560209341078, 4875.429555824942, -11695.773803683973, -9090.096842062097, -11529.94621157005, 0.196, 0.92, 0.248, 192.0, 0.0, 0.0, 0.0, 0.0, 0.0, 0.0, 0.0, 0.0, 0.0, 1.6626777187739289E9, 0.0, 2022-09-08 18:55:18.773
30.0, -6114.140881793604, -9967.179294488347, -30343.63303704656, -27263.048560982774, -16923.6456660802, 6988.965808029868, 19820.431747487994, 14974.126514688316, -17953.815216280844, -10122.47921496382, -16570.823379853176, -31134.325997153046, 4868.791087721716, -11716.851498705328, -9109.967542882865, -11551.515644969422, 0.196, 0.92, 0.248, 192.0, 0.0, 0.0, 0.0, 0.0, 0.0, 0.0, 0.0, 0.0, 0.0, 1.6626777187739332E9, 0.0, 2022-09-08 18:55:18.773
32.0, -6113.000942826384, -9957.143361227914, -30350.562077827704, -27275.565537877745, -16918.705930555574, 7000.454604679895, 19882.547245329293, 14977.948662990173, -17977.932748548123, -10115.28195324921, -16564.52018791678, -31118.67977603433, 4865.572436520152, -11713.834013203861, -9106.413615514472, -11547.961717601029, 0.196, 0.92, 0.248, 192.0, 0.0, 0.0, 0.0, 0.0, 0.0, 0.0, 0.0, 0.0, 0.0, 1.6626777187739377E9, 0.0, 2022-09-08 18:55:18.773
34.0, -6105.82603285623, -9948.694401823808, -30344.10242368012, -27273.665639599043, -16905.183125160114, 6998.554706401194, 19811.15577353904, 14986.889360772297, -17984.124181762243, -10107.414139200942, -16566.442437939935, -31128.87217150595, 4869.528695288742, -11704.111004365803, -9117.99181914232, -11554.443723493066, 0.196, 0.92, 0.248, 192.0, 0.0, 0.0, 0.0, 0.0, 0.0, 0.0, 0.0, 0.0, 0.0, 1.6626777187739422E9, 0.0, 2022-09-08 18:55:18.773
36.0, -6108.038855557305, -9954.97524201575, -30345.510583580803, -27284.77445659333, -16885.982976673007, 6986.864744051069, 19891.17501868904, 14991.404413152268, -17948.83077726731, -10099.14399375248, -16559.692211114434, -31123.373642369945, 4865.572436520152, -11691.102289092814, -9107.307685292684, -11539.602165174743, 0.194, 0.916, 0.246, 192.0, 3.0, 8.0, 14.0, 80.0, 3.5, 88.0, 0.0, 0.0, 0.0, 1.6626777187739465E9, 0.0, 2022-09-08 18:55:18.773
38.0, -6110.87752710313, -9963.871236308962, -30338.53683931075, -27280.460569913455, -16916.82838402133, 6989.166973729965, 19842.872898921123, 14976.24993041157, -17966.533358875913, -10118.277087006223, -16567.51532167379, -31128.26867440566, 4874.982520935836, -11710.257734091012, -9119.243516831817, -11555.13662757118, 0.194, 0.916, 0.246, 192.0, 0.0, 0.0, 0.0, 0.0, 0.0, 0.0, 0.0, 0.0, 0.0, 1.6626777187739525E9, 0.0, 2022-09-08 18:55:18.773
40.0, -6101.288628731803, -9939.507834852677, -30349.310380138206, -27281.913433303052, -16932.608715606777, 6989.882229552535, 19836.055616862253, 14972.830113509908, -17954.59752733678, -10092.639636115986, -16566.777714106764, -31115.34936611049, 4881.9339134614365, -11720.494833051544, -9121.791615699723, -11549.593394946265, 0.194, 0.916, 0.246, 192.0, 0.0, 0.0, 0.0, 0.0, 0.0, 0.0, 0.0, 0.0, 0.0, 1.6626777187739568E9, 0.0, 2022-09-08 18:55:18.773
42.0, -6108.530593935322, -9949.63317509093, -30353.914839496, -27273.598584365678, -16930.21707895006, 6970.816191532158, 19780.511531890814, 14962.034220937994, -17969.03675425491, -10120.512261451753, -16580.09935380213, -31131.152049440392, 4871.182724378434, -11696.064376361892, -9141.52820605376, -11549.19106354607, 0.194, 0.916, 0.246, 192.0, 0.0, 0.0, 0.0, 0.0, 0.0, 0.0, 0.0, 0.0, 0.0, 1.6626777187739613E9, 0.0, 2022-09-08 18:55:18.773
44.0, -6105.356646222669, -9958.171541472859, -30371.01392400431, -27283.031020525817, -16909.564067073356, 6970.592674087606, 19871.661945779557, 14950.321906843414, -17950.529509845914, -10115.214898015845, -16571.47158044238, -31125.765279026662, 4879.8775529715485, -11693.3598152828, -9138.376610085561, -11542.23967102047, 0.194, 0.916, 0.246, 192.0, 0.0, 0.0, 0.0, 0.0, 0.0, 0.0, 0.0, 0.0, 0.0, 1.6626777187739658E9, 0.0, 2022-09-08 18:55:18.773
46.0, -6104.663742144554, -9957.344526928011, -30365.560098357215, -27282.7404478479, -16921.432843379123, 6972.492572366306, 19795.598959398147, 14956.53569180199, -17955.245727925983, -10114.633752660007, -16594.605635953623, -31136.762337298675, 4857.324642816144, -11716.471519049588, -9150.580662558159, -11559.741086928974, 0.196, 0.918, 0.246, 192.0, 3.0, 16.0, 14.0, 88.0, 3.5, 88.0, 0.0, 0.0, 0.0, 1.6626777187739701E9, 0.0, 2022-09-08 18:55:18.773
48.0, -6102.763843865853, -9938.345544141, -30359.212202931907, -27280.885253058106, -16915.330817142825, 7012.703360641403, 19877.49575108239, 14988.096354972882, -17955.536300603904, -10088.638673858486, -16568.65526064101, -31127.82163951655, 4875.228390124845, -11725.434568576165, -9140.14239789753, -11544.743066399464, 0.196, 0.918, 0.246, 192.0, 0.0, 0.0, 0.0, 0.0, 0.0, 0.0, 0.0, 0.0, 0.0, 1.662677718773975E9, 0.0, 2022-09-08 18:55:18.773
50.0, -6109.82699511373, -9955.668146093863, -30359.636886076558, -27273.308011687757, -16919.130613700225, 6974.236008433821, 19835.92150639552, 14973.254796654559, -17969.059105999364, -10129.47531097833, -16573.95262407692, -31123.06071794757, 4864.901884186493, -11687.615416957786, -9135.180310628451, -11534.99770581695, 0.196, 0.918, 0.246, 192.0, 0.0, 0.0, 0.0, 0.0, 0.0, 0.0, 0.0, 0.0, 0.0, 1.6626777187739792E9, 0.0, 2022-09-08 18:55:18.773
52.0, -6114.051474815783, -9962.865407808473, -30365.023656490288, -27281.712267602954, -16920.404663134177, 6964.669461806949, 19862.810654975256, 14955.5298633015, -17945.679181299114, -10131.53167146822, -16581.418106724992, -31114.164723654358, 4858.196360849901, -11709.944809668637, -9144.009249688299, -11544.296031510357, 0.196, 0.918, 0.246, 192.0, 0.0, 0.0, 0.0, 0.0, 0.0, 0.0, 0.0, 0.0, 0.0, 1.6626777187739837E9, 0.0, 2022-09-08 18:55:18.773
54.0, -6130.189434312515, -9964.854713064995, -30358.00520873132, -27273.375066921126, -16937.012009264472, 6970.682081065426, 19790.279244217785, 14970.036145452994, -17977.105734003275, -10135.733799425818, -16593.309234775214, -31138.30460766609, 4869.863971455571, -11727.356818599323, -9152.324098625671, -11551.068610080316, 0.196, 0.918, 0.246, 192.0, 0.0, 0.0, 0.0, 0.0, 0.0, 0.0, 0.0, 0.0, 0.0, 1.662677718773988E9, 0.0, 2022-09-08 18:55:18.773
56.0, -6111.413968970057, -9953.20945420378, -30348.19279291544, -27252.49853759987, -16916.604866576778, 7003.315627970175, 19874.902948725576, 14981.72610780312, -17975.13878049121, -10112.264467747746, -16584.010909081808, -31111.571921297542, 4873.7755267352495, -11698.523068251976, -9136.834339718145, -11530.70617088153, 0.188, 0.916, 0.246, 192.0, 2.5, 112.0, 14.0, 80.0, 3.5, 88.0, 0.0, 0.0, 0.0, 1.6626777187739923E9, 0.0, 2022-09-08 18:55:18.773
58.0, -6104.887259589107, -9947.48740762322, -30351.500851094825, -27253.146738189072, -16903.506744325965, 7009.060026295188, 19827.517250480327, 14968.002136707562, -17964.566405363847, -10108.755243868261, -16588.57066495069, -31106.83335147302, 4859.068078883658, -11696.712576951097, -9134.107426894598, -11522.838356833263, 0.188, 0.916, 0.246, 192.0, 0.0, 0.0, 0.0, 0.0, 0.0, 0.0, 0.0, 0.0, 0.0, 1.6626777187739968E9, 0.0, 2022-09-08 18:55:18.773
60.0, -6117.895974862096, -9960.20555021829, -30351.34438888364, -27253.146738189072, -16930.3958929057, 6980.2933311812085, 19845.912736167043, 14979.62504382432, -17964.007611752466, -10116.220726516334, -16584.03326082626, -31096.126865878927, 4872.34501509011, -11688.21891405808, -9124.652638990003, -11520.647885876642, 0.188, 0.916, 0.246, 192.0, 0.0, 0.0, 0.0, 0.0, 0.0, 0.0, 0.0, 0.0, 0.0, 1.6626777187740011E9, 0.0, 2022-09-08 18:55:18.774
62.0, -6108.463538701956, -9954.639965848919, -30350.584429572158, -27260.07577897022, -16894.096659910283, 6996.386587189029, 19857.468588050437, 14975.489971100089, -17974.155303735173, -10117.472424205831, -16584.23442652636, -31099.278461847123, 4858.352823061088, -11708.201373601125, -9131.939307682433, -11529.722694125498, 0.188, 0.916, 0.246, 192.0, 0.0, 0.0, 0.0, 0.0, 0.0, 0.0, 0.0, 0.0, 0.0, 1.6626777187740057E9, 0.0, 2022-09-08 18:55:18.774
64.0, -6121.4722539749455, -9956.673974594352, -30347.835165004155, -27257.035941724294, -16926.50668937048, 6996.967732544867, 19851.634782747602, 14980.809686280452, -17951.60239357977, -10097.557019896152, -16583.519170703792, -31093.936394922304, 4874.580189535641, -11696.35494903981, -9127.647772747014, -11524.42533068959, 0.188, 0.916, 0.246, 192.0, 0.0, 0.0, 0.0, 0.0, 0.0, 0.0, 0.0, 0.0, 0.0, 1.662677718774011E9, 0.0, 2022-09-08 18:55:18.774
66.0, -6129.027143600839, -9958.506817639687, -30362.00617098882, -27268.524738374323, -16936.944954031107, 6979.66748233646, 19852.908832181554, 14990.219770696136, -17987.007556796976, -10121.786310885705, -16596.684348187966, -31099.68079324732, 4859.157485861479, -11700.735890953052, -9132.453397804904, -11523.419502189101, 0.186, 0.917, 0.243, 192.0, 2.5, 96.0, 14.0, 88.0, 3.5, 64.0, 0.0, 0.0, 0.0, 1.6626777187740154E9, 0.0, 2022-09-08 18:55:18.774
68.0, -6124.512091220867, -9965.458210165289, -30361.11210121061, -27264.72494181692, -16920.628180578733, 6985.054252750189, 19835.429768017504, 14973.724183288121, -17976.7928095809, -10128.268316777745, -16599.210095311417, -31104.464066560755, 4880.034015182736, -11690.252922803513, -9129.726484981356, -11527.018133046406, 0.186, 0.917, 0.243, 192.0, 0.0, 0.0, 0.0, 0.0, 0.0, 0.0, 0.0, 0.0, 0.0, 1.662677718774021E9, 0.0, 2022-09-08 18:55:18.774
70.0, -6121.6510679305875, -9967.73808809973, -30376.221880462395, -27271.76574132034, -16909.40760486217, 6988.42936616294, 19822.488107977882, 14967.599805307365, -17986.068783529852, -10134.48210173632, -16611.257685572826, -31102.944147937793, 4851.513189257764, -11717.387940572256, -9145.797389244723, -11536.361162228724, 0.186, 0.917, 0.243, 192.0, 0.0, 0.0, 0.0, 0.0, 0.0, 0.0, 0.0, 0.0, 0.0, 1.6626777187740264E9, 0.0, 2022-09-08 18:55:18.774
72.0, -6107.457710201467, -9951.354259413989, -30357.401711631028, -27259.472281869923, -16915.755500287476, 6983.221409704854, 19838.06727386323, 14974.998232722073, -17965.169902464142, -10105.447185688876, -16602.406394768524, -31091.477703032222, 4850.842636924104, -11718.282010350467, -9147.317307867683, -11539.646868663654, 0.186, 0.917, 0.243, 192.0, 0.0, 0.0, 0.0, 0.0, 0.0, 0.0, 0.0, 0.0, 0.0, 1.6626777187740307E9, 0.0, 2022-09-08 18:55:18.774
74.0, -6114.766730638353, -9948.962622757272, -30354.048949962733, -27263.71911331643, -16911.285151396412, 6977.007624746278, 19911.671568354555, 14988.386927650801, -17961.079533228818, -10106.184793255901, -16591.364633007604, -31080.413589526845, 4863.694889985906, -11705.206239844114, -9129.100636136609, -11528.828624347285, 0.186, 0.917, 0.243, 192.0, 0.0, 0.0, 0.0, 0.0, 0.0, 0.0, 0.0, 0.0, 0.0, 1.6626777187740352E9, 0.0, 2022-09-08 18:55:18.774
76.0, -6117.873623117641, -9955.82460830505, -30356.418234874993, -27276.213738466948, -16923.19863119109, 6966.703470552382, 19846.940916411986, 14972.696003043176, -17974.26706245745, -10133.990363358304, -16593.868028386598, -31095.568072267542, 4859.939796917414, -11712.470556792088, -9129.815891959179, -11539.848034363751, 0.187, 0.9225000000000001, 0.2475, 192.0, 2.5, 112.0, 14.5, 0.0, 3.5, 112.0, 0.0, 0.0, 0.0, 1.6626777187740395E9, 0.0, 2022-09-08 18:55:18.774
78.0, -6115.571393438744, -9955.377573415944, -30362.16263320001, -27284.863863571154, -16917.43188112162, 6982.729671326837, 19871.30431786827, 14974.975880977618, -17971.674260100634, -10122.1886422859, -16601.020586612296, -31101.178360125825, 4863.091392885613, -11717.097367894337, -9130.777016970756, -11544.988935588472, 0.187, 0.9225000000000001, 0.2475, 192.0, 0.0, 0.0, 0.0, 0.0, 0.0, 0.0, 0.0, 0.0, 0.0, 1.662677718774044E9, 0.0, 2022-09-08 18:55:18.774
80.0, -6120.891108619107, -9959.4008874179, -30368.53288036977, -27278.940651290497, -16909.67582579563, 6964.870627507046, 19835.429768017504, 14974.305328643959, -17968.343850176796, -10124.267354520245, -16611.14592685055, -31102.20654037077, 4847.601633978085, -11714.191641115147, -9136.946098440421, -11551.515644969422, 0.187, 0.9225000000000001, 0.2475, 192.0, 0.0, 0.0, 0.0, 0.0, 0.0, 0.0, 0.0, 0.0, 0.0, 1.6626777187740486E9, 0.0, 2022-09-08 18:55:18.774
82.0, -6099.3440269641915, -9940.178387186335, -30355.72533079688, -27260.6345725816, -16898.835229734806, 6977.789935802214, 19912.02919626584, 14999.182820222715, -17955.111617459253, -10104.486060677298, -16602.205229068426, -31078.223118570226, 4856.832904438127, -11700.490021764044, -9129.324153581161, -11539.982144830483, 0.187, 0.9225000000000001, 0.2475, 192.0, 0.0, 0.0, 0.0, 0.0, 0.0, 0.0, 0.0, 0.0, 0.0, 1.662677718774053E9, 0.0, 2022-09-08 18:55:18.774
84.0, -6102.249753743381, -9937.83145401853, -30363.01199948931, -27266.736598817897, -16899.10345066827, 6980.718014325859, 19858.385009573103, 15035.280887518036, -17945.16509117664, -10098.987531541292, -16583.98855733735, -31061.81693814003, 4863.225503352345, -11691.996358871027, -9126.016095401776, -11533.298973238347, 0.187, 0.9225000000000001, 0.2475, 192.0, 0.0, 0.0, 0.0, 0.0, 0.0, 0.0, 0.0, 0.0, 0.0, 1.6626777187740574E9, 0.0, 2022-09-08 18:55:18.774
86.0, -6111.391617225602, -9951.868349536462, -30366.789444302256, -27278.895947801586, -16918.907096255673, 6967.508133352773, 19879.060373194265, 15029.536489193022, -17953.949326747577, -10121.875717863526, -16595.455002242925, -31073.663362701343, 4848.1827793339235, -11710.36949281329, -9133.459226305393, -11545.547729199854, 0.1915, 0.92225, 0.24775, 192.0, 3.0, 16.0, 14.0, 104.0, 3.5, 96.0, 0.0, 0.0, 0.0, 1.662677718774062E9, 0.0, 2022-09-08 18:55:18.774
88.0, -6100.841593842697, -9944.06759072156, -30362.54261285575, -27268.770607563332, -16875.388249801188, 6963.060136206167, 19846.158605356053, 15030.318800248957, -17955.960983748555, -10116.153671282967, -16615.817441441708, -31091.34359256549, 4842.416029264454, -11704.89331542174, -9137.19196762943, -11550.95685135804, 0.1915, 0.92225, 0.24775, 192.0, 0.0, 0.0, 0.0, 0.0, 0.0, 0.0, 0.0, 0.0, 0.0, 1.6626777187740664E9, 0.0, 2022-09-08 18:55:18.774
90.0, -6095.991265295896, -9941.675954064842, -30343.990664957844, -27254.018456222828, -16881.66908999313, 6989.614008619072, 19886.391745375604, 15031.861070616374, -17937.207870150552, -10113.270296248234, -16609.782470438775, -31070.467063244232, 4837.76686641775, -11699.059510118905, -9131.447569304415, -11538.886909352173, 0.1915, 0.92225, 0.24775, 192.0, 0.0, 0.0, 0.0, 0.0, 0.0, 0.0, 0.0, 0.0, 0.0, 1.6626777187740707E9, 0.0, 2022-09-08 18:55:18.774
92.0, -6103.21087875496, -9931.617669059953, -30333.53004855276, -27248.72109278692, -16914.749671786987, 6961.47316234984, 19863.861186964656, 15042.45579748819, -17939.152471918165, -10096.797060584673, -16589.084755073163, -31045.321350732014, 4880.905733216493, -11671.946844094617, -9110.32517079415, -11533.030752304883, 0.1915, 0.92225, 0.24775, 192.0, 0.0, 0.0, 0.0, 0.0, 0.0, 0.0, 0.0, 0.0, 0.0, 1.6626777187740753E9, 0.0, 2022-09-08 18:55:18.774
94.0, -6094.963085050951, -9936.982087729226, -30346.53876382575, -27259.047598725272, -16912.2909798969, 6962.300176894686, 19907.447088652505, 15036.174957296249, -17939.17482366262, -10109.805775857662, -16589.978824851372, -31043.488507686678, 4869.618102266562, -11689.716480936586, -9118.32709530915, -11540.898566353151, 0.1915, 0.92225, 0.24775, 192.0, 0.0, 0.0, 0.0, 0.0, 0.0, 0.0, 0.0, 0.0, 0.0, 1.6626777187740796E9, 0.0, 2022-09-08 18:55:18.774
96.0, -6096.125375762627, -9925.828567246028, -30354.00424647382, -27261.171014448526, -16900.846886735784, 6956.779296014225, 19835.58623022869, 15027.033093814027, -17921.628704265204, -10089.063357003137, -16597.71252843291, -31049.52347868961, 4876.234218625334, -11684.620283200775, -9128.698304736412, -11541.345601242258, 0.19575, 0.917125, 0.247875, 192.0, 3.0, 32.0, 14.0, 64.0, 3.5, 96.0, 0.0, 0.0, 0.0, 1.662677718774084E9, 0.0, 2022-09-08 18:55:18.774
98.0, -6100.059282786761, -9944.939308755316, -30372.355028671627, -27277.443084411992, -16914.257933408968, 6957.47220009234, 19848.05850363475, 15006.804765081975, -17924.64618976667, -10101.982665298303, -16608.016682626807, -31050.19403102327, 4858.084602127624, -11691.012882114994, -9137.706057751902, -11541.949098342551, 0.19575, 0.917125, 0.247875, 192.0, 0.0, 0.0, 0.0, 0.0, 0.0, 0.0, 0.0, 0.0, 0.0, 1.6626777187740884E9, 0.0, 2022-09-08 18:55:18.774
100.0, -6135.196225070504, -9979.562160916586, -30382.592127632157, -27291.88231133012, -16905.987787960505, 6947.033935431712, 19887.75520178738, 15008.279980216024, -17944.382780120704, -10118.455900961864, -16635.285810862282, -31074.28921154609, 4838.6162327070515, -11700.870001419784, -9152.368802114583, -11555.695421182565, 0.19575, 0.917125, 0.247875, 192.0, 0.0, 0.0, 0.0, 0.0, 0.0, 0.0, 0.0, 0.0, 0.0, 1.662677718774093E9, 0.0, 2022-09-08 18:55:18.774
102.0, -6119.30413476278, -9957.836265306029, -30366.230650690875, -27280.147645491084, -16897.62823553422, 6958.925063481935, 19939.790062879332, 15013.622047140843, -17954.93280350361, -10134.683267436418, -16629.452005559448, -31071.53994697809, 4838.392715262498, -11706.74851021153, -9141.192929886929, -11557.058877594338, 0.19575, 0.917125, 0.247875, 192.0, 0.0, 0.0, 0.0, 0.0, 0.0, 0.0, 0.0, 0.0, 0.0, 1.6626777187740986E9, 0.0, 2022-09-08 18:55:18.774
104.0, -6115.146710294093, -9952.047163492103, -30353.557211584714, -27259.695799314475, -16907.39594786119, 6951.258415133765, 19888.895140754597, 15009.77754709453, -17960.18546345061, -10113.404406714966, -16628.982618925886, -31059.20178403876, 4844.2935757987, -11684.106193078303, -9131.022886159764, -11540.13860704167, 0.19575, 0.917125, 0.247875, 192.0, 0.0, 0.0, 0.0, 0.0, 0.0, 0.0, 0.0, 0.0, 0.0, 1.6626777192540123E9, 0.0, 2022-09-08 18:55:19.254
106.0, -6098.606419397166, -9927.035561446615, -30348.304551637717, -27257.035941724294, -16914.883782253717, 6941.602461529072, 19895.75712630238, 15005.77658483703, -17934.8832887272, -10102.340293209589, -16608.687234960467, -31036.71592911672, 4869.8416197111155, -11665.978928325048, -9122.886851178033, -11529.096845280748, 0.19587500000000002, 0.9165625, 0.2459375, 192.0, 3.0, 16.0, 14.0, 80.0, 3.5, 80.0, 0.0, 0.0, 0.0, 1.6626777192541072E9, 0.0, 2022-09-08 18:55:19.254
108.0, -6118.566527195755, -9957.724506583752, -30363.459034378415, -27275.230261710916, -16918.05772996637, 6927.386752055497, 19864.241166620395, 14999.361634178358, -17943.913393487142, -10117.986514328304, -16626.94861018045, -31049.09879554496, 4851.155561346479, -11688.710652436097, -9139.158921141496, -11546.553557700343, 0.19587500000000002, 0.9165625, 0.2459375, 192.0, 0.0, 0.0, 0.0, 0.0, 0.0, 0.0, 0.0, 0.0, 0.0, 1.6626777192542043E9, 0.0, 2022-09-08 18:55:19.254
110.0, -6113.44797771549, -9956.718678083264, -30364.218993689898, -27273.26330819885, -16891.90618895366, 6940.596633028583, 19904.384899662127, 15005.061329014461, -17932.759873003946, -10113.180889270412, -16637.90096496355, -31057.234830526693, 4846.975785133336, -11697.830164173862, -9139.628307775058, -11550.934499613584, 0.19587500000000002, 0.9165625, 0.2459375, 192.0, 0.0, 0.0, 0.0, 0.0, 0.0, 0.0, 0.0, 0.0, 0.0, 1.6626777192542105E9, 0.0, 2022-09-08 18:55:19.254
112.0, -6128.937736623017, -9968.11806775547, -30376.177176973484, -27273.486825643402, -16864.81587467383, 6954.56647331315, 19897.768783303356, 14999.719262089642, -17923.238029865985, -10123.2391742753, -16665.840645532688, -31082.469950016733, 4831.798950648183, -11698.433661274155, -9142.891662465532, -11543.133740798681, 0.19587500000000002, 0.9165625, 0.2459375, 192.0, 0.0, 0.0, 0.0, 0.0, 0.0, 0.0, 0.0, 0.0, 0.0, 1.662677719254216E9, 0.0, 2022-09-08 18:55:19.254
114.0, -6127.4625214889675, -9974.085983525036, -30361.827357033177, -27259.852261525662, -16891.280340108915, 6952.711278523359, 19867.07983816622, 15003.429651669223, -17964.298184430383, -10133.118645324546, -16654.97769772741, -31065.90730737535, 4839.934985629915, -11688.17421056917, -9136.230842617852, -11539.37864773019, 0.19587500000000002, 0.9165625, 0.2459375, 192.0, 0.0, 0.0, 0.0, 0.0, 0.0, 0.0, 0.0, 0.0, 0.0, 1.6626777192542217E9, 0.0, 2022-09-08 18:55:19.254
116.0, -6124.4673877319565, -9965.033527020638, -30360.463900621406, -27264.30025867227, -16917.610695077266, 6943.681173763415, 19914.666702111568, 15016.617180897854, -17961.146588462187, -10147.49081700931, -16640.806691742742, -31050.126975789903, 4847.825151422639, -11694.097422849825, -9115.868403419066, -11523.017170788906, 0.19693750000000002, 0.9162812499999999, 0.24296875, 192.0, 3.0, 24.0, 14.0, 80.0, 3.5, 64.0, 0.0, 0.0, 0.0, 1.6626777192542284E9, 0.0, 2022-09-08 18:55:19.254
118.0, -6114.274992260336, -9955.668146093863, -30346.739929525847, -27263.16031970505, -16907.57476181683, 6926.269164832732, 19884.491847096902, 15007.654131371277, -17948.428445867117, -10124.133244053513, -16639.599697542155, -31050.08227230099, 4851.714354957861, -11690.83406815935, -9123.602107000603, -11533.634249405177, 0.19693750000000002, 0.9162812499999999, 0.24296875, 192.0, 0.0, 0.0, 0.0, 0.0, 0.0, 0.0, 0.0, 0.0, 0.0, 1.662677719254235E9, 0.0, 2022-09-08 18:55:19.254
120.0, -6113.090349804205, -9952.002460003194, -30351.634961561558, -27271.050485497773, -16912.559200830365, 6920.211842085343, 19862.65419276407, 15001.932084790718, -17925.607314778248, -10112.108005536558, -16632.447139316457, -31037.475888428202, 4847.646337466996, -11690.342329781333, -9127.692476235923, -11530.125025525693, 0.19693750000000002, 0.9162812499999999, 0.24296875, 192.0, 0.0, 0.0, 0.0, 0.0, 0.0, 0.0, 0.0, 0.0, 0.0, 1.6626777192542415E9, 0.0, 2022-09-08 18:55:19.254
122.0, -6103.054416543772, -9941.273622664647, -30355.43475811896, -27270.514043630847, -16900.131630913216, 6933.019391658234, 19877.7416202714, 15000.68038710122, -17933.095149170775, -10121.38397948551, -16645.34409586717, -31050.037568812084, 4844.472389754342, -11709.520126523987, -9140.14239789753, -11542.932575098584, 0.19693750000000002, 0.9162812499999999, 0.24296875, 192.0, 0.0, 0.0, 0.0, 0.0, 0.0, 0.0, 0.0, 0.0, 0.0, 1.6626777192542465E9, 0.0, 2022-09-08 18:55:19.254
124.0, -6116.711332405965, -9962.798352575106, -30366.834147791167, -27281.44404666949, -16907.932389728117, 6931.544176524184, 19931.31875173077, 15005.709529603664, -17927.104881656753, -10103.167307754435, -16658.91160475154, -31049.2776095006, 4844.67355545444, -11686.944864624127, -9132.162825126985, -11531.957868571028, 0.19693750000000002, 0.9162812499999999, 0.24296875, 192.0, 0.0, 0.0, 0.0, 0.0, 0.0, 0.0, 0.0, 0.0, 0.0, 1.6626777192542515E9, 0.0, 2022-09-08 18:55:19.254
126.0, -6125.540271465811, -9964.139457242425, -30367.415293147005, -27271.676334342523, -16899.01404369045, 6938.339106838597, 19899.422812393048, 15001.39564292379, -17957.771475049434, -10144.585090230119, -16661.616165830634, -31050.70812114574, 4841.924290886437, -11696.399652528722, -9136.543767040226, -11540.898566353151, 0.19646875000000003, 0.9181406249999999, 0.243484375, 192.0, 3.0, 16.0, 14.0, 96.0, 3.5, 80.0, 0.0, 0.0, 0.0, 1.6626777192542565E9, 0.0, 2022-09-08 18:55:19.254
128.0, -6113.157405037571, -9948.82851229054, -30364.308400667716, -27263.696761571977, -16902.858543736762, 6910.17590882491, 19904.809582806778, 14993.438421897701, -17944.226317909517, -10141.589956473108, -16651.53552908129, -31028.13285924588, 4831.843654137094, -11690.252922803513, -9134.085075150142, -11531.4214267041, 0.19646875000000003, 0.9181406249999999, 0.243484375, 192.0, 0.0, 0.0, 0.0, 0.0, 0.0, 0.0, 0.0, 0.0, 0.0, 1.6626777192542613E9, 0.0, 2022-09-08 18:55:19.254
130.0, -6099.433433942013, -9941.653602320386, -30341.44256608994, -27251.783281777298, -16897.181200645115, 6910.533536736195, 19892.47141986745, 15012.079776773428, -17937.632553295203, -10126.793101643694, -16639.28677311978, -31016.442896895755, 4842.5501397311855, -11686.69899543512, -9136.387304829039, -11532.13668252667, 0.19646875000000003, 0.9181406249999999, 0.243484375, 192.0, 0.0, 0.0, 0.0, 0.0, 0.0, 0.0, 0.0, 0.0, 0.0, 1.662677719254266E9, 0.0, 2022-09-08 18:55:19.254
132.0, -6102.5403264213, -9947.15213145639, -30342.090766679143, -27259.11465395864, -16901.472735580533, 6911.584068725595, 19927.56365866228, 14996.053575998973, -17926.25551536745, -10108.62113340153, -16639.95732545344, -31009.782077048076, 4854.7541922037835, -11687.190733813135, -9119.243516831817, -11525.766435356909, 0.19646875000000003, 0.9181406249999999, 0.243484375, 192.0, 0.0, 0.0, 0.0, 0.0, 0.0, 0.0, 0.0, 0.0, 0.0, 1.6626777192542713E9, 0.0, 2022-09-08 18:55:19.254
134.0, -6095.29836121778, -9955.77990481614, -30336.458127076403, -27261.126310959615, -16883.14430512718, 6911.248792558765, 19865.202291631973, 14981.256721169559, -17911.83864019378, -10104.150784510468, -16656.899947750564, -31031.306806958535, 4846.86402641106, -11703.708672965608, -9142.623441532069, -11538.082246551783, 0.19646875000000003, 0.9181406249999999, 0.243484375, 192.0, 0.0, 0.0, 0.0, 0.0, 0.0, 0.0, 0.0, 0.0, 0.0, 1.6626777192542832E9, 0.0, 2022-09-08 18:55:19.254
