%OpenBCI Raw EEG Data
%Number of channels = 16
%Sample Rate = 125 Hz
%Board = OpenBCI_GUI$BoardCytonSerialDaisy
Sample Index, EXG Channel 0, EXG Channel 1, EXG Channel 2, EXG Channel 3, EXG Channel 4, EXG Channel 5, EXG Channel 6, EXG Channel 7, EXG Channel 8, EXG Channel 9, EXG Channel 10, EXG Channel 11, EXG Channel 12, EXG Channel 13, EXG Channel 14, EXG Channel 15, Accel Channel 0, Accel Channel 1, Accel Channel 2, Other, Other, Other, Other, Other, Other, Other, Analog Channel 0, Analog Channel 1, Analog Channel 2, Timestamp, Other, Timestamp (Formatted)
60.0, -9785.392556833334, -4539.080505261481, -23404.779840085488, -21779.919776906943, 32625.187352322027, 4658.505875886188, -12477.280196819329, 36606.94946133488, -14137.187795303798, -657.0518800082065, -5355.1650470691975, 5633.39956204886, 27631.94175147316, -675.804993606209, 4700.9071351179045, 6558.225340631645, 0.0, 0.0, 0.0, 192.0, 0.0, 0.0, 0.0, 0.0, 0.0, 0.0, 0.0, 0.0, 0.0, 1.6625062227285252E9, 0.0, 2022-09-06 19:17:02.728
62.0, -10122.747435897283, -4899.703550303406, -23710.663462956367, -22185.872159704228, 32272.320362606093, 4312.500871718034, -9031.69173380038, 38246.53932410948, -14170.938929431311, -726.610508753122, -5387.35155908484, 5590.1936400167515, 27629.170135160704, -750.7950962537642, 5089.581619451239, 6882.459745700329, 0.0, 0.0, 0.0, 192.0, 0.0, 0.0, 0.0, 0.0, 0.0, 0.0, 0.0, 0.0, 0.0, 1.6625062227285316E9, 0.0, 2022-09-06 19:17:02.728
64.0, -9818.629600838376, -4544.333165208479, -23477.55712003197, -21827.864268763577, 32530.840638976177, 4647.3970588919, -11432.827881911742, 36686.81224427369, -14208.95924674979, -747.6435002855659, -5478.792545651501, 5532.973174211165, 27537.25976196048, -731.2373198553705, 4578.061947591537, 6528.765741439551, 0.0, 0.0, 0.0, 192.0, 0.0, 0.0, 0.0, 0.0, 0.0, 0.0, 0.0, 0.0, 0.0, 1.6625062227285368E9, 0.0, 2022-09-06 19:17:02.728
66.0, -10172.72593649935, -4939.4002484560315, -23749.30962911959, -22291.618262722288, 32187.026105764642, 4235.096780669306, -8152.552920884243, 38328.21259834917, -14138.238327293198, -717.7592179488204, -5407.535184327982, 5589.903067338832, 27648.839670281373, -707.1197875880943, 4975.252446562344, 6886.5501149356505, 0.0, 0.0, 0.0, 192.0, 0.0, 0.0, 0.0, 0.0, 0.0, 0.0, 0.0, 0.0, 0.0, 1.662506222728542E9, 0.0, 2022-09-06 19:17:02.728
68.0, -9880.275712046112, -4590.534220997599, -23579.123446836886, -21903.077888855685, 32352.093738567084, 4637.6293465649305, -10288.530324522297, 36814.37364988013, -14296.332215825585, -861.5479900298108, -5580.023596289587, 5419.538071100482, 27451.451414996554, -822.3653819996574, 4437.536530201021, 6474.85333381335, 0.0, 0.0, 0.0, 192.0, 0.0, 0.0, 0.0, 0.0, 0.0, 0.0, 0.0, 0.0, 0.0, 1.6625062227285473E9, 0.0, 2022-09-06 19:17:02.728
70.0, -10209.248686939321, -4981.6673972210165, -23780.199739956828, -22350.358647150835, 32165.501375854183, 4189.253352791471, -7365.771516057434, 38423.56514019551, -14125.721350398226, -716.6192789815998, -5387.083338151377, 5582.661102135313, 27651.343065660367, -653.1179729840724, 4797.421967675921, 6896.854269129547, 0.24, 0.8180000000000001, 0.47000000000000003, 192.0, 3.5, 64.0, 12.5, 72.0, 7.0, 88.0, 0.0, 0.0, 0.0, 1.6625062227285535E9, 0.0, 2022-09-06 19:17:02.728
72.0, -9938.457302863277, -4644.15605594588, -23672.710200871254, -21939.19830789546, 32239.731519190256, 4544.601386141942, -9044.812207795645, 36930.15568615862, -14396.110403074075, -981.308636821346, -5681.947551005787, 5295.530592862438, 27358.73637899594, -903.9939527504389, 4317.440607242657, 6424.070170410892, 0.24, 0.8180000000000001, 0.47000000000000003, 192.0, 0.0, 0.0, 0.0, 0.0, 0.0, 0.0, 0.0, 0.0, 0.0, 1.662506222728559E9, 0.0, 2022-09-06 19:17:02.728
74.0, -10215.037788753247, -4997.067749150723, -23790.123914494983, -22357.779426309997, 32167.915364255354, 4209.034646634418, -6767.728241411239, 38453.225905087704, -14064.276404890586, -672.1393075155387, -5342.290442262941, 5621.106102598442, 27676.28761247249, -628.5310540832346, 4676.141402261424, 6919.317772307131, 0.24, 0.8180000000000001, 0.47000000000000003, 192.0, 0.0, 0.0, 0.0, 0.0, 0.0, 0.0, 0.0, 0.0, 0.0, 1.6625062227285645E9, 0.0, 2022-09-06 19:17:02.728
76.0, -9982.669053395874, -4675.135573760936, -23729.46128004328, -21935.756139249344, 32195.028030279642, 4541.449790173744, -7708.848441701943, 37165.988941906566, -14469.759401054313, -1070.8050216203956, -5769.879313692965, 5193.7407486129705, 27274.045619254783, -1032.2482624349907, 4282.080147514361, 6441.392772363755, 0.24, 0.8180000000000001, 0.47000000000000003, 192.0, 0.0, 0.0, 0.0, 0.0, 0.0, 0.0, 0.0, 0.0, 0.0, 1.6625062227285695E9, 0.0, 2022-09-06 19:17:02.728
78.0, -10187.098108184113, -4984.215496088922, -23742.93938194983, -22330.867925985807, 32101.48597973418, 4182.212553288049, -6293.334817091802, 38372.8043285375, -14001.333892504443, -607.9898009288074, -5307.891107546224, 5667.55302757657, 27739.140717880815, -542.6109483970342, 4583.247552305169, 6953.985327957312, 0.24, 0.8180000000000001, 0.47000000000000003, 192.0, 0.0, 0.0, 0.0, 0.0, 0.0, 0.0, 0.0, 0.0, 0.0, 1.6625062227285748E9, 0.0, 2022-09-06 19:17:02.728
80.0, -10059.871978744504, -4739.575653025586, -23824.210324789325, -21983.20889272796, 32068.58421189597, 4452.914530386273, -6136.202053570993, 37412.95336639325, -14561.26744285434, -1161.5307523644867, -5875.334844033104, 5092.688511930527, 27148.697036349422, -1136.8097229969171, 4245.9373767301295, 6445.661955554719, 0.242, 0.794, 0.468, 192.0, 3.5, 72.0, 12.0, 104.0, 7.0, 80.0, 0.0, 0.0, 0.0, 1.66250622272858E9, 0.0, 2022-09-06 19:17:02.728
82.0, -10083.095441233569, -4877.284750614733, -23637.081520209496, -22214.124764695738, 32153.990227459697, 4238.851873737797, -6663.233836082678, 37883.54699415529, -13919.012417675545, -520.7956458086545, -5238.913624157146, 5737.84926388851, 27814.309634484012, -455.3944415324261, 4466.124411359359, 6950.274938377731, 0.242, 0.794, 0.468, 192.0, 0.0, 0.0, 0.0, 0.0, 0.0, 0.0, 0.0, 0.0, 0.0, 1.6625062227285852E9, 0.0, 2022-09-06 19:17:02.728
84.0, -10126.01079058776, -4806.2732584802225, -23889.09743894308, -22024.201992058992, 31969.498928725596, 4332.371572538802, -5074.203619265988, 37640.516476692734, -14564.597852778179, -1175.4335374156879, -5893.1938878528945, 5070.873209342148, 27109.112096919074, -1151.6736330596964, 4290.484403429557, 6542.489712535109, 0.242, 0.794, 0.468, 192.0, 0.0, 0.0, 0.0, 0.0, 0.0, 0.0, 0.0, 0.0, 0.0, 1.6625062227285905E9, 0.0, 2022-09-06 19:17:02.728
86.0, -9972.297843968612, -4762.352080625544, -23535.42578642676, -22077.577957818266, 32257.635266498957, 4338.004212141539, -7378.601417374781, 37351.24019995215, -13862.618966414806, -465.2515608372165, -5216.494824468473, 5784.743223755744, 27884.874091729416, -378.4373853728039, 4311.964429851107, 6952.286595378709, 0.242, 0.794, 0.468, 192.0, 0.0, 0.0, 0.0, 0.0, 0.0, 0.0, 0.0, 0.0, 0.0, 1.6625062227285955E9, 0.0, 2022-09-06 19:17:02.728
88.0, -10189.623855307562, -4879.005834937791, -23959.706599677396, -22087.837408523254, 31866.50209027554, 4227.340725343314, -4277.1627637341935, 37939.51576227138, -14528.097454082663, -1165.2858454329785, -5897.641884999501, 5088.754604906393, 27168.56773717019, -1155.0040429835371, 4378.594980072377, 6672.375699564898, 0.242, 0.794, 0.468, 192.0, 0.0, 0.0, 0.0, 0.0, 0.0, 0.0, 0.0, 0.0, 0.0, 1.6625062227286015E9, 0.0, 2022-09-06 19:17:02.728
90.0, -9857.074601301503, -4635.483579097221, -23458.9381169007, -21913.650263983043, 32301.48938912027, 4459.955329889694, -8337.111274851713, 36799.465036328445, -13860.920233836203, -477.299151098627, -5256.8397232103025, 5780.406985331415, 27873.698219501763, -367.5073823341587, 4132.278756174893, 6893.434452227885, 0.244, 0.808, 0.482, 192.0, 3.5, 80.0, 12.5, 32.0, 7.5, 8.0, 0.0, 0.0, 0.0, 1.6625062227286067E9, 0.0, 2022-09-06 19:17:02.728
92.0, -10228.046504026235, -4947.782152626772, -23974.03406787325, -22156.256098300946, 31857.69550296015, 4152.104753506751, -3930.1519310655513, 38226.75803026653, -14445.284240875751, -1112.4463215406324, -5848.4680471978245, 5153.395849871141, 27229.364482088626, -1109.3170773168895, 4438.274137768047, 6839.454989368319, 0.244, 0.808, 0.482, 192.0, 0.0, 0.0, 0.0, 0.0, 0.0, 0.0, 0.0, 0.0, 0.0, 1.662506222728615E9, 0.0, 2022-09-06 19:17:02.728
94.0, -9787.739490001142, -4534.073714503493, -23431.7807473875, -21781.68556471891, 32266.128929391973, 4536.75592383813, -8873.396679567895, 36463.31715146508, -13904.237914590589, -537.5818058945902, -5337.373058482774, 5719.856109601988, 27822.870352610393, -381.6783883188234, 4012.853385550188, 6844.30531791512, 0.244, 0.808, 0.482, 192.0, 0.0, 0.0, 0.0, 0.0, 0.0, 0.0, 0.0, 0.0, 0.0, 1.6625062227286208E9, 0.0, 2022-09-06 19:17:02.728
96.0, -10196.038805966236, -4927.7773413392715, -23913.863171799563, -22139.76051089293, 31917.911102522747, 4129.86476777372, -4261.471839126568, 38348.709148014685, -14304.870582207512, -998.497128307477, -5740.218548800773, 5283.594761323305, 27401.5176178834, -928.7373338624637, 4481.390652822334, 7032.015267850789, 0.244, 0.808, 0.482, 192.0, 0.0, 0.0, 0.0, 0.0, 0.0, 0.0, 0.0, 0.0, 0.0, 1.6625062227286267E9, 0.0, 2022-09-06 19:17:02.728
98.0, -9772.27208283807, -4500.434339098256, -23455.183023832207, -21715.47969764229, 32247.80049893862, 4560.135848538381, -9015.35260860355, 36348.85386810945, -13969.19208397771, -631.8838157515306, -5437.50887364255, 5639.7921609630785, 27728.92597066474, -446.1631710723843, 3990.613399817157, 6852.888387785958, 0.244, 0.808, 0.482, 192.0, 0.0, 0.0, 0.0, 0.0, 0.0, 0.0, 0.0, 0.0, 0.0, 1.662506222728632E9, 0.0, 2022-09-06 19:17:02.728
100.0, -10150.910633910971, -4898.87653575856, -23883.59890980708, -22148.969429608518, 31877.275631102995, 4185.811184145354, -5051.650709110583, 38214.86690221631, -14188.060365684078, -904.150414961626, -5654.097277414475, 5389.49732655255, 27493.875025972728, -785.932038537507, 4459.530646745044, 7126.093760263177, 0.26, 0.84, 0.504, 192.0, 4.0, 16.0, 13.0, 32.0, 7.5, 96.0, 0.0, 0.0, 0.0, 1.6625062227286375E9, 0.0, 2022-09-06 19:17:02.728
102.0, -9852.224272754702, -4582.2193720602245, -23570.003935099117, -21792.54851252419, 32122.966006155733, 4506.670475801287, -8023.695114099398, 36793.85474847016, -14075.854608518435, -755.2877968892809, -5566.321976938484, 5518.5786507819475, 27592.04388762044, -577.4126145139473, 3948.8826929190986, 6859.97389077829, 0.26, 0.84, 0.504, 192.0, 0.0, 0.0, 0.0, 0.0, 0.0, 0.0, 0.0, 0.0, 0.0, 1.6625062227286427E9, 0.0, 2022-09-06 19:17:02.728
104.0, -10106.207145000357, -4853.413087536465, -23834.358016772036, -22077.689716540543, 31896.609890056836, 4203.066730864851, -5244.836836437802, 38072.083958635805, -14176.9962521787, -876.5460105593218, -5658.947605961276, 5420.387437389784, 27514.10335470478, -685.70681639991, 4332.975069639096, 7129.379466698107, 0.26, 0.84, 0.504, 192.0, 0.0, 0.0, 0.0, 0.0, 0.0, 0.0, 0.0, 0.0, 0.0, 1.662506222728648E9, 0.0, 2022-09-06 19:17:02.728
106.0, -9821.758845062119, -4542.410915185323, -23573.62491770088, -21769.97325062433, 32093.282889519083, 4550.926929822795, -8219.272878083335, 36650.602418256094, -14055.11218966391, -735.7970757242532, -5588.696073138246, 5526.245299130118, 27639.809565521427, -528.1493697344506, 3900.2452969843507, 6910.689998947382, 0.26, 0.84, 0.504, 192.0, 0.0, 0.0, 0.0, 0.0, 0.0, 0.0, 0.0, 0.0, 0.0, 1.6625062227286534E9, 0.0, 2022-09-06 19:17:02.728
108.0, -10128.782406900216, -4870.981558678336, -23856.82151994962, -22116.827621081786, 31840.328197518375, 4226.580766031833, -5261.667700012648, 38093.56398505736, -14142.596917461982, -844.5830159882327, -5670.5481613335805, 5423.293164168974, 27547.11688126527, -667.0431097797286, 4227.050152665395, 7162.214179302952, 0.26, 0.84, 0.504, 192.0, 0.0, 0.0, 0.0, 0.0, 0.0, 0.0, 0.0, 0.0, 0.0, 1.662506222728659E9, 0.0, 2022-09-06 19:17:02.728
110.0, -9815.545060103543, -4538.275842461091, -23597.541284268056, -21767.782779667712, 32059.017665269097, 4590.266000064135, -8093.477260288866, 36639.091269861616, -14091.389070914875, -770.9563697524512, -5660.400469350871, 5459.011251808554, 27575.056561834404, -584.6545797174668, 3822.684743724435, 6894.574391195106, 0.264, 0.848, 0.522, 192.0, 4.0, 32.0, 13.0, 64.0, 8.0, 40.0, 0.0, 0.0, 0.0, 1.662506222728664E9, 0.0, 2022-09-06 19:17:02.728
112.0, -10101.557982153652, -4850.283843312722, -23837.91194414043, -22095.191132449047, 31766.61214430477, 4243.523388328957, -5416.609992576837, 38065.91487716614, -14090.874980792401, -782.9145530360405, -5644.061344154042, 5448.952966803667, 27624.185696147168, -630.7662285287653, 4136.033849243385, 7189.013920904866, 0.264, 0.848, 0.522, 192.0, 0.0, 0.0, 0.0, 0.0, 0.0, 0.0, 0.0, 0.0, 0.0, 1.6625062227286692E9, 0.0, 2022-09-06 19:17:02.728
114.0, -9819.098987471938, -4539.28167096158, -23634.10873819694, -21764.608831955058, 31943.99558830209, 4558.526522937599, -7882.834420542053, 36682.274840149264, -14115.75247237116, -759.512276591334, -5710.311914719572, 5429.395190405273, 27550.559049911386, -585.5486494956791, 3724.2476611432626, 6915.786196683192, 0.264, 0.848, 0.522, 192.0, 0.0, 0.0, 0.0, 0.0, 0.0, 0.0, 0.0, 0.0, 0.0, 1.6625062227286744E9, 0.0, 2022-09-06 19:17:02.728
116.0, -10090.024482014715, -4837.923328628937, -23813.369728728503, -22093.626510337177, 31775.70930429808, 4282.594237636833, -5850.367945476526, 37932.050279623305, -14058.509654821117, -727.4598750424236, -5645.380097076905, 5482.0111968530655, 27636.345045130856, -596.7021699788774, 4038.5355399293353, 7208.214069391975, 0.264, 0.848, 0.522, 192.0, 0.0, 0.0, 0.0, 0.0, 0.0, 0.0, 0.0, 0.0, 0.0, 1.66250622272868E9, 0.0, 2022-09-06 19:17:02.728
118.0, -9851.352554720945, -4574.709185923241, -23675.68298288381, -21810.65342553299, 31825.01725256649, 4552.916235079317, -7628.538623874024, 36818.0393359708, -14153.236347822709, -810.764826627353, -5765.878351435465, 5369.20194258713, 27547.742730110018, -676.2296767508599, 3720.626678541503, 6922.536423508695, 0.264, 0.848, 0.522, 192.0, 0.0, 0.0, 0.0, 0.0, 0.0, 0.0, 0.0, 0.0, 0.0, 1.6625062227286851E9, 0.0, 2022-09-06 19:17:02.728
120.0, -10016.509594501209, -4771.829220274594, -23758.675010046365, -22026.191297315516, 31711.55979771135, 4373.185857914193, -6361.239416747024, 37753.83982108114, -14007.614732696384, -681.4152814644912, -5606.175137302296, 5516.254069358596, 27697.186493538204, -587.1579750964612, 3980.353949112171, 7213.824357250257, 0.256, 0.836, 0.516, 192.0, 4.0, 0.0, 13.0, 16.0, 8.0, 16.0, 0.0, 0.0, 0.0, 1.6625062227286904E9, 0.0, 2022-09-06 19:17:02.728
122.0, -9845.362287206923, -4584.163973827836, -23698.057079083574, -21804.417288829958, 31797.256385953, 4539.773409339597, -7560.8798934078095, 36913.07895339477, -14145.949679130279, -813.7599603843643, -5754.098982107518, 5370.744212954547, 27520.607712341276, -707.0750840991836, 3713.921155204911, 6975.532409612229, 0.256, 0.836, 0.516, 192.0, 0.0, 0.0, 0.0, 0.0, 0.0, 0.0, 0.0, 0.0, 0.0, 1.6625062227286956E9, 0.0, 2022-09-06 19:17:02.728
124.0, -10005.087853084548, -4783.228609946801, -23756.015152456184, -21999.235093502415, 31716.767754169436, 4322.805025911931, -6753.981918571225, 37641.05291855966, -13997.221171524665, -663.2433132223265, -5596.362721486416, 5520.210328127186, 27702.86383662985, -537.067715772118, 3916.7632361368223, 7226.028409722854, 0.256, 0.836, 0.516, 192.0, 0.0, 0.0, 0.0, 0.0, 0.0, 0.0, 0.0, 0.0, 0.0, 1.6625062227287023E9, 0.0, 2022-09-06 19:17:02.728
126.0, -9851.777237865595, -4603.364122314945, -23726.823774197554, -21816.55428606919, 31699.22163477202, 4472.896989929318, -7447.802418208411, 37019.83088491332, -14166.647394495893, -839.7773909303417, -5777.6130172745015, 5322.017410041977, 27541.30542770689, -709.0867411001612, 3719.799663996657, 6993.927895298946, 0.256, 0.836, 0.516, 192.0, 0.0, 0.0, 0.0, 0.0, 0.0, 0.0, 0.0, 0.0, 0.0, 1.6625062227287078E9, 0.0, 2022-09-06 19:17:02.728
128.0, -9956.137532727425, -4733.920661678393, -23743.74404475022, -21952.899927246563, 31657.625038340695, 4374.571666070422, -7149.876016363623, 37508.17179777286, -13977.328118959442, -648.0217752482623, -5587.91376208231, 5518.735112993135, 27709.278787288524, -531.9268145473975, 3829.7255432278566, 7204.6377902791255, 0.256, 0.836, 0.516, 192.0, 0.0, 0.0, 0.0, 0.0, 0.0, 0.0, 0.0, 0.0, 0.0, 1.6625062227287133E9, 0.0, 2022-09-06 19:17:02.728
130.0, -9859.421534469311, -4631.952003473282, -23750.94130646483, -21842.728178826354, 31631.898180472635, 4470.237132339136, -7351.26523390594, 37147.392290519754, -14163.719315972248, -837.0504781067942, -5771.063956149096, 5319.983401296545, 27527.26853218896, -732.3772588225912, 3716.2904401171736, 7025.1979857919205, 0.252, 0.854, 0.514, 192.0, 3.5, 112.0, 13.0, 88.0, 8.0, 8.0, 0.0, 0.0, 0.0, 1.6625062227287183E9, 0.0, 2022-09-06 19:17:02.728
132.0, -9910.338808338502, -4694.40277748141, -23715.26792231416, -21911.99623489335, 31599.085819612246, 4444.0408878375165, -7535.845939617866, 37384.41018872383, -13959.133798972822, -625.5359203262235, -5558.252997190118, 5519.293906604517, 27737.73255798013, -512.7937212936546, 3795.303856766684, 7192.523144784349, 0.252, 0.854, 0.514, 192.0, 0.0, 0.0, 0.0, 0.0, 0.0, 0.0, 0.0, 0.0, 0.0, 1.662506222728724E9, 0.0, 2022-09-06 19:17:02.728
134.0, -9862.841351370973, -4632.399038362389, -23751.27658263166, -21848.785501573744, 31577.382275746142, 4451.998108863605, -7228.375342890661, 37308.63777502034, -14158.243138580698, -822.7677133998529, -5761.072726377574, 5311.266220958975, 27527.469697889057, -728.6445174985549, 3714.1223209050086, 7072.203704381431, 0.252, 0.854, 0.514, 192.0, 0.0, 0.0, 0.0, 0.0, 0.0, 0.0, 0.0, 0.0, 0.0, 1.6625062227287292E9, 0.0, 2022-09-06 19:17:02.728
136.0, -9884.902523148361, -4669.659396369386, -23684.377811476927, -21893.824266651187, 31607.467723782986, 4407.629896119821, -7802.770471903143, 37318.47254258067, -13958.306784427976, -622.9654697138632, -5579.107174766919, 5502.954781407689, 27710.843409400393, -516.8840905289758, 3731.5790333246036, 7178.218028332953, 0.252, 0.854, 0.514, 192.0, 0.0, 0.0, 0.0, 0.0, 0.0, 0.0, 0.0, 0.0, 0.0, 1.6625062227287345E9, 0.0, 2022-09-06 19:17:02.728
138.0, -9890.378700539912, -4661.992748021215, -23799.53399891067, -21896.484124241368, 31414.616872622595, 4396.25285819207, -6937.400333571474, 37518.27478626666, -14148.698943698282, -825.1817018010262, -5769.968720670787, 5307.108796490288, 27529.615465356765, -720.5531860057338, 3731.824902513612, 7109.93344902199, 0.252, 0.854, 0.514, 192.0, 0.0, 0.0, 0.0, 0.0, 0.0, 0.0, 0.0, 0.0, 0.0, 1.66250622272874E9, 0.0, 2022-09-06 19:17:02.728
140.0, -9878.71108993424, -4650.034564737626, -23722.822811940052, -21894.181894562473, 31485.561309523742, 4458.413059522279, -7834.197024607304, 37318.69606002523, -13990.850924354903, -643.6184815905668, -5623.698904955257, 5470.634158925314, 27667.90570830175, -542.2756722302047, 3616.2887354241298, 7140.443580203483, 0.25, 0.8420000000000001, 0.496, 192.0, 3.5, 96.0, 12.5, 120.0, 7.0, 120.0, 0.0, 0.0, 0.0, 1.6625062227287457E9, 0.0, 2022-09-06 19:17:02.728
142.0, -9939.641945319408, -4708.953763121815, -23850.04894137966, -21945.702665531953, 31366.91824995497, 4369.050785189961, -6652.572053977497, 37683.99061965831, -14187.099240672498, -846.1029346111935, -5809.285439167672, 5269.669624527648, 27487.81770322534, -722.7213052178986, 3675.833782653068, 7115.275515946808, 0.25, 0.8420000000000001, 0.496, 192.0, 0.0, 0.0, 0.0, 0.0, 0.0, 0.0, 0.0, 0.0, 0.0, 1.6625062227287512E9, 0.0, 2022-09-06 19:17:02.728
144.0, -9871.603235197454, -4649.386364148422, -23728.813079454074, -21883.5648159462, 31440.3213787462, 4464.068050869471, -7877.581760595055, 37269.745739668106, -14004.284322772543, -669.8817813255527, -5658.388812349894, 5426.757684559547, 27663.681228599697, -584.4981175062796, 3601.7153980392695, 7124.17151024002, 0.25, 0.8420000000000001, 0.496, 192.0, 0.0, 0.0, 0.0, 0.0, 0.0, 0.0, 0.0, 0.0, 0.0, 1.6625062227287576E9, 0.0, 2022-09-06 19:17:02.728
146.0, -9972.789582346628, -4752.94199620986, -23898.753392547776, -21981.666622360543, 31297.449028187875, 4304.029560569473, -6481.04476702747, 37730.68341382544, -14181.533656303127, -857.8599521946851, -5816.10272122654, 5254.068106897844, 27474.00432515196, -760.1828289249931, 3682.248733311741, 7150.6359756751035, 0.25, 0.8420000000000001, 0.496, 192.0, 0.0, 0.0, 0.0, 0.0, 0.0, 0.0, 0.0, 0.0, 0.0, 1.6625062227287648E9, 0.0, 2022-09-06 19:17:02.728
148.0, -9860.203845525248, -4647.508817614176, -23753.332943121546, -21860.98955404634, 31434.018186809804, 4504.703522289219, -7846.021097424162, 37245.31528297845, -14043.466930802695, -709.5114242448121, -5708.143795507407, 5382.881210193778, 27577.202329302112, -622.1831586579274, 3467.9178557298014, 7101.395082640062, 0.25, 0.8420000000000001, 0.496, 192.0, 0.0, 0.0, 0.0, 0.0, 0.0, 0.0, 0.0, 0.0, 0.0, 1.662506222728773E9, 0.0, 2022-09-06 19:17:02.728
150.0, -9974.801239347606, -4745.767086239706, -23889.231549409815, -21969.015534998838, 31254.46662360032, 4328.616479470311, -6409.943867915138, 37797.09044660216, -14155.9409089018, -844.2700915658584, -5810.1348054569735, 5257.823199966336, 27510.236502914013, -735.3723925796023, 3612.1760144443533, 7208.079958925243, 0.245, 0.8460000000000001, 0.48, 192.0, 3.5, 64.0, 13.0, 72.0, 7.0, 64.0, 0.0, 0.0, 0.0, 1.6625062227287805E9, 0.0, 2022-09-06 19:17:02.728
152.0, -9868.742211907174, -4654.996652006705, -23774.589452098546, -21852.831167320153, 31318.638481931506, 4443.437390737223, -7761.062116749539, 37234.54174215099, -14051.334744850963, -726.5434535197561, -5738.095133077519, 5341.038744573444, 27566.74171289703, -629.291013394715, 3452.830428222469, 7108.190012954476, 0.245, 0.8460000000000001, 0.48, 192.0, 0.0, 0.0, 0.0, 0.0, 0.0, 0.0, 0.0, 0.0, 0.0, 1.6625062227287877E9, 0.0, 2022-09-06 19:17:02.728
154.0, -9972.141381757425, -4724.421170284888, -23897.34523264709, -21983.857093317165, 31186.584375689552, 4374.728128281609, -6428.317001857401, 37868.77249107033, -14143.245118051187, -827.2380622909144, -5809.6654188234115, 5260.348947089786, 27505.475581345032, -717.289831315259, 3585.4433280758058, 7242.926328531066, 0.245, 0.8460000000000001, 0.48, 192.0, 0.0, 0.0, 0.0, 0.0, 0.0, 0.0, 0.0, 0.0, 0.0, 1.6625062227287946E9, 0.0, 2022-09-06 19:17:02.728
156.0, -9833.784083579074, -4585.706244195252, -23777.89751027793, -21880.52497870028, 31231.153754133436, 4496.925115218773, -7778.496477424679, 37206.17737843721, -14076.346346896453, -712.417151024002, -5752.936691395842, 5344.369154497284, 27573.782512400452, -632.129684940539, 3403.589535187428, 7117.041303758777, 0.245, 0.8460000000000001, 0.48, 192.0, 0.0, 0.0, 0.0, 0.0, 0.0, 0.0, 0.0, 0.0, 0.0, 1.6625062227288024E9, 0.0, 2022-09-06 19:17:02.728
158.0, -9949.096733224003, -4726.589289497053, -23881.47549408382, -22022.324445524748, 31129.520372095154, 4361.808819986441, -6560.147590654802, 37858.222467687425, -14111.773861858113, -769.6823203184987, -5789.4147383469035, 5294.547116106405, 27549.21794524407, -686.1762030334716, 3574.6474355038927, 7260.047764783832, 0.245, 0.8460000000000001, 0.48, 192.0, 0.0, 0.0, 0.0, 0.0, 0.0, 0.0, 0.0, 0.0, 0.0, 1.6625062227288077E9, 0.0, 2022-09-06 19:17:02.728
160.0, -9823.032894496071, -4569.054194576049, -23791.487370906758, -21940.450005584957, 31145.45716589179, 4526.6305835998755, -7767.097087752472, 37247.28223649052, -14066.176303169288, -715.0099533808176, -5759.396345543426, 5311.981476781545, 27562.293715750424, -665.4784876678572, 3389.262066991576, 7122.718646850425, 0.2185, 0.8340000000000001, 0.45799999999999996, 192.0, 3.0, 0.0, 12.5, 88.0, 6.5, 80.0, 0.0, 0.0, 0.0, 1.6625062227288127E9, 0.0, 2022-09-06 19:17:02.728
162.0, -9939.261965663669, -4667.647739368408, -23898.932206503418, -22035.08729160873, 31027.99874877915, 4337.66893597471, -6705.769205781127, 37856.09905196417, -14082.537780110571, -731.6620030000214, -5773.52264803918, 5308.76282557998, 27581.78443691545, -643.8419990351199, 3513.738931863181, 7268.183799765564, 0.2185, 0.8340000000000001, 0.45799999999999996, 192.0, 0.0, 0.0, 0.0, 0.0, 0.0, 0.0, 0.0, 0.0, 0.0, 1.662506222728818E9, 0.0, 2022-09-06 19:17:02.728
164.0, -9862.394316481867, -4628.3533726159785, -23865.42694156491, -21984.237072972905, 31071.696409189277, 4428.841701607907, -7701.114738120406, 37297.37249581486, -14106.476498422206, -754.9748724669066, -5824.663439352923, 5271.658929784171, 27533.705834592085, -735.7747239797978, 3311.6121067538393, 7105.843079786669, 0.2185, 0.8340000000000001, 0.45799999999999996, 192.0, 0.0, 0.0, 0.0, 0.0, 0.0, 0.0, 0.0, 0.0, 0.0, 1.6625062227288232E9, 0.0, 2022-09-06 19:17:02.728
166.0, -9974.175390502858, -4721.984830139259, -23957.247907787314, -22086.004565477917, 30948.4041867738, 4258.409650136191, -6835.699896299827, 37764.59101016414, -14104.487193165683, -788.7483583388756, -5842.701297128356, 5248.524874272928, 27516.852619272784, -716.6639824705104, 3410.116244568377, 7211.700941527002, 0.2185, 0.8340000000000001, 0.45799999999999996, 192.0, 0.0, 0.0, 0.0, 0.0, 0.0, 0.0, 0.0, 0.0, 0.0, 1.6625062227288287E9, 0.0, 2022-09-06 19:17:02.728
168.0, -9822.60821135142, -4560.739345638674, -23894.663023312452, -21961.01361048384, 31008.530379358577, 4499.473214086677, -7671.655138928311, 37439.753107995166, -14119.596972417472, -756.7183085344207, -5874.932512632909, 5242.489903269995, 27464.281316313904, -721.1566831060271, 3231.5705098593844, 7089.794527267758, 0.2185, 0.8340000000000001, 0.45799999999999996, 192.0, 0.0, 0.0, 0.0, 0.0, 0.0, 0.0, 0.0, 0.0, 0.0, 1.662506222728834E9, 0.0, 2022-09-06 19:17:02.728
170.0, -9943.486445365721, -4702.091777574036, -23957.11379732058, -22099.728536573475, 30865.903897989265, 4414.067198522949, -7059.753782719825, 37857.97659849842, -14098.139297740378, -733.8748257010968, -5839.929680815898, 5272.597703051294, 27555.297619735913, -698.80493865072, 3393.7324158826373, 7266.44036369805, 0.16125, 0.803, 0.427, 192.0, 1.5, 32.0, 12.0, 16.0, 6.0, 48.0, 0.0, 0.0, 0.0, 1.6625062227288392E9, 0.0, 2022-09-06 19:17:02.728
172.0, -9841.160159249326, -4582.889924393884, -23976.157483596504, -22088.70912655701, 30865.993304967084, 4513.890089260351, -7665.664871414289, 37558.26205709721, -14145.904975641368, -781.1711169685266, -5962.797220086721, 5162.448306375541, 27463.700170958065, -769.6823203184987, 3221.4004661322197, 7072.583684037171, 0.16125, 0.803, 0.427, 192.0, 0.0, 0.0, 0.0, 0.0, 0.0, 0.0, 0.0, 0.0, 0.0, 1.6625062227288444E9, 0.0, 2022-09-06 19:17:02.728
174.0, -9980.724451628263, -4683.249256998212, -24008.32164386769, -22168.258985073448, 30740.912942995186, 4402.556050128466, -7210.225726392952, 38068.038292889396, -14093.132506982389, -701.0624648407061, -5946.212225700882, 5220.786359403892, 27466.360028548246, -677.7048918849101, 3318.9881824240906, 7246.5473111328265, 0.16125, 0.803, 0.427, 192.0, 0.0, 0.0, 0.0, 0.0, 0.0, 0.0, 0.0, 0.0, 0.0, 1.6625062227288496E9, 0.0, 2022-09-06 19:17:02.728
176.0, -9896.257209331658, -4517.019333484093, -23950.60943968409, -22155.04910410036, 30645.02395928192, 4444.577329704443, -7510.141433494263, 37836.898903477064, -14221.744444578224, -660.4269934209577, -5975.269493492782, 5152.434724859563, 27390.475856122477, -742.2120263829263, 3200.367474599776, 7157.341499011696, 0.16125, 0.803, 0.427, 192.0, 0.0, 0.0, 0.0, 0.0, 0.0, 0.0, 0.0, 0.0, 0.0, 1.662506222728855E9, 0.0, 2022-09-06 19:17:02.728
178.0, -10046.773856493695, -4673.97328304926, -23910.4433548979, -22223.914828767163, 30412.342299502172, 4404.277134451525, -7289.105032575731, 38149.08571828434, -14151.13528384391, -605.3075915941706, -5957.946891539918, 4898.988294480836, 27248.72109278692, -902.2952201718355, 3133.71457263405, 7159.107286823665, 0.16125, 0.803, 0.427, 192.0, 0.0, 0.0, 0.0, 0.0, 0.0, 0.0, 0.0, 0.0, 0.0, 1.66250622272886E9, 0.0, 2022-09-06 19:17:02.728
180.0, -10012.061597354603, -4594.043444877082, -23799.28812972166, -22105.741155831955, 30497.100114476696, 4274.793478821931, -7317.894079434166, 38039.76333615343, -14410.951961392399, -548.7353263777884, -6020.017685892307, 4509.598554324932, 26905.778277609144, -787.0943292491829, 2997.860669834694, 7133.4921876778835, 0.077625, 0.7785, 0.35550000000000004, 192.0, 127.5, 104.0, 11.5, 72.0, 4.0, 112.0, 0.0, 0.0, 0.0, 1.6625062227288651E9, 0.0, 2022-09-06 19:17:02.728
0.0, -4406.199384474681, -2140.8053804404, -15955.412799765207, -11087.851057988531, 6855.727059331783, 1031.6671170791528, 23607.554865784034, 18243.806748844, -7167.623301461137, -251.16655244428546, -3051.929539672082, 2124.6003657103024, 13322.310247696669, -486.7315872587666, 1506.9769629212574, 3586.1362321539204, 0.0978125, 0.82925, 0.28375, 192.0, 1.5, 88.0, 13.5, 64.0, 3.0, 80.0, 0.0, 0.0, 0.0, 1.6625062233049247E9, 0.0, 2022-09-06 19:17:03.304
2.0, -9417.460491354524, -5204.469585951518, -32243.15133609192, -23441.034369592, 12625.047579413365, 948.8315521277848, 53487.29979840515, 40033.13661016663, -14164.27810958363, -268.4444509082378, -11329.160491128026, -4822.4112179769545, 21484.87675009689, -4355.1703518832155, -4968.233998803377, -2405.874717935886, 0.0978125, 0.82925, 0.28375, 192.0, 0.0, 0.0, 0.0, 0.0, 0.0, 0.0, 0.0, 0.0, 0.0, 1.6625062233050492E9, 0.0, 2022-09-06 19:17:03.305
4.0, -9592.497002184034, -5101.986837623935, -32626.997843622907, -23019.949855798466, 12884.59603602839, 1210.2799070215115, 55844.96180355094, 38480.45032983427, -15488.127230182557, -1640.5509877861725, -12693.08628953532, -6215.953077787528, 20104.902399170685, -5829.759637088733, -5807.653761822434, -3362.551732367484, 0.0978125, 0.82925, 0.28375, 192.0, 0.0, 0.0, 0.0, 0.0, 0.0, 0.0, 0.0, 0.0, 0.0, 1.6625062233050609E9, 0.0, 2022-09-06 19:17:03.305
6.0, -9249.889463173087, -5011.082292924201, -32051.373368665383, -23213.292445336872, 12838.037352327985, 1152.590054582364, 51796.032702449884, 39584.850023370986, -14179.656109768881, -277.4298521792713, -11313.514270009313, -4829.027334335725, 21489.63767166587, -4312.679685673676, -5067.788668607315, -2508.4468732412906, 0.0978125, 0.82925, 0.28375, 192.0, 0.0, 0.0, 0.0, 0.0, 0.0, 0.0, 0.0, 0.0, 0.0, 1.662506223305071E9, 0.0, 2022-09-06 19:17:03.305
8.0, -9749.853283149396, -5270.630749539227, -32746.937304370083, -23201.200151586552, 12674.93667303761, 1038.663213093664, 57656.52598816466, 38958.732957688924, -15429.655066687474, -1612.2313275612985, -12637.810425497346, -6171.115478410182, 20171.979984281064, -5831.234852222783, -5657.360632104949, -3177.322826066354, 0.20400000000000001, 0.9560000000000001, 0.20600000000000002, 192.0, 3.0, 48.0, 14.5, 112.0, 3.0, 56.0, 0.0, 0.0, 0.0, 1.6625062233050768E9, 0.0, 2022-09-06 19:17:03.305
10.0, -9114.683760962935, -4839.130322829524, -31904.54475933847, -22994.40181188605, 13024.897935974353, 1368.5973129984513, 50259.68554731435, 39110.434247307094, -14239.759950609203, -318.7805794215893, -11342.772703501309, -4875.429555824942, 21441.00027573112, -4337.244252830059, -5185.068271764311, -2642.959671373328, 0.20400000000000001, 0.9560000000000001, 0.20600000000000002, 192.0, 0.0, 0.0, 0.0, 0.0, 0.0, 0.0, 0.0, 0.0, 0.0, 1.6625062233050835E9, 0.0, 2022-09-06 19:17:03.305
12.0, -9913.646866517885, -5456.261987240552, -32848.74950036401, -23389.647709089248, 12488.634883002625, 859.7374987289309, 59275.55224604038, 39491.10680712543, -15354.508501828732, -1550.3393471645531, -12570.732840386969, -6099.992227553395, 20184.966347809597, -5804.301000154138, -5481.742975919602, -2999.8052716023058, 0.20400000000000001, 0.9560000000000001, 0.20600000000000002, 192.0, 0.0, 0.0, 0.0, 0.0, 0.0, 0.0, 0.0, 0.0, 0.0, 1.6625062233050888E9, 0.0, 2022-09-06 19:17:03.305
14.0, -8994.006692648732, -4685.015044810181, -31821.888008342747, -22805.015481116236, 13151.341754358025, 1553.468591388296, 48990.4640901642, 38641.04761374564, -14331.9832482318, -414.0213625456527, -11421.495547472901, -4962.98133885638, 21354.879004344824, -4365.586264799388, -5319.692828618626, -2801.187670372447, 0.20400000000000001, 0.9560000000000001, 0.20600000000000002, 192.0, 0.0, 0.0, 0.0, 0.0, 0.0, 0.0, 0.0, 0.0, 0.0, 1.6625062233050945E9, 0.0, 2022-09-06 19:17:03.305
16.0, -10034.346286576545, -5614.624096706402, -32947.20893468964, -23586.968909140698, 12319.409825731496, 711.6795434569768, 60550.585156748915, 39969.81411812474, -15224.197831654292, -1454.9868053182133, -12457.901234376579, -5985.908923853508, 20305.285788212514, -5717.911507834377, -5347.990137099045, -2855.770630332307, 0.20400000000000001, 0.9560000000000001, 0.20600000000000002, 192.0, 0.0, 0.0, 0.0, 0.0, 0.0, 0.0, 0.0, 0.0, 0.0, 1.6625062233050997E9, 0.0, 2022-09-06 19:17:03.305
18.0, -8917.854299289502, -4568.920084109317, -31771.127196684745, -22641.512470425663, 13294.236456660803, 1701.1912704934205, 48079.92107628835, 38167.861183626796, -14464.394982385038, -567.1308120645061, -11558.645851450665, -5098.567020722273, 21204.71998509407, -4479.915437688284, -5457.3572227188615, -3008.1871757730455, 0.23800000000000002, 0.9380000000000001, 0.244, 192.0, 3.5, 56.0, 14.5, 40.0, 3.5, 80.0, 0.0, 0.0, 0.0, 1.6625062233051052E9, 0.0, 2022-09-06 19:17:03.305
20.0, -10125.206127787367, -5741.783170912644, -33045.1989823817, -23777.69634457783, 12151.905852783424, 566.3037975196597, 61407.01459729846, 40371.4302624977, -15077.4586293052, -1347.318452276999, -12344.957869643911, -5846.29992798566, 20469.369944258924, -5599.424910476793, -5166.717489566504, -2700.001323223272, 0.23800000000000002, 0.9380000000000001, 0.244, 192.0, 0.0, 0.0, 0.0, 0.0, 0.0, 0.0, 0.0, 0.0, 0.0, 1.6625062233051107E9, 0.0, 2022-09-06 19:17:03.305
22.0, -8869.172199865843, -4481.100080144415, -31787.01928699247, -22544.349437278444, 13416.925181975983, 1863.9566736169666, 47571.441241674576, 37805.29353681726, -14603.400481152592, -732.1984448669488, -11727.625039532786, -5243.428676537118, 21107.780469391404, -4647.531169358632, -5588.338445226961, -3201.8873932227366, 0.23800000000000002, 0.9380000000000001, 0.244, 192.0, 0.0, 0.0, 0.0, 0.0, 0.0, 0.0, 0.0, 0.0, 0.0, 1.6625062233051164E9, 0.0, 2022-09-06 19:17:03.305
24.0, -10149.636584477019, -5797.126090183984, -33061.91808723427, -23904.67660482843, 12057.29091850411, 478.99788367723033, 61825.506308735174, 40740.792839621645, -14913.218011047604, -1224.4732647506314, -12206.600571465562, -5682.4616411282595, 20604.620349957986, -5452.328080216418, -5006.27666786631, -2567.299016392114, 0.23800000000000002, 0.9380000000000001, 0.244, 192.0, 0.0, 0.0, 0.0, 0.0, 0.0, 0.0, 0.0, 0.0, 0.0, 1.6625062233051217E9, 0.0, 2022-09-06 19:17:03.305
26.0, -8853.548330491583, -4419.2751549810355, -31831.38749973625, -22451.857918722384, 13472.223397758413, 1900.7252932459467, 47545.557921595326, 37469.346817654, -14761.427314451614, -895.0085514794054, -11907.02014053108, -5393.721806254603, 20889.068649896224, -4776.590141843574, -5708.814347841067, -3364.0716509904446, 0.23800000000000002, 0.9380000000000001, 0.244, 192.0, 0.0, 0.0, 0.0, 0.0, 0.0, 0.0, 0.0, 0.0, 0.0, 1.6625062233051271E9, 0.0, 2022-09-06 19:17:03.305
28.0, -10140.695886694895, -5831.5030731562465, -33034.22427585415, -23982.21480634389, 11989.431022337798, 405.0359612746193, 61758.048743969055, 40974.81560406871, -14735.141662972173, -1042.5524166288874, -12032.94986879228, -5482.793507909001, 20779.2545293873, -5250.290662084897, -4907.325495162666, -2422.079732665984, 0.23800000000000002, 0.876, 0.256, 192.0, 3.5, 56.0, 13.5, 48.0, 4.0, 0.0, 0.0, 0.0, 0.0, 1.6625062233051326E9, 0.0, 2022-09-06 19:17:03.305
30.0, -8880.795106982601, -4417.576422402432, -31890.060828931433, -22409.76958391304, 13460.242862730369, 1917.71261903198, 48052.85311375298, 37261.00620758608, -14936.597935747855, -1105.7631499484958, -12089.656244475394, -5578.526029411081, 20703.593874406084, -5025.4544646089635, -5842.589538406079, -3492.638885097371, 0.23800000000000002, 0.876, 0.256, 192.0, 0.0, 0.0, 0.0, 0.0, 0.0, 0.0, 0.0, 0.0, 0.0, 1.662506223305138E9, 0.0, 2022-09-06 19:17:03.305
32.0, -10101.312112964644, -5826.96566903182, -32940.92809449769, -23985.92519592347, 11986.413536836331, 413.8872520789209, 61260.588319371745, 41094.397436904605, -14561.200387620973, -882.4021676066122, -11849.173825880745, -5300.917363276168, 20972.284194503332, -5076.237628011421, -4820.265450509244, -2302.7884725080103, 0.23800000000000002, 0.876, 0.256, 192.0, 0.0, 0.0, 0.0, 0.0, 0.0, 0.0, 0.0, 0.0, 0.0, 1.6625062233051436E9, 0.0, 2022-09-06 19:17:03.305
34.0, -8961.730773655268, -4476.607379508899, -31954.053873306977, -22397.23025527361, 13454.654926616542, 1896.389054821617, 49033.40179126284, 37187.42426483921, -15103.878391251374, -1288.6227713373628, -12270.615967585562, -5755.3730315414705, 20534.033540968125, -5228.095379840777, -5896.725463476832, -3553.9497201382783, 0.23800000000000002, 0.876, 0.256, 192.0, 0.0, 0.0, 0.0, 0.0, 0.0, 0.0, 0.0, 0.0, 0.0, 1.662506223305149E9, 0.0, 2022-09-06 19:17:03.305
36.0, -10036.737923233262, -5800.545907085647, -32844.86029682878, -23961.293573533723, 12017.52716511812, 463.97751140326403, 60336.455444867075, 41068.71528252546, -14416.606952739592, -735.4841513018789, -11696.623169973276, -5142.219977643487, 21123.873725399226, -4883.833811740138, -4768.4094033729325, -2235.9791083310974, 0.23800000000000002, 0.876, 0.256, 192.0, 0.0, 0.0, 0.0, 0.0, 0.0, 0.0, 0.0, 0.0, 0.0, 1.6625062233051543E9, 0.0, 2022-09-06 19:17:03.305
38.0, -9098.70226367739, -4594.848107677473, -32108.727944937702, -22472.68974455473, 13358.140094058526, 1804.9257165105007, 50430.31876448617, 37222.963538523145, -15275.383326456944, -1492.7612534476823, -12469.94882463799, -5951.822513559165, 20360.829873183953, -5445.22022547963, -5972.90020858052, -3625.9446890288223, 0.25, 0.876, 0.256, 192.0, 3.5, 104.0, 13.5, 48.0, 4.0, 0.0, 0.0, 0.0, 0.0, 1.6625062233051612E9, 0.0, 2022-09-06 19:17:03.305
40.0, -9897.95594191026, -5671.621045067435, -32688.80041704183, -23844.70687445484, 12151.682335338872, 566.9967015977743, 59056.03576374481, 40944.10430718712, -14295.773422214203, -591.8518414320757, -11558.24352005047, -4997.246563106366, 21227.04937780492, -4708.439672999343, -4725.404647040921, -2223.1045035248403, 0.25, 0.876, 0.256, 192.0, 0.0, 0.0, 0.0, 0.0, 0.0, 0.0, 0.0, 0.0, 0.0, 1.6625062233051667E9, 0.0, 2022-09-06 19:17:03.305
42.0, -9216.898288357055, -4696.794414138129, -32246.548801249126, -22552.820748427006, 13232.769159408708, 1692.2729244557531, 52124.759808154085, 37432.466439302734, -15362.733943788284, -1591.3547982400416, -12570.688136898058, -6044.559901304234, 20200.120830550295, -5582.258770735118, -5911.231745628327, -3592.2382583902195, 0.25, 0.876, 0.256, 192.0, 0.0, 0.0, 0.0, 0.0, 0.0, 0.0, 0.0, 0.0, 0.0, 1.6625062233051724E9, 0.0, 2022-09-06 19:17:03.305
44.0, -9769.992204903629, -5553.022688987576, -32556.835717777696, -23725.527373019144, 12239.167063136943, 665.4114324344913, 57527.064684279525, 40651.587027500515, -14199.057423956088, -490.5090320717135, -11439.041666870316, -4887.387739108532, 21356.0412950565, -4525.915327777306, -4759.066374190614, -2266.7127569571444, 0.25, 0.876, 0.256, 192.0, 0.0, 0.0, 0.0, 0.0, 0.0, 0.0, 0.0, 0.0, 0.0, 1.6625062233051777E9, 0.0, 2022-09-06 19:17:03.305
46.0, -9415.940572731564, -4898.027169469258, -32459.829146841665, -22754.187614224866, 13002.121508374395, 1484.8040324215929, 54073.85427640132, 37680.83902369011, -15481.712279523885, -1737.5799104666605, -12711.459423477581, -6186.9181617400845, 20062.67995389461, -5764.671357234879, -5931.79535052721, -3576.882609949423, 0.25, 0.876, 0.256, 192.0, 0.0, 0.0, 0.0, 0.0, 0.0, 0.0, 0.0, 0.0, 0.0, 1.6625062233051832E9, 0.0, 2022-09-06 19:17:03.305
48.0, -9602.6670459112, -5384.78110847248, -32409.291852628216, -23560.23622277215, 12383.246407895853, 860.475106295956, 55837.27280345831, 40255.91644715267, -14171.9447579318, -443.9279966268536, -11399.412023951058, -4848.763924689762, 21367.172463795243, -4458.927149644751, -4896.35078863511, -2379.365549011892, 0.255, 0.865, 0.236, 192.0, 4.0, 16.0, 13.0, 88.0, 3.0, 96.0, 0.0, 0.0, 0.0, 1.662506223305189E9, 0.0, 2022-09-06 19:17:03.305
50.0, -9562.947996014118, -5056.277520212832, -32619.84528539721, -22912.59442717963, 12831.667105158223, 1322.776236865072, 56090.24984720348, 38086.567889042846, -15498.45373612091, -1777.7683469973026, -12747.937470428644, -6213.449682408534, 19983.6665372451, -5838.186244748384, -5867.914064873942, -3461.212332393209, 0.255, 0.865, 0.236, 192.0, 0.0, 0.0, 0.0, 0.0, 0.0, 0.0, 0.0, 0.0, 0.0, 1.6625062233051941E9, 0.0, 2022-09-06 19:17:03.305
52.0, -9439.074628242806, -5213.432635478096, -32250.639170484446, -23373.487397848057, 12544.156616229608, 1013.4057418591669, 54097.7706429685, 39768.648418026976, -14157.66199322486, -406.4217694308483, -11372.768744560331, -4825.071075567135, 21377.81189415597, -4378.147945183271, -5009.204746389955, -2492.107748044461, 0.255, 0.865, 0.236, 192.0, 0.0, 0.0, 0.0, 0.0, 0.0, 0.0, 0.0, 0.0, 0.0, 1.6625062233051999E9, 0.0, 2022-09-06 19:17:03.305
54.0, -9762.705536211197, -5276.352796119785, -32780.084941397305, -23136.089519988243, 12620.845451455767, 1091.1227573302697, 58063.618309929174, 38539.88361834093, -15518.458547408409, -1815.5651468712267, -12789.310549415417, -6253.906339872639, 19939.14186229013, -5928.330830136637, -5795.829689005576, -3360.025985244034, 0.255, 0.865, 0.236, 192.0, 0.0, 0.0, 0.0, 0.0, 0.0, 0.0, 0.0, 0.0, 0.0, 1.6625062233052063E9, 0.0, 2022-09-06 19:17:03.305
56.0, -9277.829143742221, -5028.628412321617, -32081.816444613512, -23160.899956333633, 12770.982118962065, 1199.2828487495005, 52465.087469230595, 39261.62144680279, -14208.154583949397, -431.1875022873285, -11400.328445473724, -4855.760020704272, 21335.567097135438, -4360.579474041399, -5134.687439762049, -2630.8897293674627, 0.255, 0.865, 0.236, 192.0, 0.0, 0.0, 0.0, 0.0, 0.0, 0.0, 0.0, 0.0, 0.0, 1.662506223305212E9, 0.0, 2022-09-06 19:17:03.305
58.0, -9900.548744267076, -5437.486521898094, -32909.076858648885, -23318.9044378882, 12464.0926675907, 882.2904088843356, 59836.670438846406, 39066.64717991915, -15438.416950513954, -1740.3515267791186, -12720.131900326242, -6184.593580316732, 20027.431252888593, -5903.051007157685, -5629.823282936011, -3174.0594713758796, 0.2565, 0.8775, 0.20400000000000001, 192.0, 4.0, 8.0, 13.5, 104.0, 2.5, 48.0, 0.0, 0.0, 0.0, 1.6625062233052175E9, 0.0, 2022-09-06 19:17:03.305
60.0, -9136.09673215112, -4849.05449736768, -31994.42112379326, -22955.174500366986, 12950.220757749172, 1366.9432839087588, 51009.54187030099, 38737.60714979257, -14274.382802770473, -475.71217724230024, -11437.544099991812, -4921.11652149159, 21257.268936308497, -4394.375311657824, -5268.663796027159, -2787.7542719548073, 0.2565, 0.8775, 0.20400000000000001, 192.0, 0.0, 0.0, 0.0, 0.0, 0.0, 0.0, 0.0, 0.0, 0.0, 1.6625062233052227E9, 0.0, 2022-09-06 19:17:03.305
62.0, -10026.545527761642, -5591.087709794964, -33033.62077875385, -23512.73876580462, 12264.111609949066, 684.5892291771447, 61321.407416034635, 39559.16786899184, -15349.077027926092, -1643.7025837543708, -12628.31093410384, -6105.11077703366, 20043.63626761869, -5859.4427537253805, -5495.444595270705, -3006.8013676168166, 0.2565, 0.8775, 0.20400000000000001, 192.0, 0.0, 0.0, 0.0, 0.0, 0.0, 0.0, 0.0, 0.0, 0.0, 1.6625062233052285E9, 0.0, 2022-09-06 19:17:03.305
64.0, -9042.487626372293, -4729.450312787332, -31925.7342130821, -22767.01751554221, 13092.44490771829, 1521.9526317063132, 49871.9721879926, 38207.53553003496, -14402.99474036631, -586.2862570627043, -11550.509816468933, -5048.320299186743, 21154.786187980913, -4476.517972531077, -5453.1327430168085, -2968.2893119203227, 0.2565, 0.8775, 0.20400000000000001, 192.0, 0.0, 0.0, 0.0, 0.0, 0.0, 0.0, 0.0, 0.0, 0.0, 1.6625062233052337E9, 0.0, 2022-09-06 19:17:03.305
66.0, -10151.96116590037, -5766.3477380690265, -33108.34266046794, -23690.613948179955, 12106.285942350143, 535.4136866824254, 62443.4873394355, 40012.08126688973, -15232.512680591666, -1554.1614954664108, -12510.897220480112, -5992.368578001092, 20173.343440692835, -5747.527569237658, -5346.9619568541, -2818.644382792042, 0.2565, 0.8775, 0.20400000000000001, 192.0, 0.0, 0.0, 0.0, 0.0, 0.0, 0.0, 0.0, 0.0, 0.0, 1.6625062233052397E9, 0.0, 2022-09-06 19:17:03.305
68.0, -8969.82210514809, -4633.807198263073, -31885.657535273738, -22613.0363479896, 13255.81380794213, 1666.7025287988818, 49094.131480947915, 37741.12167848607, -14553.31022182825, -754.4831340888899, -11694.455050761111, -5208.492899953473, 20992.646633702116, -4604.302895582067, -5628.683343968791, -3157.653290945684, 0.26225, 0.89575, 0.166, 192.0, 4.0, 48.0, 14.0, 72.0, 2.0, 0.0, 0.0, 0.0, 0.0, 1.662506223305245E9, 0.0, 2022-09-06 19:17:03.305
70.0, -10199.190401934435, -5871.2444747977825, -33139.61275096092, -23822.064557321617, 12007.558287091051, 443.01157510418597, 63076.891073809995, 40468.1015572669, -15047.88727139083, -1411.5350140970963, -12336.35244802862, -5835.280517969193, 20316.372253462345, -5611.293686782562, -5216.405417490651, -2644.90427314094, 0.26225, 0.89575, 0.166, 192.0, 0.0, 0.0, 0.0, 0.0, 0.0, 0.0, 0.0, 0.0, 0.0, 1.6625062233052523E9, 0.0, 2022-09-06 19:17:03.305
72.0, -8927.174976727365, -4578.151354569359, -31887.13275040779, -22490.481733141154, 13328.50168091079, 1742.8325704136575, 48725.05947650188, 37364.248915225144, -14688.314758338305, -940.8519793572402, -11838.802616453484, -5386.748061984546, 20829.165974756, -4779.384109900488, -5797.595476817546, -3330.700496518671, 0.26225, 0.89575, 0.166, 192.0, 0.0, 0.0, 0.0, 0.0, 0.0, 0.0, 0.0, 0.0, 0.0, 1.6625062233052585E9, 0.0, 2022-09-06 19:17:03.305
74.0, -10228.582945893162, -5962.104316008606, -33141.244428306156, -23939.791195367718, 11899.554657883009, 303.08965481396376, 63221.260991246825, 40729.43815343835, -14866.569920369378, -1278.005692721092, -12158.92430054239, -5677.4772021147255, 20504.551590031577, -5451.41165869375, -5118.8400529432365, -2518.3263442905363, 0.26225, 0.89575, 0.166, 192.0, 0.0, 0.0, 0.0, 0.0, 0.0, 0.0, 0.0, 0.0, 0.0, 1.6625062233052638E9, 0.0, 2022-09-06 19:17:03.305
76.0, -8944.028192046666, -4569.501229465154, -31937.871210321333, -22444.48184305213, 13365.73968717333, 1766.3466055806407, 48864.17673399171, 37046.228295115034, -14865.832312802353, -1148.3879266247664, -12020.052912241568, -5589.657198149825, 20652.98952495927, -5002.789795731282, -5924.151053923494, -3502.920687546812, 0.26225, 0.89575, 0.166, 192.0, 0.0, 0.0, 0.0, 0.0, 0.0, 0.0, 0.0, 0.0, 0.0, 1.6625062233052692E9, 0.0, 2022-09-06 19:17:03.305
78.0, -10200.77737579076, -5973.883685336553, -33092.718791093685, -23997.950434440427, 11857.265157373567, 274.9711602891875, 62837.21331801574, 40951.413327624, -14695.62377877519, -1117.0507808984257, -11988.782821748593, -5515.695275747214, 20668.591042589076, -5274.698767030092, -5001.403987575053, -2402.8125289455093, 0.253125, 0.893875, 0.11900000000000001, 192.0, 3.5, 80.0, 13.5, 112.0, 1.0, 32.0, 0.0, 0.0, 0.0, 1.6625062233052747E9, 0.0, 2022-09-06 19:17:03.305
80.0, -9000.30988458513, -4594.155203599358, -32025.601807308416, -22444.750063985597, 13369.941815130927, 1738.429276755962, 49492.9313055195, 36922.93607269956, -15042.724018421653, -1335.8520073714267, -12210.534478489695, -5775.534305040158, 20419.5702576125, -5209.051693564856, -6011.971057888396, -3607.079816708543, 0.253125, 0.893875, 0.11900000000000001, 192.0, 0.0, 0.0, 0.0, 0.0, 0.0, 0.0, 0.0, 0.0, 0.0, 1.6625062233052804E9, 0.0, 2022-09-06 19:17:03.305
82.0, -10119.595839929085, -5920.150091665994, -32964.218612220124, -23988.294480835735, 11918.55364067002, 290.7738436190896, 62022.78280529771, 40996.27327874581, -14532.277230295806, -946.1940462820586, -11812.606371951864, -5340.77052363998, 20831.959942812915, -5083.703110659494, -4916.266192944789, -2334.46089440118, 0.253125, 0.893875, 0.11900000000000001, 192.0, 0.0, 0.0, 0.0, 0.0, 0.0, 0.0, 0.0, 0.0, 0.0, 1.6625062233052857E9, 0.0, 2022-09-06 19:17:03.305
84.0, -9088.040481572209, -4659.221131708758, -32129.44801204777, -22474.030849222047, 13282.144162910481, 1676.9619795038677, 50587.96561812945, 36901.813674189296, -15178.644976454376, -1477.0256253511461, -12359.866483195601, -5932.734123794333, 20305.174029490237, -5385.675178250692, -6038.748447745854, -3647.6705846393806, 0.253125, 0.893875, 0.11900000000000001, 192.0, 0.0, 0.0, 0.0, 0.0, 0.0, 0.0, 0.0, 0.0, 0.0, 1.6625062233052912E9, 0.0, 2022-09-06 19:17:03.305
86.0, -10038.660173256418, -5866.572960206623, -32845.41909044017, -23950.765901895276, 11981.2279321227, 367.3956236118822, 60789.97233986525, 40890.66128619448, -14395.7974786517, -789.5306693948114, -11672.773858639463, -5208.6493621646605, 20998.078107604757, -4890.5616868211855, -4913.11459697659, -2308.890498744309, 0.253125, 0.893875, 0.11900000000000001, 192.0, 0.0, 0.0, 0.0, 0.0, 0.0, 0.0, 0.0, 0.0, 0.0, 1.662506223305297E9, 0.0, 2022-09-06 19:17:03.305
88.0, -9242.714553202934, -4799.18775548789, -32234.925894132364, -22573.876091703904, 13209.165717263904, 1600.6531239334495, 52070.66858657225, 37050.0951469058, -15337.878803953983, -1647.1671041449433, -12541.273241194875, -6134.436265759024, 20122.56027729038, -5600.96718084421, -6061.413116623535, -3671.0281575951767, 0.24456250000000002, 0.9249375, 0.1005, 192.0, 3.5, 48.0, 14.5, 112.0, 1.0, 72.0, 0.0, 0.0, 0.0, 1.6625062233053021E9, 0.0, 2022-09-06 19:17:03.305
90.0, -9915.569116541043, -5757.51879900918, -32656.435091070547, -23833.687464438375, 12131.096378695534, 499.2262124092832, 59273.42883031713, 40723.85021732452, -14293.11356462402, -677.0790430401615, -11542.060857064827, -5115.531994763851, 21073.98463177498, -4729.249147087235, -4912.354637665109, -2306.0294754540296, 0.24456250000000002, 0.9249375, 0.1005, 192.0, 0.0, 0.0, 0.0, 0.0, 0.0, 0.0, 0.0, 0.0, 0.0, 1.6625062233053076E9, 0.0, 2022-09-06 19:17:03.305
92.0, -9399.042653923352, -4953.3700887405985, -32363.627238706023, -22702.756250233204, 13066.53923589459, 1439.832322577515, 53830.533186260844, 37360.762043090115, -15423.597743940085, -1770.2581608603193, -12631.30606786085, -6259.248406797458, 20012.90261899264, -5755.842418175032, -6051.6230525521105, -3605.9845812302333, 0.24456250000000002, 0.9249375, 0.1005, 192.0, 0.0, 0.0, 0.0, 0.0, 0.0, 0.0, 0.0, 0.0, 0.0, 1.662506223305313E9, 0.0, 2022-09-06 19:17:03.305
94.0, -9750.926166883251, -5600.766015144112, -32464.590068410645, -23678.45459919627, 12274.639281587515, 641.1597897004831, 57523.086073766484, 40421.65463228877, -14203.90775250289, -594.1093676220618, -11424.982419607928, -5020.80530176226, 21235.855965120314, -4598.938476912794, -4961.88610337807, -2354.5774644109565, 0.24456250000000002, 0.9249375, 0.1005, 192.0, 0.0, 0.0, 0.0, 0.0, 0.0, 0.0, 0.0, 0.0, 0.0, 1.6625062233053184E9, 0.0, 2022-09-06 19:17:03.305
96.0, -9553.068524964872, -5117.431893042552, -32499.883472905574, -22860.872490510046, 12889.759288997566, 1263.454707080687, 55743.060200579195, 37771.38594047856, -15471.676346263452, -1854.4795339679163, -12688.884161577722, -6316.357113880767, 19946.94262110503, -5865.477724728314, -5982.109127296106, -3520.3326964774965, 0.24456250000000002, 0.9249375, 0.1005, 192.0, 0.0, 0.0, 0.0, 0.0, 0.0, 0.0, 0.0, 0.0, 0.0, 1.6625062233053238E9, 0.0, 2022-09-06 19:17:03.305
98.0, -9570.882865295753, -5415.537108842982, -32268.878193959976, -23482.832131723422, 12460.583443711215, 806.3838847141129, 55700.59188611411, 39988.74604567839, -14152.208167577764, -544.6449571424672, -11346.86307273663, -4966.512914480319, 21292.65174778125, -4482.776460978564, -5024.202766919466, -2439.5140933411235, 0.25328125, 0.95846875, 0.11025, 192.0, 4.0, 24.0, 15.5, 0.0, 1.5, 96.0, 0.0, 0.0, 0.0, 1.662506223305329E9, 0.0, 2022-09-06 19:17:03.305
100.0, -9715.185727499214, -5285.6064183242825, -32624.941483133018, -23038.457100207463, 12712.129975811242, 1106.210184837602, 57674.854418618015, 38252.171963712215, -15457.661802489973, -1875.0878423557094, -12690.806411600877, -6330.930451265628, 19911.626864865644, -5929.694286548411, -5857.676965913412, -3381.8189360879587, 0.25328125, 0.95846875, 0.11025, 192.0, 0.0, 0.0, 0.0, 0.0, 0.0, 0.0, 0.0, 0.0, 0.0, 1.6625062233053348E9, 0.0, 2022-09-06 19:17:03.305
102.0, -9417.974581476998, -5237.192539834087, -32108.392668770874, -23280.88412056972, 12617.202117109551, 1034.1705124581472, 53898.52719289389, 39519.96290921723, -14156.365592046452, -559.7994398831654, -11335.128406897595, -4981.4885832653745, 21275.865587695313, -4443.660908181776, -5125.612631513194, -2550.401097583902, 0.25328125, 0.95846875, 0.11025, 192.0, 0.0, 0.0, 0.0, 0.0, 0.0, 0.0, 0.0, 0.0, 0.0, 1.6625062233053412E9, 0.0, 2022-09-06 19:17:03.305
104.0, -9891.33982555149, -5473.584589193415, -32779.593203019285, -23254.17378594563, 12487.85257194669, 932.9618135645168, 59468.313690222945, 38774.733397332835, -15427.933982364415, -1900.300610101296, -12685.419641187149, -6331.176320454636, 19940.81824312428, -5968.206342244905, -5728.439179472826, -3230.8999575257253, 0.25328125, 0.95846875, 0.11025, 192.0, 0.0, 0.0, 0.0, 0.0, 0.0, 0.0, 0.0, 0.0, 0.0, 1.6625062233053467E9, 0.0, 2022-09-06 19:17:03.305
106.0, -9291.486059604415, -5071.968444820457, -32006.245196610118, -23113.089574943733, 12773.373755618783, 1216.7395611690952, 52235.780922863596, 39003.74937102191, -14205.874706014956, -603.0500654041846, -11378.982529518906, -5024.5156913418405, 21278.25722435203, -4438.8776348683405, -5247.831970194813, -2701.6553523129646, 0.25328125, 0.95846875, 0.11025, 192.0, 0.0, 0.0, 0.0, 0.0, 0.0, 0.0, 0.0, 0.0, 0.0, 1.6625062233053522E9, 0.0, 2022-09-06 19:17:03.305
108.0, -10070.600816083052, -5662.702699029768, -32955.88141153829, -23513.632835582834, 12274.460467631874, 723.771837207298, 61074.197122358935, 39300.75935134404, -15368.433638624389, -1857.787592147302, -12656.630594328713, -6272.592398237276, 19978.63739474266, -5939.998440742307, -5605.839861135467, -3092.430900625098, 0.257640625, 0.9432343750000001, 0.137125, 192.0, 4.0, 24.0, 14.5, 0.0, 2.5, 16.0, 0.0, 0.0, 0.0, 1.6625062233053577E9, 0.0, 2022-09-06 19:17:03.305
110.0, -9184.734128085867, -4915.953268522414, -31936.306588209463, -22964.316363849208, 12962.402458477314, 1406.2376506611886, 50823.55300468839, 38462.34541682547, -14293.53824776867, -710.6066597231221, -11483.901617992118, -5123.265698345387, 21172.511121333973, -4496.723949518675, -5395.889925466768, -2889.1641365485357, 0.257640625, 0.9432343750000001, 0.137125, 192.0, 0.0, 0.0, 0.0, 0.0, 0.0, 0.0, 0.0, 0.0, 0.0, 1.6625062233053632E9, 0.0, 2022-09-06 19:17:03.305
112.0, -10199.525678101263, -5810.984171746275, -33076.33496240794, -23722.085204373026, 12117.260648877698, 572.1376028224948, 62346.92780338858, 39802.35484866558, -15244.06853247506, -1785.367940112107, -12578.354785246229, -6181.620798304177, 20061.428256205112, -5891.830431441121, -5432.747952073569, -2922.088256131203, 0.257640625, 0.9432343750000001, 0.137125, 192.0, 0.0, 0.0, 0.0, 0.0, 0.0, 0.0, 0.0, 0.0, 0.0, 1.6625062233053687E9, 0.0, 2022-09-06 19:17:03.305
114.0, -9088.107536805575, -4776.076051721103, -31894.844102244868, -22788.27402451921, 13110.438062004812, 1574.9486178098462, 49758.470029648546, 37954.625541523164, -14403.777051422245, -835.9999461173948, -11613.273514899436, -5262.450011068584, 21034.35498885572, -4590.735386697696, -5515.270592602563, -3061.719603743506, 0.257640625, 0.9432343750000001, 0.137125, 192.0, 0.0, 0.0, 0.0, 0.0, 0.0, 0.0, 0.0, 0.0, 0.0, 1.662506223305374E9, 0.0, 2022-09-06 19:17:03.305
116.0, -10297.649836260061, -5947.016888501274, -33130.24737003414, -23889.075087198627, 11959.770257445605, 428.28177550813865, 63207.42526142899, 40249.546199982906, -15104.07955695147, -1673.1621829464655, -12451.285118017808, -6078.668663343033, 20231.502679765545, -5776.338967840549, -5258.493752299995, -2744.794219111707, 0.257640625, 0.9432343750000001, 0.137125, 192.0, 0.0, 0.0, 0.0, 0.0, 0.0, 0.0, 0.0, 0.0, 0.0, 1.6625062233053796E9, 0.0, 2022-09-06 19:17:03.305
118.0, -9025.12032093052, -4677.840134840028, -31827.96768283459, -22635.611609889464, 13237.641839699965, 1688.9648662763675, 49111.1411584784, 37500.147521513405, -14560.842759709689, -1005.8955557221838, -11753.262490423023, -5439.1629027322415, 20931.313446916753, -4749.611586286019, -5644.866006954433, -3242.1652367312, 0.257640625, 0.9432343750000001, 0.137125, 192.0, 0.0, 0.0, 0.0, 0.0, 0.0, 0.0, 0.0, 0.0, 0.0, 1.662506223305386E9, 0.0, 2022-09-06 19:17:03.305
120.0, -10361.106438768678, -6047.085648427684, -33133.063689835515, -24023.856106264127, 11856.438142828722, 299.22280302319564, 63616.35042623883, 40626.642480688395, -14950.187796376682, -1523.1149224179892, -12277.85793278908, -5926.587394069123, 20374.75500997961, -5644.217806365229, -5117.320134320275, -2576.776156041164, 0.268, 0.924, 0.19, 192.0, 4.0, 48.0, 14.0, 112.0, 2.5, 120.0, 0.0, 0.0, 0.0, 1.6625062237857528E9, 0.0, 2022-09-06 19:17:03.785
122.0, -9010.904611456945, -4625.805273748073, -31820.30103448642, -22516.566218920496, 13328.725198355341, 1754.2543118303195, 48951.03561294504, 37153.404909778226, -14745.781093332898, -1193.5384504244864, -11922.17462327178, -5633.779541704601, 20723.73279616032, -4956.6557951755285, -5766.034813646653, -3392.570125170961, 0.268, 0.924, 0.19, 192.0, 0.0, 0.0, 0.0, 0.0, 0.0, 0.0, 0.0, 0.0, 0.0, 1.6625062237858632E9, 0.0, 2022-09-06 19:17:03.785
124.0, -10354.75854334337, -6071.851381284164, -33091.400038170825, -24062.055237538247, 11804.425633481222, 243.87988375185537, 63541.60619278028, 40901.36777178857, -14779.286358271404, -1340.2553010291222, -12094.640683488928, -5752.7578774402, 20544.158881206382, -5442.381553933806, -4971.653815705039, -2408.2216511036936, 0.268, 0.924, 0.19, 192.0, 0.0, 0.0, 0.0, 0.0, 0.0, 0.0, 0.0, 0.0, 0.0, 1.6625062237859168E9, 0.0, 2022-09-06 19:17:03.785
126.0, -9020.672323783914, -4598.223221090224, -31866.032703641977, -22440.30206683899, 13347.567718931166, 1796.655571062037, 49284.411881495944, 36919.695069753536, -14917.353083771835, -1346.7596586656164, -12094.238352088732, -5810.224212434794, 20540.068511971058, -5130.351201337719, -5878.866419657043, -3497.422158410807, 0.268, 0.924, 0.19, 192.0, 0.0, 0.0, 0.0, 0.0, 0.0, 0.0, 0.0, 0.0, 0.0, 1.6625062237859237E9, 0.0, 2022-09-06 19:17:03.785
128.0, -10313.51957482333, -6064.743526547376, -33021.93081640373, -24087.647984939576, 11782.85620008185, 232.16756965727447, 62983.70665117582, 41030.31498555124, -14601.969969507452, -1152.6124063268194, -11907.98126554266, -5573.742756097646, 20726.906743872973, -5238.779513690414, -4882.380948350543, -2296.060597426963, 0.268, 0.924, 0.19, 192.0, 0.0, 0.0, 0.0, 0.0, 0.0, 0.0, 0.0, 0.0, 0.0, 1.6625062237859292E9, 0.0, 2022-09-06 19:17:03.785
130.0, -9048.768466564235, -4597.932648412305, -31920.280387435007, -22407.71322342315, 13350.652259665998, 1798.980152485389, 50042.49364644213, 36815.535940591806, -15081.638405518343, -1515.828253725559, -12264.893921005001, -5988.6358366770555, 20370.262309344093, -5337.328354993863, -5964.98769104334, -3577.7096244942695, 0.258, 0.928, 0.17400000000000002, 192.0, 4.0, 8.0, 14.5, 0.0, 2.5, 56.0, 0.0, 0.0, 0.0, 1.6625062237859347E9, 0.0, 2022-09-06 19:17:03.785
132.0, -10211.170936962479, -5989.351092499625, -32897.99039339905, -24048.107748998136, 11833.549956506486, 267.0586427520088, 61942.16006304742, 41039.032165888806, -14401.072490343153, -941.1872555240698, -11691.236399559546, -5362.049384361432, 20941.99758076639, -5001.359284086142, -4796.147918241968, -2198.8752125352876, 0.258, 0.928, 0.17400000000000002, 192.0, 0.0, 0.0, 0.0, 0.0, 0.0, 0.0, 0.0, 0.0, 0.0, 1.6625062237859414E9, 0.0, 2022-09-06 19:17:03.785
134.0, -9167.545636599736, -4693.97809433676, -32062.906868804323, -22487.196026706224, 13235.42901699889, 1678.4148428934627, 51260.328443089544, 36816.47471385893, -15246.437817387321, -1694.7539680902921, -12449.161702294554, -6166.645129519121, 20178.976080295575, -5551.659232575802, -6056.428677610002, -3651.2915672411405, 0.258, 0.928, 0.17400000000000002, 192.0, 0.0, 0.0, 0.0, 0.0, 0.0, 0.0, 0.0, 0.0, 0.0, 1.6625062237859514E9, 0.0, 2022-09-06 19:17:03.785
136.0, -10085.28591219019, -5881.548628991679, -32759.074301609315, -23973.698791706418, 11901.231038717156, 364.28873113259453, 60528.54633671598, 40896.31627754167, -14264.01159334321, -794.7609775973532, -11547.872310623206, -5220.2722692814195, 21081.69598361206, -4825.495758711786, -4835.3305262721215, -2210.1628434852178, 0.258, 0.928, 0.17400000000000002, 192.0, 0.0, 0.0, 0.0, 0.0, 0.0, 0.0, 0.0, 0.0, 0.0, 1.6625062237859569E9, 0.0, 2022-09-06 19:17:03.785
138.0, -9312.541402881314, -4830.703715169873, -32219.257321269197, -22605.86143801945, 13105.654788691378, 1556.4637251453073, 52833.48892134296, 36998.350858491765, -15369.03713572468, -1832.239548234886, -12597.376119777695, -6314.300753390879, 20021.15041269665, -5748.488694249237, -6109.983457324917, -3654.957253331811, 0.258, 0.928, 0.17400000000000002, 192.0, 0.0, 0.0, 0.0, 0.0, 0.0, 0.0, 0.0, 0.0, 0.0, 1.6625062237859623E9, 0.0, 2022-09-06 19:17:03.785
140.0, -9907.746005981686, -5719.543185179614, -32593.73844787341, -23822.53394395518, 12053.37936322443, 481.0318924226633, 58795.52618211821, 40634.06325984756, -14155.538577501606, -670.4629266813906, -11429.028085354339, -5101.495099245918, 21213.43716543164, -4651.085096727025, -4881.308064616688, -2229.385343716782, 0.26, 0.9460000000000001, 0.11, 192.0, 4.0, 16.0, 14.5, 72.0, 1.5, 56.0, 0.0, 0.0, 0.0, 1.6625062237859678E9, 0.0, 2022-09-06 19:17:03.785
142.0, -9449.222320225515, -4970.580931971184, -32401.289928113216, -22744.64341934245, 12939.760141344088, 1376.5992375134513, 54701.73712989535, 37334.20817067721, -15443.356686038576, -1919.8360347552343, -12694.717966880557, -6399.907934654705, 19942.494623958424, -5871.199771308872, -6081.417927911035, -3584.2586856196745, 0.26, 0.9460000000000001, 0.11, 192.0, 0.0, 0.0, 0.0, 0.0, 0.0, 0.0, 0.0, 0.0, 0.0, 1.6625062237859733E9, 0.0, 2022-09-06 19:17:03.785
144.0, -9718.806710100975, -5525.261822374085, -32430.861286027586, -23639.92019175532, 12231.388656066496, 655.1743334739606, 56810.087777386645, 40226.121571793745, -14075.340518395964, -564.940341107886, -11326.277116093293, -5001.8510224641595, 21327.207544709152, -4490.331350604457, -4950.8443416171485, -2302.050864940985, 0.26, 0.9460000000000001, 0.11, 192.0, 0.0, 0.0, 0.0, 0.0, 0.0, 0.0, 0.0, 0.0, 0.0, 1.6625062237859786E9, 0.0, 2022-09-06 19:17:03.785
146.0, -9660.736878006086, -5177.669844349604, -32593.716096128956, -22986.913977493525, 12712.75582465599, 1143.2917288889562, 56824.839928727146, 37801.06905711521, -15493.692814551929, -1983.3596924972169, -12764.634223536757, -6460.995252251059, 19886.12352444214, -5974.196609758927, -6025.359752817125, -3509.9391353057786, 0.26, 0.9460000000000001, 0.11, 192.0, 0.0, 0.0, 0.0, 0.0, 0.0, 0.0, 0.0, 0.0, 0.0, 1.662506223785984E9, 0.0, 2022-09-06 19:17:03.785
148.0, -9533.17547239965, -5309.165156980176, -32221.313681759082, -23449.08099759591, 12449.474626716928, 887.69953104252, 54438.7018011453, 39587.66634317236, -14092.305492437541, -580.6983209488775, -11321.560898013222, -5017.854871494159, 21323.385396407295, -4451.819294907963, -5104.691398703027, -2501.6742946713325, 0.26, 0.9460000000000001, 0.11, 192.0, 0.0, 0.0, 0.0, 0.0, 0.0, 0.0, 0.0, 0.0, 0.0, 1.6625062237859895E9, 0.0, 2022-09-06 19:17:03.785
150.0, -10011.927486887871, -5579.844782333945, -32885.853396159815, -23521.36653916437, 12258.322508135141, 712.7300754463763, 61215.66131301658, 39034.05833650331, -15486.361442370588, -1998.6259339601916, -12781.934473745165, -6480.731842605096, 19843.230526832405, -6070.4655731279345, -5885.013149382252, -3342.61397631335, 0.222, 0.9440000000000001, 0.042, 192.0, 3.0, 120.0, 14.5, 64.0, 0.5, 40.0, 0.0, 0.0, 0.0, 1.6625062237859948E9, 0.0, 2022-09-06 19:17:03.785
152.0, -9316.98940002792, -4958.332176009676, -32058.34711293544, -23013.64666386207, 12869.888588176798, 1305.3642279343878, 52508.60631568507, 38174.47729998556, -14437.550537294215, -892.3039904003133, -11643.046038513905, -5377.7626607135135, 20988.69037493353, -4754.931301466382, -5509.0121041550765, -2971.6197218441635, 0.222, 0.9440000000000001, 0.042, 192.0, 0.0, 0.0, 0.0, 0.0, 0.0, 0.0, 0.0, 0.0, 0.0, 1.6625062237860005E9, 0.0, 2022-09-06 19:17:03.786
154.0, -9610.736025659566, -5219.422902992118, -32432.716480817377, -23287.433181695127, 12562.619157149693, 994.7867387278961, 55559.954710001315, 38855.80317447224, -14774.167808791139, -1282.4983933566086, -12028.725389090228, -5782.172773143384, 20606.07321334758, -5282.454822356084, -5416.811158276935, -2874.6802061414965, 0.222, 0.9440000000000001, 0.042, 192.0, 0.0, 0.0, 0.0, 0.0, 0.0, 0.0, 0.0, 0.0, 0.0, 1.6625062237860057E9, 0.0, 2022-09-06 19:17:03.786
156.0, -9448.507064402946, -5076.86347685617, -32198.246681481207, -23174.64627917365, 12684.302053964384, 1142.9341009776713, 52953.13780941222, 38750.5935133211, -14533.126596585107, -976.7265292080081, -11741.483121095076, -5508.877993688345, 20871.70134445445, -4930.7724750962825, -5433.127931729309, -2886.414871980533, 0.222, 0.9440000000000001, 0.042, 192.0, 0.0, 0.0, 0.0, 0.0, 0.0, 0.0, 0.0, 0.0, 0.0, 1.6625062237860112E9, 0.0, 2022-09-06 19:17:03.786
158.0, -9703.518116893545, -5304.359531922285, -32528.58311278619, -23412.334729711383, 12415.432919911495, 896.5284701023663, 56360.01305103458, 39148.09693671429, -14864.491208135034, -1340.3000045180327, -12074.546465223608, -5857.811076380143, 20547.891622530416, -5344.145637052731, -5481.3629962638615, -2938.2932708613007, 0.222, 0.9440000000000001, 0.042, 192.0, 0.0, 0.0, 0.0, 0.0, 0.0, 0.0, 0.0, 0.0, 0.0, 1.6625062237860167E9, 0.0, 2022-09-06 19:17:03.786
160.0, -9424.590697835767, -5038.731400815416, -32216.82098112357, -23180.793008898858, 12664.27489093243, 1165.4199558997102, 53190.51333552758, 38687.80746314615, -14634.379998967648, -1018.2560704059686, -11802.726900902619, -5580.492982923149, 20775.566491552174, -5011.954010957958, -5537.175302168764, -2983.0638150052805, 0.158, 0.9460000000000001, -0.004, 192.0, 2.0, 120.0, 14.5, 72.0, 127.5, 112.0, 0.0, 0.0, 0.0, 1.6625062237860222E9, 0.0, 2022-09-06 19:17:03.786
162.0, -9702.914619793251, -5311.422683170162, -32529.63364477559, -23460.703904712667, 12365.454419309428, 869.7063767559978, 56900.38882498608, 39302.81571183392, -14842.072408446362, -1271.7025007846953, -12015.515508117142, -5801.909363497421, 20561.59324188152, -5320.564546652383, -5456.373745962828, -2897.8142616527393, 0.158, 0.9460000000000001, -0.004, 192.0, 0.0, 0.0, 0.0, 0.0, 0.0, 0.0, 0.0, 0.0, 0.0, 1.6625062237860277E9, 0.0, 2022-09-06 19:17:03.786
164.0, -9403.021264436396, -5019.128920928111, -32224.599388194012, -23164.14095927965, 12654.283661160907, 1166.2022669556459, 53575.90211342599, 38641.96403526831, -14704.676235279589, -1048.6097393762755, -11843.362372322366, -5610.846651893456, 20703.90679882846, -5069.554456419284, -5573.362776441905, -3026.8732341376826, 0.158, 0.9460000000000001, -0.004, 192.0, 0.0, 0.0, 0.0, 0.0, 0.0, 0.0, 0.0, 0.0, 0.0, 1.6625062237860332E9, 0.0, 2022-09-06 19:17:03.786
166.0, -9720.393683957302, -5342.53631145195, -32549.437290362992, -23496.958434219174, 12308.077491292655, 835.3740972726462, 57376.57038886195, 39381.337390105415, -14836.88680373273, -1227.3119362964555, -11985.385356591387, -5730.294374262617, 20564.722486105264, -5275.123450174743, -5412.519623341515, -2871.4615549399323, 0.158, 0.9460000000000001, -0.004, 192.0, 0.0, 0.0, 0.0, 0.0, 0.0, 0.0, 0.0, 0.0, 0.0, 1.66250622378604E9, 0.0, 2022-09-06 19:17:03.786
168.0, -9417.840471010264, -5025.163891931044, -32265.681894502868, -23185.799799656845, 12611.413015295628, 1164.682348332685, 54123.408093858736, 38582.68720897284, -14768.78103837741, -1088.105271828803, -11903.399157929322, -5609.1479193148525, 20663.4277896199, -5113.430930785052, -5587.176154515285, -3066.793449734861, 0.158, 0.9460000000000001, -0.004, 192.0, 0.0, 0.0, 0.0, 0.0, 0.0, 0.0, 0.0, 0.0, 0.0, 1.6625062237860453E9, 0.0, 2022-09-06 19:17:03.786
170.0, -9730.608431173378, -5351.164084811698, -32555.651075321566, -23537.348036449916, 12302.020168545267, 841.8113996757746, 57748.16814043142, 39410.03702998603, -14814.557411021879, -1205.7872063859948, -11969.985004661681, -5660.959262962254, 20594.629120186462, -5252.9058161861685, -5395.0182074330105, -2869.0922700276697, 0.11800000000000001, 0.9520000000000001, 0.008, 192.0, 1.5, 88.0, 14.5, 96.0, 0.0, 32.0, 0.0, 0.0, 0.0, 1.6625062237860508E9, 0.0, 2022-09-06 19:17:03.786
172.0, -9457.760686607444, -5062.245435982399, -32340.649645405967, -23226.189401887586, 12580.589959691759, 1137.3461648638445, 54755.00133693234, 38531.83699033702, -14829.756597251488, -1163.721223321107, -11983.597217034963, -5636.394695805871, 20574.959585065793, -5192.9807893014895, -5609.103215825941, -3118.6047933822624, 0.11800000000000001, 0.9520000000000001, 0.008, 192.0, 0.0, 0.0, 0.0, 0.0, 0.0, 0.0, 0.0, 0.0, 0.0, 1.6625062237860565E9, 0.0, 2022-09-06 19:17:03.786
174.0, -9757.609338475388, -5395.867573722312, -32615.68786092852, -23576.731810180165, 12244.822054484137, 784.9932652703841, 58067.93219660905, 39370.720311489145, -14819.720663991055, -1212.492729722587, -11999.154031175856, -5631.678477725802, 20617.293789064144, -5250.111848129255, -5393.20771613213, -2890.9075726160495, 0.11800000000000001, 0.9520000000000001, 0.008, 192.0, 0.0, 0.0, 0.0, 0.0, 0.0, 0.0, 0.0, 0.0, 0.0, 1.6625062237860615E9, 0.0, 2022-09-06 19:17:03.786
176.0, -9474.457439715557, -5098.72348293346, -32423.574617335158, -23273.55274838838, 12528.219822432975, 1092.016827108482, 55498.375654026946, 38513.93324302832, -14896.834182361865, -1235.3138608114555, -12080.53673273763, -5679.891190515899, 20550.663238842873, -5238.80186543487, -5638.406352806849, -3167.3539480392874, 0.11800000000000001, 0.9520000000000001, 0.008, 192.0, 0.0, 0.0, 0.0, 0.0, 0.0, 0.0, 0.0, 0.0, 0.0, 1.6625062237860677E9, 0.0, 2022-09-06 19:17:03.786
178.0, -9749.6521174493, -5411.513794841027, -32634.64214022662, -23596.133124367374, 12222.492661773285, 789.4636141614454, 58263.95699548209, 39349.664968212244, -14804.588532994812, -1201.070988305925, -12006.306589401554, -5603.917611112311, 20616.064443119103, -5206.637705163683, -5411.893774496767, -2911.985267637404, 0.11800000000000001, 0.9520000000000001, 0.008, 192.0, 0.0, 0.0, 0.0, 0.0, 0.0, 0.0, 0.0, 0.0, 0.0, 1.6625062237860732E9, 0.0, 2022-09-06 19:17:03.786
180.0, -9500.45251851708, -5132.452265316519, -32468.099292290128, -23318.256237298996, 12465.210254813464, 1048.8109050763733, 56079.34219590929, 38517.50952214116, -14942.610555006333, -1294.7695010625723, -12143.099265468034, -5715.318705477561, 20492.124020114425, -5291.216706182565, -5663.015623452142, -3204.256678134999, 0.066, 0.916, 0.034, 192.0, 1.0, 8.0, 14.0, 80.0, 0.5, 8.0, 0.0, 0.0, 0.0, 1.6625062237860785E9, 0.0, 2022-09-06 19:17:03.786
182.0, -9723.92525958124, -5385.250495106041, -32597.091209541704, -23586.879502162876, 12250.566452809151, 828.7579809138753, 57951.68077369699, 39230.99955689902, -14776.268872769937, -1173.6901013481738, -11992.180286905801, -5555.548436111026, 20653.727132526295, -5179.390928672663, -5417.21348967713, -2935.00756442637, 0.066, 0.916, 0.034, 192.0, 0.0, 0.0, 0.0, 0.0, 0.0, 0.0, 0.0, 0.0, 0.0, 1.662506223786084E9, 0.0, 2022-09-06 19:17:03.786
184.0, -9504.095852863295, -5134.933308951057, -32455.291742717236, -23335.355321807307, 12472.340461294707, 1042.3959544177, 56204.824889281386, 38494.263707907645, -14932.753435701543, -1320.317544974988, -12154.342192929053, -5709.328437963538, 20505.713880743253, -5320.609250141293, -5637.556986517548, -3205.2178031465774, 0.066, 0.916, 0.034, 192.0, 0.0, 0.0, 0.0, 0.0, 0.0, 0.0, 0.0, 0.0, 0.0, 1.6625062237860894E9, 0.0, 2022-09-06 19:17:03.786
186.0, -9678.931197992706, -5339.630584672759, -32514.68032773499, -23536.029283527052, 12290.799592828704, 868.3652720886794, 57342.8863099678, 39178.85293708479, -14720.925953498598, -1147.4715051020987, -11950.762504430117, -5509.257973344085, 20726.95144736188, -5128.831282714758, -5394.302951610441, -2943.478875574932, 0.066, 0.916, 0.034, 192.0, 0.0, 0.0, 0.0, 0.0, 0.0, 0.0, 0.0, 0.0, 0.0, 1.662506223786095E9, 0.0, 2022-09-06 19:17:03.786
188.0, -9502.508879006968, -5131.781712982859, -32415.058602697685, -23309.315539516872, 12476.743754952402, 1063.5407046724206, 56291.90728567926, 38646.00970101472, -14898.711728896109, -1318.3952949518318, -12128.011837960701, -5677.454850370271, 20540.96258174927, -5290.322636404352, -5577.900180566333, -3141.6270901712287, 0.066, 0.916, 0.034, 192.0, 0.0, 0.0, 0.0, 0.0, 0.0, 0.0, 0.0, 0.0, 0.0, 1.6625062237861009E9, 0.0, 2022-09-06 19:17:03.786
190.0, -9643.011944653028, -5297.8775260302455, -32440.450184398913, -23451.137358085794, 12341.694514953437, 925.2504617274359, 56771.553369945694, 39133.05421269587, -14672.243854074939, -1104.4891005145432, -11908.40594868731, -5451.434010438205, 20757.19335760991, -5081.24441876941, -5371.526524010483, -2922.1553113645687, 0.061, 0.917, 0.056, 192.0, 0.5, 96.0, 14.0, 88.0, 1.0, 56.0, 0.0, 0.0, 0.0, 1.662506223786106E9, 0.0, 2022-09-06 19:17:03.786
192.0, -9543.837254504831, -5163.275320920387, -32417.36083237658, -23294.09400154281, 12437.605850411159, 1047.0898207533146, 56411.89144991535, 38739.305882371176, -14883.311376966403, -1325.6372601553512, -12119.562878556595, -5660.713393773245, 20548.182195208337, -5295.776462051447, -5549.535816852548, -3105.7078368315506, 0.061, 0.917, 0.056, 192.0, 0.0, 0.0, 0.0, 0.0, 0.0, 0.0, 0.0, 0.0, 0.0, 1.6625062237861116E9, 0.0, 2022-09-06 19:17:03.786
194.0, -9636.708752716631, -5275.659892041671, -32390.02464890774, -23391.43584864567, 12387.269721897808, 976.0783286188041, 56230.75291284954, 39053.28083673488, -14651.747304409422, -1090.563963718887, -11888.870524033371, -5422.8461292798675, 20765.999944925305, -5076.975235578446, -5387.731538740581, -2913.1699100935352, 0.061, 0.917, 0.056, 192.0, 0.0, 0.0, 0.0, 0.0, 0.0, 0.0, 0.0, 0.0, 0.0, 1.6625062237861173E9, 0.0, 2022-09-06 19:17:03.786
196.0, -9601.705920899622, -5215.287830267886, -32428.69316681542, -23326.079347858355, 12380.295977627753, 963.9413313795724, 56494.592904399986, 38782.780025336746, -14885.166571756194, -1353.3310715354767, -12125.396683859432, -5670.637568311402, 20537.699227058798, -5314.820148327369, -5532.123807921864, -3087.982903478492, 0.061, 0.917, 0.056, 192.0, 0.0, 0.0, 0.0, 0.0, 0.0, 0.0, 0.0, 0.0, 0.0, 1.6625062237861223E9, 0.0, 2022-09-06 19:17:03.786
198.0, -9611.048950081939, -5238.086609612299, -32336.87220059302, -23338.61867649778, 12401.820707538212, 965.7741744249075, 55706.11276699457, 38971.875783428644, -14646.807568884798, -1098.722350445074, -11887.864695532882, -5425.237765936586, 20758.24388959931, -5071.47670644244, -5420.208623434141, -2934.113494648158, 0.061, 0.917, 0.056, 192.0, 0.0, 0.0, 0.0, 0.0, 0.0, 0.0, 0.0, 0.0, 0.0, 1.6625062237861292E9, 0.0, 2022-09-06 19:17:03.786
200.0, -9618.223860052092, -5219.646420436671, -32408.37543110555, -23330.817917682878, 12373.59045429116, 965.7294709359969, 56505.43350046081, 38871.27058163531, -14846.721571293065, -1343.1833795527673, -12089.991520642225, -5645.73772498819, 20566.465922172778, -5297.497546374506, -5488.604961467381, -3048.375612303688, 0.0615, 0.9195, 0.093, 192.0, 0.5, 120.0, 14.0, 104.0, 2.0, 8.0, 0.0, 0.0, 0.0, 1.6625062237861347E9, 0.0, 2022-09-06 19:17:03.786
202.0, -9583.42219393518, -5196.64647539216, -32289.687668047867, -23298.787867878422, 12460.158760566565, 1016.3785238717228, 55259.5919680109, 38897.62328834811, -14626.378074452648, -1097.4930045000322, -11867.993994712115, -5414.218355920119, 20760.367305322565, -5085.714767660471, -5430.423370650216, -2945.4234773425433, 0.0615, 0.9195, 0.093, 192.0, 0.0, 0.0, 0.0, 0.0, 0.0, 0.0, 0.0, 0.0, 0.0, 1.6625062237861404E9, 0.0, 2022-09-06 19:17:03.786
204.0, -9665.006061197051, -5261.265368612453, -32397.288965855714, -23362.132711664763, 12357.877177939079, 933.7441246204526, 56483.77466008362, 38926.14411427309, -14826.627353027745, -1351.1406005788567, -12073.697098934306, -5642.295556342073, 20570.1539600079, -5293.787156794925, -5465.403850722772, -3018.4242747335766, 0.0615, 0.9195, 0.093, 192.0, 0.0, 0.0, 0.0, 0.0, 0.0, 0.0, 0.0, 0.0, 0.0, 1.6625062237861466E9, 0.0, 2022-09-06 19:17:03.786
206.0, -9590.127717271771, -5190.656207878138, -32250.817984440087, -23275.162073989162, 12462.572748967737, 1016.6914482940971, 54933.837644319254, 38812.88782511804, -14640.146749037118, -1126.2820513584675, -11891.39627115682, -5442.806237078457, 20752.901822674492, -5093.381416008641, -5445.823722579923, -2968.982215998437, 0.0615, 0.9195, 0.093, 192.0, 0.0, 0.0, 0.0, 0.0, 0.0, 0.0, 0.0, 0.0, 0.0, 1.662506223786152E9, 0.0, 2022-09-06 19:17:03.786
208.0, -9706.06621576145, -5297.072863229855, -32399.345326345603, -23381.62343282979, 12347.953003400924, 899.7918247928411, 56458.98657548268, 38976.368484064165, -14802.420413782647, -1361.869437917404, -12054.519302191651, -5643.3684400759275, 20610.722376194284, -5306.1476714787095, -5445.890777813289, -2996.6760273785626, 0.0615, 0.9195, 0.093, 192.0, 0.0, 0.0, 0.0, 0.0, 0.0, 0.0, 0.0, 0.0, 0.0, 1.6625062237861576E9, 0.0, 2022-09-06 19:17:03.786
210.0, -9587.244342237038, -5177.580437371783, -32245.364158792992, -23237.052349692865, 12485.550342267794, 1043.4464864070997, 54680.95000755191, 38761.47881287084, -14637.196318769018, -1152.0536127154367, -11889.339910666933, -5463.146324532786, 20755.516976775765, -5123.980954167957, -5456.485504685104, -2967.3281869087446, 0.06475, 0.9257500000000001, 0.1305, 192.0, 1.0, 16.0, 14.5, 16.0, 2.5, 32.0, 0.0, 0.0, 0.0, 1.662506223786163E9, 0.0, 2022-09-06 19:17:03.786
212.0, -9727.747407883096, -5315.602459383304, -32393.80209372069, -23360.791606997445, 12371.467038567906, 913.1358162326594, 56265.93455862219, 39008.28677514634, -14767.529340687912, -1346.290272032055, -12013.816775538538, -5624.101236355453, 20610.431803516367, -5285.986397980023, -5423.002591491055, -2944.082372675225, 0.06475, 0.9257500000000001, 0.1305, 192.0, 0.0, 0.0, 0.0, 0.0, 0.0, 0.0, 0.0, 0.0, 0.0, 1.6625062237861688E9, 0.0, 2022-09-06 19:17:03.786
214.0, -9572.581597874356, -5160.995442985945, -32228.488591729238, -23187.498532235448, 12548.15757848711, 1072.816678621373, 54354.18985535978, 38707.65581222246, -14646.964031095986, -1183.6142758863302, -11896.715986337183, -5490.504859746082, 20705.493772684786, -5163.49883836494, -5458.519513430538, -2969.6080648431857, 0.06475, 0.9257500000000001, 0.1305, 192.0, 0.0, 0.0, 0.0, 0.0, 0.0, 0.0, 0.0, 0.0, 0.0, 1.6625062237861743E9, 0.0, 2022-09-06 19:17:03.786
216.0, -9715.789224599508, -5298.659837086182, -32368.052884108176, -23319.686748944136, 12403.631198839093, 915.2368802114582, 55848.269861730325, 39025.6093770992, -14711.29235163836, -1308.6052308804074, -11957.289213811066, -5583.2645992356065, 20666.80290303265, -5237.170188089632, -5359.657747704715, -2879.7764038773066, 0.06475, 0.9257500000000001, 0.1305, 192.0, 0.0, 0.0, 0.0, 0.0, 0.0, 0.0, 0.0, 0.0, 0.0, 1.6625062237861795E9, 0.0, 2022-09-06 19:17:03.786
218.0, -9540.12686492525, -5121.119930877678, -32212.127114787952, -23135.82129905478, 12564.809628106312, 1102.8350714248504, 53889.29592243385, 38671.624800160505, -14627.249792486406, -1170.2255809576013, -11884.154305953301, -5486.280380044029, 20712.109889043557, -5124.271526845876, -5435.8771962973115, -2940.1261139066355, 0.06475, 0.9257500000000001, 0.1305, 192.0, 0.0, 0.0, 0.0, 0.0, 0.0, 0.0, 0.0, 0.0, 0.0, 1.6625062237861853E9, 0.0, 2022-09-06 19:17:03.786
220.0, -9705.932105294718, -5285.472307857551, -32361.88380263851, -23289.668356140657, 12413.041283254777, 936.8510170997403, 55154.404658604224, 39006.073952445266, -14659.27984229086, -1265.3769571038433, -11912.339855711443, -5548.820561029978, 20723.621037438043, -5183.235428718976, -5343.050401574422, -2844.3712406601003, 0.071375, 0.919875, 0.16025, 192.0, 1.0, 56.0, 14.0, 72.0, 2.5, 120.0, 0.0, 0.0, 0.0, 1.6625062237861905E9, 0.0, 2022-09-06 19:17:03.786
222.0, -9503.581762740823, -5080.439755969019, -32227.147487061917, -23098.471534069962, 12591.452907497038, 1126.0138304250038, 53162.28308228053, 38613.64437504344, -14620.410158683082, -1190.364502711833, -11885.54011410953, -5504.072368630454, 20719.95535134737, -5143.851654988725, -5453.98210930611, -2943.3000616192894, 0.071375, 0.919875, 0.16025, 192.0, 0.0, 0.0, 0.0, 0.0, 0.0, 0.0, 0.0, 0.0, 0.0, 1.6625062237861965E9, 0.0, 2022-09-06 19:17:03.786
224.0, -9652.176159879704, -5223.669734438627, -32327.663281877434, -23208.73268946799, 12485.595045756703, 1014.0986459372814, 54032.90588055919, 38982.67167600056, -14590.324710646239, -1204.3790464853105, -11842.021267655047, -5493.142365591809, 20767.273994359257, -5124.517396034885, -5307.064093001377, -2797.3878738150447, 0.071375, 0.919875, 0.16025, 192.0, 0.0, 0.0, 0.0, 0.0, 0.0, 0.0, 0.0, 0.0, 0.0, 1.662506223786202E9, 0.0, 2022-09-06 19:17:03.786
226.0, -9448.887044058687, -5021.364095373642, -32187.830768565032, -23036.668960651037, 12639.64326854268, 1184.0613107754364, 52177.532276813065, 38605.485988317254, -14583.395669865093, -1153.618234827308, -11831.091264616403, -5466.253217012074, 20743.558793492175, -5097.717654432971, -5391.531335297983, -2888.3594737481444, 0.071375, 0.919875, 0.16025, 192.0, 0.0, 0.0, 0.0, 0.0, 0.0, 0.0, 0.0, 0.0, 0.0, 1.6625062237862072E9, 0.0, 2022-09-06 19:17:03.786
228.0, -9607.964409347107, -5176.284036193376, -32279.785845254166, -23158.731837121468, 12513.065339692277, 1063.9653878170716, 52740.952699297995, 38947.557085461274, -14530.757311672845, -1142.5988248108417, -11774.831923822394, -5439.051144009965, 20830.35061721213, -5063.877113327636, -5249.1507231176765, -2754.941911094417, 0.071375, 0.919875, 0.16025, 192.0, 0.0, 0.0, 0.0, 0.0, 0.0, 0.0, 0.0, 0.0, 0.0, 1.6625062237862127E9, 0.0, 2022-09-06 19:17:03.786
230.0, -9419.203927422039, -4987.903533924047, -32170.50816661217, -22989.46207636143, 12649.41098086965, 1195.9300870812044, 51072.21616175368, 38571.91366814538, -14561.35684983216, -1133.2110921396127, -11810.95234286217, -5452.3057284719625, 20770.984383938838, -5073.6448256546055, -5357.422573259184, -2851.0767639966925, 0.07468749999999999, 0.9229375, 0.176125, 192.0, 1.0, 56.0, 14.0, 120.0, 3.0, 0.0, 0.0, 0.0, 0.0, 1.6625062237862191E9, 0.0, 2022-09-06 19:17:03.786
232.0, -9554.521388354467, -5124.316230334786, -32221.671309670368, -23085.507522285883, 12579.047689324343, 1100.2869725569456, 51317.25833621721, 38933.60959692116, -14465.557273096714, -1069.240399508524, -11708.89427767924, -5372.197076344142, 20882.385478304088, -4995.056092149745, -5204.134309784688, -2696.067416199138, 0.07468749999999999, 0.9229375, 0.176125, 192.0, 0.0, 0.0, 0.0, 0.0, 0.0, 0.0, 0.0, 0.0, 0.0, 1.6625062237862248E9, 0.0, 2022-09-06 19:17:03.786
234.0, -9396.047520166341, -4977.375862285598, -32142.344968598485, -22961.768264981303, 12661.726792064524, 1217.6112792028523, 50274.59416086604, 38691.29433528118, -14523.940029613976, -1123.8010077239285, -11771.769734832018, -5430.915109028234, 20802.45564013191, -5057.484514413419, -5294.345950406308, -2781.339321296134, 0.07468749999999999, 0.9229375, 0.176125, 192.0, 0.0, 0.0, 0.0, 0.0, 0.0, 0.0, 0.0, 0.0, 0.0, 1.66250622378623E9, 0.0, 2022-09-06 19:17:03.786
236.0, -9551.772123786464, -5129.010096670401, -32207.18737926333, -23066.821463921246, 12590.245913296452, 1130.46182757161, 50467.86969517109, 38996.23918488493, -14439.361028595094, -1053.6835853676303, -11686.766050668484, -5349.778276655469, 20883.167789360024, -4978.448746019452, -5191.438518934074, -2658.136505858482, 0.07468749999999999, 0.9229375, 0.176125, 192.0, 0.0, 0.0, 0.0, 0.0, 0.0, 0.0, 0.0, 0.0, 0.0, 1.6625062237862356E9, 0.0, 2022-09-06 19:17:03.786
238.0, -9421.215584423016, -5002.365112586631, -32164.674361309335, -22984.12000943661, 12641.36435286574, 1193.4490434466652, 49794.545745199415, 38727.1912368764, -14545.68827696899, -1156.7698307955063, -11796.446060710676, -5456.194932007186, 20791.659747559996, -5081.311474002776, -5298.257505685986, -2780.579361984654, 0.07468749999999999, 0.9229375, 0.176125, 192.0, 0.0, 0.0, 0.0, 0.0, 0.0, 0.0, 0.0, 0.0, 0.0, 1.6625062237862408E9, 0.0, 2022-09-06 19:17:03.786
240.0, -9536.46117883458, -5112.648619729116, -32188.70248659879, -23051.84579513619, 12576.901921856634, 1126.46086531411, 49586.02632117586, 38923.52896017182, -14437.259964616296, -1050.01789927696, -11692.108117593303, -5353.1086865793095, 20891.393231319576, -4968.770440670305, -5225.74844667297, -2684.3998055934676, 0.07934374999999999, 0.93446875, 0.18106250000000002, 192.0, 1.0, 80.0, 14.5, 72.0, 2.5, 104.0, 0.0, 0.0, 0.0, 1.6625062242653613E9, 0.0, 2022-09-06 19:17:04.265
242.0, -9420.05329371134, -5009.227098134411, -32148.536401812602, -22981.08017219069, 12627.014532925432, 1198.7017033936625, 49170.01565337368, 38739.99878644929, -14538.267497809828, -1157.328624406889, -11787.259493739546, -5446.784847591502, 20776.48291307484, -5072.638997154117, -5287.61807532526, -2759.3228530076567, 0.07934374999999999, 0.93446875, 0.18106250000000002, 192.0, 0.0, 0.0, 0.0, 0.0, 0.0, 0.0, 0.0, 0.0, 0.0, 1.6625062242655516E9, 0.0, 2022-09-06 19:17:04.265
244.0, -9499.491393505501, -5084.038386826323, -32140.869753464434, -23014.965416784933, 12628.556803292848, 1163.6988715766515, 48624.45427470854, 38899.92551802701, -14411.153127092497, -1018.5913465727981, -11665.487189947033, -5318.731703607047, 20892.130838886602, -4936.963908310403, -5206.3024289968525, -2660.7293082152974, 0.07934374999999999, 0.93446875, 0.18106250000000002, 192.0, 0.0, 0.0, 0.0, 0.0, 0.0, 0.0, 0.0, 0.0, 0.0, 1.6625062242655592E9, 0.0, 2022-09-06 19:17:04.265
246.0, -9428.882232771186, -5024.158063430556, -32140.221552875228, -22984.94702398146, 12632.557765550348, 1205.7425028970843, 48528.02884912835, 38808.39512448253, -14524.387064503082, -1155.7863540394728, -11773.267301710523, -5444.929652801711, 20775.365325852075, -5051.069563754745, -5259.521932544939, -2725.1470357354924, 0.07934374999999999, 0.93446875, 0.18106250000000002, 192.0, 0.0, 0.0, 0.0, 0.0, 0.0, 0.0, 0.0, 0.0, 0.0, 1.6625062242655685E9, 0.0, 2022-09-06 19:17:04.265
248.0, -9482.660529930656, -5067.140468018111, -32113.15359033985, -22995.050012475254, 12643.979506967009, 1203.1497005402687, 47747.461229260116, 38894.20347144645, -14382.811115123168, -1004.5097475659547, -11646.197634482103, -5308.427549413151, 20906.83828673819, -4925.005725026814, -5206.347132485764, -2639.942185871862, 0.07934374999999999, 0.93446875, 0.18106250000000002, 192.0, 0.0, 0.0, 0.0, 0.0, 0.0, 0.0, 0.0, 0.0, 0.0, 1.662506224265576E9, 0.0, 2022-09-06 19:17:04.265
250.0, -9468.087192545796, -5052.298909699787, -32161.12043394094, -23017.625274375114, 12613.201154852051, 1186.4082439432436, 48000.058293349546, 38855.31143609422, -14530.332628528195, -1181.2896944629783, -11788.511191429043, -5473.249313026585, 20787.4576196024, -5066.4252121955415, -5254.939824931601, -2712.96533500735, 0.09567187499999999, 0.956234375, 0.18353125, 192.0, 1.5, 64.0, 15.0, 72.0, 2.5, 104.0, 0.0, 0.0, 0.0, 1.6625062242655835E9, 0.0, 2022-09-06 19:17:04.265
252.0, -9457.87244532972, -5031.221214678432, -32100.83777914498, -22964.33871559366, 12642.638402299692, 1234.0845148664137, 46940.76442012363, 38829.763392181805, -14386.342690747106, -1009.0024482014715, -11660.390992211223, -5333.86383460329, 20905.452478581963, -4932.06887627469, -5231.045810108878, -2672.285160098691, 0.09567187499999999, 0.956234375, 0.18353125, 192.0, 0.0, 0.0, 0.0, 0.0, 0.0, 0.0, 0.0, 0.0, 0.0, 1.6625062242655902E9, 0.0, 2022-09-06 19:17:04.265
254.0, -9455.749029606466, -5029.6789443110165, -32150.74922451368, -22985.88579724858, 12626.299277102862, 1201.9203545952266, 47338.08902956117, 38878.71371253893, -14510.68544515198, -1157.6415488292635, -11771.99325227657, -5464.219208266641, 20797.3594423961, -5025.610926820151, -5243.920414915135, -2700.5601168346548, 0.09567187499999999, 0.956234375, 0.18353125, 192.0, 0.0, 0.0, 0.0, 0.0, 0.0, 0.0, 0.0, 0.0, 0.0, 1.6625062242655993E9, 0.0, 2022-09-06 19:17:04.265
0.0, -9417.48284309898, -4983.343778055165, -32081.995258569154, -22942.657523472015, 12699.791812871912, 1270.6072653063852, 46119.09194220209, 38816.77702865327, -14356.547815388181, -980.9063054211505, -11647.337573449324, -5316.496529161516, 20899.752783745862, -4886.828945497149, -5212.31504825533, -2660.5728460041105, 0.09567187499999999, 0.956234375, 0.18353125, 192.0, 0.0, 0.0, 0.0, 0.0, 0.0, 0.0, 0.0, 0.0, 0.0, 1.6625062242656069E9, 0.0, 2022-09-06 19:17:04.265
2.0, -9459.749991863966, -5025.275650653321, -32163.51207059766, -23021.760347099345, 12627.640381770181, 1203.686142407196, 46687.45210021164, 38921.405544448564, -14464.685555062957, -1136.429743341177, -11755.56472010192, -5449.26589122604, 20836.810271359715, -4997.201859617456, -5190.008007288934, -2676.152011889459, 0.09567187499999999, 0.956234375, 0.18353125, 192.0, 0.0, 0.0, 0.0, 0.0, 0.0, 0.0, 0.0, 0.0, 0.0, 1.662506224265614E9, 0.0, 2022-09-06 19:17:04.265
4.0, -9384.938703172053, -4951.604300928629, -32084.00691557013, -22951.64292474305, 12718.276705536451, 1305.3418761899325, 45355.06461323078, 38787.92092656147, -14338.085274468098, -989.6011340142649, -11660.659213144687, -5329.505244434506, 20943.338685433708, -4895.657884556996, -5205.296600496364, -2685.6291515385096, 0.09567187499999999, 0.956234375, 0.18353125, 192.0, 0.0, 0.0, 0.0, 0.0, 0.0, 0.0, 0.0, 0.0, 0.0, 1.6625062242656212E9, 0.0, 2022-09-06 19:17:04.265
6.0, -9479.419526984635, -5047.448581152986, -32201.84531233851, -23069.883652911623, 12628.757968992946, 1170.0467670019589, 46030.80255160362, 38891.431855134, -14436.701171004912, -1135.2674526295011, -11753.351897400844, -5448.885911570301, 20888.107524884646, -4983.768461199816, -5178.943893783557, -2689.6971690293753, 0.14200000000000002, 0.9500000000000001, 0.186, 192.0, 2.0, 56.0, 14.5, 88.0, 2.5, 104.0, 0.0, 0.0, 0.0, 1.6625062242656348E9, 0.0, 2022-09-06 19:17:04.265
8.0, -9410.062063939818, -4982.8967431660585, -32145.965951200244, -23007.8799137926, 12680.770478340446, 1282.163117189779, 44732.61323363939, 38767.6478943405, -14370.98704230631, -1051.0013760329934, -11717.432644061166, -5389.296160852452, 20896.645891266573, -4965.820010402204, -5243.965118404045, -2757.244140773313, 0.14200000000000002, 0.9500000000000001, 0.186, 192.0, 0.0, 0.0, 0.0, 0.0, 0.0, 0.0, 0.0, 0.0, 0.0, 1.6625062242656422E9, 0.0, 2022-09-06 19:17:04.265
10.0, -9496.49625974849, -5058.155066747077, -32212.976481077254, -23068.699010455493, 12631.574288794314, 1179.3450926953665, 45505.603612137274, 38991.18769063803, -14441.305630362705, -1153.7299935495846, -11773.982557533092, -5465.694423400691, 20856.1221785691, -5005.404949832553, -5195.104205024744, -2699.3754743785234, 0.14200000000000002, 0.9500000000000001, 0.186, 192.0, 0.0, 0.0, 0.0, 0.0, 0.0, 0.0, 0.0, 0.0, 0.0, 1.6625062242656493E9, 0.0, 2022-09-06 19:17:04.265
12.0, -9408.318627872304, -4966.5799697136845, -32146.79296574509, -22985.148189681553, 12675.718984093546, 1252.457648808676, 44375.58881945477, 38775.850984555604, -14372.104629529076, -1063.0266145499486, -11727.133301154769, -5394.7276347550915, 20884.486542282884, -4947.245710759844, -5243.071048625833, -2760.5298472082436, 0.14200000000000002, 0.9500000000000001, 0.186, 192.0, 0.0, 0.0, 0.0, 0.0, 0.0, 0.0, 0.0, 0.0, 0.0, 1.6625062242656567E9, 0.0, 2022-09-06 19:17:04.265
14.0, -9560.176379701661, -5103.7526254359045, -32258.08230138806, -23098.13625790313, 12576.67840441208, 1134.7310107625738, 45279.649827438574, 39054.53253442437, -14442.602031541113, -1154.9593394946266, -11781.224522736613, -5465.56031293396, 20865.956946129438, -4999.74995848536, -5202.033245805889, -2704.6057825810653, 0.14200000000000002, 0.9500000000000001, 0.186, 192.0, 0.0, 0.0, 0.0, 0.0, 0.0, 0.0, 0.0, 0.0, 0.0, 1.662506224265664E9, 0.0, 2022-09-06 19:17:04.265
16.0, -9443.120293989217, -4995.972513672414, -32189.529501143636, -23010.204495215952, 12651.98143148201, 1240.4771137806313, 44351.31482497631, 38778.66730435697, -14421.792557453224, -1119.17419662168, -11780.039880280481, -5446.918958058233, 20847.539108698264, -5009.8976504680695, -5281.448993855595, -2796.4267488034666, 0.164, 0.922, 0.194, 192.0, 2.5, 16.0, 14.0, 104.0, 3.0, 8.0, 0.0, 0.0, 0.0, 1.6625062242656713E9, 0.0, 2022-09-06 19:17:04.265
18.0, -9593.860458595807, -5135.894433962636, -32297.220205929305, -23112.24020865443, 12539.753322571913, 1117.2519465985235, 45235.616890861624, 39059.136993782166, -14451.922708978977, -1171.7231478361068, -11803.218639280634, -5485.60982771037, 20840.87828885058, -5009.629429534606, -5232.0739903538215, -2720.8555008000735, 0.164, 0.922, 0.194, 192.0, 0.0, 0.0, 0.0, 0.0, 0.0, 0.0, 0.0, 0.0, 0.0, 1.662506224265678E9, 0.0, 2022-09-06 19:17:04.265
20.0, -9486.192105554594, -5044.453447395975, -32267.313571848106, -23057.389027761106, 12613.670541485613, 1181.5355636519866, 44596.35699943984, 38794.96172606489, -14451.09569443413, -1165.1740867107019, -11825.503328502577, -5491.734205691124, 20801.472163375875, -5027.980211732413, -5314.395465182718, -2799.444234304933, 0.164, 0.922, 0.194, 192.0, 0.0, 0.0, 0.0, 0.0, 0.0, 0.0, 0.0, 0.0, 0.0, 1.6625062242656848E9, 0.0, 2022-09-06 19:17:04.265
22.0, -9637.379305050292, -5181.201419973543, -32359.581572959614, -23165.68322964707, 12512.61830480317, 1093.4026352647109, 45496.68526609961, 39068.994113086956, -14471.77105805529, -1208.3353052538998, -11843.787055467017, -5524.479511318149, 20759.49558728881, -5052.6341858666165, -5271.591874550805, -2757.199437284403, 0.164, 0.922, 0.194, 192.0, 0.0, 0.0, 0.0, 0.0, 0.0, 0.0, 0.0, 0.0, 0.0, 1.662506224265692E9, 0.0, 2022-09-06 19:17:04.265
24.0, -9530.716780509565, -5091.034482840834, -32326.232770232295, -23124.62307508267, 12537.04876149282, 1123.0186966679928, 45207.38663761457, 38811.099685561625, -14500.62716014709, -1237.2137590901566, -11884.333119908944, -5555.257863433107, 20754.98053490884, -5099.684607945038, -5350.381773755762, -2847.0087465058264, 0.164, 0.922, 0.194, 192.0, 0.0, 0.0, 0.0, 0.0, 0.0, 0.0, 0.0, 0.0, 0.0, 1.6625062242656991E9, 0.0, 2022-09-06 19:17:04.265
26.0, -9701.797032570486, -5239.740638701992, -32417.42788760995, -23243.243782906986, 12423.010161281843, 1028.7613902999628, 46015.87158630748, 39051.62680764518, -14509.523154440303, -1256.3021488549887, -11885.294244920522, -5565.763183327101, 20775.141808407523, -5133.6369077726495, -5326.9571455666, -2818.666734536497, 0.182, 0.884, 0.194, 192.0, 2.5, 88.0, 13.5, 80.0, 3.0, 8.0, 0.0, 0.0, 0.0, 1.6625062242657068E9, 0.0, 2022-09-06 19:17:04.265
28.0, -9612.211240793615, -5165.957530255024, -32404.12859965904, -23201.35661379774, 12455.241376786396, 1034.7963613028958, 46041.06200230861, 38811.97140359538, -14595.778536293334, -1330.576995679974, -11973.404821563343, -5640.9097481858435, 20655.381161615987, -5206.213022019032, -5439.967565532633, -2928.123227134136, 0.182, 0.884, 0.194, 192.0, 0.0, 0.0, 0.0, 0.0, 0.0, 0.0, 0.0, 0.0, 0.0, 1.6625062242657142E9, 0.0, 2022-09-06 19:17:04.265
30.0, -9744.891195880318, -5276.509258330972, -32446.261637957294, -23263.382704661217, 12375.535056058772, 940.5390549348659, 46717.44814127066, 39006.25276640091, -14556.618280007635, -1285.8511550249048, -11928.50016695263, -5595.245134263651, 20702.43158369441, -5134.262756617398, -5396.046387677955, -2859.637482123075, 0.182, 0.884, 0.194, 192.0, 0.0, 0.0, 0.0, 0.0, 0.0, 0.0, 0.0, 0.0, 0.0, 1.662506224265721E9, 0.0, 2022-09-06 19:17:04.265
32.0, -9646.923499932707, -5196.60177190325, -32422.389974879025, -23228.156355399653, 12400.054919726244, 986.7848142128962, 46966.848905902974, 38842.906217921525, -14642.784254882843, -1374.7663944681162, -12013.369740649432, -5680.517039360648, 20615.259780318713, -5220.786359403892, -5466.566141434449, -2949.245625644401, 0.182, 0.884, 0.194, 192.0, 0.0, 0.0, 0.0, 0.0, 0.0, 0.0, 0.0, 0.0, 0.0, 1.6625062242657273E9, 0.0, 2022-09-06 19:17:04.265
34.0, -9743.125408068348, -5271.256598383975, -32426.525047603256, -23258.93470751461, 12367.711945499415, 969.5516192378544, 47327.78487536727, 39010.52194959187, -14558.249957352873, -1285.5605823469857, -11928.12018729689, -5596.0050935751315, 20694.56376964614, -5154.736954538459, -5412.765492530524, -2868.935807816483, 0.182, 0.884, 0.194, 192.0, 0.0, 0.0, 0.0, 0.0, 0.0, 0.0, 0.0, 0.0, 0.0, 1.662506224265734E9, 0.0, 2022-09-06 19:17:04.265
36.0, -9674.90788399075, -5213.857318622747, -32421.473553356358, -23241.299181139373, 12390.667187055014, 976.4583082745444, 47699.494385659025, 38850.59521801415, -14654.56362421079, -1371.0560048885352, -12013.459147627253, -5680.964074249754, 20596.417259742888, -5244.9262434156235, -5464.532132689015, -2933.2417766144013, 0.178, 0.892, 0.198, 192.0, 2.5, 72.0, 13.5, 112.0, 3.0, 24.0, 0.0, 0.0, 0.0, 1.662506224265741E9, 0.0, 2022-09-06 19:17:04.265
38.0, -9760.783286188042, -5283.23713341202, -32437.656216342002, -23269.8423588088, 12361.654622752027, 944.3388514922681, 47751.529246750986, 38927.37346021813, -14573.918530216042, -1272.4177566072651, -11936.12211181189, -5595.8262796194895, 20672.435542635387, -5168.97501575649, -5446.114295257842, -2888.3371220036893, 0.178, 0.892, 0.198, 192.0, 0.0, 0.0, 0.0, 0.0, 0.0, 0.0, 0.0, 0.0, 0.0, 1.66250622426575E9, 0.0, 2022-09-06 19:17:04.265
40.0, -9720.25957349057, -5255.677432498626, -32456.699902617922, -23274.782094333423, 12340.174596330477, 930.5478251633436, 48283.5454682762, 38846.3707383121, -14699.24476137695, -1398.3698366129204, -12046.137398020912, -5714.849318843999, 20559.49217790272, -5273.827048996335, -5490.616618468359, -2943.6800412750295, 0.178, 0.892, 0.198, 192.0, 0.0, 0.0, 0.0, 0.0, 0.0, 0.0, 0.0, 0.0, 0.0, 1.6625062242657576E9, 0.0, 2022-09-06 19:17:04.265
42.0, -9744.354754013391, -5266.316862859352, -32425.295701658215, -23250.93278299961, 12357.631308750071, 954.0171568414161, 48106.13967253443, 38880.61361081763, -14590.816449024254, -1273.9153234857708, -11949.376696273888, -5609.3267332704945, 20641.858356220528, -5181.69315835156, -5472.623464181836, -2913.214613582446, 0.178, 0.892, 0.198, 192.0, 0.0, 0.0, 0.0, 0.0, 0.0, 0.0, 0.0, 0.0, 0.0, 1.6625062242657652E9, 0.0, 2022-09-06 19:17:04.265
44.0, -9730.407265473279, -5263.724060502536, -32454.352969450116, -23276.950213545588, 12299.069738277167, 930.27960422988, 48858.320576944425, 38889.73312255539, -14693.634473518667, -1382.4553945607418, -12039.47657817323, -5704.433405927826, 20562.353201193, -5273.715290274059, -5496.584534237925, -2927.251509100379, 0.178, 0.892, 0.198, 192.0, 0.0, 0.0, 0.0, 0.0, 0.0, 0.0, 0.0, 0.0, 0.0, 1.6625062242657726E9, 0.0, 2022-09-06 19:17:04.265
46.0, -9737.693934165709, -5267.479153571028, -32410.7000125289, -23261.97454476053, 12339.884023652558, 971.5856279832874, 48576.42037587409, 38870.68943627947, -14597.231399682929, -1278.2515619101002, -11962.586577246973, -5615.629925206891, 20635.286943350668, -5212.22564127751, -5505.681694231235, -2925.217500354946, 0.186, 0.926, 0.194, 192.0, 2.5, 104.0, 14.0, 120.0, 3.0, 8.0, 0.0, 0.0, 0.0, 1.66250622426578E9, 0.0, 2022-09-06 19:17:04.265
48.0, -9770.819219448475, -5311.154462236698, -32464.455957943912, -23327.9568943926, 12247.034877185211, 904.150414961626, 49611.10497845471, 38950.70868142947, -14702.932799212074, -1400.2697348916215, -12049.177235266834, -5723.879423603943, 20558.240480213222, -5317.3011919619075, -5496.316313304462, -2932.794741725295, 0.186, 0.926, 0.194, 192.0, 0.0, 0.0, 0.0, 0.0, 0.0, 0.0, 0.0, 0.0, 0.0, 1.6625062242657876E9, 0.0, 2022-09-06 19:17:04.265
50.0, -9753.429562262245, -5292.066072471866, -32404.240358381317, -23292.015289308463, 12304.322398224163, 900.4176736375897, 49409.559298701206, 38861.1228896526, -14635.519937934869, -1307.6217541243739, -11995.063661940536, -5654.320794859028, 20584.50377994821, -5256.8397232103025, -5519.718589749168, -2973.92195152306, 0.186, 0.926, 0.194, 192.0, 0.0, 0.0, 0.0, 0.0, 0.0, 0.0, 0.0, 0.0, 0.0, 1.6625062242657957E9, 0.0, 2022-09-06 19:17:04.265
52.0, -9841.160159249326, -5384.959922428122, -32497.111856593117, -23383.29981366394, 12191.200219535855, 802.9640678124509, 50760.0293469464, 38997.759103507895, -14753.492445169979, -1432.1880259738, -12094.618331744472, -5763.933749667854, 20510.810078479062, -5344.547968452927, -5500.2055168396855, -2978.928742281049, 0.186, 0.926, 0.194, 192.0, 0.0, 0.0, 0.0, 0.0, 0.0, 0.0, 0.0, 0.0, 0.0, 1.662506224265803E9, 0.0, 2022-09-06 19:17:04.265
54.0, -9790.824030735974, -5337.060134060399, -32445.769899579278, -23333.32131306187, 12232.41683631144, 867.0018156769056, 50578.711995924954, 38837.89942716354, -14696.428441575581, -1359.7460221941499, -12059.347278993999, -5708.613182140968, 20543.331866661534, -5318.9999245405115, -5549.3346511524505, -3037.4009057761323, 0.186, 0.926, 0.194, 192.0, 0.0, 0.0, 0.0, 0.0, 0.0, 0.0, 0.0, 0.0, 0.0, 1.6625062242658105E9, 0.0, 2022-09-06 19:17:04.265
56.0, -9881.2815405466, -5424.768379303024, -32542.329435626205, -23415.91100882423, 12149.201291704332, 789.2624484613477, 51981.26160875102, 39018.8591502737, -14790.372823521237, -1463.771040889149, -12140.484111366763, -5796.38848261696, 20480.992851375682, -5390.167878886209, -5532.883767233345, -3019.854786378716, 0.188, 0.928, 0.18, 192.0, 2.5, 112.0, 14.5, 0.0, 2.5, 80.0, 0.0, 0.0, 0.0, 1.6625062242658176E9, 0.0, 2022-09-06 19:17:04.265
58.0, -9819.23309793867, -5367.994948386544, -32505.00202238584, -23371.788665269454, 12191.624902680505, 845.4323822775343, 51711.36429445318, 38785.015199782276, -14734.20288970505, -1391.5972580429625, -12112.455023819808, -5745.247691303217, 20489.39710729088, -5344.100933563821, -5578.838953833456, -3082.462022598031, 0.188, 0.928, 0.18, 192.0, 0.0, 0.0, 0.0, 0.0, 0.0, 0.0, 0.0, 0.0, 0.0, 1.662506224265825E9, 0.0, 2022-09-06 19:17:04.265
60.0, -9918.027808431127, -5459.212417508652, -32579.321572699737, -23448.25398305106, 12087.801049685604, 761.9262649925072, 53024.37281899129, 38995.367466851174, -14811.875201687242, -1476.5562387175846, -12171.955367559834, -5819.075503239096, 20435.90938280933, -5394.101785910343, -5565.047927504531, -3052.018946649903, 0.188, 0.928, 0.18, 192.0, 0.0, 0.0, 0.0, 0.0, 0.0, 0.0, 0.0, 0.0, 0.0, 1.6625062242658324E9, 0.0, 2022-09-06 19:17:04.265
62.0, -9808.168984433292, -5364.105744851321, -32478.738722650854, -23360.411627341706, 12187.467478211818, 857.4799725389448, 52700.49604183389, 38748.78302202022, -14761.606128407257, -1419.1122554674455, -12135.58907933105, -5772.114488138496, 20456.27182200811, -5384.06585264991, -5611.740721671667, -3105.752540320461, 0.188, 0.928, 0.18, 192.0, 0.0, 0.0, 0.0, 0.0, 0.0, 0.0, 0.0, 0.0, 0.0, 1.6625062242658403E9, 0.0, 2022-09-06 19:17:04.265
64.0, -9938.25613716318, -5493.2764760585405, -32567.229278949417, -23457.999343633575, 12073.138305322922, 750.5715788092111, 53995.13143242973, 38992.506443560895, -14807.78483245192, -1473.7175671717605, -12161.762972088216, -5813.3087531696265, 20455.221290018715, -5405.344713371363, -5564.667947848791, -3046.6098244917184, 0.188, 0.928, 0.18, 192.0, 0.0, 0.0, 0.0, 0.0, 0.0, 0.0, 0.0, 0.0, 0.0, 1.6625062242658477E9, 0.0, 2022-09-06 19:17:04.265
66.0, -9820.12716771688, -5392.894791709757, -32481.040952329753, -23378.404781628225, 12144.462721879807, 849.2768823238472, 53731.3808478571, 38725.71602174235, -14801.772213193442, -1460.2618170096657, -12163.148780244444, -5807.00556123323, 20433.09306300796, -5433.954946274155, -5639.345126073972, -3132.038191799902, 0.192, 0.968, 0.154, 192.0, 3.0, 0.0, 15.0, 32.0, 2.0, 104.0, 0.0, 0.0, 0.0, 1.6625062242658553E9, 0.0, 2022-09-06 19:17:04.265
68.0, -9953.321212926056, -5514.801205969001, -32559.696741067975, -23461.530919257515, 12053.62523241344, 727.6833924869767, 54805.024541023326, 38954.15085007559, -14815.898515689198, -1473.382291004931, -12163.685222111371, -5816.348590415549, 20444.313638724525, -5401.075530180398, -5583.935151569266, -3058.36684207521, 0.192, 0.968, 0.154, 192.0, 0.0, 0.0, 0.0, 0.0, 0.0, 0.0, 0.0, 0.0, 0.0, 1.6625062242658627E9, 0.0, 2022-09-06 19:17:04.265
70.0, -9817.266144426601, -5399.332094112885, -32474.46953945989, -23375.029668215477, 12138.248936921233, 806.4285882030235, 54498.35860709651, 38665.053387290645, -14812.299884831893, -1481.831250409037, -12173.944672816358, -5827.479759154291, 20415.457536632723, -5436.614803864337, -5656.220693137729, -3142.6105669272624, 0.192, 0.968, 0.154, 192.0, 0.0, 0.0, 0.0, 0.0, 0.0, 0.0, 0.0, 0.0, 0.0, 1.6625062242658727E9, 0.0, 2022-09-06 19:17:04.265
72.0, -9931.841186504505, -5498.819708683456, -32532.606426788145, -23443.046026592976, 12071.216055299767, 749.7892677532755, 55290.14680268131, 38895.58927960268, -14778.59345419329, -1456.0149855631573, -12129.911736239403, -5794.935619227364, 20461.4797784662, -5400.695550524659, -5582.303474224028, -3054.589397262263, 0.192, 0.968, 0.154, 192.0, 0.0, 0.0, 0.0, 0.0, 0.0, 0.0, 0.0, 0.0, 0.0, 1.66250622426588E9, 0.0, 2022-09-06 19:17:04.265
74.0, -9802.044606452539, -5385.697529995147, -32465.193565510937, -23367.966516967597, 12137.623088076483, 836.3575740286797, 55133.8634054498, 38658.83960233207, -14804.11914636125, -1487.6427039674168, -12162.50057965524, -5827.211538220828, 20398.537266080057, -5457.960719819155, -5643.636661009391, -3129.780665609916, 0.192, 0.968, 0.154, 192.0, 0.0, 0.0, 0.0, 0.0, 0.0, 0.0, 0.0, 0.0, 0.0, 1.6625062242658875E9, 0.0, 2022-09-06 19:17:04.265
76.0, -9920.553555554576, -5488.359092278372, -32526.05736566274, -23429.411462475236, 12070.187875054822, 759.9593114804401, 55782.22045686489, 38862.28518036428, -14763.30486098586, -1442.7604011011604, -12116.545393055128, -5779.445860319836, 20476.790723418086, -5392.559515542926, -5569.317110695495, -3051.0354698938695, 0.197, 0.9630000000000001, 0.14900000000000002, 192.0, 3.0, 40.0, 14.5, 120.0, 2.0, 64.0, 0.0, 0.0, 0.0, 1.6625062242658951E9, 0.0, 2022-09-06 19:17:04.265
78.0, -9814.047493225038, -5396.381663844784, -32478.917536606496, -23372.973307725588, 12117.30535236661, 813.0223528173391, 55840.91613780453, 38655.03980577467, -14816.367902322758, -1495.3540558044979, -12176.291605984165, -5831.413666178425, 20419.70436807923, -5437.50887364255, -5653.02439368062, -3120.9293748056148, 0.197, 0.9630000000000001, 0.14900000000000002, 192.0, 0.0, 0.0, 0.0, 0.0, 0.0, 0.0, 0.0, 0.0, 0.0, 1.6625062242659025E9, 0.0, 2022-09-06 19:17:04.265
80.0, -9918.139567153403, -5481.1841823082195, -32533.880476222097, -23426.30456999595, 12071.685441933329, 784.188602469993, 56293.11427987985, 38835.79836318474, -14756.308764971349, -1433.7526480856716, -12120.725169268271, -5774.059089906107, 20476.366040273435, -5387.39626257375, -5604.208183790229, -3054.209417606523, 0.197, 0.9630000000000001, 0.14900000000000002, 192.0, 0.0, 0.0, 0.0, 0.0, 0.0, 0.0, 0.0, 0.0, 0.0, 1.66250622426591E9, 0.0, 2022-09-06 19:17:04.265
82.0, -9836.28747895807, -5415.000666976055, -32538.037900690786, -23410.457183177135, 12107.023549917169, 822.991230844406, 56559.949405187304, 38686.60046894556, -14830.382446096237, -1509.9050414449027, -12203.493678986273, -5849.116247787028, 20395.072745689482, -5442.135684744798, -5658.589978049991, -3120.258822471955, 0.197, 0.9630000000000001, 0.14900000000000002, 192.0, 0.0, 0.0, 0.0, 0.0, 0.0, 0.0, 0.0, 0.0, 0.0, 1.6625062242659173E9, 0.0, 2022-09-06 19:17:04.265
84.0, -9919.525375309631, -5483.352301520384, -32569.039770250296, -23452.433759264204, 12054.80987486957, 786.2226112154259, 56828.10328341762, 38803.455388957904, -14754.408866692647, -1427.382400915909, -12136.751370042726, -5770.594569515535, 20464.4302087343, -5360.194189571642, -5618.669762452813, -3076.695272528562, 0.197, 0.9630000000000001, 0.14900000000000002, 192.0, 0.0, 0.0, 0.0, 0.0, 0.0, 0.0, 0.0, 0.0, 0.0, 1.6625062242659247E9, 0.0, 2022-09-06 19:17:04.265
86.0, -9886.735366193696, -5465.649719911781, -32595.01249730736, -23469.17521586123, 12036.57085139404, 766.9330557504959, 57419.88806961633, 38708.16990234493, -14857.405705142703, -1534.1790359233662, -12243.369191094542, -5875.7595271777545, 20380.6111670269, -5451.255196482563, -5682.394585894894, -3150.4113257421645, 0.1995, 0.9485000000000001, 0.1365, 192.0, 3.0, 40.0, 14.5, 24.0, 1.5, 112.0, 0.0, 0.0, 0.0, 1.662506224265932E9, 0.0, 2022-09-06 19:17:04.265
88.0, -9930.276564392634, -5498.417377283261, -32579.992125033397, -23471.65625949577, 12051.300650990088, 768.3412156511803, 57676.530799452165, 38813.55837745171, -14775.263044269448, -1450.5611599160625, -12169.36256520302, -5797.237848906261, 20435.931734553782, -5391.173707386698, -5659.461696083748, -3120.012953282947, 0.1995, 0.9485000000000001, 0.1365, 192.0, 0.0, 0.0, 0.0, 0.0, 0.0, 0.0, 0.0, 0.0, 0.0, 1.6625062242659397E9, 0.0, 2022-09-06 19:17:04.265
90.0, -9945.945137255805, -5520.143272893819, -32630.97645413595, -23518.818440296465, 11987.464068825731, 721.0449243837505, 58646.17182566784, 38784.83638582664, -14896.074223050384, -1577.0720335331005, -12276.650938588493, -5917.289068375715, 20343.797843909007, -5509.9508774221995, -5704.925144305843, -3172.338387052821, 0.1995, 0.9485000000000001, 0.1365, 192.0, 0.0, 0.0, 0.0, 0.0, 0.0, 0.0, 0.0, 0.0, 0.0, 1.6625062242659469E9, 0.0, 2022-09-06 19:17:04.265
92.0, -9970.912035812384, -5534.448389345216, -32614.480866727936, -23513.74459430511, 12021.66223784235, 718.8321016826751, 58821.25303998626, 38802.069580801675, -14818.781890723933, -1485.2734190551544, -12209.305132544654, -5845.338802974082, 20381.169960638283, -5460.978205320622, -5703.98637103872, -3170.237323074022, 0.1995, 0.9485000000000001, 0.1365, 192.0, 0.0, 0.0, 0.0, 0.0, 0.0, 0.0, 0.0, 0.0, 0.0, 1.6625062242659545E9, 0.0, 2022-09-06 19:17:04.265
94.0, -9993.129669800957, -5559.795267557534, -32663.69940801852, -23549.306219733506, 11975.41647856432, 672.0275487932621, 59956.31932691566, 38817.313470520196, -14934.921554913708, -1608.1409583259772, -12311.542011683228, -5963.713641609388, 20290.734802572108, -5571.9993200301315, -5733.13304580844, -3209.241117148533, 0.1995, 0.9485000000000001, 0.1365, 192.0, 0.0, 0.0, 0.0, 0.0, 0.0, 0.0, 0.0, 0.0, 0.0, 1.662506224265962E9, 0.0, 2022-09-06 19:17:04.265
96.0, -9978.824553349561, -5538.941089980733, -32605.27194801235, -23503.50749534458, 12024.925592532825, 701.0848165851613, 59848.58391864108, 38738.1435916595, -14853.449446374112, -1514.6436112694278, -12242.385714338508, -5888.388262795003, 20356.31482080398, -5500.540793006515, -5732.03781033013, -3216.34897188532, 0.18375000000000002, 0.9452500000000001, 0.13525, 192.0, 2.5, 32.0, 14.5, 56.0, 2.0, 24.0, 0.0, 0.0, 0.0, 1.6625062242659693E9, 0.0, 2022-09-06 19:17:04.265
98.0, -10028.60188825153, -5590.685378394768, -32672.28247788936, -23564.036019329553, 11966.766353460116, 660.7622695877874, 60967.087562929104, 38818.18518855395, -14928.774825188499, -1606.3975222584634, -12312.39137797253, -5969.592150401134, 20314.338244716913, -5576.670834621291, -5715.497519433203, -3197.7970239874157, 0.18375000000000002, 0.9452500000000001, 0.13525, 192.0, 0.0, 0.0, 0.0, 0.0, 0.0, 0.0, 0.0, 0.0, 0.0, 1.662506224265977E9, 0.0, 2022-09-06 19:17:04.265
100.0, -10002.02566409417, -5559.661157090803, -32624.31563428827, -23525.188687466227, 12036.459092671765, 688.1208048010832, 60640.349762481426, 38673.100015294556, -14869.118019237283, -1539.0517162146232, -12269.386621640519, -5916.640867786511, 20325.35765473338, -5543.657308060802, -5744.264214547184, -3233.939794771647, 0.18375000000000002, 0.9452500000000001, 0.13525, 192.0, 0.0, 0.0, 0.0, 0.0, 0.0, 0.0, 0.0, 0.0, 0.0, 1.662506224265984E9, 0.0, 2022-09-06 19:17:04.265
102.0, -10077.932188264393, -5627.364591045927, -32708.134675995672, -23616.115583910418, 11949.913138140815, 593.4388152884026, 61830.960134382265, 38808.97626983837, -14949.137264387282, -1624.6141939895385, -12339.81696841919, -5997.151851314527, 20271.400543618267, -5582.750509113134, -5747.393458770926, -3224.68617256715, 0.18375000000000002, 0.9452500000000001, 0.13525, 192.0, 0.0, 0.0, 0.0, 0.0, 0.0, 0.0, 0.0, 0.0, 0.0, 1.662506224265993E9, 0.0, 2022-09-06 19:17:04.265
104.0, -10016.822518923584, -5563.90798853731, -32665.08521617475, -23578.922281136787, 12004.384339378399, 647.2618159367819, 61625.18997492671, 38668.048521047655, -14898.354100984825, -1554.4297163998745, -12304.344749968619, -5940.534882609235, 20307.185686491215, -5541.891520248833, -5784.564409800102, -3279.000911593546, 0.18375000000000002, 0.9452500000000001, 0.13525, 192.0, 0.0, 0.0, 0.0, 0.0, 0.0, 0.0, 0.0, 0.0, 0.0, 1.662506224746286E9, 0.0, 2022-09-06 19:17:04.746
106.0, -10147.535520498219, -5694.330417434027, -32801.09558118529, -23728.298989331604, 11859.701497519196, 507.071674713096, 63439.65988631963, 38936.26945451134, -14978.753325790565, -1645.982461688812, -12379.625425294093, -6018.542470758256, 20259.352953356858, -5623.8777189109, -5765.923054924376, -3258.683175883672, 0.151875, 0.926625, 0.12162500000000001, 192.0, 1.5, 96.0, 14.0, 48.0, 1.5, 48.0, 0.0, 0.0, 0.0, 1.6625062247464464E9, 0.0, 2022-09-06 19:17:04.746
108.0, -10132.895127879992, -5689.010702253664, -32814.08194471383, -23743.676989516855, 11820.63064821132, 516.0347242396741, 64225.39075915704, 38835.06075561771, -15009.643436627799, -1664.9143892424572, -12423.591306637682, -6048.940843217474, 20211.09553707785, -5684.36153940696, -5881.3921667804925, -3370.777174327037, 0.151875, 0.926625, 0.12162500000000001, 192.0, 0.0, 0.0, 0.0, 0.0, 0.0, 0.0, 0.0, 0.0, 0.0, 1.6625062247464542E9, 0.0, 2022-09-06 19:17:04.746
110.0, -10342.129807726122, -5897.664236743955, -32989.677249154716, -23944.373302981057, 11647.739904849519, 265.33755842895016, 67302.89069448599, 39193.40392272519, -15145.072656282504, -1808.9266787680006, -12549.275165709874, -6179.787955258841, 20069.63134642021, -5790.420566847392, -5912.908126462475, -3381.438956432218, 0.151875, 0.926625, 0.12162500000000001, 192.0, 0.0, 0.0, 0.0, 0.0, 0.0, 0.0, 0.0, 0.0, 0.0, 1.6625062247464616E9, 0.0, 2022-09-06 19:17:04.746
112.0, -10324.270763906332, -5895.697283231889, -33002.887130127805, -23966.41212301399, 11610.233677653514, 262.2753694385731, 69122.0097687256, 39053.750223368435, -15227.684703789319, -1892.1422233751089, -12641.766684265935, -6262.690575443576, 19965.695734703033, -5913.1539956514835, -6060.2508259118595, -3546.6183479569377, 0.151875, 0.926625, 0.12162500000000001, 192.0, 0.0, 0.0, 0.0, 0.0, 0.0, 0.0, 0.0, 0.0, 0.0, 1.662506224746469E9, 0.0, 2022-09-06 19:17:04.746
114.0, -10631.987229822544, -6210.119272484693, -33256.445319228806, -24264.09265566977, 11306.965208883907, -67.0999368548318, 73601.3217093136, 39524.589720319476, -15373.798057293661, -2050.1020014407636, -12781.845066767344, -6406.211126591102, 19826.556125468745, -6056.048697954261, -6113.939716093507, -3576.6590925048704, 0.151875, 0.926625, 0.12162500000000001, 192.0, 0.0, 0.0, 0.0, 0.0, 0.0, 0.0, 0.0, 0.0, 0.0, 1.6625062247464764E9, 0.0, 2022-09-06 19:17:04.746
116.0, -10709.771300527012, -6298.140442149693, -33358.34692220055, -24360.339267294323, 11182.197771334384, -169.6273886713253, 77234.19543912356, 39361.73491021811, -15597.360205335643, -2272.993597149086, -13016.024293425597, -6631.337896744954, 19591.92986392139, -6306.656456787165, -6374.918684353672, -3839.582662532647, 0.13393750000000001, 0.9203125000000001, 0.0978125, 192.0, 1.5, 80.0, 14.0, 72.0, 1.0, 40.0, 0.0, 0.0, 0.0, 1.6625062247464836E9, 0.0, 2022-09-06 19:17:04.746
118.0, -10949.650222021368, -6524.317744292945, -33545.74394771385, -24562.95783078168, 10996.097146999497, -360.28776887509457, 81646.76507076801, 39547.25438919716, -15744.300573384831, -2431.24394789266, -13150.470036324268, -6775.059613592579, 19467.788275216615, -6440.163426418713, -6478.921351304216, -3922.8876141175765, 0.13393750000000001, 0.9203125000000001, 0.0978125, 192.0, 0.0, 0.0, 0.0, 0.0, 0.0, 0.0, 0.0, 0.0, 0.0, 1.6625062247464917E9, 0.0, 2022-09-06 19:17:04.746
120.0, -10882.39382295535, -6464.146848219258, -33504.2591100048, -24531.173650166234, 11015.6996268868, -337.77956220860034, 84356.69056852945, 39211.91116713419, -15849.532586280417, -2539.4710945452566, -13254.875034675008, -6882.88442884498, 19341.478567299673, -6563.567407556464, -6619.446768694731, -4089.2739998428824, 0.13393750000000001, 0.9203125000000001, 0.0978125, 192.0, 0.0, 0.0, 0.0, 0.0, 0.0, 0.0, 0.0, 0.0, 0.0, 1.6625062247464993E9, 0.0, 2022-09-06 19:17:04.746
122.0, -11131.43695967638, -6711.066569217035, -33715.751316040914, -24773.511263550674, 10761.582644174416, -584.0287308727183, 88995.92924069516, 39575.484642444215, -15891.86679027877, -2575.390347884935, -13294.616436316543, -6928.146711366977, 19316.221096065176, -6590.1212799693685, -6614.283515725555, -4064.2400460529384, 0.13393750000000001, 0.9203125000000001, 0.0978125, 192.0, 0.0, 0.0, 0.0, 0.0, 0.0, 0.0, 0.0, 0.0, 0.0, 1.6625062247465076E9, 0.0, 2022-09-06 19:17:04.746
124.0, -11177.54860848768, -6770.8574856349815, -33849.81707928384, -24873.177692076886, 10650.382715509262, -679.7165488858877, 93212.67523916665, 39386.165366907764, -16121.106281412398, -2794.8844784360504, -13534.651820022085, -7159.196693801487, 19064.853377920794, -6811.895288454925, -6864.868922814003, -4319.2510985435365, 0.13393750000000001, 0.9203125000000001, 0.0978125, 192.0, 0.0, 0.0, 0.0, 0.0, 0.0, 0.0, 0.0, 0.0, 0.0, 1.6625062247465148E9, 0.0, 2022-09-06 19:17:04.746
126.0, -11493.959902997007, -7090.3533208791405, -34121.54723662701, -25190.572463342247, 10362.425191691542, -972.3008838058572, 99062.79731545417, 39799.87380503104, -16227.969971653221, -2896.026122096315, -13645.2706033314, -7266.015680553399, 18946.299725329845, -6932.259432346754, -6949.045592432689, -4384.361730141846, 0.13096875000000002, 0.9131562500000001, 0.06290625, 192.0, 2.0, 0.0, 14.0, 40.0, 0.0, 112.0, 0.0, 0.0, 0.0, 1.6625062247465217E9, 0.0, 2022-09-06 19:17:04.746
128.0, -11639.894442545707, -7246.659069855103, -34348.775070759664, -25384.45149474758, 10156.72208746935, -1157.8650662738164, 105184.87306652941, 39716.90412961294, -16555.490083156834, -3225.2226144340775, -13982.044337039511, -7600.97892296063, 18602.149915951482, -7274.464639957505, -7231.839863281234, -4687.160812277891, 0.13096875000000002, 0.9131562500000001, 0.06290625, 192.0, 0.0, 0.0, 0.0, 0.0, 0.0, 0.0, 0.0, 0.0, 0.0, 1.6625062247465289E9, 0.0, 2022-09-06 19:17:04.746
130.0, -11909.657646376807, -7509.649695116245, -34568.89505015553, -25634.768680902565, 9952.069515236559, -1384.5564585395407, 111311.35211126234, 39832.954386824895, -16680.995128273385, -3350.7947147839923, -14127.196565532277, -7737.726895538199, 18488.200722718328, -7399.410891462671, -7371.8735422937325, -4802.071130522625, 0.13096875000000002, 0.9131562500000001, 0.06290625, 192.0, 0.0, 0.0, 0.0, 0.0, 0.0, 0.0, 0.0, 0.0, 0.0, 1.6625062247465365E9, 0.0, 2022-09-06 19:17:04.746
132.0, -11819.66952319974, -7404.484737454026, -34536.30620673969, -25535.795156454464, 10027.84192894005, -1309.2087279807006, 114986.11301018155, 39145.99587273549, -16895.974206444527, -3566.511400522161, -14343.583803604104, -7965.222950604314, 18278.116676582897, -7585.265646608549, -7593.9828269461195, -5035.75861880286, 0.13096875000000002, 0.9131562500000001, 0.06290625, 192.0, 0.0, 0.0, 0.0, 0.0, 0.0, 0.0, 0.0, 0.0, 0.0, 1.662506224746543E9, 0.0, 2022-09-06 19:17:04.746
134.0, -11718.08084465037, -7290.937875621066, -34383.97906827677, -25394.845055919297, 10175.072869667158, -1169.8008978129503, 116310.74444183642, 38833.51848525029, -16648.875671491107, -3300.41388278173, -14089.869152291913, -7712.447072559246, 18537.888650642475, -7299.163317580619, -7475.228008655073, -4883.2526663843, 0.13096875000000002, 0.9131562500000001, 0.06290625, 192.0, 0.0, 0.0, 0.0, 0.0, 0.0, 0.0, 0.0, 0.0, 0.0, 1.662506224746557E9, 0.0, 2022-09-06 19:17:04.746
