%OpenBCI Raw EEG Data
%Number of channels = 16
%Sample Rate = 125 Hz
%Board = OpenBCI_GUI$BoardCytonSerialDaisy
Sample Index, EXG Channel 0, EXG Channel 1, EXG Channel 2, EXG Channel 3, EXG Channel 4, EXG Channel 5, EXG Channel 6, EXG Channel 7, EXG Channel 8, EXG Channel 9, EXG Channel 10, EXG Channel 11, EXG Channel 12, EXG Channel 13, EXG Channel 14, EXG Channel 15, Accel Channel 0, Accel Channel 1, Accel Channel 2, Other, Other, Other, Other, Other, Other, Other, Analog Channel 0, Analog Channel 1, Analog Channel 2, Timestamp, Other, Timestamp (Formatted)
30.0, -4990.7645572143265, -5618.803872919545, -27573.916622867182, -27240.138022916082, -14620.03017902734, 4331.701020205142, 68515.65164514205, 20405.265141161104, -14881.769106598987, -5563.930340281766, -20091.804276919876, -26236.835269550716, 6323.420265128644, -11733.123568668792, -10812.276400599052, -9550.542777841423, 0.0, 0.0, 0.0, 192.0, 0.0, 0.0, 0.0, 0.0, 0.0, 0.0, 0.0, 0.0, 0.0, 1.662678021984298E9, 0.0, 2022-09-08 19:00:21.984
32.0, -5021.006467462357, -5638.428704551305, -27616.809620476917, -27266.557784862256, -14646.248775273416, 4296.452319199124, 68602.39876537309, 20364.383800552347, -14860.22202494407, -5591.959427828721, -20085.63519545021, -26252.68265636953, 6288.372729822723, -11695.349120539322, -10807.359016818884, -9548.151141184706, 0.0, 0.0, 0.0, 192.0, 0.0, 0.0, 0.0, 0.0, 0.0, 0.0, 0.0, 0.0, 0.0, 1.6626780219843044E9, 0.0, 2022-09-08 19:00:21.984
34.0, -5026.8626245096475, -5648.755210489656, -27628.454879338133, -27279.298279201783, -14641.554908937802, 4289.7244441180765, 68532.68367441699, 20362.148626106817, -14960.313136614936, -5653.426725080815, -20155.640859084233, -26298.861360414194, 6318.614640070754, -11674.584349940342, -10851.8613400294, -9600.52127844349, 0.246, 0.9380000000000001, 0.17200000000000001, 192.0, 3.5, 88.0, 14.5, 40.0, 2.5, 48.0, 0.0, 0.0, 0.0, 1.66267802198431E9, 0.0, 2022-09-08 19:00:21.984
36.0, -4975.990054129369, -5610.578430959992, -27574.587175200842, -27259.137005703094, -14627.205088997494, 4313.305534518425, 68610.8924282661, 20425.605228615434, -14923.969200130607, -5600.743663399657, -20115.832402209333, -26273.112150801677, 6336.339573423812, -11622.817709781852, -10815.47270005616, -9554.163760443183, 0.246, 0.9380000000000001, 0.17200000000000001, 192.0, 0.0, 0.0, 0.0, 0.0, 0.0, 0.0, 0.0, 0.0, 0.0, 1.6626780219843156E9, 0.0, 2022-09-08 19:00:21.984
38.0, -4954.353565496632, -5586.147974270341, -27554.090625535326, -27250.21865966543, -14625.863984330177, 4318.155863065227, 68522.49127894537, 20410.987187741663, -14795.491373001501, -5582.929323068777, -20056.376761958214, -26250.00044703489, 6321.430959872122, -11566.446610265566, -10807.604886007892, -9556.711859311088, 0.246, 0.9380000000000001, 0.17200000000000001, 192.0, 0.0, 0.0, 0.0, 0.0, 0.0, 0.0, 0.0, 0.0, 0.0, 1.6626780219843209E9, 0.0, 2022-09-08 19:00:21.984
40.0, -4962.020213844802, -5590.730081883679, -27577.60466070231, -27244.45190959596, -14615.671588858557, 4319.0722845878945, 68581.8351604742, 20386.64613802983, -14796.005463123975, -5577.184924743763, -20056.756741613954, -26236.23177245042, 6301.649666029176, -11497.782051298864, -10798.798298692502, -9539.210443402582, 0.246, 0.9380000000000001, 0.17200000000000001, 192.0, 0.0, 0.0, 0.0, 0.0, 0.0, 0.0, 0.0, 0.0, 0.0, 1.6626780219843261E9, 0.0, 2022-09-08 19:00:21.984
42.0, -4999.951124185458, -5627.16342534583, -27619.17890538918, -27287.188444994503, -14631.8542518442, 4318.357028765325, 68503.5146479028, 20408.975530740685, -14852.756542295998, -5672.246893912184, -20096.766364188956, -26285.003278851902, 6267.652662712653, -11469.350632351712, -10816.053845411998, -9549.916928996674, 0.246, 0.9380000000000001, 0.17200000000000001, 192.0, 0.0, 0.0, 0.0, 0.0, 0.0, 0.0, 0.0, 0.0, 0.0, 1.6626780219843311E9, 0.0, 2022-09-08 19:00:21.984
44.0, -4956.991071342358, -5589.657198149825, -27605.834913949362, -27266.64719184008, -14631.250754743905, 4327.163616080716, 68567.5300440228, 20415.479888377176, -14897.124755039784, -5639.188663862785, -20113.060785896872, -26286.947880619515, 6261.438877754078, -11428.044608598306, -10815.249182611607, -9545.759504527987, 0.244, 0.926, 0.168, 192.0, 3.5, 80.0, 14.0, 120.0, 2.5, 32.0, 0.0, 0.0, 0.0, 1.6626780219843369E9, 0.0, 2022-09-08 19:00:21.984
46.0, -4926.033905271757, -5547.412401129294, -27553.040093545926, -27178.536615197256, -14610.485984144925, 4344.732087222586, 68545.55827922325, 20394.581007311466, -14687.75596472692, -5439.855806810357, -20052.420503189624, -26232.18610670401, 6254.711002673031, -11386.984454033907, -10812.298752343506, -9538.249318391005, 0.244, 0.926, 0.168, 192.0, 0.0, 0.0, 0.0, 0.0, 0.0, 0.0, 0.0, 0.0, 0.0, 1.662678021984342E9, 0.0, 2022-09-08 19:00:21.984
48.0, -4917.763759823294, -5542.897348749322, -27548.748558610507, -27184.035144333262, -14588.536571089813, 4357.249064117559, 68574.6826022485, 20436.93756305427, -14708.632494048179, -5394.101785910343, -20025.978389498996, -26179.547748511763, 6252.878159627696, -11406.855154854675, -10787.577722975937, -9504.83346043032, 0.244, 0.926, 0.168, 192.0, 0.0, 0.0, 0.0, 0.0, 0.0, 0.0, 0.0, 0.0, 0.0, 1.6626780219843476E9, 0.0, 2022-09-08 19:00:21.984
50.0, -4955.046469574746, -5574.659177620313, -27580.64449794823, -27206.14101959956, -14624.008789540387, 4325.554290479933, 68529.71089240443, 20397.419678857288, -14780.49335247199, -5409.971524473611, -20063.819892861833, -26216.986920474403, 6231.018153550405, -11356.831950763697, -10790.550504988492, -9505.92869590863, 0.244, 0.926, 0.168, 192.0, 0.0, 0.0, 0.0, 0.0, 0.0, 0.0, 0.0, 0.0, 0.0, 1.6626780219843533E9, 0.0, 2022-09-08 19:00:21.984
52.0, -4913.092245232135, -5529.396895098316, -27532.610599113777, -27172.747513383332, -14601.299417173794, 4371.576532313411, 68589.36769835565, 20480.4340577643, -14695.154392141629, -5278.498563587495, -20050.565308399833, -26196.020984175324, 6229.453531438534, -11321.493842779857, -10789.90230439929, -9496.987998126508, 0.244, 0.926, 0.168, 192.0, 0.0, 0.0, 0.0, 0.0, 0.0, 0.0, 0.0, 0.0, 0.0, 1.6626780219843597E9, 0.0, 2022-09-08 19:00:21.984
54.0, -4967.451687747442, -5581.163535256807, -27571.972021099573, -27219.730880228388, -14614.50929814688, 4370.77186951302, 68543.36780826662, 20442.90547882384, -14682.503304779924, -5205.073083051811, -20022.469165619514, -26179.480693278398, 6196.574115344777, -11284.23348477286, -10763.124914541831, -9479.6877479181, 0.246, 0.922, 0.17400000000000002, 192.0, 3.5, 88.0, 14.0, 104.0, 2.5, 56.0, 0.0, 0.0, 0.0, 1.6626780219843657E9, 0.0, 2022-09-08 19:00:21.984
56.0, -4958.063955076213, -5589.29957023854, -27589.249919563525, -27259.49463361438, -14615.872754558653, 4359.528942052, 68564.71372422144, 20428.890935050364, -14949.159616131737, -5419.068684466921, -20169.789513324442, -26352.77376804039, 6218.076493510783, -11281.595978927135, -10816.702046001203, -9541.870300992763, 0.246, 0.922, 0.17400000000000002, 192.0, 0.0, 0.0, 0.0, 0.0, 0.0, 0.0, 0.0, 0.0, 0.0, 1.6626780219843717E9, 0.0, 2022-09-08 19:00:21.984
58.0, -4904.5315271057525, -5514.309467590984, -27542.51242190748, -27159.00119054332, -14589.117716445651, 4374.146982925771, 68573.76618072584, 20432.646028118852, -14555.388934062594, -4907.191384695934, -19988.62862451418, -26129.50219267633, 6213.002647519427, -11215.07718742814, -10749.110370768354, -9487.712024177556, 0.246, 0.922, 0.17400000000000002, 192.0, 0.0, 0.0, 0.0, 0.0, 0.0, 0.0, 0.0, 0.0, 0.0, 1.662678021984377E9, 0.0, 2022-09-08 19:00:21.984
60.0, -4893.199192666912, -5507.648647743303, -27500.602901053775, -27175.00503957332, -14597.633731083124, 4363.194628142671, 68571.50865453585, 20430.209687973223, -14612.184716723528, -4966.5799697136845, -20036.863689048732, -26179.435989789486, 6236.024944308394, -11232.735065547833, -10762.74493488609, -9488.516686977946, 0.246, 0.922, 0.17400000000000002, 192.0, 0.0, 0.0, 0.0, 0.0, 0.0, 0.0, 0.0, 0.0, 0.0, 1.6626780219843824E9, 0.0, 2022-09-08 19:00:21.984
62.0, -4906.632591084551, -5510.062636144476, -27518.976034996038, -27184.102199566627, -14574.253806382872, 4376.203343415659, 68600.05183220528, 20450.259202749636, -14619.51608890487, -4856.6317387380295, -20013.10378469274, -26167.61191697263, 6176.099917423716, -11192.926608672931, -10743.701248610168, -9483.889875875697, 0.246, 0.922, 0.17400000000000002, 192.0, 0.0, 0.0, 0.0, 0.0, 0.0, 0.0, 0.0, 0.0, 0.0, 1.662678021984392E9, 0.0, 2022-09-08 19:00:21.984
64.0, -4901.871669515571, -5525.28417411854, -27518.506648362476, -27188.57254845769, -14573.471495326936, 4414.514233412056, 68596.83318100372, 20517.15797390437, -14623.897030818109, -4791.4764036508095, -20021.91037200813, -26159.40882675753, 6202.407920647612, -11145.049172049663, -10743.142454998786, -9467.461343701047, 0.244, 0.91, 0.168, 192.0, 3.5, 80.0, 14.0, 56.0, 2.5, 32.0, 0.0, 0.0, 0.0, 1.6626780219843976E9, 0.0, 2022-09-08 19:00:21.984
66.0, -4945.278757247777, -5547.770029040579, -27590.233396319556, -27245.033054951797, -14615.55983013628, 4381.791279529486, 68588.83125648872, 20463.200862789257, -14721.618857576712, -5053.148275989089, -20083.332965771315, -26298.48138075845, 6237.388400720168, -11134.29798296666, -10756.352335971873, -9477.452573472568, 0.244, 0.91, 0.168, 192.0, 0.0, 0.0, 0.0, 0.0, 0.0, 0.0, 0.0, 0.0, 0.0, 1.6626780219844031E9, 0.0, 2022-09-08 19:00:21.984
68.0, -4878.245875626311, -5475.618597938847, -27513.07517445984, -27151.155728239504, -14592.202257180485, 4412.9943147890945, 68587.4901518214, 20453.701371395753, -14596.002053737886, -4575.312683023534, -20029.15233721165, -26122.059061772714, 6245.94911884655, -11130.878166064998, -10769.584568689415, -9476.603207183267, 0.244, 0.91, 0.168, 192.0, 0.0, 0.0, 0.0, 0.0, 0.0, 0.0, 0.0, 0.0, 0.0, 1.662678021984409E9, 0.0, 2022-09-08 19:00:21.984
70.0, -4932.627669886073, -5560.1975989577295, -27550.402587700202, -27205.045784121252, -14584.781478021323, 4386.865125520841, 68620.59308535971, 20435.216478731214, -14477.336642424661, -4749.65628977493, -20013.81904051531, -26159.94526862446, 6202.296161925336, -11119.948163026353, -10744.438856177194, -9459.548826163867, 0.244, 0.91, 0.168, 192.0, 0.0, 0.0, 0.0, 0.0, 0.0, 0.0, 0.0, 0.0, 0.0, 1.6626780219844148E9, 0.0, 2022-09-08 19:00:21.984
72.0, -4863.806648708182, -5477.071461328443, -27478.072342642827, -27151.222783472873, -14546.336477558194, 4438.1176755568595, 68580.80698022926, 20492.995738148184, -14471.122857466085, -4739.776818725684, -20056.35441021376, -26216.04814720728, 6212.667371352598, -11030.205909038295, -10759.526283684527, -9465.91907333363, 0.244, 0.91, 0.168, 192.0, 0.0, 0.0, 0.0, 0.0, 0.0, 0.0, 0.0, 0.0, 0.0, 1.66267802198442E9, 0.0, 2022-09-08 19:00:21.984
74.0, -4867.047651654202, -5480.1336503188195, -27497.741877763496, -27165.371437713082, -14569.31407085825, 4429.489902197111, 68620.12369872615, 20464.564319201032, -14412.740100948824, -4520.327391663479, -19988.04747915834, -26155.51962322231, 6152.07179213426, -10995.65011211039, -10723.294105922474, -9437.353543919748, 0.243, 0.913, 0.171, 192.0, 3.5, 72.0, 14.0, 80.0, 2.5, 56.0, 0.0, 0.0, 0.0, 1.6626780219844253E9, 0.0, 2022-09-08 19:00:21.984
76.0, -4913.785149310249, -5532.61554629988, -27548.346227210313, -27204.39758353205, -14585.340271632705, 4377.745613783075, 68551.52619499281, 20465.972479101718, -14340.342800658083, -4572.943398111272, -20003.29136887686, -26157.531280223284, 6233.5886041627655, -11002.757966847179, -10743.902414310267, -9458.475942430014, 0.243, 0.913, 0.171, 192.0, 0.0, 0.0, 0.0, 0.0, 0.0, 0.0, 0.0, 0.0, 0.0, 1.6626780219844308E9, 0.0, 2022-09-08 19:00:21.984
78.0, -4903.346884649621, -5524.434807829239, -27523.35697690928, -27194.652222949535, -14551.455027038459, 4398.286866937503, 68625.30930343978, 20485.038517122095, -14321.232059148797, -4629.940346472305, -20024.63728483168, -26213.343586128187, 6196.887039767152, -10982.708452070769, -10737.778036329513, -9463.594491910279, 0.243, 0.913, 0.171, 192.0, 0.0, 0.0, 0.0, 0.0, 0.0, 0.0, 0.0, 0.0, 0.0, 1.662678021984436E9, 0.0, 2022-09-08 19:00:21.984
80.0, -4957.12518180909, -5590.260695250117, -27597.81063768991, -27276.996049522884, -14614.46459465797, 4372.448250347167, 68536.61758144113, 20474.39908676137, -14392.46706872786, -4801.646447377974, -20148.197728180618, -26293.720459189473, 6170.26611212088, -10980.875609025432, -10785.18608631922, -9509.21440234356, 0.243, 0.913, 0.171, 192.0, 0.0, 0.0, 0.0, 0.0, 0.0, 0.0, 0.0, 0.0, 0.0, 1.6626780219844413E9, 0.0, 2022-09-08 19:00:21.984
82.0, -4894.182669422945, -5488.739071934113, -27500.87112198724, -27164.45501619041, -14581.227550652928, 4403.561878628955, 68659.35101024521, 20480.14348508638, -14127.353027743464, -4491.2924756160355, -20030.716959323523, -26194.545769041273, 6166.6674812635765, -10910.042930846565, -10736.45928340665, -9466.947253578575, 0.243, 0.913, 0.171, 192.0, 0.0, 0.0, 0.0, 0.0, 0.0, 0.0, 0.0, 0.0, 0.0, 1.6626780219844463E9, 0.0, 2022-09-08 19:00:21.984
84.0, -4934.035829786758, -5555.950767511221, -27513.5445610934, -27209.985519645874, -14554.7854369623, 4423.343172471902, 68574.57084352623, 20489.128886357415, -14217.743482320724, -4502.513051332599, -20017.06004346133, -26159.74410292436, 6141.678230962543, -10971.085544954009, -10730.64782984827, -9450.451666170558, 0.2475, 0.9205000000000001, 0.17250000000000001, 192.0, 3.5, 112.0, 14.5, 0.0, 2.5, 56.0, 0.0, 0.0, 0.0, 1.662678021984452E9, 0.0, 2022-09-08 19:00:21.984
86.0, -4905.872631773071, -5519.293906604517, -27543.54060215242, -27201.62596721959, -14583.708594287467, 4401.594925116888, 68659.03808582283, 20482.66923220983, -14134.12560631342, -4625.000610947682, -20061.942346327585, -26249.82163307925, 6187.409900118101, -10903.426814487793, -10746.361106200351, -9464.555616921856, 0.2475, 0.9205000000000001, 0.17250000000000001, 192.0, 0.0, 0.0, 0.0, 0.0, 0.0, 0.0, 0.0, 0.0, 0.0, 1.6626780219844582E9, 0.0, 2022-09-08 19:00:21.984
88.0, -4894.830870012149, -5482.4805834866265, -27514.12570644924, -27146.886545048543, -14584.826181510232, 4417.688181124709, 68562.41149454254, 20483.67506071032, -14006.184221051244, -4486.710368002698, -20058.455474192557, -26167.36604778362, 6189.89094375264, -10974.974748489232, -10768.601091933382, -9477.20670428356, 0.2475, 0.9205000000000001, 0.17250000000000001, 192.0, 0.0, 0.0, 0.0, 0.0, 0.0, 0.0, 0.0, 0.0, 0.0, 1.6626780219844637E9, 0.0, 2022-09-08 19:00:21.984
90.0, -4829.563776202653, -5463.503952444071, -27445.461147482532, -27141.767995568276, -14536.054675108753, 4433.110884798871, 68643.88360308214, 20516.263904126157, -13797.553038305407, -4591.830622176007, -19962.477083501468, -26114.72768959137, 6101.333332220714, -10860.377354666873, -10692.314588107418, -9414.733578530977, 0.2475, 0.9205000000000001, 0.17250000000000001, 192.0, 0.0, 0.0, 0.0, 0.0, 0.0, 0.0, 0.0, 0.0, 0.0, 1.6626780219844694E9, 0.0, 2022-09-08 19:00:21.984
92.0, -4856.497628271298, -5471.863504870356, -27474.183139107605, -27139.5551728672, -14535.54058498628, 4423.454931194178, 68571.21808185794, 20505.110383642957, -13786.913607944682, -4618.630363777919, -19965.80749342531, -26124.74127110735, 6133.83276865873, -10832.95176422021, -10694.9744456976, -9410.307933128826, 0.2475, 0.9205000000000001, 0.17250000000000001, 192.0, 0.0, 0.0, 0.0, 0.0, 0.0, 0.0, 0.0, 0.0, 0.0, 1.662678021984475E9, 0.0, 2022-09-08 19:00:21.984
94.0, -4874.5354860467305, -5491.533039991026, -27499.261796386458, -27168.903013337018, -14542.670791467524, 4445.180826804737, 68664.76013240339, 20520.667197783852, -13848.291498218954, -4713.155891079413, -20009.23693290197, -26158.89473663506, 6126.5237482218445, -10834.62814505436, -10713.146413939765, -9438.649945098156, 0.25075000000000003, 0.92025, 0.17125, 192.0, 3.5, 120.0, 14.0, 96.0, 2.5, 40.0, 0.0, 0.0, 0.0, 1.6626780219844825E9, 0.0, 2022-09-08 19:00:21.984
96.0, -4893.981503722847, -5505.346418064406, -27514.639796571708, -27188.393734502046, -14578.679451785023, 4399.896192538285, 68588.58538729971, 20492.168723603336, -13832.622925355785, -4727.349248808533, -20009.035767201873, -26156.927783122992, 6090.8280123267195, -10808.230734852641, -10704.988027213578, -9438.784055564887, 0.25075000000000003, 0.92025, 0.17125, 192.0, 0.0, 0.0, 0.0, 0.0, 0.0, 0.0, 0.0, 0.0, 0.0, 1.6626780219844882E9, 0.0, 2022-09-08 19:00:21.984
98.0, -4885.5772478076515, -5492.3377027914175, -27522.06057573087, -27204.12936259858, -14565.067239411741, 4417.375256702335, 68655.75237938791, 20493.979214904215, -13846.615117384807, -4759.625167801996, -20029.085281978285, -26177.67020197752, 6115.146710294093, -10822.938182704233, -10726.356294912852, -9465.136762277694, 0.25075000000000003, 0.92025, 0.17125, 192.0, 0.0, 0.0, 0.0, 0.0, 0.0, 0.0, 0.0, 0.0, 0.0, 1.6626780219844935E9, 0.0, 2022-09-08 19:00:21.984
100.0, -4884.951398962903, -5490.013121368065, -27506.704927290077, -27186.985574601364, -14531.316105284228, 4456.557864732488, 68626.02455926235, 20539.576773593042, -13839.820187070392, -4752.874940976494, -20028.213563944526, -26173.33396355319, 6095.812451340253, -10813.639857010825, -10732.36891417133, -9464.555616921856, 0.25075000000000003, 0.92025, 0.17125, 192.0, 0.0, 0.0, 0.0, 0.0, 0.0, 0.0, 0.0, 0.0, 0.0, 1.6626780219844997E9, 0.0, 2022-09-08 19:00:21.984
102.0, -4894.652056056507, -5497.568010993959, -27508.40365986868, -27194.920443883, -14585.139105932607, 4422.762027116064, 68648.08573103974, 20535.709921802274, -13835.059265501413, -4750.304490364134, -20016.47889810549, -26156.927783122992, 6113.224460270937, -10817.171432634763, -10705.792690013968, -9440.169863721118, 0.25075000000000003, 0.92025, 0.17125, 192.0, 0.0, 0.0, 0.0, 0.0, 0.0, 0.0, 0.0, 0.0, 0.0, 1.6626780219845064E9, 0.0, 2022-09-08 19:00:21.984
104.0, -4916.6238208560735, -5514.912964691278, -27517.25495067298, -27205.314005054715, -14564.664908011546, 4465.856190425896, 68611.80884978877, 20507.122040643935, -13875.895902621258, -4778.020653488714, -20050.29708746637, -26189.091943394178, 6077.372262164625, -10835.030476454554, -10729.239669947585, -9471.328195491815, 0.252375, 0.919125, 0.17262500000000003, 192.0, 3.5, 120.0, 14.0, 88.0, 2.5, 56.0, 0.0, 0.0, 0.0, 1.6626780219845128E9, 0.0, 2022-09-08 19:00:21.984
106.0, -4892.260419399789, -5491.734205691124, -27503.888607488705, -27187.186740301462, -14583.999166965386, 4422.918489327251, 68637.98274254594, 20499.455392295768, -13878.533408466985, -4764.1849236708795, -20031.25340119045, -26169.1765390845, 6051.287776385281, -10830.783645008045, -10711.514736594527, -9454.58673889479, 0.252375, 0.919125, 0.17262500000000003, 192.0, 0.0, 0.0, 0.0, 0.0, 0.0, 0.0, 0.0, 0.0, 0.0, 1.6626780219845188E9, 0.0, 2022-09-08 19:00:21.984
108.0, -4902.005779982303, -5496.875106915844, -27508.984805224518, -27192.171179314995, -14586.435507111015, 4401.214945461148, 68616.12273646865, 20501.757621974662, -13899.097013365867, -4762.08385969208, -20037.131909982196, -26168.84126291767, 6051.555997318745, -10834.203461909707, -10727.071550735422, -9455.793733095376, 0.252375, 0.919125, 0.17262500000000003, 192.0, 0.0, 0.0, 0.0, 0.0, 0.0, 0.0, 0.0, 0.0, 0.0, 1.6626780219845245E9, 0.0, 2022-09-08 19:00:21.984
110.0, -4890.874611243559, -5483.017025353554, -27503.21805515505, -27183.208129788418, -14543.184881589996, 4444.733791915631, 68613.7981550453, 20527.81975600955, -13898.135888354289, -4735.12765587898, -20013.5731713263, -26140.45454745943, 6072.276064428815, -10823.340514104428, -10709.63719006028, -9441.689782344078, 0.252375, 0.919125, 0.17262500000000003, 192.0, 0.0, 0.0, 0.0, 0.0, 0.0, 0.0, 0.0, 0.0, 0.0, 1.6626780219845297E9, 0.0, 2022-09-08 19:00:21.984
112.0, -4880.749271005306, -5466.052051311976, -27482.319174089334, -27165.32673422417, -14528.231564549395, 4471.488830028633, 68625.71163483997, 20527.484479842722, -13948.650830823282, -4755.043060188658, -20037.5789448713, -26160.571117469208, 6033.518139543312, -10859.550340122027, -10726.535108868493, -9452.619785382723, 0.252375, 0.919125, 0.17262500000000003, 192.0, 0.0, 0.0, 0.0, 0.0, 0.0, 0.0, 0.0, 0.0, 0.0, 1.6626780219845357E9, 0.0, 2022-09-08 19:00:21.984
114.0, -4872.210904623378, -5457.916016330245, -27473.937269918595, -27155.357856197104, -14544.615393235135, 4498.288571630546, 68630.96429478697, 20577.887663589438, -13951.444798880197, -4687.78666112264, -20001.503229320435, -26120.382680938565, 6035.932127944485, -10849.246185928128, -10698.416614343718, -9425.685933314078, 0.2551875, 0.9205625, 0.1773125, 192.0, 4.0, 8.0, 14.0, 104.0, 2.5, 88.0, 0.0, 0.0, 0.0, 1.6626780219845412E9, 0.0, 2022-09-08 19:00:21.984
116.0, -4871.4285935674425, -5460.240597753596, -27462.806101179853, -27148.808795071698, -14541.530852500304, 4467.398460793312, 68668.91755687208, 20531.261924655668, -13989.085136542933, -4636.645869808897, -20003.134906665673, -26117.186381481457, 6040.201311135449, -10841.870110257878, -10698.841297488369, -9419.136872188672, 0.2551875, 0.9205625, 0.1773125, 192.0, 0.0, 0.0, 0.0, 0.0, 0.0, 0.0, 0.0, 0.0, 0.0, 1.662678021984547E9, 0.0, 2022-09-08 19:00:21.984
118.0, -4870.735689489328, -5465.873237356333, -27460.548574989865, -27147.154765982006, -14556.372410818627, 4499.897897231329, 68628.55030638579, 20567.605861139997, -14033.654514986816, -4559.197075271258, -20000.43034558658, -26119.175686737977, 6035.440389566468, -10885.523067179092, -10703.088128934876, -9435.118369474218, 0.2551875, 0.9205625, 0.1773125, 192.0, 0.0, 0.0, 0.0, 0.0, 0.0, 0.0, 0.0, 0.0, 0.0, 1.662678021984553E9, 0.0, 2022-09-08 19:00:21.984
120.0, -4865.9077126869815, -5467.616673423848, -27459.319229044824, -27140.292780434225, -14543.318992056727, 4483.670530756775, 68684.47437101297, 20591.633986429453, -14055.715686764204, -4437.40241973429, -19986.684022746565, -26102.322471418676, 6046.012764693829, -10891.468631204205, -10679.618797256804, -9398.260342867416, 0.2551875, 0.9205625, 0.1773125, 192.0, 0.0, 0.0, 0.0, 0.0, 0.0, 0.0, 0.0, 0.0, 0.0, 1.6626780219845588E9, 0.0, 2022-09-08 19:00:21.984
122.0, -4929.766646595794, -5537.8905579913335, -27528.564933367365, -27222.368386074115, -14579.528818074325, 4410.267401965547, 68586.193750643, 20500.125944629424, -14136.27137378113, -4391.424881389723, -20037.5789448713, -26159.431178501985, 6068.252750426859, -10974.483010111215, -10733.128873482809, -9461.87340758722, 0.2551875, 0.9205625, 0.1773125, 192.0, 0.0, 0.0, 0.0, 0.0, 0.0, 0.0, 0.0, 0.0, 0.0, 1.6626780219845643E9, 0.0, 2022-09-08 19:00:21.984
124.0, -4864.924235930948, -5470.455344969671, -27472.551461762367, -27152.295667206727, -14537.7310559429, 4461.1846758347365, 68688.00594663691, 20507.613779021955, -14187.389813350417, -4347.973090168606, -20048.799520587865, -26169.66827746252, 6058.440334610979, -11021.868708356466, -10746.182292244708, -9475.127992049216, 0.25359375, 0.90528125, 0.17065625, 192.0, 3.5, 112.0, 13.5, 104.0, 2.5, 16.0, 0.0, 0.0, 0.0, 1.6626780219845788E9, 0.0, 2022-09-08 19:00:21.984
126.0, -4883.900866973504, -5494.70698770368, -27497.87598823023, -27176.033219818262, -14547.409361292048, 4432.552091187488, 68614.46870737895, 20550.68559058733, -14181.980691192233, -4281.878981814263, -19976.75984820841, -26095.482837615353, 6076.947579019974, -10990.665673096857, -10695.667349775715, -9408.519793572403, 0.25359375, 0.90528125, 0.17065625, 192.0, 0.0, 0.0, 0.0, 0.0, 0.0, 0.0, 0.0, 0.0, 0.0, 1.662678021984586E9, 0.0, 2022-09-08 19:00:21.984
128.0, -4859.738631217317, -5468.644853668792, -27459.118063344726, -27132.201448941407, -14587.597797822691, 4476.070937641971, 68658.23342302245, 20590.11406780649, -14346.310716427652, -4392.497765123578, -20040.596430372767, -26153.485614476875, 6088.056396014261, -11073.098906648029, -10743.254213721064, -9452.01628828243, 0.25359375, 0.90528125, 0.17065625, 192.0, 0.0, 0.0, 0.0, 0.0, 0.0, 0.0, 0.0, 0.0, 0.0, 1.6626780219845915E9, 0.0, 2022-09-08 19:00:21.984
130.0, -4897.222506668867, -5511.291982089518, -27490.00817418196, -27167.405446458513, -14557.892329441587, 4403.271305951036, 68548.03932285777, 20519.326093116535, -14435.963563437888, -4436.284832511525, -20018.937589995574, -26136.16301252401, 6138.951318138996, -11067.779191467667, -10726.736274568591, -9430.469206627513, 0.25359375, 0.90528125, 0.17065625, 192.0, 0.0, 0.0, 0.0, 0.0, 0.0, 0.0, 0.0, 0.0, 0.0, 1.662678021984597E9, 0.0, 2022-09-08 19:00:21.984
132.0, -4831.2178052923455, -5444.639080123792, -27420.42719369259, -27096.818637468656, -14528.298619782761, 4479.691920243731, 68656.60174567721, 20638.192670129858, -14520.073177823208, -4495.516955318089, -20023.8773255202, -26140.63336141507, 6125.137940065616, -11102.759671540221, -10718.890812264779, -9428.524604859902, 0.25359375, 0.90528125, 0.17065625, 192.0, 0.0, 0.0, 0.0, 0.0, 0.0, 0.0, 0.0, 0.0, 0.0, 1.662678021984603E9, 0.0, 2022-09-08 19:00:21.984
134.0, -4936.427466443475, -5550.943976753232, -27506.213188912057, -27190.248929291836, -14607.200277709995, 4391.313122667447, 68526.69340690297, 20528.15503217638, -14578.143009918096, -4539.99692678415, -20009.281636390882, -26125.70239611893, 6107.167137523549, -11108.213497187317, -10705.457413847138, -9418.443968110558, 0.248796875, 0.9126406250000001, 0.168328125, 192.0, 3.5, 80.0, 14.0, 96.0, 2.5, 24.0, 0.0, 0.0, 0.0, 1.662678021984609E9, 0.0, 2022-09-08 19:00:21.984
136.0, -4876.927122703448, -5488.470851000649, -27452.412540008136, -27136.224762943362, -14555.92537592952, 4443.906777370784, 68634.02648377734, 20580.391058968435, -14685.990176914953, -4662.037451510126, -20054.275697979414, -26163.23097505939, 6104.037893299806, -11156.090933810585, -10743.03069627651, -9459.526474419412, 0.248796875, 0.9126406250000001, 0.168328125, 192.0, 0.0, 0.0, 0.0, 0.0, 0.0, 0.0, 0.0, 0.0, 0.0, 1.662678021984615E9, 0.0, 2022-09-08 19:00:21.984
138.0, -4906.051445728713, -5520.9032322053, -27483.190892123093, -27174.75917038431, -14572.197445892984, 4397.72807332612, 68544.35128502265, 20593.332719008056, -14702.95515095653, -4741.944937937848, -20035.947267526062, -26153.55266971024, 6107.882393346119, -11188.210390592862, -10724.791672800979, -9444.796674823365, 0.248796875, 0.9126406250000001, 0.168328125, 192.0, 0.0, 0.0, 0.0, 0.0, 0.0, 0.0, 0.0, 0.0, 0.0, 1.662678021984621E9, 0.0, 2022-09-08 19:00:21.984
140.0, -4931.64419313004, -5544.3502121389165, -27506.414354612156, -27197.267377050804, -14580.311129130261, 4411.630858377321, 68612.16647770006, 20561.16855873687, -14754.341811459282, -4824.132302300012, -20060.22126200453, -26174.540957753776, 6093.219648983437, -11237.384228394536, -10749.691516124192, -9460.845227342275, 0.248796875, 0.9126406250000001, 0.168328125, 192.0, 0.0, 0.0, 0.0, 0.0, 0.0, 0.0, 0.0, 0.0, 0.0, 1.6626780219846272E9, 0.0, 2022-09-08 19:00:21.984
142.0, -4918.233146456855, -5529.843929987423, -27495.618462040242, -27183.074019321684, -14579.17119016304, 4421.510329426566, 68558.27642181831, 20596.484314976253, -14795.156096834673, -4905.336189906143, -20072.514721454947, -26192.489408551384, 6082.401404667068, -11272.275301489271, -10764.555426186971, -9469.517704190936, 0.248796875, 0.9126406250000001, 0.168328125, 192.0, 0.0, 0.0, 0.0, 0.0, 0.0, 0.0, 0.0, 0.0, 0.0, 1.6626780219846325E9, 0.0, 2022-09-08 19:00:21.984
144.0, -4906.8784602735595, -5516.209365869685, -27485.49312180199, -27168.970068570387, -14558.317012586238, 4435.480169711133, 68619.36373941466, 20592.438649229844, -14787.645910697689, -4918.076684245669, -20038.8306425608, -26147.785919640773, 6121.0028673413835, -11258.148998993516, -10732.83830080489, -9427.898756015153, 0.248796875, 0.9126406250000001, 0.168328125, 192.0, 0.0, 0.0, 0.0, 0.0, 0.0, 0.0, 0.0, 0.0, 0.0, 1.662678021984638E9, 0.0, 2022-09-08 19:00:21.984
146.0, -4959.8297428881815, -5563.215084459196, -27507.420183112645, -27190.20422580293, -14579.484114585413, 4419.431617192223, 68542.09375883266, 20599.568855711088, -14844.821673014365, -4993.916153182525, -20076.046297078883, -26178.005478144347, 6099.589896153199, -11312.933124653475, -10761.113257540854, -9455.972547051018, 0.252, 0.922, 0.16, 192.0, 3.5, 112.0, 14.0, 104.0, 2.5, 0.0, 0.0, 0.0, 0.0, 1.6626780219846437E9, 0.0, 2022-09-08 19:00:21.984
148.0, -4938.506178677819, -5540.282194648051, -27481.849787455772, -27164.633830146056, -14541.933183900499, 4441.671602925254, 68604.70099505199, 20624.692216478852, -14856.288117919938, -5022.816958763237, -20071.240672020995, -26168.438931517474, 6098.941695563995, -11319.638647990067, -10736.83926306239, -9440.10280848775, 0.252, 0.922, 0.16, 192.0, 0.0, 0.0, 0.0, 0.0, 0.0, 0.0, 0.0, 0.0, 0.0, 1.6626780219846494E9, 0.0, 2022-09-08 19:00:21.984
150.0, -4945.88225434807, -5547.054773218009, -27483.01207816745, -27164.23149874586, -14568.621166780134, 4411.429692677223, 68579.46587556195, 20627.75440546923, -14851.683658562144, -5050.086086998712, -20058.701343381566, -26151.94334410946, 6126.903727877585, -11331.082741151184, -10720.634248332293, -9438.404075909148, 0.252, 0.922, 0.16, 192.0, 0.0, 0.0, 0.0, 0.0, 0.0, 0.0, 0.0, 0.0, 0.0, 1.662678021984655E9, 0.0, 2022-09-08 19:00:21.984
152.0, -4957.4828097203745, -5560.130543724364, -27508.671880802143, -27188.23727229086, -14586.770783277845, 4376.404509115757, 68605.72917529693, 20559.626288369454, -14860.758466810998, -5080.909142602581, -20070.748933642975, -26164.639134960074, 6122.612192942166, -11353.456837350946, -10743.008344532054, -9475.887951360697, 0.252, 0.922, 0.16, 192.0, 0.0, 0.0, 0.0, 0.0, 0.0, 0.0, 0.0, 0.0, 0.0, 1.6626780219846604E9, 0.0, 2022-09-08 19:00:21.984
0.0, -2440.4752183527016, -2743.609576655576, -13751.799017405394, -13583.937416546038, -7272.989424823454, 2205.4242736606925, 34368.55636460261, 10297.42631881551, -7436.335973302838, -2547.0259841711504, -10041.23062386878, -13086.991082071196, 3049.336737315266, -5689.502440631681, -5382.009492160022, -4749.611586286019, 0.246, 0.91, 0.17400000000000002, 192.0, 3.5, 88.0, 14.0, 56.0, 2.5, 56.0, 0.0, 0.0, 0.0, 1.6626780225442712E9, 0.0, 2022-09-08 19:00:22.544
2.0, -4802.786386345195, -5409.479786095594, -27443.538897459377, -27107.5474748072, -14501.096546780653, 4451.998108863605, 68845.60809679129, 20630.280152592677, -14692.360424084714, -5277.828011253835, -19951.6588391851, -26102.680099329962, 6164.477010306956, -11421.07086432825, -10794.506763757083, -9414.755930275433, 0.246, 0.91, 0.17400000000000002, 192.0, 0.0, 0.0, 0.0, 0.0, 0.0, 0.0, 0.0, 0.0, 0.0, 1.6626780225443368E9, 0.0, 2022-09-08 19:00:22.544
4.0, -4775.89723776546, -5385.228143361586, -27420.33778671477, -27089.286099587214, -14500.224828746896, 4489.325522103968, 68775.49067443499, 20692.507409156253, -14654.18364455505, -5219.780530903403, -19902.730870572435, -26056.367284818567, 6183.028958204861, -11382.983491776407, -10757.782847617013, -9387.95618867352, 0.246, 0.91, 0.17400000000000002, 192.0, 0.0, 0.0, 0.0, 0.0, 0.0, 0.0, 0.0, 0.0, 0.0, 1.66267802254438E9, 0.0, 2022-09-08 19:00:22.544
6.0, -4846.618157222051, -5459.74885937558, -27488.64471777019, -27169.059475548205, -14537.596945476169, 4419.230451492125, 68792.56740719885, 20598.026585343672, -14643.90184210561, -5192.533754412384, -19881.02732670633, -26033.121470585047, 6208.4652433950005, -11346.505444825345, -10737.912146796245, -9360.03885984884, 0.246, 0.91, 0.17400000000000002, 192.0, 0.0, 0.0, 0.0, 0.0, 0.0, 0.0, 0.0, 0.0, 0.0, 1.6626780225443847E9, 0.0, 2022-09-08 19:00:22.544
8.0, -4858.106953872079, -5465.761478634057, -27481.00042116647, -27176.033219818262, -14543.475454267915, 4401.706683839165, 68709.0165864249, 20595.947873109326, -14757.783980105398, -5310.305095947397, -19991.75786873792, -26156.5254517228, 6102.272105487837, -11473.262187631391, -10846.34045914894, -9484.40396599817, 0.22, 0.9440000000000001, 0.198, 192.0, 3.0, 112.0, 14.5, 64.0, 3.0, 24.0, 0.0, 0.0, 0.0, 1.6626780225443895E9, 0.0, 2022-09-08 19:00:22.544
10.0, -4802.853441578561, -5407.378722116795, -27446.511679471932, -27136.98472225484, -14515.692235909968, 4459.016556622571, 68789.97460484202, 20675.90006302596, -14689.275883349883, -5234.935013644102, -19924.702635372, -26090.78897127974, 6155.98334741394, -11402.273047241337, -10776.826533892934, -9406.731654015977, 0.22, 0.9440000000000001, 0.198, 192.0, 0.0, 0.0, 0.0, 0.0, 0.0, 0.0, 0.0, 0.0, 0.0, 1.662678022544394E9, 0.0, 2022-09-08 19:00:22.544
12.0, -4833.81060764916, -5436.279527697508, -27480.486331044, -27163.829167345666, -14536.524061742313, 4420.862128837362, 68764.60537488526, 20681.37624041751, -14681.00573790142, -5234.018592121433, -19919.762899847377, -26086.4080293665, 6161.548931783311, -11374.445125394479, -10751.613766147348, -9395.868706210698, 0.22, 0.9440000000000001, 0.198, 192.0, 0.0, 0.0, 0.0, 0.0, 0.0, 0.0, 0.0, 0.0, 0.0, 1.6626780225443988E9, 0.0, 2022-09-08 19:00:22.544
14.0, -4830.413142491954, -5436.033658508499, -27501.139342920706, -27179.363629742104, -14530.533794228291, 4409.596849631888, 68813.19806733109, 20700.46463018234, -14708.945418470554, -5265.892179714701, -19948.99898159492, -26121.656730372517, 6134.905652392585, -11410.006750822873, -10790.483449755127, -9421.953191990042, 0.22, 0.9440000000000001, 0.198, 192.0, 0.0, 0.0, 0.0, 0.0, 0.0, 0.0, 0.0, 0.0, 0.0, 1.6626780225444033E9, 0.0, 2022-09-08 19:00:22.544
16.0, -4848.562758989663, -5447.477751669616, -27505.319119133845, -27183.94573735544, -14528.432730249493, 4416.816463090952, 68795.92016886713, 20642.864184721016, -14709.995950459952, -5252.279967341419, -19938.001923322907, -26108.78212556626, 6129.250661045392, -11394.82991633772, -10791.891609655811, -9419.986238477974, 0.22, 0.9440000000000001, 0.198, 192.0, 0.0, 0.0, 0.0, 0.0, 0.0, 0.0, 0.0, 0.0, 0.0, 1.6626780225444078E9, 0.0, 2022-09-08 19:00:22.544
18.0, -4855.91648291546, -5449.914091815244, -27518.752517551486, -27198.13909508456, -14574.454972082971, 4414.536585156511, 68812.90749465318, 20676.928243270904, -14739.29908744086, -5279.012653709967, -19961.694772445535, -26132.050291544234, 6141.633527473632, -11416.332294503725, -10810.778833720546, -9448.238843469482, 0.212, 0.9380000000000001, 0.19, 192.0, 3.0, 80.0, 14.5, 40.0, 2.5, 120.0, 0.0, 0.0, 0.0, 1.6626780225444124E9, 0.0, 2022-09-08 19:00:22.544
20.0, -4809.5589649151525, -5403.422463348206, -27476.10538913076, -27153.010923029295, -14509.076119551197, 4479.334292332446, 68828.55371577188, 20736.87562190004, -14721.887078510175, -5255.923301687634, -19946.406179238104, -26111.196113967435, 6146.103876364694, -11395.567523904745, -10791.779850933535, -9415.739407031466, 0.212, 0.9380000000000001, 0.19, 192.0, 0.0, 0.0, 0.0, 0.0, 0.0, 0.0, 0.0, 0.0, 0.0, 1.6626780225444171E9, 0.0, 2022-09-08 19:00:22.544
22.0, -4855.044764881703, -5457.759554119058, -27534.01875901446, -27223.73184248589, -14542.670791467524, 4406.400550174779, 68816.14849759919, 20667.495807110765, -14695.735537497467, -5240.724115458026, -19929.061225540787, -26095.30402365971, 6151.892978178618, -11376.859113795652, -10782.347414773396, -9405.7705290044, 0.212, 0.9380000000000001, 0.19, 192.0, 0.0, 0.0, 0.0, 0.0, 0.0, 0.0, 0.0, 0.0, 0.0, 1.6626780225444217E9, 0.0, 2022-09-08 19:00:22.544
24.0, -4848.160427589468, -5448.237710981097, -27527.849677544797, -27213.785316203277, -14545.263593824338, 4385.926352253718, 68812.97454988654, 20620.043053632147, -14746.33988694428, -5302.057302243388, -19984.493551789947, -26153.3738557546, 6130.2788412903365, -11451.782161209841, -10828.86139498489, -9476.06676531634, 0.212, 0.9380000000000001, 0.19, 192.0, 0.0, 0.0, 0.0, 0.0, 0.0, 0.0, 0.0, 0.0, 0.0, 1.6626780225444262E9, 0.0, 2022-09-08 19:00:22.544
26.0, -4848.316889800655, -5446.270757469029, -27519.62423558524, -27205.671632966, -14527.181032559996, 4409.283925209514, 68809.71119519605, 20724.135127560512, -14720.68008430959, -5273.447069340596, -19960.823054411776, -26126.30589321922, 6147.7132019654755, -11405.91638158755, -10801.815784193968, -9457.134837762695, 0.212, 0.9380000000000001, 0.19, 192.0, 0.0, 0.0, 0.0, 0.0, 0.0, 0.0, 0.0, 0.0, 0.0, 1.6626780225444307E9, 0.0, 2022-09-08 19:00:22.544
28.0, -4847.445171766898, -5444.236748723597, -27510.01298546946, -27192.685269437465, -14506.908000339032, 4424.30429748348, 68822.98813140251, 20717.921342601938, -14721.194174432061, -5266.786249492914, -19958.632583455157, -26117.476954159374, 6177.150449413115, -11403.211820508459, -10790.148173588297, -9432.68202932859, 0.216, 0.9380000000000001, 0.182, 192.0, 3.0, 96.0, 14.5, 40.0, 2.5, 88.0, 0.0, 0.0, 0.0, 1.6626780225444355E9, 0.0, 2022-09-08 19:00:22.544
30.0, -4862.890227185515, -5461.067612298442, -27521.702947819587, -27205.13519109907, -14513.859392864633, 4432.350925487391, 68790.22047403103, 20764.480026302343, -14729.732540813988, -5282.56658107836, -19974.994060396442, -26134.598390412142, 6169.8414289762295, -11410.319675245248, -10808.163679619274, -9445.601337623757, 0.216, 0.9380000000000001, 0.182, 192.0, 0.0, 0.0, 0.0, 0.0, 0.0, 0.0, 0.0, 0.0, 0.0, 1.66267802254444E9, 0.0, 2022-09-08 19:00:22.544
32.0, -4856.251759082289, -5458.2959959859845, -27514.72920354953, -27199.591958474157, -14557.221777107929, 4416.5705939019435, 68839.05903566588, 20765.217633869368, -14724.591639589267, -5289.920305004157, -19979.24089184295, -26137.3700067246, 6182.112536682193, -11416.578163692733, -10797.770118447557, -9427.272907170405, 0.216, 0.9380000000000001, 0.182, 192.0, 0.0, 0.0, 0.0, 0.0, 0.0, 0.0, 0.0, 0.0, 0.0, 1.6626780225444443E9, 0.0, 2022-09-08 19:00:22.544
34.0, -4832.2906890262, -5434.603146863359, -27492.802142238874, -27169.8641383486, -14468.641813831546, 4481.41300456679, 68813.33217779783, 20801.78508779825, -14712.409938861125, -5281.6725113001485, -19968.109723104208, -26125.165954252, 6228.827682593785, -11405.11171878716, -10779.12876357183, -9423.62957282419, 0.216, 0.9380000000000001, 0.182, 192.0, 0.0, 0.0, 0.0, 0.0, 0.0, 0.0, 0.0, 0.0, 0.0, 1.662678022544449E9, 0.0, 2022-09-08 19:00:22.544
36.0, -4848.518055500753, -5451.523417416027, -27506.10143018978, -27185.018621089297, -14504.315197982216, 4453.4509722532, 68841.96476244507, 20778.11459042008, -14706.91140972512, -5264.953406447578, -19964.734609691455, -26107.21750345439, 6223.418560435601, -11396.640407638599, -10771.32800475693, -9400.62962777968, 0.216, 0.9380000000000001, 0.182, 192.0, 0.0, 0.0, 0.0, 0.0, 0.0, 0.0, 0.0, 0.0, 0.0, 1.6626780225444553E9, 0.0, 2022-09-08 19:00:22.544
38.0, -4845.075886854635, -5439.297013198974, -27502.927482477127, -27166.08669353565, -14501.185953758473, 4485.950408691217, 68826.16207911517, 20838.129024282578, -14716.500308096447, -5283.348892134296, -19977.966842408998, -26118.728651848873, 6248.608976436732, -11401.222515251937, -10773.697289669191, -9411.939610474064, 0.20600000000000002, 0.922, 0.17200000000000001, 192.0, 3.0, 56.0, 14.0, 104.0, 2.5, 48.0, 0.0, 0.0, 0.0, 1.6626780225444596E9, 0.0, 2022-09-08 19:00:22.544
40.0, -4853.860122425571, -5446.986013291599, -27519.467773374057, -27173.641583161545, -14524.409416247538, 4443.727963415142, 68869.97149824757, 20742.172985335947, -14719.607200575734, -5273.514124573961, -19981.319604077293, -26103.2612446858, 6227.017191292905, -11391.119526758139, -10774.904283869779, -9395.399319577136, 0.20600000000000002, 0.922, 0.17200000000000001, 192.0, 0.0, 0.0, 0.0, 0.0, 0.0, 0.0, 0.0, 0.0, 0.0, 1.662678022544464E9, 0.0, 2022-09-08 19:00:22.544
42.0, -4838.348011773588, -5431.585661361893, -27499.97705220903, -27145.456033403403, -14492.334662954172, 4488.453804070211, 68822.40698604667, 20848.008495331826, -14720.657732565134, -5284.175906679143, -19981.990156410953, -26113.431288412965, 6241.277604255391, -11380.994186519883, -10784.269664796551, -9410.978485462485, 0.20600000000000002, 0.922, 0.17200000000000001, 192.0, 0.0, 0.0, 0.0, 0.0, 0.0, 0.0, 0.0, 0.0, 0.0, 1.6626780225444696E9, 0.0, 2022-09-08 19:00:22.544
44.0, -4847.065192111158, -5446.606033635859, -27512.516380848454, -27171.741684882843, -14482.879875049577, 4475.355681819401, 68900.83925734035, 20931.827537039226, -14706.039691691363, -5289.09329045931, -19971.99892663943, -26107.753945321318, 6260.5895114647765, -11402.608323408167, -10765.829475620923, -9374.120458855685, 0.20600000000000002, 0.922, 0.17200000000000001, 192.0, 0.0, 0.0, 0.0, 0.0, 0.0, 0.0, 0.0, 0.0, 0.0, 1.6626780225444744E9, 0.0, 2022-09-08 19:00:22.544
46.0, -4831.061343081158, -5430.892757283778, -27494.187950395102, -27155.268449219282, -14471.167560954997, 4476.786193464541, 68831.30298033988, 20870.159074087034, -14707.157278914128, -5301.587915609827, -19970.836635927753, -26113.967730279892, 6257.348508518757, -11406.653989154576, -10780.067536838955, -9404.921162715098, 0.20600000000000002, 0.922, 0.17200000000000001, 192.0, 0.0, 0.0, 0.0, 0.0, 0.0, 0.0, 0.0, 0.0, 0.0, 1.662678022544479E9, 0.0, 2022-09-08 19:00:22.544
48.0, -4837.856273395571, -5433.954946274155, -27492.39981083868, -27167.539556925247, -14519.626142934101, 4478.641388254331, 68895.02780378197, 20852.680009922984, -14704.922104468598, -5301.073825487355, -19962.76765617939, -26099.461448128397, 6257.460267241034, -11421.629657939633, -10754.765362115546, -9411.425520351591, 0.222, 0.922, 0.166, 192.0, 3.0, 120.0, 14.0, 104.0, 2.5, 24.0, 0.0, 0.0, 0.0, 1.6626780225444837E9, 0.0, 2022-09-08 19:00:22.544
50.0, -4836.492816983798, -5433.21733870713, -27492.57862479432, -27158.88943182104, -14489.96537804191, 4445.6278616938425, 68839.48371881053, 20845.661562164016, -14705.10091842424, -5315.311886705385, -19963.61702246869, -26101.987195251848, 6286.562238521843, -11426.278820786336, -10762.588472674905, -9424.68010481359, 0.222, 0.922, 0.166, 192.0, 0.0, 0.0, 0.0, 0.0, 0.0, 0.0, 0.0, 0.0, 0.0, 1.6626780225444882E9, 0.0, 2022-09-08 19:00:22.544
52.0, -4847.087543855613, -5440.16873123273, -27498.97122370854, -27163.538594667745, -14474.09563947864, 4455.686146698731, 68922.87807737329, 20853.328210512187, -14714.555706328834, -5314.90955530519, -19969.406124282614, -26098.947358005928, 6266.8703516567175, -11414.410044480568, -10768.93636810021, -9411.649037796145, 0.222, 0.922, 0.166, 192.0, 0.0, 0.0, 0.0, 0.0, 0.0, 0.0, 0.0, 0.0, 0.0, 1.6626780225444927E9, 0.0, 2022-09-08 19:00:22.544
54.0, -4857.861084683071, -5448.640042381292, -27503.419220855147, -27162.62217314508, -14463.00917422881, 4477.099117886915, 68853.09593118381, 20863.69941993945, -14729.15139545815, -5341.128151551265, -19978.39152555365, -26114.83944831365, 6267.876180157206, -11451.625698998654, -10784.873161896845, -9424.38953213567, 0.222, 0.922, 0.166, 192.0, 0.0, 0.0, 0.0, 0.0, 0.0, 0.0, 0.0, 0.0, 0.0, 1.6626780225444975E9, 0.0, 2022-09-08 19:00:22.544
56.0, -4837.900976884482, -5423.919013013722, -27494.72439226203, -27147.445338659923, -14466.451342874927, 4466.54909450401, 68920.64290292775, 20871.70134445445, -14718.355502886237, -5336.009602071, -19968.981441137963, -26101.3613464071, 6277.487430272989, -11450.150483864605, -10763.951929086677, -9389.364348574203, 0.222, 0.922, 0.166, 192.0, 0.0, 0.0, 0.0, 0.0, 0.0, 0.0, 0.0, 0.0, 0.0, 1.662678022544502E9, 0.0, 2022-09-08 19:00:22.544
58.0, -4839.8455786520935, -5422.153225201753, -27490.142284648693, -27129.429832628946, -14481.024680259787, 4489.191411637236, 68863.82476852236, 20897.13762964459, -14712.7228632835, -5324.8784333322565, -19959.459598, -26084.97751772136, 6289.713834490041, -11421.316733517258, -10763.41548721975, -9393.924104443086, 0.228, 0.93, 0.162, 192.0, 3.5, 16.0, 14.5, 8.0, 2.5, 8.0, 0.0, 0.0, 0.0, 1.6626780225445065E9, 0.0, 2022-09-08 19:00:22.544
60.0, -4858.218712594356, -5437.844149809379, -27505.095601689292, -27142.438547901937, -14506.170392772006, 4494.019388439583, 68933.09282458936, 20905.13955415959, -14727.564421601823, -5340.77052363998, -19968.5120545044, -26088.01735496728, 6268.367918535223, -11424.580088207733, -10758.02871680602, -9382.055328137318, 0.228, 0.93, 0.162, 192.0, 0.0, 0.0, 0.0, 0.0, 0.0, 0.0, 0.0, 0.0, 0.0, 1.6626780225445113E9, 0.0, 2022-09-08 19:00:22.544
62.0, -4869.282826099733, -5445.287280712996, -27510.124744191737, -27150.351065439114, -14512.786509130778, 4480.69774874422, 68879.33687917434, 20894.18719937649, -14751.39138119118, -5337.48481720505, -19986.86283670221, -26097.338032405143, 6275.609883738743, -11485.689757548542, -10778.346452515896, -9405.345845859749, 0.228, 0.93, 0.162, 192.0, 0.0, 0.0, 0.0, 0.0, 0.0, 0.0, 0.0, 0.0, 0.0, 1.6626780225445158E9, 0.0, 2022-09-08 19:00:22.544
64.0, -4857.078773627135, -5432.658545095747, -27504.02271795544, -27130.480364618346, -14453.353220624116, 4498.601496052921, 68888.50109440101, 20887.12404812861, -14748.552709645357, -5345.911424864701, -19980.202016854528, -26088.598500323118, 6261.148305076159, -11451.871568187664, -10795.534944002027, -9404.541183059357, 0.228, 0.93, 0.162, 192.0, 0.0, 0.0, 0.0, 0.0, 0.0, 0.0, 0.0, 0.0, 0.0, 1.6626780225445204E9, 0.0, 2022-09-08 19:00:22.544
66.0, -4870.892151700515, -5452.730411616613, -27493.137418405702, -27144.69607409192, -14505.432785204983, 4468.739565460631, 68907.72359463258, 20912.917961230036, -14742.137758986684, -5353.600424957326, -19978.749153464934, -26091.861855013594, 6274.693462216075, -11459.292347346825, -10775.686594925714, -9393.991159676452, 0.228, 0.93, 0.162, 192.0, 0.0, 0.0, 0.0, 0.0, 0.0, 0.0, 0.0, 0.0, 0.0, 1.662678022544525E9, 0.0, 2022-09-08 19:00:22.544
68.0, -4878.849372726604, -5470.254179269574, -27510.43766861411, -27161.303420222215, -14513.76998588681, 4478.12729813186, 68945.63215322878, 20919.511725844353, -14750.452607924059, -5391.620742275803, -19994.395374583648, -26121.433212927965, 6292.440747313589, -11490.94241749554, -10761.001498818578, -9414.353598875237, 0.22, 0.931, 0.159, 192.0, 3.0, 80.0, 14.5, 16.0, 2.0, 112.0, 0.0, 0.0, 0.0, 1.662678022544532E9, 0.0, 2022-09-08 19:00:22.544
70.0, -4888.304160631199, -5471.41646998125, -27523.692253076108, -27166.75724586931, -14509.925485840498, 4450.232321051636, 68923.52627796249, 20888.643966751573, -14752.374857947214, -5415.850033265357, -20000.787973497867, -26134.97837006788, 6287.009273410949, -11498.832583288264, -10793.27741781204, -9411.805500007333, 0.22, 0.931, 0.159, 192.0, 0.0, 0.0, 0.0, 0.0, 0.0, 0.0, 0.0, 0.0, 0.0, 1.6626780225445364E9, 0.0, 2022-09-08 19:00:22.544
72.0, -4894.316779889677, -5477.563199706459, -27530.442479901612, -27192.104124081627, -14506.326854983194, 4425.332477728424, 68911.67985340118, 20874.338850300177, -14748.552709645357, -5415.045370464965, -19992.450772816035, -26131.40209095503, 6285.5340582768995, -11488.528429094367, -10805.682635984736, -9413.459529097025, 0.22, 0.931, 0.159, 192.0, 0.0, 0.0, 0.0, 0.0, 0.0, 0.0, 0.0, 0.0, 0.0, 1.6626780225445411E9, 0.0, 2022-09-08 19:00:22.544
74.0, -4909.225393441367, -5494.8634499148675, -27533.63877935872, -27219.663824995023, -14556.662983496546, 4391.626047089821, 68896.77123984948, 20810.614026858097, -14772.647890168178, -5474.65747292727, -20024.525526109403, -26176.84318743267, 6261.416526009622, -11563.160903830636, -10830.694238030224, -9481.297073518881, 0.22, 0.931, 0.159, 192.0, 0.0, 0.0, 0.0, 0.0, 0.0, 0.0, 0.0, 0.0, 0.0, 1.6626780225445457E9, 0.0, 2022-09-08 19:00:22.544
76.0, -4869.01460516627, -5451.232844738108, -27512.315215148355, -27190.20422580293, -14522.911849369033, 4436.977736589639, 68921.89460061725, 20938.57776386473, -14750.653773624155, -5447.3212894584285, -19993.68011876108, -26144.254344016834, 6276.012215138939, -11520.290257965358, -10805.861449940377, -9446.271889957416, 0.22, 0.931, 0.159, 192.0, 0.0, 0.0, 0.0, 0.0, 0.0, 0.0, 0.0, 0.0, 0.0, 1.6626780225445504E9, 0.0, 2022-09-08 19:00:22.544
78.0, -4907.9960474963245, -5489.56608647896, -27540.098433506304, -27221.474316295902, -14520.788433645777, 4422.739675371608, 68952.04710388745, 20913.297940885775, -14766.814084865342, -5465.940292589699, -20014.75781378243, -26161.64400120306, 6278.627369240209, -11567.363031788234, -10826.916793217277, -9468.333061734804, 0.22, 0.9415, 0.1535, 192.0, 3.0, 112.0, 14.5, 96.0, 2.0, 80.0, 0.0, 0.0, 0.0, 1.662678022544555E9, 0.0, 2022-09-08 19:00:22.544
80.0, -4870.7803929782385, -5445.890777813289, -27516.293825661403, -27189.466618235903, -14482.946930282944, 4451.349908274402, 68938.81487116992, 20888.04046965128, -14767.127009287717, -5459.592397164392, -20000.944435709054, -26141.795652126748, 6274.402889538156, -11544.787769888375, -10816.545583790015, -9453.715020861033, 0.22, 0.9415, 0.1535, 192.0, 0.0, 0.0, 0.0, 0.0, 0.0, 0.0, 0.0, 0.0, 0.0, 1.6626780225445597E9, 0.0, 2022-09-08 19:00:22.544
82.0, -4844.360631032066, -5422.712018813136, -27498.881816730718, -27155.38020794156, -14489.808915830723, 4465.1185828588705, 69011.79331681649, 20957.286173973822, -14751.011401535441, -5433.977298018611, -19990.48381930397, -26123.40016644003, 6299.906229961662, -11521.89958356614, -10809.705949986692, -9451.211625482038, 0.22, 0.9415, 0.1535, 192.0, 0.0, 0.0, 0.0, 0.0, 0.0, 0.0, 0.0, 0.0, 0.0, 1.662678022544564E9, 0.0, 2022-09-08 19:00:22.544
84.0, -4852.742535202806, -5431.540957872982, -27509.677709302632, -27162.644524889532, -14535.026494863809, 4447.103076827893, 68951.39890329825, 20935.67203708554, -14724.815157033821, -5413.525451842004, -19967.08154285926, -26100.15435220651, 6309.025741699426, -11493.602275085721, -10787.734185187124, -9414.867688997709, 0.22, 0.9415, 0.1535, 192.0, 0.0, 0.0, 0.0, 0.0, 0.0, 0.0, 0.0, 0.0, 0.0, 1.6626780225445685E9, 0.0, 2022-09-08 19:00:22.544
86.0, -4885.644303041017, -5463.056917554965, -27532.96822702506, -27174.75917038431, -14555.031306151308, 4425.041905050505, 69004.70781382416, 20936.208478952467, -14761.092038284783, -5461.872275098834, -20001.63733978717, -26134.866611345606, 6294.430052570111, -11533.455435449534, -10810.443557553715, -9434.96190726303, 0.22, 0.9415, 0.1535, 192.0, 0.0, 0.0, 0.0, 0.0, 0.0, 0.0, 0.0, 0.0, 0.0, 1.6626780225445733E9, 0.0, 2022-09-08 19:00:22.544
88.0, -4875.63072152504, -5452.596301149882, -27545.060520775383, -27170.557042426713, -14509.411395718027, 4411.474396166133, 68959.6243452578, 20928.318313159743, -14751.793712591376, -5470.164772291752, -19998.619854285702, -26137.34765498014, 6278.3815000512, -11530.102673781237, -10822.781720493045, -9436.258308441438, 0.227, 0.93475, 0.13974999999999999, 192.0, 3.5, 40.0, 14.5, 0.0, 1.5, 120.0, 0.0, 0.0, 0.0, 1.6626780225445778E9, 0.0, 2022-09-08 19:00:22.544
90.0, -4899.301218903211, -5474.411603738261, -27574.31895426738, -27197.33443228417, -14542.648439723069, 4408.546317642488, 69034.793261861, 20885.51472252783, -14761.404962707158, -5476.17739155023, -20010.95801722503, -26141.50507944883, 6267.116220845726, -11545.726543155497, -10820.680656514247, -9446.785980079887, 0.227, 0.93475, 0.13974999999999999, 192.0, 0.0, 0.0, 0.0, 0.0, 0.0, 0.0, 0.0, 0.0, 0.0, 1.6626780225445824E9, 0.0, 2022-09-08 19:00:22.544
92.0, -4898.96594273638, -5477.473792728638, -27583.080838093858, -27197.37913577308, -14567.034192923807, 4408.434558920212, 68950.3260195644, 20910.61573155114, -14781.610939694756, -5513.258935601585, -20040.194098972574, -26175.18915834298, 6278.269741328924, -11581.019947650428, -10856.935186020755, -9477.5866839393, 0.227, 0.93475, 0.13974999999999999, 192.0, 0.0, 0.0, 0.0, 0.0, 0.0, 0.0, 0.0, 0.0, 0.0, 1.662678022544587E9, 0.0, 2022-09-08 19:00:22.544
94.0, -4879.095241915613, -5463.392193721795, -27561.243183761024, -27172.412237216504, -14505.410433460527, 4464.9397689032285, 69048.80780563448, 20970.63016541364, -14756.241709737982, -5479.239580540608, -20011.695624792057, -26141.41567247101, 6290.943180435083, -11556.991822360973, -10815.629162267347, -9425.037732724873, 0.227, 0.93475, 0.13974999999999999, 192.0, 0.0, 0.0, 0.0, 0.0, 0.0, 0.0, 0.0, 0.0, 0.0, 1.6626780225445917E9, 0.0, 2022-09-08 19:00:22.544
96.0, -4871.518000545264, -5461.693461143192, -27556.88459359224, -27167.271335991783, -14505.924523582999, 4445.761972160575, 68984.50183683656, 20920.60696132266, -14752.508968413946, -5495.891630159811, -20012.075604447797, -26152.300972020745, 6288.842116456284, -11562.065668352327, -10829.040208940532, -9429.217508938016, 0.227, 0.93475, 0.13974999999999999, 192.0, 0.0, 0.0, 0.0, 0.0, 0.0, 0.0, 0.0, 0.0, 0.0, 1.662678022544596E9, 0.0, 2022-09-08 19:00:22.544
98.0, -4915.6850475889505, -5509.347380321906, -27590.881596908763, -27219.283845339283, -14515.44636672096, 4379.243180661581, 69029.4958984251, 20888.912187685037, -14763.975413319518, -5520.746769994113, -20031.543973868367, -26172.93163215299, 6276.52630526141, -11566.938348643584, -10861.852569800922, -9461.15815176465, 0.2225, 0.9413750000000001, 0.131875, 192.0, 3.0, 104.0, 14.5, 80.0, 1.5, 112.0, 0.0, 0.0, 0.0, 1.6626780225446007E9, 0.0, 2022-09-08 19:00:22.544
100.0, -4888.795899009216, -5488.694368445203, -27548.92737256615, -27192.66291769301, -14501.387119458572, 4410.826195576929, 68998.22580793212, 21025.88367770716, -14763.930709830609, -5567.283101950062, -20028.548840111358, -26183.727524724905, 6269.9772441360055, -11583.4339360516, -10825.776854250056, -9460.01821279743, 0.2225, 0.9413750000000001, 0.131875, 192.0, 0.0, 0.0, 0.0, 0.0, 0.0, 0.0, 0.0, 0.0, 0.0, 1.6626780225446064E9, 0.0, 2022-09-08 19:00:22.544
102.0, -4893.06508220018, -5486.749766677591, -27555.811709858386, -27200.84365616365, -14579.014727951853, 4449.539416973522, 69073.59589023542, 21007.91287516509, -14756.308764971349, -5578.347215455439, -20030.336979667783, -26194.031678918804, 6321.945049994594, -11609.853697997773, -10814.243354111119, -9461.448724442569, 0.2225, 0.9413750000000001, 0.131875, 192.0, 0.0, 0.0, 0.0, 0.0, 0.0, 0.0, 0.0, 0.0, 0.0, 1.662678022544611E9, 0.0, 2022-09-08 19:00:22.544
104.0, -4886.091337930124, -5470.947083347689, -27553.97886681305, -27172.211071516405, -14577.628919795623, 4357.137305395282, 69006.60771210286, 20941.81876681075, -14748.262136967438, -5508.3639035658725, -20021.798613285853, -26164.683838448986, 6308.399892854678, -11592.978130934016, -10828.883746729345, -9471.127029791716, 0.2225, 0.9413750000000001, 0.131875, 192.0, 0.0, 0.0, 0.0, 0.0, 0.0, 0.0, 0.0, 0.0, 0.0, 1.6626780225446155E9, 0.0, 2022-09-08 19:00:22.544
106.0, -4904.151547450012, -5486.459193999672, -27569.98271584305, -27191.99236535935, -14566.363640590149, 4384.473488864122, 69071.33836404543, 20932.878069028626, -14758.745105116977, -5539.030496958554, -20026.894811021666, -26166.874309405604, 6291.099642646271, -11614.368750377746, -10842.607717824903, -9478.994843839984, 0.2225, 0.9413750000000001, 0.131875, 192.0, 0.0, 0.0, 0.0, 0.0, 0.0, 0.0, 0.0, 0.0, 0.0, 1.66267802254462E9, 0.0, 2022-09-08 19:00:22.544
108.0, -4867.315872587666, -5450.182312748709, -27538.01972127196, -27148.65233286051, -14555.031306151308, 4404.277134451525, 69054.06046558148, 20999.1062878497, -14762.92488133012, -5538.42699985826, -20021.59744758576, -26168.327172795198, 6283.097718131271, -11615.419282367146, -10843.77000853658, -9466.701384389566, 0.21625, 0.9396875, 0.12793749999999998, 192.0, 3.0, 72.0, 14.5, 40.0, 1.5, 112.0, 0.0, 0.0, 0.0, 1.6626780225446248E9, 0.0, 2022-09-08 19:00:22.544
110.0, -4922.59173662564, -5500.987827895621, -27602.616262747797, -27215.305234826235, -14571.079858670219, 4358.120782151315, 69128.69294031775, 20976.665136416574, -14756.10759927125, -5525.0383049295315, -20013.886095748676, -26159.095902335157, 6270.893665658673, -11606.813860751852, -10836.550395077515, -9450.474017915014, 0.21625, 0.9396875, 0.12793749999999998, 192.0, 0.0, 0.0, 0.0, 0.0, 0.0, 0.0, 0.0, 0.0, 0.0, 1.662678022544629E9, 0.0, 2022-09-08 19:00:22.544
112.0, -4932.73942860835, -5515.829386213945, -27617.52487629949, -27231.398490834057, -14571.325727859226, 4371.218904402126, 69098.65219576981, 20930.732301560914, -14803.73916670551, -5569.451221162227, -20059.17073001513, -26205.3863651021, 6232.739237873464, -11643.87305305875, -10880.15864850982, -9505.772233697442, 0.21625, 0.9396875, 0.12793749999999998, 192.0, 0.0, 0.0, 0.0, 0.0, 0.0, 0.0, 0.0, 0.0, 0.0, 1.6626780225446339E9, 0.0, 2022-09-08 19:00:22.544
114.0, -4904.196250938922, -5498.417377283261, -27607.08661163886, -27227.44223206547, -14595.51031535987, 4388.496802866078, 69134.45969038722, 20950.178319237035, -14782.773230406432, -5559.683508835257, -20050.744122355478, -26198.99376618788, 6269.932540647094, -11636.139349477215, -10887.847648602445, -9513.97532391254, 0.21625, 0.9396875, 0.12793749999999998, 192.0, 0.0, 0.0, 0.0, 0.0, 0.0, 0.0, 0.0, 0.0, 0.0, 1.6626780225446384E9, 0.0, 2022-09-08 19:00:22.544
116.0, -4911.684085331451, -5505.301714575496, -27618.217780377603, -27250.06219745424, -14604.40630965308, 4371.15184916876, 69097.33344284695, 20906.458307082452, -14764.958890075552, -5548.775857541068, -20034.71792158102, -26186.297975337267, 6291.680788002109, -11639.223890212046, -10883.62316890039, -9513.237716345515, 0.21625, 0.9396875, 0.12793749999999998, 192.0, 0.0, 0.0, 0.0, 0.0, 0.0, 0.0, 0.0, 0.0, 0.0, 1.6626780225446427E9, 0.0, 2022-09-08 19:00:22.544
118.0, -4929.140797751045, -5521.529081050048, -27632.634655551276, -27264.97081100593, -14588.581274578724, 4373.007043958551, 69112.9126087323, 20931.0899294722, -14786.55067521938, -5568.914779295299, -20053.538090412392, -26205.788696502295, 6277.599188995265, -11655.808884597885, -10901.191640042263, -9541.400914359203, 0.209125, 0.93284375, 0.12996875, 192.0, 3.0, 40.0, 14.0, 120.0, 2.0, 16.0, 0.0, 0.0, 0.0, 1.6626780225446477E9, 0.0, 2022-09-08 19:00:22.544
120.0, -4902.251649171311, -5493.812917925467, -27609.835876206864, -27243.110804928638, -14547.521120014326, 4377.700910294165, 69088.01276540909, 20995.954691881503, -14772.469076212536, -5551.2121976866965, -20050.11827351073, -26200.491333066388, 6267.697366201564, -11652.59023339632, -10910.512317480127, -9536.215309645571, 0.209125, 0.93284375, 0.12996875, 192.0, 0.0, 0.0, 0.0, 0.0, 0.0, 0.0, 0.0, 0.0, 0.0, 1.6626780230233493E9, 0.0, 2022-09-08 19:00:23.023
122.0, -4906.498480617819, -5503.379464552339, -27611.869884952295, -27264.41201739455, -14594.482135114926, 4357.070250161916, 69090.67262299926, 20899.79748723477, -14756.420523693625, -5534.180168411752, -20030.359331412237, -26188.17552187151, 6303.303695118868, -11652.322012462857, -10883.8690380894, -9542.607908559788, 0.209125, 0.93284375, 0.12996875, 192.0, 0.0, 0.0, 0.0, 0.0, 0.0, 0.0, 0.0, 0.0, 0.0, 1.662678023023416E9, 0.0, 2022-09-08 19:00:23.023
124.0, -4902.6539805715065, -5501.680731973735, -27606.438411049654, -27251.760930032844, -14553.01964915033, 4338.741819708564, 69096.23820736865, 20955.274516972844, -14777.49821871498, -5550.04990697502, -20047.05608452035, -26208.359147114654, 6271.251293569958, -11676.908931363694, -10914.356817526439, -9571.933397285151, 0.209125, 0.93284375, 0.12996875, 192.0, 0.0, 0.0, 0.0, 0.0, 0.0, 0.0, 0.0, 0.0, 0.0, 1.6626780230234208E9, 0.0, 2022-09-08 19:00:23.023
126.0, -4893.601524067107, -5494.818746425956, -27585.628936961766, -27240.897982227565, -14601.098251473697, 4327.029505613984, 69088.75037297611, 20925.837269525204, -14756.420523693625, -5527.944031708722, -20019.205810929037, -26188.689611993985, 6285.042319898882, -11644.521253647954, -10884.383128211872, -9549.425190618658, 0.209125, 0.93284375, 0.12996875, 192.0, 0.0, 0.0, 0.0, 0.0, 0.0, 0.0, 0.0, 0.0, 0.0, 1.662678023023425E9, 0.0, 2022-09-08 19:00:23.023
128.0, -4909.024227741269, -5510.576726266948, -27591.574500986877, -27245.770662518822, -14639.297382747816, 4295.938229076652, 69124.20023968224, 20910.638083295595, -14773.385497735204, -5539.164607425286, -20037.891869293675, -26202.167713900533, 6246.396153735656, -11660.614509655776, -10905.572581955503, -9561.048097735416, 0.20956249999999998, 0.948421875, 0.130984375, 192.0, 3.0, 72.0, 15.0, 16.0, 2.0, 16.0, 0.0, 0.0, 0.0, 1.66267802302343E9, 0.0, 2022-09-08 19:00:23.023
130.0, -4927.375009939076, -5532.704953277702, -27597.587120245353, -27247.33528463069, -14626.8027575973, 4283.778880092965, 69092.0584311555, 20918.483545599407, -14792.540942733402, -5557.627148345369, -20055.393285202183, -26226.844039779193, 6276.995691894972, -11651.87497757375, -10898.53178245208, -9560.913987268685, 0.20956249999999998, 0.948421875, 0.130984375, 192.0, 0.0, 0.0, 0.0, 0.0, 0.0, 0.0, 0.0, 0.0, 0.0, 1.6626780230234344E9, 0.0, 2022-09-08 19:00:23.023
132.0, -4885.6890065299285, -5491.533039991026, -27564.84181461833, -27204.308176554227, -14588.223646667439, 4320.100464832838, 69152.43049292928, 20942.958705777968, -14777.811143137355, -5543.545549338526, -20044.887965308186, -26212.784792516806, 6272.726508704008, -11636.720494833053, -10890.283988748073, -9533.041361932917, 0.20956249999999998, 0.948421875, 0.130984375, 192.0, 0.0, 0.0, 0.0, 0.0, 0.0, 0.0, 0.0, 0.0, 0.0, 1.6626780230234468E9, 0.0, 2022-09-08 19:00:23.023
134.0, -4905.559707350696, -5512.2978105900065, -27590.099285852826, -27224.67061575301, -14606.015635253863, 4309.371627494291, 69094.31595734549, 20922.61861832364, -14759.840340595287, -5522.177281639252, -20026.805404043844, -26194.299899852267, 6281.041357641382, -11615.240468411503, -10874.414250184805, -9512.634219245223, 0.20956249999999998, 0.948421875, 0.130984375, 192.0, 0.0, 0.0, 0.0, 0.0, 0.0, 0.0, 0.0, 0.0, 0.0, 1.6626780230234523E9, 0.0, 2022-09-08 19:00:23.023
136.0, -4934.7063821204165, -5544.0596394609975, -27608.47241979509, -27240.361540360635, -14612.832917312733, 4328.437665514668, 69156.9231935648, 21046.335523883765, -14792.652701455678, -5550.362831397394, -20063.462264950547, -26222.46309786595, 6249.279528770391, -11641.30260244639, -10898.710596407724, -9512.567164011856, 0.20956249999999998, 0.948421875, 0.130984375, 192.0, 0.0, 0.0, 0.0, 0.0, 0.0, 0.0, 0.0, 0.0, 0.0, 1.6626780230234568E9, 0.0, 2022-09-08 19:00:23.023
138.0, -4914.612163855096, -5526.558223552493, -27604.002070904025, -27237.455813581448, -14625.08167327424, 4327.476540503089, 69124.4684606157, 21027.940038197048, -14801.705157960077, -5575.3967851873385, -20074.41461973365, -26242.847888809192, 6243.71394440102, -11671.16453303868, -10914.960314626733, -9531.342629354314, 0.20956249999999998, 0.948421875, 0.130984375, 192.0, 0.0, 0.0, 0.0, 0.0, 0.0, 0.0, 0.0, 0.0, 0.0, 1.662678023023461E9, 0.0, 2022-09-08 19:00:23.023
140.0, -4914.008666754802, -5530.626241043358, -27624.968007203104, -27261.796863293275, -14649.623888686168, 4320.860424144319, 69185.30990902304, 20966.606851411685, -14775.486561714002, -5540.595119070425, -20046.609049631246, -26212.516571583343, 6277.822706439818, -11652.478474674044, -10896.877753362389, -9519.764425726466, 0.21, 0.9440000000000001, 0.126, 192.0, 3.0, 72.0, 14.5, 64.0, 1.5, 120.0, 0.0, 0.0, 0.0, 1.6626780230234659E9, 0.0, 2022-09-08 19:00:23.023
142.0, -4912.153471965012, -5528.815749742478, -27630.198315405647, -27273.330363432215, -14651.56849045378, 4291.557287163411, 69084.48118978515, 20940.365903421152, -14800.095832359295, -5578.749546855634, -20072.470017966036, -26246.848851066694, 6238.014249564916, -11685.827277401362, -10937.200300359762, -9577.722499099076, 0.21, 0.9440000000000001, 0.126, 192.0, 0.0, 0.0, 0.0, 0.0, 0.0, 0.0, 0.0, 0.0, 0.0, 1.6626780230234702E9, 0.0, 2022-09-08 19:00:23.023
144.0, -4900.932896248448, -5515.985848425133, -27616.876675710282, -27262.91445051604, -14645.08648456174, 4273.6088363658, 69161.66176338932, 20907.33002511621, -14772.267910512437, -5547.367697640383, -20046.49729090897, -26214.014138461847, 6300.465023573044, -11657.954652065595, -10903.002131343143, -9556.734211055544, 0.21, 0.9440000000000001, 0.126, 192.0, 0.0, 0.0, 0.0, 0.0, 0.0, 0.0, 0.0, 0.0, 0.0, 1.6626780230234747E9, 0.0, 2022-09-08 19:00:23.023
146.0, -4914.008666754802, -5524.2112903846855, -27620.698824012143, -27263.33913366069, -14626.243963985917, 4294.619476153788, 69078.93795716023, 20940.164737721057, -14785.231922296516, -5550.675755819769, -20059.30484048186, -26220.63025482062, 6281.264875085935, -11650.153893250692, -10921.867003663421, -9570.346423428826, 0.21, 0.9440000000000001, 0.126, 192.0, 0.0, 0.0, 0.0, 0.0, 0.0, 0.0, 0.0, 0.0, 0.0, 1.6626780230234792E9, 0.0, 2022-09-08 19:00:23.023
148.0, -4931.219509985389, -5544.305508650006, -27643.542306845466, -27284.30506995977, -14600.338292162216, 4283.4436039261345, 69140.96404802371, 20977.4027439836, -14802.152192849184, -5563.885636792856, -20083.19885530458, -26234.980074760926, 6250.240653781969, -11673.533817950944, -10929.153672355851, -9568.401821661213, 0.21, 0.9440000000000001, 0.126, 192.0, 0.0, 0.0, 0.0, 0.0, 0.0, 0.0, 0.0, 0.0, 0.0, 1.6626780230234835E9, 0.0, 2022-09-08 19:00:23.023
150.0, -4936.159245510012, -5546.250110417618, -27653.622943594808, -27284.93091880452, -14584.133277432118, 4271.1724962201715, 69056.27328828255, 20940.879993543625, -14808.522440018945, -5578.146049755341, -20094.59824497679, -26250.33572320172, 6267.6303109681985, -11676.93128310815, -10941.938870184287, -9588.674853882178, 0.2, 0.932, 0.128, 192.0, 3.0, 32.0, 14.5, 16.0, 2.0, 0.0, 0.0, 0.0, 0.0, 1.6626780230234883E9, 0.0, 2022-09-08 19:00:23.023
152.0, -4929.990164040347, -5541.265671404085, -27647.967952247614, -27279.34298269069, -14631.340161721726, 4286.103461516316, 69145.59085912596, 20946.490281401908, -14805.996692895496, -5558.163590212297, -20091.133724586216, -26236.455289894973, 6260.701270187053, -11660.122771277758, -10932.193509601773, -9583.37749044627, 0.2, 0.932, 0.128, 192.0, 0.0, 0.0, 0.0, 0.0, 0.0, 0.0, 0.0, 0.0, 0.0, 1.6626780230234928E9, 0.0, 2022-09-08 19:00:23.023
154.0, -4914.701570832917, -5525.910022963289, -27632.925228229193, -27257.907659758053, -14619.069054015763, 4307.985819338062, 69080.7037449722, 20986.544607465818, -14801.88397191572, -5559.281177435062, -20085.478733239026, -26232.47667938193, 6272.614749981732, -11648.678678116641, -10923.20810833074, -9571.553417629411, 0.2, 0.932, 0.128, 192.0, 0.0, 0.0, 0.0, 0.0, 0.0, 0.0, 0.0, 0.0, 0.0, 1.662678023023497E9, 0.0, 2022-09-08 19:00:23.023
156.0, -4923.955193037414, -5533.844892244922, -27646.179812691193, -27264.523776116825, -14632.7036181335, 4291.959618563606, 69122.6132658259, 20986.43284874354, -14792.362128777759, -5559.616453601891, -20081.187198303604, -26225.257065922866, 6290.362035079245, -11653.439599685622, -10927.29847756606, -9566.926606527162, 0.2, 0.932, 0.128, 192.0, 0.0, 0.0, 0.0, 0.0, 0.0, 0.0, 0.0, 0.0, 0.0, 1.6626780230235016E9, 0.0, 2022-09-08 19:00:23.023
158.0, -4932.962946052903, -5546.719497051179, -27658.272106441513, -27279.25357571287, -14612.832917312733, 4269.339653174836, 69060.11778832886, 20933.503917873375, -14809.46121328607, -5566.925474038777, -20092.854808909276, -26234.734205571916, 6266.982110378995, -11659.11694277727, -10949.560815043547, -9580.13648750025, 0.2, 0.932, 0.128, 192.0, 0.0, 0.0, 0.0, 0.0, 0.0, 0.0, 0.0, 0.0, 0.0, 1.662678023023506E9, 0.0, 2022-09-08 19:00:23.023
160.0, -4920.490672646842, -5535.498921334615, -27632.500545084542, -27260.50046211487, -14620.767786594366, 4317.082979331372, 69094.11479164539, 20990.031479600846, -14802.710986460566, -5580.828259089978, -20094.195913576594, -26241.52913588633, 6244.42920022359, -11679.747602909518, -10954.522902312625, -9590.910028327708, 0.194, 0.936, 0.132, 192.0, 3.0, 8.0, 14.5, 32.0, 2.0, 16.0, 0.0, 0.0, 0.0, 1.6626780230235105E9, 0.0, 2022-09-08 19:00:23.023
162.0, -4925.385704682553, -5545.736020295146, -27632.47819334009, -27270.35758141966, -14650.85323463121, 4277.676853856666, 69046.72909340014, 21002.123773351166, -14781.342718761292, -5571.127601996374, -20069.385477231204, -26219.847943764682, 6263.092906843771, -11648.991602539016, -10920.570602485013, -9554.052001720906, 0.194, 0.936, 0.132, 192.0, 0.0, 0.0, 0.0, 0.0, 0.0, 0.0, 0.0, 0.0, 0.0, 1.6626780230235152E9, 0.0, 2022-09-08 19:00:23.023
164.0, -4919.998934268825, -5551.234549431151, -27636.143879430758, -27281.64521236959, -14612.184716723528, 4289.098595273327, 69083.05067814, 21003.151953596112, -14799.626445725733, -5607.784462903079, -20094.821762421343, -26250.87216506865, 6221.809234834819, -11704.17805959917, -10947.92913769831, -9585.32209221388, 0.194, 0.936, 0.132, 192.0, 0.0, 0.0, 0.0, 0.0, 0.0, 0.0, 0.0, 0.0, 0.0, 1.662678023023521E9, 0.0, 2022-09-08 19:00:23.023
166.0, -4910.92412601997, -5548.217063929685, -27609.925283184682, -27255.71718880143, -14617.683245859535, 4298.106348288817, 69056.07212258245, 21005.029500130357, -14783.309672273359, -5598.553192443036, -20075.44279997859, -26236.947028272993, 6326.750675052485, -11659.407515455188, -10929.466596778226, -9565.406687904202, 0.194, 0.936, 0.132, 192.0, 0.0, 0.0, 0.0, 0.0, 0.0, 0.0, 0.0, 0.0, 0.0, 1.6626780230235257E9, 0.0, 2022-09-08 19:00:23.023
168.0, -4901.312875904188, -5540.95274698171, -27606.393707560746, -27250.375121876616, -14623.539402906825, 4287.779842350465, 69047.80197713399, 21011.53385776685, -14781.5885879503, -5602.911782611822, -20070.92774759862, -26236.38823466161, 6269.798430180363, -11664.906044591195, -10936.797968959567, -9559.595234345823, 0.194, 0.936, 0.132, 192.0, 0.0, 0.0, 0.0, 0.0, 0.0, 0.0, 0.0, 0.0, 0.0, 1.66267802302353E9, 0.0, 2022-09-08 19:00:23.023
170.0, -4901.82696602666, -5541.980927226655, -27590.009878875004, -27235.7794327473, -14577.427754095526, 4297.927534333174, 69087.4092683088, 21006.48236351995, -14779.241654782494, -5593.278180751584, -20059.930689326608, -26226.32994965672, 6275.185200594092, -11655.54066366442, -10919.520070495615, -9546.407705117192, 0.194, 0.964, 0.134, 192.0, 3.0, 8.0, 15.0, 16.0, 2.0, 24.0, 0.0, 0.0, 0.0, 1.6626780230235343E9, 0.0, 2022-09-08 19:00:23.023
172.0, -4930.414847184998, -5573.608645630914, -27610.55113202943, -27264.948459261475, -14669.002851128918, 4275.665196855688, 69076.18869259223, 21035.383169100664, -14796.519553246446, -5627.833977679489, -20076.06864882334, -26253.57672614774, 6264.657528955642, -11660.011012555482, -10920.660009462836, -9556.667155822177, 0.194, 0.964, 0.134, 192.0, 0.0, 0.0, 0.0, 0.0, 0.0, 0.0, 0.0, 0.0, 0.0, 1.6626780230235388E9, 0.0, 2022-09-08 19:00:23.023
174.0, -4889.980541465347, -5529.32983986495, -27577.872881635773, -27213.62885399209, -14633.240060000428, 4295.155918020716, 69101.1108876599, 21050.671762308095, -14782.437954239602, -5610.578430959992, -20067.105599296763, -26252.23562148042, 6265.484543500489, -11663.140256779225, -10916.100253593953, -9545.513635338979, 0.194, 0.964, 0.134, 192.0, 0.0, 0.0, 0.0, 0.0, 0.0, 0.0, 0.0, 0.0, 0.0, 1.6626780230235434E9, 0.0, 2022-09-08 19:00:23.023
176.0, -4895.993160723825, -5534.180168411752, -27595.4637045221, -27223.128345385594, -14582.12162043114, 4317.99940085404, 69052.87582312535, 21050.045913463346, -14759.236843494993, -5575.329729953973, -20039.545898383367, -26208.67207153703, 6313.026703956927, -11635.781721565929, -10901.616323186914, -9523.318353094859, 0.194, 0.964, 0.134, 192.0, 0.0, 0.0, 0.0, 0.0, 0.0, 0.0, 0.0, 0.0, 0.0, 1.662678023023548E9, 0.0, 2022-09-08 19:00:23.023
178.0, -4900.798785781716, -5528.748694509112, -27599.6658324797, -27216.735746471375, -14602.55111486329, 4332.840959172364, 69095.79117247954, 21075.482198653484, -14784.963701363053, -5601.391863988861, -20058.678991637113, -26222.127821699123, 6256.588549207277, -11661.352117222801, -10904.119718565908, -9527.386370585726, 0.194, 0.964, 0.134, 192.0, 0.0, 0.0, 0.0, 0.0, 0.0, 0.0, 0.0, 0.0, 0.0, 1.6626780230235524E9, 0.0, 2022-09-08 19:00:23.023
180.0, -4904.196250938922, -5524.457159573693, -27601.94571041414, -27217.003967404842, -14603.93692301952, 4308.23168852707, 69020.84577332089, 21063.792236303358, -14783.913169373653, -5562.499828636626, -20057.82962534781, -26209.879065737616, 6271.720680203519, -11616.603924823276, -10916.54728848306, -9521.17258562715, 0.202, 0.9400000000000001, 0.122, 192.0, 3.0, 40.0, 14.5, 48.0, 1.5, 104.0, 0.0, 0.0, 0.0, 1.6626780230235567E9, 0.0, 2022-09-08 19:00:23.023
182.0, -4930.616012885095, -5550.698107564224, -27616.384937332266, -27244.362502618136, -14631.317809977272, 4286.304627216414, 69063.62701220835, 21025.950732940524, -14798.397099780692, -5577.095517765942, -20068.62551791972, -26217.970397230434, 6264.366956277723, -11639.82738731234, -10911.138166324874, -9522.60309727229, 0.202, 0.9400000000000001, 0.122, 192.0, 0.0, 0.0, 0.0, 0.0, 0.0, 0.0, 0.0, 0.0, 0.0, 1.6626780230235617E9, 0.0, 2022-09-08 19:00:23.023
184.0, -4941.702478134928, -5558.744735568134, -27617.547228043943, -27254.219621922926, -14616.252734214395, 4299.246287256037, 68975.91876696573, 21000.134468094646, -14831.477681574546, -5602.822375634, -20098.21922757855, -26252.459138924976, 6241.657583911131, -11664.3025474909, -10937.40146605986, -9565.250225693015, 0.202, 0.9400000000000001, 0.122, 192.0, 0.0, 0.0, 0.0, 0.0, 0.0, 0.0, 0.0, 0.0, 0.0, 1.662678023023566E9, 0.0, 2022-09-08 19:00:23.023
186.0, -4937.030963543769, -5557.805962301012, -27608.718288984095, -27248.251706153358, -14597.499620616392, 4305.348313492335, 69035.12853802783, 20995.977043625957, -14809.17064060815, -5583.53282016907, -20082.863579137753, -26243.563144631764, 6291.4349188131, -11643.247204214002, -10922.626962974902, -9549.55930108539, 0.202, 0.9400000000000001, 0.122, 192.0, 0.0, 0.0, 0.0, 0.0, 0.0, 0.0, 0.0, 0.0, 0.0, 1.6626780230235703E9, 0.0, 2022-09-08 19:00:23.023
188.0, -4919.373085424076, -5539.209310914196, -27580.800960159417, -27231.71141525643, -14640.839653115232, 4312.992610096051, 68929.00245535403, 20998.68160470505, -14808.142460363206, -5583.510468424615, -20076.672145923632, -26247.631162122627, 6262.064726598826, -11623.287096415414, -10921.464672263226, -9559.505827368, 0.202, 0.9400000000000001, 0.122, 192.0, 0.0, 0.0, 0.0, 0.0, 0.0, 0.0, 0.0, 0.0, 0.0, 1.6626780230235748E9, 0.0, 2022-09-08 19:00:23.023
190.0, -4915.148605722023, -5534.582499811948, -27578.051695591414, -27232.985464690384, -14652.730781165455, 4293.1889645086485, 68972.36483959733, 20972.373601481155, -14774.123105302227, -5559.52704662407, -20048.084264765297, -26224.56416184475, 6326.3930471412, -11616.402759123179, -10890.976892826187, -9541.93735622613, 0.188, 0.9480000000000001, 0.12, 192.0, 2.5, 112.0, 14.5, 80.0, 1.5, 96.0, 0.0, 0.0, 0.0, 1.6626780230235794E9, 0.0, 2022-09-08 19:00:23.023
192.0, -4891.925143232959, -5510.062636144476, -27554.112977279783, -27201.558911986223, -14608.586085866224, 4315.361895008314, 68897.08416427186, 20964.684601388526, -14776.961776848053, -5561.762221069601, -20038.58477337179, -26223.133650199612, 6290.4067385681565, -11626.014009238961, -10898.665892918812, -9543.680792293644, 0.188, 0.9480000000000001, 0.12, 192.0, 0.0, 0.0, 0.0, 0.0, 0.0, 0.0, 0.0, 0.0, 0.0, 1.662678023023584E9, 0.0, 2022-09-08 19:00:23.023
194.0, -4900.262343914788, -5517.505767048093, -27566.78641638594, -27203.749382942842, -14619.896068560609, 4306.130624548272, 68963.89352844877, 20987.77395341086, -14769.317480244337, -5549.759334297101, -20026.06779647682, -26203.352356356667, 6259.76249691993, -11612.960590477061, -10884.763107867611, -9516.434015802624, 0.188, 0.9480000000000001, 0.12, 192.0, 0.0, 0.0, 0.0, 0.0, 0.0, 0.0, 0.0, 0.0, 0.0, 1.6626780230235884E9, 0.0, 2022-09-08 19:00:23.023
196.0, -4921.1612249805, -5538.0693719469755, -27583.438466005144, -27205.38106028808, -14582.948634975986, 4296.675836643677, 68845.36222760228, 20981.96249985248, -14789.814029909854, -5579.241285233651, -20045.40205543066, -26228.05103397978, 6258.019060852416, -11628.003314495483, -10913.105119836942, -9533.354286355292, 0.188, 0.9480000000000001, 0.12, 192.0, 0.0, 0.0, 0.0, 0.0, 0.0, 0.0, 0.0, 0.0, 0.0, 1.662678023023594E9, 0.0, 2022-09-08 19:00:23.023
198.0, -4942.5741961686845, -5551.323956408973, -27609.142972128746, -27216.981615660385, -14590.928207746532, 4289.769147606987, 68920.55349594993, 20944.970362778946, -14808.880067930231, -5595.0663203080085, -20061.852939349763, -26234.644798594094, 6184.213600660993, -11645.102399003792, -10923.610439730935, -9532.348457854803, 0.188, 0.9480000000000001, 0.12, 192.0, 0.0, 0.0, 0.0, 0.0, 0.0, 0.0, 0.0, 0.0, 0.0, 1.6626780230235987E9, 0.0, 2022-09-08 19:00:23.023
200.0, -4973.7995831727485, -5582.459936435215, -27614.015652420003, -27230.571476289213, -14670.947452896531, 4283.287141714948, 68854.3029253844, 20902.77026924733, -14838.183204911138, -5619.116797341919, -20079.73433491401, -26244.65838011007, 6217.718865599498, -11620.135500447215, -10920.078864106998, -9545.424228361158, 0.202, 0.9420000000000001, 0.11, 192.0, 3.0, 40.0, 14.5, 56.0, 1.5, 56.0, 0.0, 0.0, 0.0, 1.662678023023603E9, 0.0, 2022-09-08 19:00:23.023
202.0, -4945.12229503659, -5561.650462347325, -27597.78828594545, -27221.496668040356, -14685.230217603472, 4284.002397537518, 68901.80038235192, 20910.12399317312, -14832.103530419296, -5629.376248046905, -20074.6381371782, -26242.17733647553, 6236.717848386508, -11631.73605581952, -10917.44135826127, -9542.674963793155, 0.202, 0.9420000000000001, 0.11, 192.0, 0.0, 0.0, 0.0, 0.0, 0.0, 0.0, 0.0, 0.0, 0.0, 1.6626780230236075E9, 0.0, 2022-09-08 19:00:23.023
204.0, -4962.847228389648, -5570.05471826252, -27606.930149427673, -27221.496668040356, -14664.107819093208, 4267.8867897852415, 68813.4439365201, 20882.13960911508, -14817.820765712353, -5582.594046901947, -20054.92389856862, -26214.86350475115, 6232.962755318017, -11623.10828245977, -10913.596858214958, -9532.147292154705, 0.202, 0.9420000000000001, 0.11, 192.0, 0.0, 0.0, 0.0, 0.0, 0.0, 0.0, 0.0, 0.0, 0.0, 1.662678023023612E9, 0.0, 2022-09-08 19:00:23.023
206.0, -4963.920112123503, -5574.681529364769, -27607.98068141707, -27231.040862922775, -14679.307005322815, 4266.389222906736, 68855.5993265628, 20873.489484010875, -14846.766274781976, -5613.774730417101, -20080.427238992124, -26240.94799053049, 6199.055158979316, -11663.631995157242, -10937.02148640412, -9553.6049668318, 0.202, 0.9420000000000001, 0.11, 192.0, 0.0, 0.0, 0.0, 0.0, 0.0, 0.0, 0.0, 0.0, 0.0, 1.6626780230236163E9, 0.0, 2022-09-08 19:00:23.023
208.0, -4949.257367760822, -5560.935206524755, -27598.436486534654, -27221.608426762632, -14669.561644740303, 4254.587501834333, 68803.31859628184, 20858.446759992454, -14830.158928651683, -5615.361704273428, -20063.01523006144, -26231.33674041471, 6238.7518571319415, -11654.490131675022, -10930.226556089707, -9544.328992882847, 0.202, 0.9420000000000001, 0.11, 192.0, 0.0, 0.0, 0.0, 0.0, 0.0, 0.0, 0.0, 0.0, 0.0, 1.6626780230236208E9, 0.0, 2022-09-08 19:00:23.023
210.0, -4924.044600015235, -5535.945956223722, -27576.710590924096, -27199.86017940762, -14633.731798378445, 4289.389167951246, 68842.81412873438, 20890.119181885624, -14839.010219455984, -5611.91953562731, -20064.021058561928, -26229.213324691456, 6195.143603699637, -11666.604777169798, -10933.042875891075, -9544.485455094034, 0.197, 0.9450000000000001, 0.099, 192.0, 3.0, 0.0, 14.5, 80.0, 1.0, 96.0, 0.0, 0.0, 0.0, 1.6626780230236263E9, 0.0, 2022-09-08 19:00:23.023
212.0, -4969.642158704061, -5580.940017812254, -27605.432582549165, -27240.406243849546, -14652.037877087341, 4247.770219775465, 68784.74429663949, 20847.4720534649, -14802.845096927298, -5579.442450933749, -20021.306874907837, -26182.900510180058, 6195.881211266663, -11635.669962843653, -10892.116831793408, -9498.843192916298, 0.197, 0.9450000000000001, 0.099, 192.0, 0.0, 0.0, 0.0, 0.0, 0.0, 0.0, 0.0, 0.0, 0.0, 1.662678023023631E9, 0.0, 2022-09-08 19:00:23.023
214.0, -4960.522646966297, -5574.502715409126, -27610.640539007254, -27243.40137760656, -14669.04755461783, 4267.037423495939, 68797.39538400118, 20798.700547063418, -14855.148178952717, -5640.239195852184, -20081.187198303604, -26249.709874356973, 6200.75389155792, -11699.573600241376, -10952.511245311647, -9569.854685050808, 0.197, 0.9450000000000001, 0.099, 192.0, 0.0, 0.0, 0.0, 0.0, 0.0, 0.0, 0.0, 0.0, 0.0, 1.6626780230236354E9, 0.0, 2022-09-08 19:00:23.023
216.0, -4956.208760286422, -5571.552285141026, -27589.27227130798, -27223.351862830146, -14667.885263906153, 4276.447507911624, 68798.02123284593, 20855.988068102368, -14855.438751630636, -5654.164332647841, -20083.44472449359, -26251.118034257655, 6190.539144341844, -11673.757335395496, -10940.709524239246, -9555.41545813268, 0.197, 0.9450000000000001, 0.099, 192.0, 0.0, 0.0, 0.0, 0.0, 0.0, 0.0, 0.0, 0.0, 0.0, 1.66267802302364E9, 0.0, 2022-09-08 19:00:23.023
218.0, -4962.780173156282, -5578.235456733162, -27607.64540525024, -27239.087490926682, -14678.703508222523, 4263.215275194082, 68777.21175875804, 20877.60220499065, -14818.446614557102, -5652.398544835872, -20054.812139846345, -26231.53790611481, 6206.565345116299, -11629.523233118443, -10916.837861160977, -9508.11916686525, 0.197, 0.9450000000000001, 0.099, 192.0, 0.0, 0.0, 0.0, 0.0, 0.0, 0.0, 0.0, 0.0, 0.0, 1.6626780230236444E9, 0.0, 2022-09-08 19:00:23.023
220.0, -4981.712100709928, -5595.893334852855, -27610.70759424062, -27238.036958937286, -14656.888205634143, 4274.145278232727, 68798.98235785752, 20853.12704481209, -14861.116094722283, -5622.626021221402, -20096.5428467444, -26258.404702950087, 6213.740255086453, -11661.262710244979, -10944.084637651997, -9541.467969592568, 0.1985, 0.9445000000000001, 0.0805, 192.0, 3.0, 32.0, 14.5, 64.0, 0.5, 120.0, 0.0, 0.0, 0.0, 1.662678023023649E9, 0.0, 2022-09-08 19:00:23.023
222.0, -4949.100905549634, -5561.404593158316, -27602.50450402552, -27225.654092509045, -14658.251662045916, 4274.882885799752, 68795.22726478902, 20865.576966473694, -14826.761463494477, -5661.853332740466, -20072.514721454947, -26249.687522612516, 6206.364179416201, -11643.805997825384, -10931.54530901257, -9523.541870539411, 0.1985, 0.9445000000000001, 0.0805, 192.0, 0.0, 0.0, 0.0, 0.0, 0.0, 0.0, 0.0, 0.0, 0.0, 1.6626780230236535E9, 0.0, 2022-09-08 19:00:23.023
224.0, -4948.430353215976, -5556.554264611515, -27592.26740506499, -27205.112839354617, -14653.13311256565, 4314.914860119207, 68834.87925945273, 20857.150358814044, -14824.79450998241, -5613.171233316807, -20069.87721560922, -26227.961627001958, 6234.7061913855305, -11644.722419348052, -10926.40440778785, -9527.811053730376, 0.1985, 0.9445000000000001, 0.0805, 192.0, 0.0, 0.0, 0.0, 0.0, 0.0, 0.0, 0.0, 0.0, 0.0, 1.662678023023658E9, 0.0, 2022-09-08 19:00:23.023
226.0, -4954.912359108014, -5573.3404246974505, -27596.13425685576, -27220.937874428975, -14654.697734677522, 4282.3260167033695, 68774.75306686795, 20842.50996619582, -14821.531155291934, -5611.941887371765, -20065.87625335172, -26222.887781010602, 6216.601278376732, -11628.070369728848, -10927.074960121508, -9526.514652551969, 0.1985, 0.9445000000000001, 0.0805, 192.0, 0.0, 0.0, 0.0, 0.0, 0.0, 0.0, 0.0, 0.0, 0.0, 1.6626780230236628E9, 0.0, 2022-09-08 19:00:23.023
228.0, -4941.523664179285, -5549.468761619182, -27584.757218928007, -27213.740612714366, -14631.451920444004, 4280.604932380311, 68845.71985551355, 20847.740274398362, -14810.891724931209, -5642.787294720089, -20059.77422711542, -26222.53015309932, 6197.088205467249, -11648.410457183178, -10922.850480419456, -9521.55256528289, 0.1985, 0.9445000000000001, 0.0805, 192.0, 0.0, 0.0, 0.0, 0.0, 0.0, 0.0, 0.0, 0.0, 0.0, 1.6626780230236683E9, 0.0, 2022-09-08 19:00:23.023
230.0, -4925.385704682553, -5536.61650855738, -27570.317992009877, -27192.66291769301, -14630.222574498961, 4322.2462323005475, 68790.0416600754, 20876.395210790066, -14790.931617132619, -5603.068244823008, -20038.02597976041, -26197.406792331552, 6230.638173894665, -11618.593230079798, -10896.944808595754, -9502.665341218155, 0.20725, 0.94625, 0.06225, 192.0, 3.0, 96.0, 14.5, 80.0, 0.5, 48.0, 0.0, 0.0, 0.0, 1.6626780230236728E9, 0.0, 2022-09-08 19:00:23.023
232.0, -4927.039733772246, -5541.913871993288, -27571.748503655017, -27193.981670615874, -14618.46555691547, 4312.3220577623915, 68850.01139044898, 20878.69744046896, -14777.051183825874, -5596.340369741961, -20034.33794192528, -26181.827626446204, 6229.1853105050695, -11586.29495934188, -10889.076994547486, -9480.179486296116, 0.20725, 0.94625, 0.06225, 192.0, 0.0, 0.0, 0.0, 0.0, 0.0, 0.0, 0.0, 0.0, 0.0, 1.6626780230236773E9, 0.0, 2022-09-08 19:00:23.023
234.0, -4987.009464145835, -5604.811680890522, -27616.675510010187, -27250.15160443206, -14641.7560746379, 4266.880961284753, 68722.40528135363, 20822.303989208223, -14838.049094444406, -5676.270207914139, -20095.15703858817, -26252.325028458243, 6177.619836046677, -11658.759314865985, -10942.721181240224, -9541.669135292666, 0.20725, 0.94625, 0.06225, 192.0, 0.0, 0.0, 0.0, 0.0, 0.0, 0.0, 0.0, 0.0, 0.0, 1.6626780230236819E9, 0.0, 2022-09-08 19:00:23.023
236.0, -4963.651891190039, -5585.119794025397, -27601.543379013943, -27233.186630390483, -14650.04857183082, 4272.625359609766, 68828.33019832733, 20834.999780058835, -14837.155024666194, -5680.2935219160945, -20094.73235544352, -26245.373635932643, 6169.148524898115, -11655.317146219868, -10924.862137420432, -9534.74009451152, 0.20725, 0.94625, 0.06225, 192.0, 0.0, 0.0, 0.0, 0.0, 0.0, 0.0, 0.0, 0.0, 0.0, 1.6626780230236864E9, 0.0, 2022-09-08 19:00:23.023
238.0, -4963.428373745486, -5589.657198149825, -27610.662890751708, -27241.076796183206, -14666.52180749438, 4263.9528827611075, 68766.63938363068, 20829.12127126709, -14823.229887870537, -5669.40822236636, -20076.940366857096, -26233.884839282615, 6196.5517636003215, -11631.981925008527, -10923.789253686578, -9527.498129308002, 0.20725, 0.94625, 0.06225, 192.0, 0.0, 0.0, 0.0, 0.0, 0.0, 0.0, 0.0, 0.0, 0.0, 1.6626780230236907E9, 0.0, 2022-09-08 19:00:23.023
240.0, -4966.043527846758, -5590.77478537259, -27610.93111168517, -27241.881458983597, -14677.38475529966, 4264.936359517141, 68849.43024509314, 20825.723806109883, -14835.478643832046, -5691.357635421471, -20096.632253722222, -26255.275458726344, 6174.200019145014, -11659.429867199644, -10938.049666649064, -9539.433960847135, 0.213625, 0.941125, 0.043125, 192.0, 3.0, 112.0, 14.5, 32.0, 0.0, 96.0, 0.0, 0.0, 0.0, 1.6626780235031412E9, 0.0, 2022-09-08 19:00:23.503
242.0, -4963.562484212218, -5587.936113826766, -27614.976777431584, -27240.76387176083, -14674.881359920664, 4268.8255630523645, 68760.98439228348, 20815.509058893807, -14825.398007082702, -5679.377100393427, -20083.8917593827, -26247.05001676679, 6178.357443613701, -11642.755465835986, -10931.880585179399, -9524.79356822891, 0.213625, 0.941125, 0.043125, 192.0, 0.0, 0.0, 0.0, 0.0, 0.0, 0.0, 0.0, 0.0, 0.0, 1.662678023503203E9, 0.0, 2022-09-08 19:00:23.503
244.0, -4944.854074103127, -5570.859381062911, -27608.22655060608, -27227.218714620914, -14633.284763489339, 4287.623380139277, 68854.21351840657, 20843.94047784096, -14820.860602958275, -5670.861085755955, -20085.478733239026, -26243.496089398395, 6158.665556748576, -11639.603869867788, -10931.54530901257, -9516.16579486916, 0.213625, 0.941125, 0.043125, 192.0, 0.0, 0.0, 0.0, 0.0, 0.0, 0.0, 0.0, 0.0, 0.0, 1.66267802350328E9, 0.0, 2022-09-08 19:00:23.503
246.0, -4989.088176380179, -5615.361704273428, -27656.1263389738, -27265.39549415058, -14688.694737994045, 4234.359173102281, 68744.13117696419, 20785.73653527934, -14828.594306539811, -5694.8445075565, -20108.590437005812, -26273.42507522405, 6180.74908027042, -11657.194692754114, -10945.69396325278, -9549.55930108539, 0.213625, 0.941125, 0.043125, 192.0, 0.0, 0.0, 0.0, 0.0, 0.0, 0.0, 0.0, 0.0, 0.0, 1.6626780235032847E9, 0.0, 2022-09-08 19:00:23.503
248.0, -4978.448746019452, -5603.671741923302, -27652.23713543858, -27258.600563836168, -14694.595598530246, 4257.046193724417, 68823.993959903, 20798.74525055233, -14842.430036357646, -5705.171013494852, -20129.69048377162, -26287.886653886635, 6169.774373742864, -11660.726268378052, -10944.59872777447, -9556.667155822177, 0.213625, 0.941125, 0.043125, 192.0, 0.0, 0.0, 0.0, 0.0, 0.0, 0.0, 0.0, 0.0, 0.0, 1.6626780235032892E9, 0.0, 2022-09-08 19:00:23.503
250.0, -4967.541094725263, -5590.9535993282325, -27643.89993475675, -27247.514098586336, -14692.271017106894, 4232.995716690507, 68743.34886590825, 20806.54600936723, -14835.053960687395, -5699.828946570033, -20125.8012802364, -26288.333688775743, 6165.08050740725, -11650.891500817717, -10941.536538784092, -9559.885807023742, 0.22381250000000003, 0.9365625, 0.020562499999999997, 192.0, 3.5, 40.0, 14.5, 16.0, 127.5, 120.0, 0.0, 0.0, 0.0, 1.6626780235032935E9, 0.0, 2022-09-08 19:00:23.503
252.0, -4972.6819959499835, -5598.329674998484, -27664.932926289195, -27260.05342722576, -14697.903656709632, 4233.509806812979, 68794.33319501081, 20796.01833772878, -14803.202724838582, -5673.722109046234, -20100.32029155735, -26261.891575085116, 6159.939606182529, -11641.079085001837, -10915.250887304652, -9536.438827090124, 0.22381250000000003, 0.9365625, 0.020562499999999997, 192.0, 0.0, 0.0, 0.0, 0.0, 0.0, 0.0, 0.0, 0.0, 0.0, 1.6626780235032983E9, 0.0, 2022-09-08 19:00:23.503
254.0, -5050.980156776924, -5679.958245749265, -27721.013453127558, -27316.804506397788, -14740.550785130357, 4166.1640007691385, 68657.11583579968, 20718.882467613515, -14878.952786797618, -5763.129086867462, -20177.94790005063, -26342.87194524669, 6119.5947074406995, -11698.74658569653, -10994.621931865446, -9608.545554702945, 0.22381250000000003, 0.9365625, 0.020562499999999997, 192.0, 0.0, 0.0, 0.0, 0.0, 0.0, 0.0, 0.0, 0.0, 0.0, 1.6626780235033028E9, 0.0, 2022-09-08 19:00:23.503
0.0, -5016.46906333793, -5646.989422677687, -27701.52273196253, -27295.659756143064, -14715.852107507242, 4194.371902271736, 68684.92140590207, 20741.167156835458, -14867.173417469672, -5749.449819260814, -20168.828388312864, -26329.93028520707, 6119.728817907431, -11696.26554206199, -10977.7910682906, -9597.034406308461, 0.22381250000000003, 0.9365625, 0.020562499999999997, 192.0, 0.0, 0.0, 0.0, 0.0, 0.0, 0.0, 0.0, 0.0, 0.0, 1.6626780235033073E9, 0.0, 2022-09-08 19:00:23.503
2.0, -5026.102665198167, -5659.439344339293, -27704.47316223063, -27306.187427781515, -14718.53431684188, 4201.077425608329, 68608.85841952068, 20721.318807759144, -14865.921719780174, -5758.0105373871975, -20177.098533761327, -26338.02161669989, 6090.738605348898, -11713.252867848023, -10979.713318313756, -9608.210278536115, 0.22381250000000003, 0.9365625, 0.020562499999999997, 192.0, 0.0, 0.0, 0.0, 0.0, 0.0, 0.0, 0.0, 0.0, 0.0, 1.662678023503312E9, 0.0, 2022-09-08 19:00:23.503
4.0, -5002.879202709103, -5636.394695805871, -27683.976612565115, -27290.02711654033, -14706.732595769477, 4227.2066148765825, 68600.74473628339, 20742.3965027805, -14855.684620819644, -5747.482865748748, -20167.33082143436, -26330.936113707558, 6112.151576537082, -11705.40740554421, -10957.11570466944, -9594.240438251549, 0.21790625000000002, 0.93228125, 2.812499999999985E-4, 192.0, 3.0, 80.0, 14.5, 0.0, 127.5, 48.0, 0.0, 0.0, 0.0, 1.662678023503324E9, 0.0, 2022-09-08 19:00:23.503
6.0, -5004.577935287707, -5639.59099526298, -27679.37215320732, -27289.82595084023, -14697.34486309825, 4205.436015777113, 68526.06755805822, 20721.207049036868, -14848.576766082857, -5731.501368463203, -20161.653478342712, -26321.190753125044, 6114.476157960434, -11687.973044869072, -10940.061323650041, -9574.593254875334, 0.21790625000000002, 0.93228125, 2.812499999999985E-4, 192.0, 0.0, 0.0, 0.0, 0.0, 0.0, 0.0, 0.0, 0.0, 0.0, 1.6626780235033283E9, 0.0, 2022-09-08 19:00:23.503
8.0, -4999.504089296352, -5639.0322016515975, -27677.584013650896, -27303.304052746782, -14694.685005508067, 4211.3592280577695, 68499.11135424512, 20723.66574092695, -14842.005353212995, -5733.401266741904, -20166.012068511496, -26329.036215428856, 6132.446960502501, -11705.027425888471, -10946.74449524218, -9585.791478847443, 0.21790625000000002, 0.93228125, 2.812499999999985E-4, 192.0, 0.0, 0.0, 0.0, 0.0, 0.0, 0.0, 0.0, 0.0, 0.0, 1.662678023503333E9, 0.0, 2022-09-08 19:00:23.503
10.0, -4998.61001951814, -5639.255719096151, -27666.877528056804, -27305.44982021449, -14691.95809268452, 4219.539966528412, 68442.8520134511, 20710.053528553668, -14828.974286195551, -5732.03781033013, -20168.873091801775, -26328.58918053975, 6140.068905361761, -11701.384091542255, -10944.464617307738, -9585.23268523606, 0.21790625000000002, 0.93228125, 2.812499999999985E-4, 192.0, 0.0, 0.0, 0.0, 0.0, 0.0, 0.0, 0.0, 0.0, 0.0, 1.6626780235033376E9, 0.0, 2022-09-08 19:00:23.503
12.0, -4990.071653136212, -5633.645431237868, -27652.550059860954, -27313.83172438523, -14690.23700836146, 4221.126940384739, 68382.41289644396, 20698.162400503446, -14816.010274411474, -5727.723923650256, -20165.565033622388, -26326.10813690521, 6155.558664269289, -11703.775728198974, -10943.16821612933, -9584.115098013293, 0.21790625000000002, 0.93228125, 2.812499999999985E-4, 192.0, 0.0, 0.0, 0.0, 0.0, 0.0, 0.0, 0.0, 0.0, 0.0, 1.662678023503342E9, 0.0, 2022-09-08 19:00:23.503
14.0, -4993.469118293419, -5638.048724895564, -27637.61909456481, -27323.35356752319, -14689.588807772257, 4205.16779484365, 68394.72870763883, 20673.419019391422, -14807.985998152019, -5736.150531309907, -20165.207405711106, -26330.31026486281, 6155.826885202752, -11718.55023128393, -10943.995230674176, -9577.834257821352, 0.21790625000000002, 0.93228125, 2.812499999999985E-4, 192.0, 0.0, 0.0, 0.0, 0.0, 0.0, 0.0, 0.0, 0.0, 0.0, 1.6626780235033467E9, 0.0, 2022-09-08 19:00:23.503
16.0, -4992.686807237484, -5637.959317917743, -27637.21676316461, -27328.717986192463, -14689.879380450177, 4202.418530275647, 68368.55481488166, 20677.151760715456, -14820.391216324713, -5744.554787225103, -20174.684545360156, -26336.769919010392, 6148.808437443786, -11725.926306954183, -10950.074905166019, -9582.841048579341, 0.176, 0.9460000000000001, -0.032, 192.0, 2.5, 64.0, 14.5, 72.0, 127.5, 0.0, 0.0, 0.0, 0.0, 1.6626780235033512E9, 0.0, 2022-09-08 19:00:23.503
18.0, -4996.3971968170645, -5643.636661009391, -27633.75224277404, -27326.41575651357, -14696.584903786768, 4209.481681523524, 68449.87046121007, 20671.94380425737, -14820.145347135705, -5744.957118625298, -20182.060621030407, -26336.568753310294, 6137.386696027123, -11740.454940850132, -10945.604556274959, -9566.948958271618, 0.176, 0.9460000000000001, -0.032, 192.0, 0.0, 0.0, 0.0, 0.0, 0.0, 0.0, 0.0, 0.0, 0.0, 1.6626780235033557E9, 0.0, 2022-09-08 19:00:23.503
20.0, -4991.256295592344, -5641.468541797226, -27625.347986858844, -27316.871561631153, -14691.354595584226, 4225.373771831247, 68435.74415871431, 20681.62210960652, -14813.819803454853, -5748.220473315772, -20181.881807074762, -26335.965256210002, 6131.910518635574, -11727.915612210705, -10945.537501041592, -9559.550530856912, 0.176, 0.9460000000000001, -0.032, 192.0, 0.0, 0.0, 0.0, 0.0, 0.0, 0.0, 0.0, 0.0, 0.0, 1.6626780235033605E9, 0.0, 2022-09-08 19:00:23.503
22.0, -5007.193089388978, -5654.589015792491, -27621.727004257085, -27322.526552978346, -14690.259360105916, 4217.371847316247, 68559.59517474117, 20674.76012405874, -14818.133690134728, -5753.048450118119, -20188.117943777794, -26332.478384074973, 6128.937736623017, -11720.852460962828, -10932.282916579596, -9542.853777748798, 0.176, 0.9460000000000001, -0.032, 192.0, 0.0, 0.0, 0.0, 0.0, 0.0, 0.0, 0.0, 0.0, 0.0, 1.662678023503365E9, 0.0, 2022-09-08 19:00:23.503
24.0, -5018.301906383265, -5665.653129297868, -27629.885390983272, -27322.012462855873, -14692.963921185008, 4210.4204547906465, 68561.53977650878, 20673.441371135876, -14823.900440204197, -5752.601415229013, -20198.466801460603, -26340.480308589973, 6116.152538794582, -11716.382112071768, -10935.792140459078, -9553.426152876158, 0.176, 0.9460000000000001, -0.032, 192.0, 0.0, 0.0, 0.0, 0.0, 0.0, 0.0, 0.0, 0.0, 0.0, 1.6626780235033696E9, 0.0, 2022-09-08 19:00:23.503
26.0, -4996.263086350333, -5641.826169708511, -27612.38397507477, -27307.394421982102, -14671.439191274547, 4234.426228335647, 68688.83296118176, 20679.006955505247, -14811.964608665063, -5748.846322160522, -20198.71267064961, -26332.053700930323, 6134.480969247934, -11744.791179274462, -10932.864061935434, -9540.84212074782, 0.17, 0.934, -0.046, 192.0, 2.5, 40.0, 14.5, 24.0, 127.0, 72.0, 0.0, 0.0, 0.0, 1.662678023503374E9, 0.0, 2022-09-08 19:00:23.503
28.0, -4984.506068766841, -5627.766922446122, -27609.23237910657, -27303.952253335985, -14660.553891724812, 4247.41259186418, 68653.96423983148, 20669.194539689368, -14794.820820667843, -5719.945516579809, -20178.17141749518, -26312.004186153914, 6144.136922852626, -11718.214955117102, -10923.521032753115, -9536.818806745865, 0.17, 0.934, -0.046, 192.0, 0.0, 0.0, 0.0, 0.0, 0.0, 0.0, 0.0, 0.0, 0.0, 1.6626780235033786E9, 0.0, 2022-09-08 19:00:23.503
30.0, -4995.681940994495, -5640.082733640997, -27633.729891029587, -27323.264160545372, -14673.38379304216, 4213.080312380828, 68796.94834911208, 20659.650344806952, -14789.054070598373, -5707.562650151569, -20186.41921119919, -26308.58436925225, 6149.188417099526, -11713.923420181683, -10923.744550197667, -9537.578766057344, 0.17, 0.934, -0.046, 192.0, 0.0, 0.0, 0.0, 0.0, 0.0, 0.0, 0.0, 0.0, 0.0, 1.662678023503384E9, 0.0, 2022-09-08 19:00:23.503
32.0, -4996.6877694949835, -5641.826169708511, -27640.971856233104, -27325.521686735356, -14681.698641979534, 4214.801396703887, 68768.00284004246, 20640.13727189747, -14791.6915764441, -5705.148661750396, -20196.94688283764, -26318.35208157922, 6152.921158423563, -11714.772786470985, -10945.202224874762, -9552.822655775864, 0.17, 0.934, -0.046, 192.0, 0.0, 0.0, 0.0, 0.0, 0.0, 0.0, 0.0, 0.0, 0.0, 1.662678023503389E9, 0.0, 2022-09-08 19:00:23.503
34.0, -4982.583818743685, -5630.426780036304, -27636.099175941847, -27310.63542492812, -14664.95718538251, 4234.917966713663, 68891.8091525804, 20643.51238531022, -14779.97926234952, -5686.552010363581, -20196.879827604276, -26310.104287875212, 6155.625719502655, -11703.976893899071, -10940.329544583505, -9544.776027771954, 0.17, 0.934, -0.046, 192.0, 0.0, 0.0, 0.0, 0.0, 0.0, 0.0, 0.0, 0.0, 0.0, 1.6626780235033934E9, 0.0, 2022-09-08 19:00:23.503
36.0, -4982.4273565324975, -5634.003059149153, -27630.690053783663, -27300.845360856696, -14681.72099372399, 4246.585577319333, 68805.46436374955, 20687.746487587272, -14773.631366924212, -5680.137059704907, -20190.4648769456, -26307.511485518397, 6162.845332961719, -11695.058547861403, -10930.941811912277, -9532.951954955097, 0.164, 0.926, -0.076, 192.0, 2.5, 16.0, 14.0, 120.0, 126.5, 80.0, 0.0, 0.0, 0.0, 1.6626780235033996E9, 0.0, 2022-09-08 19:00:23.503
38.0, -4971.229132560388, -5620.279088053595, -27625.14682115875, -27291.479979929925, -14676.200112843528, 4259.750754803509, 68851.37484686075, 20691.546284144675, -14763.6848406416, -5669.944664233287, -20186.150990265727, -26293.899273145114, 6174.959978456495, -11688.397728013722, -10917.240192561174, -9515.495242535502, 0.164, 0.926, -0.076, 192.0, 0.0, 0.0, 0.0, 0.0, 0.0, 0.0, 0.0, 0.0, 0.0, 1.662678023503404E9, 0.0, 2022-09-08 19:00:23.503
40.0, -4988.350568813154, -5639.635698751891, -27635.94271373066, -27303.08053530223, -14676.267168076894, 4251.547664588412, 68744.6229153422, 20663.09251345307, -14774.748954146977, -5672.828039268022, -20194.75641188102, -26300.314223803787, 6178.670368036076, -11692.130469337759, -10920.21297457373, -9518.22215535905, 0.164, 0.926, -0.076, 192.0, 0.0, 0.0, 0.0, 0.0, 0.0, 0.0, 0.0, 0.0, 0.0, 1.6626780235034084E9, 0.0, 2022-09-08 19:00:23.503
42.0, -4984.550772255751, -5639.568643518525, -27633.95340847414, -27309.897817361096, -14678.725859966979, 4231.811074234375, 68822.11641336876, 20649.837928991074, -14773.49725645748, -5682.416937639348, -20205.127621308282, -26309.947825664025, 6183.051309949316, -11691.348158281822, -10921.26350656313, -9523.765387983965, 0.164, 0.926, -0.076, 192.0, 0.0, 0.0, 0.0, 0.0, 0.0, 0.0, 0.0, 0.0, 0.0, 1.6626780235034127E9, 0.0, 2022-09-08 19:00:23.503
44.0, -4978.739318697371, -5633.064285882031, -27618.79892573344, -27297.44789569949, -14664.018412115385, 4234.850911480297, 68719.94658946355, 20637.052731162636, -14767.931672088109, -5677.700719559279, -20198.846781116343, -26306.371546551174, 6192.461394365, -11691.683434448652, -10917.7766344281, -9522.200765872094, 0.164, 0.926, -0.076, 192.0, 0.0, 0.0, 0.0, 0.0, 0.0, 0.0, 0.0, 0.0, 0.0, 1.6626780235034175E9, 0.0, 2022-09-08 19:00:23.503
46.0, -4978.851077419648, -5636.618213250425, -27625.5715043034, -27304.287529502813, -14669.181665084561, 4233.733324257532, 68772.27202323342, 20651.782530758683, -14760.82381735132, -5671.956321234265, -20197.483324704568, -26302.2588255714, 6201.133871213659, -11689.60472221431, -10915.027369860098, -9512.589515756312, 0.178, 0.9380000000000001, -0.07200000000000001, 192.0, 2.5, 72.0, 14.5, 40.0, 126.5, 96.0, 0.0, 0.0, 0.0, 1.662678023503422E9, 0.0, 2022-09-08 19:00:23.503
48.0, -4993.245600848866, -5647.0117744221425, -27632.969931718104, -27309.763706894366, -14668.868740662187, 4227.273670109948, 68689.77173444888, 20641.008989931226, -14768.713983144044, -5684.272132429139, -20207.38514749827, -26313.032366398857, 6190.069757708283, -11698.50071650752, -10927.745512455167, -9518.356265825782, 0.178, 0.9380000000000001, -0.07200000000000001, 192.0, 0.0, 0.0, 0.0, 0.0, 0.0, 0.0, 0.0, 0.0, 0.0, 1.6626780235034266E9, 0.0, 2022-09-08 19:00:23.503
50.0, -4975.207743073433, -5628.728047457701, -27620.18473388967, -27294.475113686934, -14654.89890037762, 4246.295004641414, 68686.35191754722, 20675.408324647942, -14765.204759264561, -5673.900923001876, -20205.865228875307, -26303.845799427727, 6200.977409002472, -11689.962350125594, -10920.950582140755, -9512.142480867205, 0.178, 0.9380000000000001, -0.07200000000000001, 192.0, 0.0, 0.0, 0.0, 0.0, 0.0, 0.0, 0.0, 0.0, 0.0, 1.662678023503431E9, 0.0, 2022-09-08 19:00:23.503
52.0, -4985.646007734062, -5638.11578012893, -27621.481135068076, -27294.02807879783, -14651.881414876154, 4233.420399835158, 68626.449242407, 20660.4773593518, -14768.44576221058, -5667.865951998943, -20206.871057375796, -26295.374488279165, 6206.520641627389, -11687.727175680064, -10914.915611137822, -9510.466100033058, 0.178, 0.9380000000000001, -0.07200000000000001, 192.0, 0.0, 0.0, 0.0, 0.0, 0.0, 0.0, 0.0, 0.0, 0.0, 1.6626780235034356E9, 0.0, 2022-09-08 19:00:23.503
54.0, -4977.286455307777, -5632.192567848274, -27611.869884952295, -27290.384744451614, -14648.819225885776, 4241.243510394515, 68634.54057389982, 20681.66681309543, -14766.92584358762, -5662.88151298541, -20202.490115462555, -26289.2054068095, 6208.599353861732, -11678.227684286558, -10904.544401710558, -9499.893724905698, 0.178, 0.9380000000000001, -0.07200000000000001, 192.0, 0.0, 0.0, 0.0, 0.0, 0.0, 0.0, 0.0, 0.0, 0.0, 1.6626780235034404E9, 0.0, 2022-09-08 19:00:23.503
56.0, -4988.574086257707, -5639.54629177407, -27604.247940093035, -27290.518854918344, -14655.927080622565, 4236.057905680884, 68631.88071630964, 20657.1245976835, -14775.777134391921, -5671.755155534167, -20211.073185333396, -26298.615491225184, 6203.056121236816, -11690.722309437075, -10901.34810225345, -9505.124033108239, 0.17400000000000002, 0.9520000000000001, -0.062, 192.0, 2.5, 56.0, 14.5, 96.0, 127.0, 8.0, 0.0, 0.0, 0.0, 1.662678023503445E9, 0.0, 2022-09-08 19:00:23.503
58.0, -4951.894873606548, -5605.34812275745, -27577.559957213398, -27265.06021798375, -14636.503414690902, 4253.067583211373, 68615.40748064607, 20684.147856729967, -14764.511855186447, -5657.897073971877, -20194.331728736368, -26283.237491039934, 6221.384551690167, -11673.5561696954, -10882.617340399902, -9489.768384667443, 0.17400000000000002, 0.9520000000000001, -0.062, 192.0, 0.0, 0.0, 0.0, 0.0, 0.0, 0.0, 0.0, 0.0, 0.0, 1.6626780235034497E9, 0.0, 2022-09-08 19:00:23.503
60.0, -4960.1203155661005, -5612.187756560774, -27577.917585124684, -27262.512119115847, -14631.273106488361, 4243.210463906582, 68630.51725989787, 20668.546339100165, -14758.856863839253, -5644.798951721067, -20188.766144366997, -26273.179206035045, 6220.915165056606, -11661.30741373389, -10875.91181706331, -9474.233922271005, 0.17400000000000002, 0.9520000000000001, -0.062, 192.0, 0.0, 0.0, 0.0, 0.0, 0.0, 0.0, 0.0, 0.0, 0.0, 1.6626780235034542E9, 0.0, 2022-09-08 19:00:23.503
62.0, -4957.706327164928, -5611.628962949391, -27569.714494909585, -27260.701627814964, -14647.61223168519, 4249.915987243175, 68651.7514171304, 20675.98947000378, -14769.630404666712, -5656.175989648818, -20196.835124115365, -26282.0528485838, 6224.647906380643, -11655.697125875608, -10879.018709542599, -9470.031794313407, 0.17400000000000002, 0.9520000000000001, -0.062, 192.0, 0.0, 0.0, 0.0, 0.0, 0.0, 0.0, 0.0, 0.0, 0.0, 1.6626780235034587E9, 0.0, 2022-09-08 19:00:23.503
64.0, -4946.97748982638, -5605.772805902101, -27545.97694229805, -27242.082624683695, -14629.753187865399, 4272.379490420758, 68717.84552548475, 20685.690127097383, -14758.409828950147, -5643.144922631374, -20191.046022301438, -26269.558223433283, 6231.644002395154, -11645.705896104086, -10861.137313978352, -9456.330174962304, 0.17400000000000002, 0.9520000000000001, -0.062, 192.0, 0.0, 0.0, 0.0, 0.0, 0.0, 0.0, 0.0, 0.0, 0.0, 1.6626780235034633E9, 0.0, 2022-09-08 19:00:23.503
66.0, -4929.49842566233, -5588.517259182604, -27532.521192135955, -27220.37908081759, -14607.200277709995, 4321.262755544514, 68720.23716214146, 20699.27998772621, -14752.352506202758, -5636.349992316961, -20182.95469080862, -26264.931412331036, 6247.469037469511, -11650.980907795538, -10845.692258559735, -9445.780151579398, 0.186, 0.972, -0.046, 192.0, 2.5, 104.0, 15.0, 48.0, 127.0, 72.0, 0.0, 0.0, 0.0, 1.6626780235034678E9, 0.0, 2022-09-08 19:00:23.503
68.0, -4919.708361590906, -5576.3355584544615, -27524.698081576596, -27209.00204288984, -14599.578332850735, 4309.729255405576, 68810.62761671873, 20701.51516217174, -14730.336037914281, -5603.381169245383, -20167.26376620099, -26240.52330738584, 6270.580741236298, -11618.526174846433, -10827.542642062026, -9423.540165846369, 0.186, 0.972, -0.046, 192.0, 0.0, 0.0, 0.0, 0.0, 0.0, 0.0, 0.0, 0.0, 0.0, 1.6626780235034745E9, 0.0, 2022-09-08 19:00:23.503
70.0, -4942.484789190864, -5598.910820354321, -27554.98469531354, -27234.259514124336, -14614.442242913514, 4317.507662476023, 68770.30506972135, 20713.786269877706, -14757.940442316585, -5631.119684114419, -20184.653423387223, -26257.778854105338, 6247.04435432486, -11638.083951244826, -10848.28506091655, -9446.58481437979, 0.186, 0.972, -0.046, 192.0, 0.0, 0.0, 0.0, 0.0, 0.0, 0.0, 0.0, 0.0, 0.0, 1.662678023503479E9, 0.0, 2022-09-08 19:00:23.503
72.0, -4889.019416453769, -5541.846816759922, -27507.241369157004, -27170.534690682256, -14591.26348391336, 4353.516322793523, 68902.00154805202, 20753.48296803033, -14748.44095092308, -5604.9234396127995, -20170.19184472464, -26230.71089156996, 6261.23771205398, -11621.923640003639, -10834.874014243367, -9427.96581124852, 0.186, 0.972, -0.046, 192.0, 0.0, 0.0, 0.0, 0.0, 0.0, 0.0, 0.0, 0.0, 0.0, 1.6626780235034835E9, 0.0, 2022-09-08 19:00:23.503
74.0, -4890.58403856564, -5543.47849410516, -27513.7457267935, -27176.279089007272, -14601.925266018543, 4339.591185997866, 68852.8053585059, 20738.261430056267, -14726.759758801432, -5572.781631086067, -20141.93923973313, -26202.011251689346, 6271.228941825502, -11589.692424499086, -10814.489223300126, -9405.882287726676, 0.186, 0.972, -0.046, 192.0, 0.0, 0.0, 0.0, 0.0, 0.0, 0.0, 0.0, 0.0, 0.0, 1.6626780235034888E9, 0.0, 2022-09-08 19:00:23.503
76.0, -4922.055294758713, -5575.441488676249, -27545.97694229805, -27205.33635679917, -14621.840670328222, 4320.346334021847, 68934.16570832321, 20707.348967474576, -14738.740293829476, -5582.526991668581, -20152.93629800514, -26211.264873893844, 6262.981148121495, -11614.927543989128, -10824.748674005114, -9425.551822847347, 0.186, 0.96, -0.034, 192.0, 2.5, 104.0, 15.0, 0.0, 127.0, 120.0, 0.0, 0.0, 0.0, 1.6626780235034935E9, 0.0, 2022-09-08 19:00:23.503
78.0, -4911.773492309272, -5560.264654191095, -27534.041110758917, -27188.460789735414, -14600.986492751419, 4347.615462257321, 68868.51863485797, 20708.377147719522, -14772.87140761273, -5595.848631363944, -20177.098533761327, -26226.933446757015, 6229.408827949623, -11603.550506061376, -10851.05667722901, -9446.137779490684, 0.186, 0.96, -0.034, 192.0, 0.0, 0.0, 0.0, 0.0, 0.0, 0.0, 0.0, 0.0, 0.0, 1.662678023503498E9, 0.0, 2022-09-08 19:00:23.503
80.0, -4909.717131819383, -5557.716555323191, -27536.097471248802, -27195.792161916754, -14614.933981291531, 4351.996404170562, 68969.45911281813, 20713.741566388795, -14754.073590525817, -5564.57854087097, -20161.74288532053, -26200.71485051094, 6265.95393013405, -11586.585532019799, -10834.605793309904, -9424.210718180027, 0.186, 0.96, -0.034, 192.0, 0.0, 0.0, 0.0, 0.0, 0.0, 0.0, 0.0, 0.0, 0.0, 1.6626780235035038E9, 0.0, 2022-09-08 19:00:23.503
82.0, -4904.308009661199, -5547.613566829392, -27538.265590460967, -27193.378173515583, -14587.866018756155, 4370.190724157182, 68899.07346952838, 20690.942787044383, -14754.386514948192, -5574.368604942394, -20171.644708114232, -26212.62833030562, 6277.666244228631, -11592.44168906709, -10847.323935904973, -9443.38851492268, 0.186, 0.96, -0.034, 192.0, 0.0, 0.0, 0.0, 0.0, 0.0, 0.0, 0.0, 0.0, 0.0, 1.6626780235035083E9, 0.0, 2022-09-08 19:00:23.503
84.0, -4881.151602405501, -5520.746769994113, -27526.486221133022, -27177.150807041027, -14569.850512725177, 4361.428840330701, 68994.91774975274, 20696.463667924843, -14723.406997133137, -5527.3852380973385, -20145.716684546078, -26173.155149597544, 6278.448555284567, -11560.724563685008, -10832.214156653185, -9414.755930275433, 0.186, 0.96, -0.034, 192.0, 0.0, 0.0, 0.0, 0.0, 0.0, 0.0, 0.0, 0.0, 0.0, 1.662678023503513E9, 0.0, 2022-09-08 19:00:23.503
86.0, -4877.508268059286, -5515.918793191766, -27510.996462225496, -27172.70280989442, -14585.921416988544, 4360.691232763676, 68907.41067021021, 20676.011821748238, -14719.875421509198, -5533.531967822549, -20140.106396687795, -26175.904414165547, 6305.516517819944, -11557.260043294436, -10829.151967662809, -9427.161148448127, 0.185, 0.952, -0.025, 192.0, 2.5, 96.0, 14.5, 64.0, 127.5, 64.0, 0.0, 0.0, 0.0, 1.662678023503518E9, 0.0, 2022-09-08 19:00:23.503
88.0, -4866.131230131535, -5510.174394866753, -27507.643700557197, -27167.89718483653, -14579.729983774423, 4395.224677947125, 69000.12570621082, 20677.24116769328, -14692.338072340259, -5502.843022685412, -20120.682730756133, -26161.576945969697, 6332.807997799873, -11556.254214793948, -10810.622371509358, -9414.91239248662, 0.185, 0.952, -0.025, 192.0, 0.0, 0.0, 0.0, 0.0, 0.0, 0.0, 0.0, 0.0, 0.0, 1.6626780235035229E9, 0.0, 2022-09-08 19:00:23.503
90.0, -4889.578210065152, -5542.852645260411, -27515.265645416457, -27186.382077501068, -14558.920509686532, 4378.930256239207, 68919.5700191939, 20646.865146978518, -14714.421595862103, -5534.828369000956, -20135.144309418716, -26186.432085803997, 6310.679770789119, -11555.203682804547, -10815.539755289527, -9425.5741745918, 0.185, 0.952, -0.025, 192.0, 0.0, 0.0, 0.0, 0.0, 0.0, 0.0, 0.0, 0.0, 0.0, 1.6626780235035272E9, 0.0, 2022-09-08 19:00:23.503
92.0, -4887.588904808629, -5543.456142360705, -27521.3453199083, -27193.8699118936, -14576.399573850582, 4404.67946585172, 69015.41429941825, 20643.80295798814, -14719.048406964352, -5569.898256051333, -20144.442635112126, -26208.582664559206, 6305.851793986773, -11546.933537356084, -10807.783699963535, -9429.932764760586, 0.185, 0.952, -0.025, 192.0, 0.0, 0.0, 0.0, 0.0, 0.0, 0.0, 0.0, 0.0, 0.0, 1.6626780235035317E9, 0.0, 2022-09-08 19:00:23.503
94.0, -4886.49366933032, -5543.187921427241, -27521.7476513085, -27192.752324670833, -14567.637690024101, 4351.012927414528, 68988.8380752609, 20609.47067850479, -14708.498383581447, -5527.698162519713, -20139.838175754332, -26211.71190878295, 6309.964514966549, -11564.300842797857, -10815.450348311704, -9431.855014783743, 0.185, 0.952, -0.025, 192.0, 0.0, 0.0, 0.0, 0.0, 0.0, 0.0, 0.0, 0.0, 0.0, 1.6626780235035365E9, 0.0, 2022-09-08 19:00:23.503
96.0, -4909.247745185822, -5563.1927327147405, -27531.716529335565, -27205.33635679917, -14583.596835565191, 4365.183933399193, 69049.38895099032, 20600.708794678307, -14732.079473981796, -5584.918628325299, -20163.55337662141, -26244.05488300978, 6258.443743997067, -11602.477622327522, -10843.702953303213, -9448.149436491662, 0.1835, 0.9470000000000001, -0.0145, 192.0, 2.5, 88.0, 14.5, 56.0, 127.5, 112.0, 0.0, 0.0, 0.0, 1.6626780235035408E9, 0.0, 2022-09-08 19:00:23.503
98.0, -4929.945460551437, -5581.3870527013605, -27540.992503284517, -27224.022415163807, -14623.6511616291, 4337.087790618872, 69013.62615986183, 20545.790558551616, -14726.91622101262, -5538.739924280635, -20147.348361891316, -26221.881952510113, 6314.1219394352365, -11571.900435912661, -10817.462005312682, -9429.284564171383, 0.1835, 0.9470000000000001, -0.0145, 192.0, 0.0, 0.0, 0.0, 0.0, 0.0, 0.0, 0.0, 0.0, 0.0, 1.6626780235035455E9, 0.0, 2022-09-08 19:00:23.503
100.0, -4881.777451250249, -5533.084932933442, -27515.35505239428, -27190.740667669856, -14592.828106025232, 4380.4725266066225, 69075.96517514768, 20560.274488958657, -14735.298125183359, -5572.692224108247, -20164.5592051219, -26239.606885863173, 6276.14632560567, -11580.237636594491, -10844.395857381327, -9457.514817418434, 0.1835, 0.9470000000000001, -0.0145, 192.0, 0.0, 0.0, 0.0, 0.0, 0.0, 0.0, 0.0, 0.0, 0.0, 1.6626780235035512E9, 0.0, 2022-09-08 19:00:23.503
102.0, -4881.375119850054, -5526.669982274769, -27509.00715696897, -27175.295612251237, -14556.774742218822, 4366.659148533243, 69047.26553526707, 20521.047177439592, -14698.104822409729, -5524.3901043403275, -20124.147251146707, -26192.444705062477, 6303.549564307877, -11504.621685102187, -10817.104377401398, -9414.152433175139, 0.1835, 0.9470000000000001, -0.0145, 192.0, 0.0, 0.0, 0.0, 0.0, 0.0, 0.0, 0.0, 0.0, 0.0, 1.6626780235035558E9, 0.0, 2022-09-08 19:00:23.503
104.0, -4881.911561716982, -5529.173377653763, -27521.12180246375, -27192.394696759548, -14577.31599537325, 4390.44140463369, 69065.5492622315, 20495.610892249453, -14701.904618967132, -5519.584479282436, -20125.197783136104, -26191.930614940004, 6280.86254368574, -11495.345711153235, -10821.842947225923, -9422.556689090336, 0.1835, 0.9470000000000001, -0.0145, 192.0, 0.0, 0.0, 0.0, 0.0, 0.0, 0.0, 0.0, 0.0, 0.0, 1.6626780239834385E9, 0.0, 2022-09-08 19:00:23.983
106.0, -4829.876700625026, -5475.171563049742, -27474.160787363147, -27148.540574138235, -14565.156646389563, 4396.096395980882, 69100.55209404851, 20484.993813633184, -14684.403203058626, -5509.9508774221995, -20104.567123003857, -26179.391286300575, 6326.102474463281, -11479.230103400958, -10806.353188318395, -9405.167031904106, 0.18775, 0.9285000000000001, -0.01525, 192.0, 3.0, 0.0, 14.0, 56.0, 127.5, 64.0, 0.0, 0.0, 0.0, 1.662678023983538E9, 0.0, 2022-09-08 19:00:23.983
108.0, -4890.047596698713, -5537.4211713577715, -27530.53188687943, -27197.96028112892, -14596.337329904716, 4364.2675118765255, 69074.46760826917, 20414.094080220948, -14681.698641979534, -5501.546621507004, -20095.000576376984, -26171.188196085477, 6321.699180805586, -11398.629712895121, -10795.42318527975, -9396.695720755544, 0.18775, 0.9285000000000001, -0.01525, 192.0, 0.0, 0.0, 0.0, 0.0, 0.0, 0.0, 0.0, 0.0, 0.0, 1.6626780239835727E9, 0.0, 2022-09-08 19:00:23.983
110.0, -4889.06411994268, -5538.337592880439, -27521.278264674937, -27193.579339215677, -14568.352945846671, 4360.646529274765, 69094.51712304559, 20404.75105103863, -14725.86568902322, -5544.149046438819, -20141.067521699373, -26214.081193695212, 6264.769287677919, -11421.137919561615, -10829.151967662809, -9436.727695075, 0.18775, 0.9285000000000001, -0.01525, 192.0, 0.0, 0.0, 0.0, 0.0, 0.0, 0.0, 0.0, 0.0, 0.0, 1.6626780239835925E9, 0.0, 2022-09-08 19:00:23.983
112.0, -4857.794029449705, -5511.493147789615, -27511.6446628147, -27185.935042611964, -14594.012748481364, 4344.106238377838, 69097.04287016904, 20396.03387070106, -14689.454697305526, -5529.2627846315845, -20112.703157985587, -26196.400963831064, 6331.891576277206, -11385.732756344409, -10808.856583697388, -9424.881270513686, 0.18775, 0.9285000000000001, -0.01525, 192.0, 0.0, 0.0, 0.0, 0.0, 0.0, 0.0, 0.0, 0.0, 0.0, 1.6626780239835987E9, 0.0, 2022-09-08 19:00:23.983
114.0, -4841.410200763965, -5495.131670848331, -27489.963470693052, -27157.70478936491, -14570.275195869828, 4380.137250439793, 69161.25943198914, 20409.355510396425, -14681.832752446266, -5519.428017071249, -20112.569047518857, -26194.121085896622, 6319.084026704315, -11375.652119595066, -10818.870165213368, -9432.547918861857, 0.18775, 0.9285000000000001, -0.01525, 192.0, 0.0, 0.0, 0.0, 0.0, 0.0, 0.0, 0.0, 0.0, 0.0, 1.6626780239836044E9, 0.0, 2022-09-08 19:00:23.983
116.0, -4837.856273395571, -5487.912057389267, -27485.738990990998, -27151.848632317622, -14568.084724913208, 4386.060462720449, 69150.50824290613, 20426.65576060483, -14629.887298332133, -5464.241560011096, -20053.02400028992, -26137.682931146974, 6355.182093999636, -11305.892325150053, -10763.057859308465, -9362.877531394664, 0.19487500000000002, 0.9232500000000001, -0.017625000000000002, 192.0, 3.0, 40.0, 14.0, 88.0, 127.5, 48.0, 0.0, 0.0, 0.0, 1.6626780239836087E9, 0.0, 2022-09-08 19:00:23.983
118.0, -4878.491744815319, -5530.313316620984, -27506.816686012353, -27165.930231324463, -14566.654213268068, 4364.20045664316, 69219.46337455075, 20417.268027933602, -14709.347749870749, -5543.47849410516, -20140.195803665614, -26219.646778064583, 6275.654587227654, -11369.952424758963, -10832.594136308926, -9424.814215280321, 0.19487500000000002, 0.9232500000000001, -0.017625000000000002, 192.0, 0.0, 0.0, 0.0, 0.0, 0.0, 0.0, 0.0, 0.0, 0.0, 1.6626780239836135E9, 0.0, 2022-09-08 19:00:23.983
120.0, -4859.425706794943, -5513.035418157032, -27509.677709302632, -27163.65035339002, -14572.97975694892, 4377.879724249808, 69240.00462770517, 20443.039589290573, -14662.47614174797, -5495.645760970803, -20089.613805963258, -26171.299954807753, 6330.841044287807, -11306.719339694899, -10781.833324650923, -9356.730801669455, 0.19487500000000002, 0.9232500000000001, -0.017625000000000002, 192.0, 0.0, 0.0, 0.0, 0.0, 0.0, 0.0, 0.0, 0.0, 0.0, 1.662678023983618E9, 0.0, 2022-09-08 19:00:23.983
122.0, -4886.381910608043, -5539.678697547758, -27543.004160285494, -27191.00888860332, -14575.997242450387, 4353.963357682629, 69393.98579525779, 20429.114452494916, -14708.453680092536, -5547.09947670692, -20150.03057122595, -26222.977187988425, 6287.903343189161, -11363.5821775892, -10831.990639208632, -9411.179651162583, 0.19487500000000002, 0.9232500000000001, -0.017625000000000002, 192.0, 0.0, 0.0, 0.0, 0.0, 0.0, 0.0, 0.0, 0.0, 0.0, 1.6626780239836228E9, 0.0, 2022-09-08 19:00:23.983
124.0, -4860.409183550976, -5517.103435647898, -27526.35211066629, -27178.648373919532, -14576.868960484144, 4335.031430128984, 69456.01188612127, 20434.47887116419, -14695.489668308457, -5535.0742381899645, -20132.238582639526, -26208.51560932584, 6298.073386916326, -11326.187709115471, -10816.366769834372, -9412.990142463463, 0.19487500000000002, 0.9232500000000001, -0.017625000000000002, 192.0, 0.0, 0.0, 0.0, 0.0, 0.0, 0.0, 0.0, 0.0, 0.0, 1.6626780239836273E9, 0.0, 2022-09-08 19:00:23.983
126.0, -4861.549122518197, -5513.840080957423, -27525.97213101055, -27175.51912969579, -14586.949597233486, 4339.278261575492, 69693.83444712573, 20456.785912130585, -14671.975633141476, -5511.113168133876, -20112.546695774403, -26180.866501434626, 6304.175413152625, -11319.884517179074, -10792.18218233373, -9392.068909653295, 0.2074375, 0.9176250000000001, -0.029812500000000002, 192.0, 3.0, 112.0, 14.0, 64.0, 127.0, 88.0, 0.0, 0.0, 0.0, 1.662678023983632E9, 0.0, 2022-09-08 19:00:23.983
128.0, -4897.177803179956, -5551.569825597981, -27553.93416332414, -27206.14101959956, -14608.65314109959, 4301.66027565721, 69780.2239394455, 20433.830670574986, -14706.464374836014, -5547.47945636266, -20145.18024267915, -26215.71287104045, 6278.448555284567, -11336.067180164717, -10828.794339751523, -9425.261250169428, 0.2074375, 0.9176250000000001, -0.029812500000000002, 192.0, 0.0, 0.0, 0.0, 0.0, 0.0, 0.0, 0.0, 0.0, 0.0, 1.6626780239836366E9, 0.0, 2022-09-08 19:00:23.983
130.0, -4897.82600376916, -5553.581482598959, -27553.956515068596, -27206.878627166585, -14613.03408301283, 4302.844918113341, 70101.46321075717, 20455.601269674455, -14713.795747017355, -5558.856494290411, -20160.37942890876, -26227.916923513047, 6269.418450524623, -11342.035095934283, -10836.840967755434, -9425.417712380615, 0.2074375, 0.9176250000000001, -0.029812500000000002, 192.0, 0.0, 0.0, 0.0, 0.0, 0.0, 0.0, 0.0, 0.0, 0.0, 1.6626780239836411E9, 0.0, 2022-09-08 19:00:23.983
