%OpenBCI Raw EEG Data
%Number of channels = 16
%Sample Rate = 125 Hz
%Board = OpenBCI_GUI$BoardCytonSerialDaisy
Sample Index, EXG Channel 0, EXG Channel 1, EXG Channel 2, EXG Channel 3, EXG Channel 4, EXG Channel 5, EXG Channel 6, EXG Channel 7, EXG Channel 8, EXG Channel 9, EXG Channel 10, EXG Channel 11, EXG Channel 12, EXG Channel 13, EXG Channel 14, EXG Channel 15, Accel Channel 0, Accel Channel 1, Accel Channel 2, Other, Other, Other, Other, Other, Other, Other, Analog Channel 0, Analog Channel 1, Analog Channel 2, Timestamp, Other, Timestamp (Formatted)
44.0, -37589.621554568, -36429.141334192915, -36607.08357180162, -34854.013902427425, -38160.41805272318, -36286.82777724598, -48453.53048485881, -55018.05901742685, -38985.1527196351, -11434.057227856783, -39991.38355152411, -46987.25604859067, -25447.17048968917, -26526.603284669316, -45517.51709193195, -43188.10769177767, 0.0, 0.0, 0.0, 192.0, 0.0, 0.0, 0.0, 0.0, 0.0, 0.0, 0.0, 0.0, 0.0, 1.6731195463650303E9, 0.0, 2023-01-07 14:25:46.365
46.0, -37596.61765058251, -36438.5514186086, -36600.40040020948, -34853.56686753832, -38166.47537547057, -36277.52945155257, -48450.84827552418, -55003.55273527536, -38809.9597465944, -11279.986653326352, -39811.20613946988, -46833.386639760334, -25280.828807452777, -26365.402503657642, -45361.56897086727, -43029.2538439338, -0.161, 0.451, 0.014, 192.0, 122.5, 120.0, 14.0, 24.0, 0.0, 112.0, 0.0, 0.0, 0.0, 1.673119546365039E9, 0.0, 2023-01-07 14:25:46.365
48.0, -37623.126819506506, -36464.81471834359, -36635.805563426686, -34883.69701906407, -38205.59092826735, -36317.986109016674, -48488.75683412037, -55050.75961956497, -38978.35778932068, -11436.985306380428, -39981.168804308036, -46980.751690954174, -25449.830347279352, -26532.951180094624, -45519.931080333125, -43177.40120618358, -0.161, 0.451, 0.014, 192.0, 0.0, 0.0, 0.0, 0.0, 0.0, 0.0, 0.0, 0.0, 0.0, 1.6731195463650465E9, 0.0, 2023-01-07 14:25:46.365
50.0, -37583.29601088715, -36422.97225272325, -36583.94951629037, -34830.36575679371, -38158.6075614223, -36262.062044389495, -48434.86677823863, -54989.35937754624, -38825.02482235728, -11292.123650565583, -39830.94272982392, -46852.966767903185, -25305.371022864703, -26391.911672581635, -45385.083006034256, -43044.07305050767, -0.161, 0.451, 0.014, 192.0, 0.0, 0.0, 0.0, 0.0, 0.0, 0.0, 0.0, 0.0, 0.0, 1.6731195463650537E9, 0.0, 2023-01-07 14:25:46.365
52.0, -37641.231732515305, -36478.60574467251, -36642.220514085355, -34888.32383016632, -38211.402381825734, -36319.93071078428, -48492.914258589066, -55052.9947940105, -38984.14689113461, -11420.82499513924, -39982.353446764166, -46967.36299602545, -25443.46010010959, -26532.414738227697, -45505.22363248153, -43156.25645592886, -0.161, 0.451, 0.014, 192.0, 0.0, 0.0, 0.0, 0.0, 0.0, 0.0, 0.0, 0.0, 0.0, 1.673119546365061E9, 0.0, 2023-01-07 14:25:46.365
54.0, -37555.49044078475, -36392.39506630839, -36546.71151002783, -34800.14619829014, -38128.09743024081, -36231.015471341074, -48409.564603515224, -54964.03485107838, -38824.98011886837, -11282.937083594452, -39824.639537887524, -46843.84725616542, -25290.70827850202, -26370.297535693353, -45368.855639559704, -43025.81167528769, -0.161, 0.451, 0.014, 192.0, 0.0, 0.0, 0.0, 0.0, 0.0, 0.0, 0.0, 0.0, 0.0, 1.6731195463650684E9, 0.0, 2023-01-07 14:25:46.365
56.0, -37652.02762508722, -36492.64264019044, -36646.57910425414, -34903.00892627346, -38228.16619016721, -36336.023966792105, -48511.3991512536, -55067.9481110511, -38967.204268837486, -11406.743396132399, -39966.57311517872, -46952.186161540296, -25428.46207958008, -26503.849208813812, -45486.69403632809, -43144.45473485646, -0.2425, 0.6785, 0.02, 192.0, 122.5, 112.0, 14.0, 40.0, 0.0, 104.0, 0.0, 0.0, 0.0, 1.673119546365075E9, 0.0, 2023-01-07 14:25:46.365
58.0, -37533.09399284053, -36378.58168823501, -36526.97491967379, -34795.11705578769, -38109.92546199864, -36222.96884333716, -48401.20505108894, -54962.53728419987, -38828.60110147013, -11297.264551790304, -39829.378107712044, -46855.134887115346, -25295.536255304367, -26379.037067775378, -45374.08594776225, -43043.894236552034, -0.2425, 0.6785, 0.02, 192.0, 0.0, 0.0, 0.0, 0.0, 0.0, 0.0, 0.0, 0.0, 0.0, 1.6731195463650827E9, 0.0, 2023-01-07 14:25:46.365
60.0, -37662.331779281114, -36510.61344273251, -36661.62182827256, -34929.786316130914, -38235.318748392914, -36349.25619950965, -48528.498235761916, -55092.71384390758, -38941.61152143616, -11394.025253537327, -39947.551780647256, -46938.99863231166, -25409.463096793068, -26497.30014768841, -45468.36560587474, -43140.00673770985, -0.2425, 0.6785, 0.02, 192.0, 0.0, 0.0, 0.0, 0.0, 0.0, 0.0, 0.0, 0.0, 0.0, 1.6731195463650904E9, 0.0, 2023-01-07 14:25:46.365
62.0, -37542.95111214532, -36391.47864478572, -36551.00304496325, -34817.78172466537, -38113.09940971129, -36233.474163231156, -48409.96693491542, -54977.44589775156, -38850.662273247515, -11325.606563759633, -39861.85519240561, -46888.95307647623, -25325.73346206349, -26421.013643862447, -45403.79141614335, -43083.948562615944, -0.2425, 0.6785, 0.02, 192.0, 0.0, 0.0, 0.0, 0.0, 0.0, 0.0, 0.0, 0.0, 0.0, 1.673119546365098E9, 0.0, 2023-01-07 14:25:46.365
64.0, -37681.95661091287, -36531.489972053765, -36689.1591774415, -34952.76390943097, -38244.684129319685, -36368.2328305522, -48539.78586671184, -55105.4543382471, -38954.262608797864, -11398.428547195024, -39957.744176118875, -46946.39705972637, -25415.45336430709, -26498.73065933355, -45471.45014660957, -43153.663653572046, -0.2425, 0.6785, 0.02, 192.0, 0.0, 0.0, 0.0, 0.0, 0.0, 0.0, 0.0, 0.0, 0.0, 1.6731195463651052E9, 0.0, 2023-01-07 14:25:46.365
66.0, -37507.47889369475, -36354.5312112011, -36518.972995158794, -34781.9071748146, -38077.895412194186, -36207.27791872954, -48376.97576009938, -54947.762781114914, -38869.527145567794, -11336.067180164717, -39871.55584949921, -46898.072588213996, -25340.955000037553, -26421.930065385113, -45413.44736974804, -43100.66766746851, -0.28825, 0.79225, 0.023, 192.0, 122.5, 72.0, 14.0, 40.0, 0.0, 104.0, 0.0, 0.0, 0.0, 1.6731195463651123E9, 0.0, 2023-01-07 14:25:46.365
68.0, -37695.81469247516, -36537.94962620135, -36703.956032270915, -34959.06710136737, -38264.21955397363, -36383.94610690428, -48553.95687269651, -55117.14430059723, -38907.83803556419, -11357.81542751973, -39905.28463188227, -46894.45160561224, -25375.041410331894, -26449.154490131677, -45430.881730423185, -43106.34501056016, -0.28825, 0.79225, 0.023, 192.0, 0.0, 0.0, 0.0, 0.0, 0.0, 0.0, 0.0, 0.0, 0.0, 1.67311954636512E9, 0.0, 2023-01-07 14:25:46.365
70.0, -37510.80930361859, -36353.77125188962, -36529.23244586378, -34785.17052950508, -38099.80012176039, -36221.80655262549, -48395.41594927501, -54966.27002552391, -38911.2355007214, -11370.131238714604, -39912.14661743005, -46929.05210602905, -25390.26294830596, -26469.47222584155, -45464.25288489496, -43133.8823597291, -0.28825, 0.79225, 0.023, 192.0, 0.0, 0.0, 0.0, 0.0, 0.0, 0.0, 0.0, 0.0, 0.0, 1.6731195463651268E9, 0.0, 2023-01-07 14:25:46.365
72.0, -37659.0907763351, -36500.577509472074, -36667.50033706431, -34917.02347004694, -38246.98635899858, -36358.50982171414, -48537.03660214384, -55096.98302709854, -38867.448433333455, -11310.720301952399, -39868.3595500421, -46855.44781153772, -25346.900564062664, -26433.530620757418, -45407.68061967858, -43069.59874267563, -0.28825, 0.79225, 0.023, 192.0, 0.0, 0.0, 0.0, 0.0, 0.0, 0.0, 0.0, 0.0, 0.0, 1.673119546365134E9, 0.0, 2023-01-07 14:25:46.365
74.0, -37514.407934475894, -36357.32517925801, -36528.4724865523, -34779.87316606917, -38113.63585157822, -36236.13402082134, -48409.72106572641, -54980.50808674194, -38911.92840479951, -11362.598700833167, -39906.357515616124, -46912.243594198655, -25390.17354132814, -26469.226356652543, -45460.94482671557, -43127.06507767023, -0.28825, 0.79225, 0.023, 192.0, 0.0, 0.0, 0.0, 0.0, 0.0, 0.0, 0.0, 0.0, 0.0, 1.6731195463651412E9, 0.0, 2023-01-07 14:25:46.365
76.0, -37676.90511666598, -36523.6221580055, -36665.89101146353, -34925.00304281748, -38252.84251604587, -36373.709007943755, -48540.63523300114, -55102.414501001185, -38862.66516002001, -11320.800938701743, -39863.017483117284, -46851.20098009121, -25340.798537826366, -26424.50051599747, -45401.310372508815, -43069.73285314236, -0.314125, 0.850125, 0.0245, 192.0, 122.5, 48.0, 14.0, 48.0, 0.0, 104.0, 0.0, 0.0, 0.0, 1.6731195463651545E9, 0.0, 2023-01-07 14:25:46.365
78.0, -37524.64503343643, -36370.490356742186, -36519.665899236905, -34779.493186413434, -38104.024601462435, -36235.93285512124, -48400.33333305518, -54977.02121460691, -38935.68830915551, -11406.743396132399, -39940.198056721456, -46946.24059751518, -25411.921788683154, -26499.043583755923, -45474.40057687766, -43152.85899077165, -0.314125, 0.850125, 0.0245, 192.0, 0.0, 0.0, 0.0, 0.0, 0.0, 0.0, 0.0, 0.0, 0.0, 1.673119546365162E9, 0.0, 2023-01-07 14:25:46.365
80.0, -37653.12286056553, -36498.67761119337, -36628.89887439, -34887.3850568992, -38209.390724824756, -36331.061879523026, -48499.17274703655, -55064.997680783, -38837.027709129776, -11296.884572134564, -39836.9553490824, -46828.49160772462, -25297.369098349704, -26385.563777156327, -45349.2531596724, -43032.628957346555, -0.314125, 0.850125, 0.0245, 192.0, 0.0, 0.0, 0.0, 0.0, 0.0, 0.0, 0.0, 0.0, 0.0, 1.67311954636517E9, 0.0, 2023-01-07 14:25:46.365
82.0, -37554.28344658416, -36404.28619435861, -36540.229504135794, -34805.2647477704, -38116.608633590775, -36247.1534308378, -48415.443112306966, -54994.90261017116, -38955.96134137647, -11411.772538634843, -39951.39628069357, -46949.369841738924, -25405.03745139092, -26498.216569211076, -45451.42298357761, -43139.91733073203, -0.314125, 0.850125, 0.0245, 192.0, 0.0, 0.0, 0.0, 0.0, 0.0, 0.0, 0.0, 0.0, 0.0, 1.673119546365178E9, 0.0, 2023-01-07 14:25:46.365
84.0, -37658.889610635, -36508.4676752648, -36640.745298951304, -34908.01571703145, -38211.402381825734, -36333.81114409103, -48500.536203448326, -55069.51273316297, -38837.78766844126, -11304.506516993824, -39845.09138406413, -46844.92013989927, -25302.644110041158, -26406.0826785663, -45343.57581658076, -43039.982681272355, -0.314125, 0.850125, 0.0245, 192.0, 0.0, 0.0, 0.0, 0.0, 0.0, 0.0, 0.0, 0.0, 0.0, 1.6731195463651838E9, 0.0, 2023-01-07 14:25:46.365
86.0, -37558.463222797305, -36406.834293226515, -36560.54723984566, -34830.70103296054, -38130.35495643079, -36260.63153274435, -48422.28274611029, -55004.15623237565, -38971.51815551736, -11428.268126042858, -39977.12313856163, -46971.72158619423, -25432.708911026588, -26522.512915433996, -45478.692111813085, -43173.95903753746, -0.32606250000000003, 0.8790625000000001, 0.02525, 192.0, 122.5, 56.0, 14.0, 48.0, 0.0, 104.0, 0.0, 0.0, 0.0, 1.6731195463651896E9, 0.0, 2023-01-07 14:25:46.365
88.0, -37628.04420328668, -36474.716541137284, -36630.73171743533, -34899.27618494942, -38201.27704158748, -36323.05995500803, -48482.99008405091, -55050.536102120415, -38818.095781576136, -11281.417164971492, -39823.74546810931, -46828.17868330225, -25292.80934248082, -26377.65125961915, -45350.41545038408, -43044.20716097441, -0.32606250000000003, 0.8790625000000001, 0.02525, 192.0, 0.0, 0.0, 0.0, 0.0, 0.0, 0.0, 0.0, 0.0, 0.0, 1.6731195463651953E9, 0.0, 2023-01-07 14:25:46.365
90.0, -37577.48455732877, -36424.13454343493, -36597.87465308603, -34857.90310596265, -38169.06817782738, -36293.75681802712, -48457.464391882946, -55028.430226854114, -38970.10999561668, -11429.586878965722, -39976.45258622797, -46968.882914648406, -25448.13161470075, -26524.524572434973, -45511.973859307036, -43191.37104646815, -0.32606250000000003, 0.8790625000000001, 0.02525, 192.0, 0.0, 0.0, 0.0, 0.0, 0.0, 0.0, 0.0, 0.0, 0.0, 1.673119546365201E9, 0.0, 2023-01-07 14:25:46.365
92.0, -37612.26387170123, -36457.5056979067, -36613.11854280455, -34871.09063519128, -38195.08560837336, -36303.83745477646, -48470.808383322765, -55033.03468621191, -38816.57586295317, -11284.345243495136, -39821.08561051913, -46825.0494390785, -25301.68298502958, -26378.50062590845, -45374.376520440164, -43048.364585443094, -0.32606250000000003, 0.8790625000000001, 0.02525, 192.0, 0.0, 0.0, 0.0, 0.0, 0.0, 0.0, 0.0, 0.0, 0.0, 1.673119546365207E9, 0.0, 2023-01-07 14:25:46.365
94.0, -37618.25413921525, -36463.87594507646, -36627.37895576703, -34877.572641083316, -38210.284794602965, -36321.94236778526, -48492.0425405553, -55064.64005287171, -38982.42580681155, -11444.294326817313, -39987.382589266614, -46968.07825184802, -25471.824463823377, -26551.704293692626, -45530.68226941613, -43196.24372675941, -0.32606250000000003, 0.8790625000000001, 0.02525, 192.0, 0.0, 0.0, 0.0, 0.0, 0.0, 0.0, 0.0, 0.0, 0.0, 1.673119546365213E9, 0.0, 2023-01-07 14:25:46.365
96.0, -37589.979182479285, -36437.813811041575, -36579.85914705505, -34828.89054165966, -38168.03999758244, -36272.053274161015, -48443.44984810947, -55007.10666264375, -38811.56907219518, -11278.645548659033, -39818.001069784295, -46817.71806689716, -25305.594540309256, -26376.667782863115, -45372.16369773909, -43033.835951547146, -0.32606250000000003, 0.8790625000000001, 0.02525, 192.0, 0.0, 0.0, 0.0, 0.0, 0.0, 0.0, 0.0, 0.0, 0.0, 1.67311954636526E9, 0.0, 2023-01-07 14:25:46.365
98.0, -37640.7846976262, -36493.35789601301, -36635.224418070844, -34880.724237051516, -38220.87952147478, -36330.41367893382, -48506.392360495614, -55078.02874780045, -38989.645420270615, -11431.710294688975, -39980.29708627428, -46956.656510431356, -25461.56501311839, -26529.57606668187, -45507.43645518261, -43165.84535430019, -0.332, 0.902, 0.024, 192.0, 122.5, 80.0, 14.0, 24.0, 0.0, 96.0, 0.0, 0.0, 0.0, 1.6731195463652725E9, 0.0, 2023-01-07 14:25:46.365
100.0, -37580.703208530336, -36433.65638657289, -36564.16822244743, -34814.04898334134, -38149.57745666235, -36261.99498915613, -48432.18456890399, -54998.18831660609, -38821.91792987799, -11300.527906480778, -39830.27217749026, -46840.00275611911, -25313.238836912973, -26393.163370271133, -45372.11899425018, -43037.121657982076, -0.332, 0.902, 0.024, 192.0, 0.0, 0.0, 0.0, 0.0, 0.0, 0.0, 0.0, 0.0, 0.0, 1.67311954636528E9, 0.0, 2023-01-07 14:25:46.365
102.0, -37651.04414833119, -36502.03037286167, -36640.119450106555, -34888.65910633315, -38217.86203597332, -36336.20278074775, -48501.94436334901, -55075.68181463263, -38965.55023974779, -11419.908573616574, -39968.31655124624, -46944.4301062143, -25438.98975121853, -26516.455592686605, -45473.41710012163, -43141.30313888826, -0.332, 0.902, 0.024, 192.0, 0.0, 0.0, 0.0, 0.0, 0.0, 0.0, 0.0, 0.0, 0.0, 1.6731195463652873E9, 0.0, 2023-01-07 14:25:46.365
104.0, -37577.618667795505, -36431.77884003864, -36563.31885615812, -34814.29485253034, -38144.570665904364, -36255.781204197556, -48429.569414802725, -55000.91522942964, -38844.49319177785, -11316.19647934395, -39846.94657885392, -46853.01147139209, -25317.038633470373, -26413.324643769818, -45365.14524998012, -43039.33448068315, -0.332, 0.902, 0.024, 192.0, 0.0, 0.0, 0.0, 0.0, 0.0, 0.0, 0.0, 0.0, 0.0, 1.673119546365294E9, 0.0, 2023-01-07 14:25:46.365
106.0, -37665.349264782584, -36521.632852748975, -36658.98432242683, -34902.897167551186, -38232.457725102635, -36346.506934941644, -48518.618764712664, -55092.42327122966, -38972.81455669577, -11429.408065010079, -39977.77133915083, -46947.24642601567, -25442.007236719997, -26531.431261471662, -45464.38699536169, -43133.83765624019, -0.332, 0.902, 0.024, 192.0, 0.0, 0.0, 0.0, 0.0, 0.0, 0.0, 0.0, 0.0, 0.0, 1.673119546365301E9, 0.0, 2023-01-07 14:25:46.365
108.0, -37532.49049574024, -36385.175452849326, -36527.06432665161, -34777.99561953493, -38103.2422904065, -36222.342994492414, -48390.76678642831, -54963.11842955571, -38842.548590010236, -11316.352941555137, -39847.12539280956, -46848.04938412302, -25319.34086314927, -26404.719222154527, -45358.05974698779, -43031.82429454617, -0.34, 0.898, 0.026000000000000002, 192.0, 122.5, 48.0, 14.0, 8.0, 0.0, 104.0, 0.0, 0.0, 0.0, 1.6731195463653119E9, 0.0, 2023-01-07 14:25:46.365
110.0, -37680.391988801006, -36529.56772203061, -36679.54792732572, -34934.480182466534, -38252.77546081251, -36375.653609711364, -48536.813084699286, -55104.6049719578, -38945.43366973802, -11396.528648916323, -39947.84235332517, -46910.656620342335, -25417.75559398599, -26500.116467489777, -45448.04787016486, -43114.235176352886, -0.34, 0.898, 0.026000000000000002, 192.0, 0.0, 0.0, 0.0, 0.0, 0.0, 0.0, 0.0, 0.0, 0.0, 1.6731195463653193E9, 0.0, 2023-01-07 14:25:46.365
112.0, -37530.59059746154, -36380.74980744717, -36537.010852934225, -34802.917814602595, -38112.58531958882, -36243.17482032476, -48403.551984256745, -54961.71026965503, -38869.7730147568, -11346.997183203363, -39876.74145421284, -46875.966712947695, -25352.242630987483, -26436.503402769973, -45408.507634223424, -43086.76488241731, -0.34, 0.898, 0.026000000000000002, 192.0, 0.0, 0.0, 0.0, 0.0, 0.0, 0.0, 0.0, 0.0, 0.0, 1.673119546365327E9, 0.0, 2023-01-07 14:25:46.365
114.0, -37673.06061661967, -36522.7727917162, -36684.88999425054, -34946.88540063923, -38257.64814110377, -36384.86252842695, -48546.62550051517, -55084.04136705892, -38926.300576484275, -11374.15455271656, -39932.151428717545, -46895.50213760163, -25396.923768153643, -26483.419714381664, -45447.04204166437, -43125.612214280634, -0.34, 0.898, 0.026000000000000002, 192.0, 0.0, 0.0, 0.0, 0.0, 0.0, 0.0, 0.0, 0.0, 0.0, 1.673119546365334E9, 0.0, 2023-01-07 14:25:46.365
116.0, -37501.91330932538, -36351.84900186646, -36520.582320759575, -34781.661305625596, -38095.86621473625, -36223.058250314985, -48386.47525149289, -54915.889193521645, -38868.36485485612, -11348.427694848502, -39881.211803103906, -46879.118308915895, -25352.488500176492, -26441.353731316776, -45425.472608265, -43104.8250919372, -0.34, 0.898, 0.026000000000000002, 192.0, 0.0, 0.0, 0.0, 0.0, 0.0, 0.0, 0.0, 0.0, 0.0, 1.6731195463653412E9, 0.0, 2023-01-07 14:25:46.365
118.0, -37661.303599036175, -36512.55804450012, -36665.82395623016, -34928.132287041226, -38245.77936479799, -36369.238659052695, -48530.241671829426, -55039.60609908177, -38872.544631069264, -11339.598755788655, -39885.32452408368, -46854.643148737334, -25358.009381056952, -26430.84841142278, -45410.49693947994, -43090.43056850798, -0.338, 0.904, 0.028, 192.0, 122.5, 56.0, 14.0, 32.0, 0.0, 112.0, 0.0, 0.0, 0.0, 1.6731195463653488E9, 0.0, 2023-01-07 14:25:46.365
120.0, -37512.463332708285, -36363.76248166114, -36521.87872193798, -34781.48249166995, -38103.197586917595, -36233.02712834205, -48394.29836205225, -54906.27794340586, -38889.91193651104, -11365.370317145625, -39893.16998638749, -46891.970561977694, -25368.738218395498, -26444.348865073785, -45438.05664039333, -43126.171007892015, -0.338, 0.904, 0.028, 192.0, 0.0, 0.0, 0.0, 0.0, 0.0, 0.0, 0.0, 0.0, 0.0, 1.673119546365356E9, 0.0, 2023-01-07 14:25:46.365
122.0, -37677.508613766266, -36532.87578020999, -36684.174738427966, -34937.16239180117, -38260.77738532751, -36381.15213884737, -48547.206645871, -55042.6906398166, -38874.95861947043, -11334.994296430863, -39880.921230425985, -46850.5080760131, -25349.24749723047, -26423.807611919357, -45404.104340565726, -43094.58799297667, -0.338, 0.904, 0.028, 192.0, 0.0, 0.0, 0.0, 0.0, 0.0, 0.0, 0.0, 0.0, 0.0, 1.6731195463653631E9, 0.0, 2023-01-07 14:25:46.365
124.0, -37502.49445468122, -36357.14636530237, -36527.13138188498, -34773.23469796595, -38094.56981355784, -36218.722011890655, -48386.25173404834, -54886.42959432955, -38912.15192224406, -11383.564637132244, -39920.95320474544, -46916.46807390071, -25392.364012284757, -26470.99214446451, -45452.49586731147, -43146.801668024265, -0.338, 0.904, 0.028, 192.0, 0.0, 0.0, 0.0, 0.0, 0.0, 0.0, 0.0, 0.0, 0.0, 1.6731195463653705E9, 0.0, 2023-01-07 14:25:46.365
126.0, -37661.8400409031, -36516.42489629089, -36677.44686334692, -34917.984595058515, -38241.48782986258, -36355.67115016832, -48523.20087232601, -55010.83940396779, -38843.107383621624, -11303.47833674888, -39849.18175329945, -46827.374020501855, -25318.357386393236, -26390.79408535887, -45364.63115985765, -43059.02636754827, -0.338, 0.904, 0.028, 192.0, 0.0, 0.0, 0.0, 0.0, 0.0, 0.0, 0.0, 0.0, 0.0, 1.6731195463653772E9, 0.0, 2023-01-07 14:25:46.365
128.0, -37533.71984168528, -36390.562223263056, -36567.968019004824, -34801.95668959102, -38124.96818601706, -36250.08150936145, -48412.4256268055, -54913.721074309484, -38951.49099248541, -11418.366303249157, -39961.29810348727, -46950.710946406245, -25426.15984990118, -26497.255444199498, -45484.235344438, -43174.0931480042, -0.338, 0.908, 0.028, 192.0, 122.5, 56.0, 14.0, 48.0, 0.0, 112.0, 0.0, 0.0, 0.0, 1.6731195463653846E9, 0.0, 2023-01-07 14:25:46.365
130.0, -37634.50385743426, -36494.60959370251, -36652.81524095717, -34890.17902495611, -38213.726963249086, -36334.95108305825, -48492.914258589066, -54983.771441432415, -38816.10647631961, -11291.028415087274, -39828.349927467105, -46816.37696222985, -25294.083391914774, -26367.45886414753, -45354.08113647475, -43038.35100392711, -0.338, 0.908, 0.028, 192.0, 0.0, 0.0, 0.0, 0.0, 0.0, 0.0, 0.0, 0.0, 0.0, 1.6731195463653915E9, 0.0, 2023-01-07 14:25:46.365
132.0, -37552.22708609427, -36409.918833961354, -36578.13806273199, -34815.52419847539, -38131.60665412029, -36269.70634099321, -48424.51792055582, -54930.149606484134, -38958.37532977764, -11429.653934199088, -39961.47691744291, -46952.25321677366, -25418.31438759737, -26497.9036447887, -45486.51522237244, -43172.237953214404, -0.338, 0.908, 0.028, 192.0, 0.0, 0.0, 0.0, 0.0, 0.0, 0.0, 0.0, 0.0, 0.0, 1.673119546365399E9, 0.0, 2023-01-07 14:25:46.365
134.0, -37651.55823845366, -36509.58526248756, -36664.90753470749, -34900.505530894465, -38214.688088260664, -36343.511801184635, -48499.86565111466, -55000.02115965142, -38825.60596771312, -11307.658112962023, -39845.963102097885, -46834.81715140548, -25296.072697171297, -26387.396620201664, -45371.31433144979, -43060.121603026586, -0.338, 0.908, 0.028, 192.0, 0.0, 0.0, 0.0, 0.0, 0.0, 0.0, 0.0, 0.0, 0.0, 1.6731195463654056E9, 0.0, 2023-01-07 14:25:46.365
136.0, -37576.277563128184, -36433.52227610615, -36604.17784502242, -34838.568847008806, -38148.97395956206, -36286.47014933469, -48441.102914941664, -54954.6694701516, -38961.48222225693, -11445.434265784534, -39985.34858052118, -46971.34160653849, -25430.250219136506, -26529.95604633761, -45504.75424584797, -43193.44975870249, -0.338, 0.908, 0.028, 192.0, 0.0, 0.0, 0.0, 0.0, 0.0, 0.0, 0.0, 0.0, 0.0, 1.6731195463654127E9, 0.0, 2023-01-07 14:25:46.365
138.0, -37642.751651138264, -36500.82337866109, -36664.952238196405, -34899.96908902754, -38210.97769868108, -36336.67216738131, -48492.51192718887, -54997.09308112778, -38824.01899385679, -11313.201345586938, -39850.142878311024, -46845.12130559937, -25300.274825128894, -26386.70371612355, -45378.95862805351, -43067.27416125228, -0.332, 0.9, 0.028, 192.0, 122.5, 80.0, 14.0, 16.0, 0.0, 112.0, 0.0, 0.0, 0.0, 1.6731195463654208E9, 0.0, 2023-01-07 14:25:46.365
140.0, -37587.09580744455, -36443.826430300054, -36626.26136854427, -34855.15384139465, -38167.97294234907, -36296.90841399532, -48452.25643542486, -54969.66749068112, -38978.6483619986, -11449.59169025322, -39997.39617078259, -46980.86344967645, -25452.758425803, -26520.791831110935, -45517.561795420865, -43199.7976541278, -0.332, 0.9, 0.028, 192.0, 0.0, 0.0, 0.0, 0.0, 0.0, 0.0, 0.0, 0.0, 0.0, 1.6731195463654296E9, 0.0, 2023-01-07 14:25:46.365
142.0, -37600.126874461996, -36457.97508454026, -36624.36147026557, -34852.85161171575, -38172.35388426231, -36289.06295169151, -48448.05430746726, -54958.40221147564, -38810.96557509489, -11287.094508063139, -39826.60649139959, -46827.03874433503, -25293.345784347748, -26356.819433786804, -45363.17829646806, -43045.8611900641, -0.332, 0.9, 0.028, 192.0, 0.0, 0.0, 0.0, 0.0, 0.0, 0.0, 0.0, 0.0, 0.0, 1.673119546365437E9, 0.0, 2023-01-07 14:25:46.365
144.0, -37606.273604187205, -36462.60189564251, -36628.40713601198, -34856.47259431751, -38179.19351806564, -36298.24951866263, -48459.5878076062, -54976.708290184535, -38981.24116435542, -11429.408065010079, -39984.81213865425, -46963.27262679012, -25452.64666708072, -26515.1591915082, -45504.62013538124, -43178.09411026169, -0.332, 0.9, 0.028, 192.0, 0.0, 0.0, 0.0, 0.0, 0.0, 0.0, 0.0, 0.0, 0.0, 1.673119546365444E9, 0.0, 2023-01-07 14:25:46.365
146.0, -37585.33001963258, -36440.02663374265, -36595.05833328466, -34818.564035721305, -38148.25870373949, -36258.66457923229, -48422.17098738802, -54932.250670462934, -38815.72649666387, -11282.311234749704, -39820.63857563002, -46819.752075642595, -25296.7208977605, -26360.41806464411, -45354.14819170811, -43031.5560736127, -0.332, 0.9, 0.028, 192.0, 0.0, 0.0, 0.0, 0.0, 0.0, 0.0, 0.0, 0.0, 0.0, 1.6731195463654509E9, 0.0, 2023-01-07 14:25:46.365
148.0, -37637.633101658, -36494.60959370251, -36660.325427094154, -34873.75049278146, -38204.47334104459, -36323.05995500803, -48484.95703756298, -55001.89870618567, -38978.53660327633, -11428.40223650959, -39981.59348745269, -46944.65362365885, -25452.065521724886, -26503.06689775788, -45495.679437599116, -43164.4371943995, -0.334, 0.9, 0.03, 192.0, 122.5, 72.0, 14.0, 16.0, 0.0, 120.0, 0.0, 0.0, 0.0, 1.6731195463654585E9, 0.0, 2023-01-07 14:25:46.365
150.0, -37564.00645542222, -36421.027650955635, -36579.27800169921, -34796.27934649937, -38121.704831326584, -36246.393471526324, -48402.47910052289, -54920.560708112804, -38830.36688928209, -11302.964246626407, -39840.59868342861, -46831.97847985965, -25314.356424135738, -26370.45399790454, -45376.67875011906, -43048.6104546321, -0.334, 0.9, 0.03, 192.0, 0.0, 0.0, 0.0, 0.0, 0.0, 0.0, 0.0, 0.0, 0.0, 1.6731195463654652E9, 0.0, 2023-01-07 14:25:46.365
152.0, -37656.319160022635, -36515.061439879115, -36672.37301735557, -34890.87192903423, -38212.72113474859, -36345.612865163435, -48501.78790113782, -55024.876299485724, -38964.834983925226, -11425.228288796938, -39973.59156293769, -46927.26396647262, -25434.74291977202, -26497.00957501049, -45482.91659151514, -43154.96005475045, -0.334, 0.9, 0.03, 192.0, 0.0, 0.0, 0.0, 0.0, 0.0, 0.0, 0.0, 0.0, 0.0, 1.6731195463654723E9, 0.0, 2023-01-07 14:25:46.365
154.0, -37550.483650026756, -36411.036421184115, -36560.18961193438, -34790.9149278301, -38108.986688731515, -36242.88424764684, -48397.44995802045, -54920.82892904627, -38836.93830215196, -11315.391816543559, -39842.811506129685, -46839.89099739683, -25308.455563599535, -26394.54917842736, -45377.50576466391, -43059.831030348665, -0.334, 0.9, 0.03, 192.0, 0.0, 0.0, 0.0, 0.0, 0.0, 0.0, 0.0, 0.0, 0.0, 1.6731195463654797E9, 0.0, 2023-01-07 14:25:46.365
156.0, -37662.01885485874, -36523.80097196114, -36675.39050285703, -34907.5910338868, -38223.11469592032, -36358.15219380286, -48510.19215705302, -55037.661497314155, -38941.36565224715, -11419.729759660931, -39957.94534181897, -46929.36503045142, -25418.35909108628, -26509.258330971996, -45471.986588476495, -43149.99796748137, -0.334, 0.9, 0.03, 192.0, 0.0, 0.0, 0.0, 0.0, 0.0, 0.0, 0.0, 0.0, 0.0, 1.6731195463654864E9, 0.0, 2023-01-07 14:25:46.365
158.0, -37526.74609741522, -36387.32122031703, -36543.69402452636, -34783.896480071126, -38098.570775815344, -36235.73168942114, -48389.649199205545, -54919.89015577915, -38828.73521193686, -11318.610467745122, -39846.47719222036, -46852.072698124975, -25318.312682904325, -26402.30523375335, -45388.301657235825, -43073.93498109996, -0.336, 0.898, 0.032, 192.0, 122.5, 64.0, 14.0, 8.0, 0.5, 0.0, 0.0, 0.0, 0.0, 1.6731195463654933E9, 0.0, 2023-01-07 14:25:46.365
160.0, -37662.8905728925, -36519.263567836715, -36681.69369479343, -34915.01181304596, -38235.40815537074, -36368.09872008547, -48521.99387812542, -55053.12890447723, -38922.43372469351, -11386.559770889256, -39931.79380080626, -46895.7703585351, -25406.6467769917, -26474.747237533003, -45456.608588291245, -43137.503342330856, -0.336, 0.898, 0.032, 192.0, 0.0, 0.0, 0.0, 0.0, 0.0, 0.0, 0.0, 0.0, 0.0, 1.6731195463655005E9, 0.0, 2023-01-07 14:25:46.365
162.0, -37529.875341638966, -36384.54960400458, -36549.77369901821, -34785.23758473845, -38105.72333404104, -36233.72003242016, -48395.75122544185, -54928.78615007236, -38865.23561063238, -11333.139101641073, -39871.04175937674, -46862.1086313854, -25350.96858155353, -26411.22357979102, -45413.62618370369, -43097.20314707794, -0.336, 0.898, 0.032, 192.0, 0.0, 0.0, 0.0, 0.0, 0.0, 0.0, 0.0, 0.0, 0.0, 1.6731195463655076E9, 0.0, 2023-01-07 14:25:46.365
164.0, -37683.18595685792, -36539.55895180213, -36703.12901772607, -34932.177952787635, -38256.84347830337, -36374.17839457731, -48542.110448135194, -55069.22216048505, -38922.05374503777, -11379.183695219004, -39933.44782989596, -46891.38941662186, -25412.949968928096, -26475.03781021092, -45454.28400686789, -43129.613176538136, -0.336, 0.898, 0.032, 192.0, 0.0, 0.0, 0.0, 0.0, 0.0, 0.0, 0.0, 0.0, 0.0, 1.6731195463655145E9, 0.0, 2023-01-07 14:25:46.365
166.0, -37499.43226569084, -36355.09000481248, -36527.06432665161, -34755.33095065725, -38079.549441283874, -36201.91350006026, -48368.30328325072, -54903.640437560134, -38883.04995096326, -11347.310107625737, -39892.588841031655, -46878.93949496025, -25375.98018359902, -26424.90284739767, -45434.88269268068, -43105.36153380413, -0.336, 0.898, 0.032, 192.0, 0.0, 0.0, 0.0, 0.0, 0.0, 0.0, 0.0, 0.0, 0.0, 1.673119546365522E9, 0.0, 2023-01-07 14:25:46.365
0.0, -18750.587850879176, -18152.388114021793, -18461.803312516608, -17517.710330213347, -19066.082723865835, -18141.39105574978, -24216.59519870224, -27501.988709210007, -19400.46482091723, -5628.236309079684, -19904.519010128857, -23388.083086977374, -12645.030038956409, -13169.111391199995, -22669.183930061332, -21504.54628521756, -0.28800000000000003, 0.904, -0.054, 192.0, 123.5, 0.0, 14.0, 32.0, 127.0, 40.0, 0.0, 0.0, 0.0, 1.673119546469473E9, 0.0, 2023-01-07 14:25:46.469
2.0, -37561.92774318788, -36362.06374908254, -36969.74062558897, -35077.28547779149, -38190.48114901557, -36319.01428926161, -48484.95703756298, -55038.19793918109, -38868.9236484675, -11327.864089949619, -39910.04555345125, -46865.93077968726, -25377.45539873307, -26386.591957401273, -45493.73483583151, -43103.104007614136, -0.28800000000000003, 0.904, -0.054, 192.0, 0.0, 0.0, 0.0, 0.0, 0.0, 0.0, 0.0, 0.0, 0.0, 1.6731195469490297E9, 0.0, 2023-01-07 14:25:46.949
4.0, -37569.4155775804, -36372.4349585098, -36983.866928084724, -35090.584765742395, -38208.3178410909, -36342.97535931771, -48507.48759597392, -55073.536047164926, -38997.93791746353, -11435.085408101728, -40033.78481075583, -46951.51560920663, -25501.217007782103, -26496.67429884366, -45606.25351741952, -43202.32340125125, -0.28800000000000003, 0.904, -0.054, 192.0, 0.0, 0.0, 0.0, 0.0, 0.0, 0.0, 0.0, 0.0, 0.0, 1.6731195469490795E9, 0.0, 2023-01-07 14:25:46.949
6.0, -37525.04736483662, -36326.90445505434, -36929.0157471914, -35037.36526219431, -38159.389872478234, -36285.75489351212, -48455.83271453771, -55015.309752858855, -38867.426081588994, -11326.321819582203, -39892.387675331556, -46854.307872570505, -25371.711000408057, -26366.78831181387, -45486.582277605805, -43090.7211411859, -0.28800000000000003, 0.904, -0.054, 192.0, 0.0, 0.0, 0.0, 0.0, 0.0, 0.0, 0.0, 0.0, 0.0, 1.6731195469491322E9, 0.0, 2023-01-07 14:25:46.949
8.0, -37578.803310251635, -36383.09674061498, -36989.00782930945, -35092.37290529882, -38217.39264933976, -36344.4282227073, -48513.56727046577, -55079.973349568056, -38987.63376326964, -11417.36047474867, -40009.264947088355, -46924.67116411581, -25483.916757573697, -26466.65590604018, -45569.507249534996, -43168.52756363482, -0.262, 0.91, -0.096, 192.0, 123.5, 104.0, 14.0, 56.0, 126.5, 0.0, 0.0, 0.0, 0.0, 1.673119546949212E9, 0.0, 2023-01-07 14:25:46.949
10.0, -37500.61690814697, -36306.452608877735, -36912.58721501675, -35011.90662525971, -38140.45794492459, -36256.85408793141, -48437.10195268416, -54994.45557528205, -38869.99653220136, -11320.53271776828, -39899.54023355726, -46857.88415168335, -25376.136645810206, -26364.910765279623, -45472.8359547658, -43079.65702768052, -0.262, 0.91, -0.096, 192.0, 0.0, 0.0, 0.0, 0.0, 0.0, 0.0, 0.0, 0.0, 0.0, 1.673119546949224E9, 0.0, 2023-01-07 14:25:46.949
12.0, -37585.084150443574, -36396.06075239906, -37006.12926556221, -35099.95014666917, -38226.914492477714, -36340.67312963881, -48521.88211940314, -55088.33290199434, -38967.65130372659, -11398.227381494926, -40001.35242955118, -46901.6712190713, -25470.75158008952, -26439.90086792718, -45559.13604010773, -43145.818191268234, -0.262, 0.91, -0.096, 192.0, 0.0, 0.0, 0.0, 0.0, 0.0, 0.0, 0.0, 0.0, 0.0, 1.6731195469492364E9, 0.0, 2023-01-07 14:25:46.949
14.0, -37494.201957488294, -36310.07359147949, -36917.8622267082, -35019.26034918551, -38138.89332281272, -36251.914352406784, -48441.46054285295, -55002.63631375269, -38873.28223863629, -11337.408284832036, -39908.90561448403, -46863.09210814144, -25386.239634304005, -26353.712541307515, -45502.809644080364, -43101.2711645688, -0.262, 0.91, -0.096, 192.0, 0.0, 0.0, 0.0, 0.0, 0.0, 0.0, 0.0, 0.0, 0.0, 1.6731195469492447E9, 0.0, 2023-01-07 14:25:46.949
16.0, -37604.64192684197, -36419.44067709931, -37031.49849551899, -35134.79651627499, -38246.00288224255, -36367.29405728508, -48535.8072561988, -55112.49513775053, -38971.71932121746, -11404.150593775583, -40004.88400517512, -46904.24166968366, -25473.05380976842, -26444.70649298507, -45583.05240667491, -43177.37885443913, -0.262, 0.91, -0.096, 192.0, 0.0, 0.0, 0.0, 0.0, 0.0, 0.0, 0.0, 0.0, 0.0, 1.673119546949253E9, 0.0, 2023-01-07 14:25:46.949
18.0, -37491.340934198015, -36310.18535020177, -36918.89040695315, -35033.207837725626, -38139.250950724, -36275.00370442912, -48443.896882998575, -55015.734436003506, -38900.46195989394, -11371.226474192916, -39933.559588618235, -46890.54005033256, -25412.525285783446, -26401.50057095296, -45541.72403117705, -43154.7365373059, -0.248, 0.92, -0.116, 192.0, 124.0, 32.0, 14.0, 96.0, 126.0, 48.0, 0.0, 0.0, 0.0, 1.6731195469492624E9, 0.0, 2023-01-07 14:25:46.949
20.0, -37594.40482788144, -36412.53398806262, -37017.66276570115, -35131.28729239551, -38233.217684414114, -36376.927659145316, -48528.207663083995, -55108.44947200412, -38947.37827150563, -11398.093271028194, -39972.45162397047, -46880.794689750044, -25453.27251592547, -26453.66954251165, -45563.38287155424, -43166.56061012275, -0.248, 0.92, -0.116, 192.0, 0.0, 0.0, 0.0, 0.0, 0.0, 0.0, 0.0, 0.0, 0.0, 1.6731195469492683E9, 0.0, 2023-01-07 14:25:46.949
22.0, -37476.00763750167, -36294.60618431642, -36893.767046185385, -35013.56065434941, -38111.33362189932, -36268.208774114704, -48412.13505412758, -55004.87148819822, -38899.90316628256, -11378.624901607622, -39929.87155078311, -46885.063872941006, -25412.5476375279, -26440.32555107183, -45525.116685046756, -43143.56066507824, -0.248, 0.92, -0.116, 192.0, 0.0, 0.0, 0.0, 0.0, 0.0, 0.0, 0.0, 0.0, 0.0, 1.6731195469492748E9, 0.0, 2023-01-07 14:25:46.949
24.0, -37607.257080943236, -36421.72055503375, -37005.972803351026, -35122.95009171368, -38229.70846053463, -36379.02872312412, -48526.37482003866, -55106.41546325868, -38921.5843584042, -11384.481058654912, -39954.52552491731, -46862.265093596594, -25431.45721333709, -26448.349827331287, -45514.901937830684, -43124.427571824504, -0.248, 0.92, -0.116, 192.0, 0.0, 0.0, 0.0, 0.0, 0.0, 0.0, 0.0, 0.0, 0.0, 1.673119546949283E9, 0.0, 2023-01-07 14:25:46.949
26.0, -37497.353553456494, -36312.19700720275, -36900.07023812178, -35013.3147851604, -38122.71065982708, -36267.582925269955, -48418.25943210834, -55015.24269762549, -38928.80397186327, -11409.313846744759, -39967.601295423665, -46917.0268675121, -25444.778853032454, -26457.961077447068, -45529.47527521554, -43143.15833367805, -0.248, 0.92, -0.116, 192.0, 0.0, 0.0, 0.0, 0.0, 0.0, 0.0, 0.0, 0.0, 0.0, 1.6731195469492908E9, 0.0, 2023-01-07 14:25:46.949
28.0, -37604.61957509751, -36415.707935775274, -37010.0855243308, -35109.20376887367, -38228.747335523054, -36349.63617916539, -48516.33888677823, -55102.056873089896, -38909.670878609526, -11367.069049724229, -39949.47403067041, -46854.10670687041, -25421.89066671022, -26416.543294971383, -45487.54340261739, -43088.46361499591, -0.242, 0.918, -0.132, 192.0, 124.0, 56.0, 14.0, 88.0, 125.5, 112.0, 0.0, 0.0, 0.0, 1.6731195469492993E9, 0.0, 2023-01-07 14:25:46.949
30.0, -37484.18837597232, -36299.18829192976, -36910.97788941597, -35006.87748275727, -38119.82728479234, -36243.86772440287, -48418.14767338606, -55011.733473746004, -38936.26945451134, -11397.243904738893, -39974.731501904906, -46908.264983685614, -25445.918791999673, -26427.36153928775, -45530.95049034959, -43135.02229869632, -0.242, 0.918, -0.132, 192.0, 0.0, 0.0, 0.0, 0.0, 0.0, 0.0, 0.0, 0.0, 0.0, 1.6731195469493065E9, 0.0, 2023-01-07 14:25:46.949
32.0, -37597.10938896053, -36411.14817990639, -37022.535445992406, -35113.00356543107, -38231.250730902044, -36337.40977494833, -48521.010401369385, -55099.77699515546, -38905.15582622955, -11359.268290909326, -39948.647016125564, -46852.36327080289, -25418.761422486477, -26392.068134792822, -45503.793120836395, -43096.71140869992, -0.242, 0.918, -0.132, 192.0, 0.0, 0.0, 0.0, 0.0, 0.0, 0.0, 0.0, 0.0, 0.0, 1.6731195469493127E9, 0.0, 2023-01-07 14:25:46.949
34.0, -37483.8978032944, -36303.23395767617, -36928.41225009111, -35024.28949168795, -38133.998290777, -36255.15535535281, -48425.6802112675, -55024.18339540761, -38935.35303298867, -11394.382881448613, -39984.789786909794, -46907.348562162944, -25454.94889675962, -26435.40816729166, -45558.42078428517, -43156.14469720658, -0.242, 0.918, -0.132, 192.0, 0.0, 0.0, 0.0, 0.0, 0.0, 0.0, 0.0, 0.0, 0.0, 1.6731195469493191E9, 0.0, 2023-01-07 14:25:46.949
36.0, -37609.58166236659, -36427.86728475896, -37045.71420499256, -35139.62449307734, -38258.4304521597, -36367.42816775181, -48541.32813707926, -55124.18510010065, -38895.969259258425, -11353.34507862867, -39942.94732128946, -46847.110610855896, -25415.94510268511, -26394.348012727263, -45520.66868790015, -43116.38094382059, -0.242, 0.918, -0.132, 192.0, 0.0, 0.0, 0.0, 0.0, 0.0, 0.0, 0.0, 0.0, 0.0, 1.6731195469493287E9, 0.0, 2023-01-07 14:25:46.949
38.0, -37507.81416986158, -36335.21930399171, -36955.07788122629, -35057.63829441527, -38171.52686971747, -36300.23882391916, -48459.408993650555, -55061.80138132589, -38990.49478655992, -11447.26710882987, -40022.81010422827, -46944.45245795876, -25505.732060162078, -26489.43233364014, -45612.914337267204, -43214.750971168396, -0.23800000000000002, 0.918, -0.138, 192.0, 124.0, 72.0, 14.0, 88.0, 125.5, 88.0, 0.0, 0.0, 0.0, 1.6731195469493349E9, 0.0, 2023-01-07 14:25:46.949
40.0, -37559.647865253435, -36387.902365672875, -36984.023390295915, -35091.009448887045, -38211.89412020375, -36333.297053968556, -48495.68587490152, -55079.392204212214, -38863.872154220604, -11350.618165805123, -39904.21174814842, -46836.337070028436, -25396.901416409186, -26392.202245259556, -45497.17700447762, -43103.08165586968, -0.23800000000000002, 0.918, -0.138, 192.0, 0.0, 0.0, 0.0, 0.0, 0.0, 0.0, 0.0, 0.0, 0.0, 1.6731195469493408E9, 0.0, 2023-01-07 14:25:46.949
42.0, -37494.067847021564, -36322.03177476308, -36923.51721805539, -35031.03971851346, -38158.004064322005, -36292.527472082074, -48448.568397589734, -55049.32910791983, -38951.31217852976, -11423.350742262692, -39987.69551368899, -46910.298992431046, -25477.680620870666, -26473.09320844331, -45568.74729022352, -43171.410938669556, -0.23800000000000002, 0.918, -0.138, 192.0, 0.0, 0.0, 0.0, 0.0, 0.0, 0.0, 0.0, 0.0, 0.0, 1.6731195469493473E9, 0.0, 2023-01-07 14:25:46.949
44.0, -37558.53027803067, -36383.11909235944, -36967.974837777, -35070.26703003252, -38209.05544865793, -36330.05605102254, -48499.1503952921, -55086.16478278217, -38854.372662827096, -11330.076912650695, -39891.78417823126, -46816.44401746321, -25385.054991847872, -26381.629870132194, -45466.108079684745, -43077.53361195727, -0.23800000000000002, 0.918, -0.138, 192.0, 0.0, 0.0, 0.0, 0.0, 0.0, 0.0, 0.0, 0.0, 0.0, 1.6731195469493532E9, 0.0, 2023-01-07 14:25:46.949
46.0, -37544.15810634591, -36367.85285089646, -36961.04579699586, -35052.72091063511, -38187.50836700301, -36323.88696955287, -48489.65090389859, -55092.557381696395, -38985.10801614619, -11447.468274529967, -40023.30184260629, -46922.123065247906, -25507.34138576286, -26507.112563504288, -45577.1068426498, -43184.57611615373, -0.23800000000000002, 0.918, -0.138, 192.0, 0.0, 0.0, 0.0, 0.0, 0.0, 0.0, 0.0, 0.0, 0.0, 1.6731195469493594E9, 0.0, 2023-01-07 14:25:46.949
48.0, -37555.0657576401, -36377.44174926779, -36965.11381448672, -35047.89293383276, -38181.205175066614, -36304.26213792111, -48474.47406941344, -55065.645881372206, -38864.095671665156, -11333.496729552357, -39903.87647198158, -46825.22825303415, -25389.12300933874, -26375.684306107083, -45465.61634130673, -43069.77755663128, -0.24, 0.92, -0.14400000000000002, 192.0, 124.0, 64.0, 14.0, 96.0, 125.5, 64.0, 0.0, 0.0, 0.0, 1.6731195469493656E9, 0.0, 2023-01-07 14:25:46.949
50.0, -37559.49140304225, -36385.57778424952, -36994.506358445455, -35075.072655090415, -38193.297468816934, -36324.423411419804, -48489.762662620866, -55091.41744272917, -38991.67942901605, -11444.473140772956, -40034.67888053404, -46930.30380371855, -25514.605702710833, -26485.43137138264, -45580.63841827374, -43173.66846485955, -0.24, 0.92, -0.14400000000000002, 192.0, 0.0, 0.0, 0.0, 0.0, 0.0, 0.0, 0.0, 0.0, 0.0, 1.6731195469493716E9, 0.0, 2023-01-07 14:25:46.949
52.0, -37548.71786221479, -36372.39025502089, -36979.62009663822, -35063.673265418205, -38169.91754411668, -36292.59452731544, -48458.984310505904, -55050.871378287244, -38877.68553229398, -11342.683296523488, -39919.008602977825, -46850.64218647983, -25396.141457097707, -26372.711524094528, -45476.81456527884, -43079.23234453587, -0.24, 0.92, -0.14400000000000002, 192.0, 0.0, 0.0, 0.0, 0.0, 0.0, 0.0, 0.0, 0.0, 0.0, 1.673119546949378E9, 0.0, 2023-01-07 14:25:46.949
54.0, -37568.85678396902, -36396.17251112134, -37008.81147489685, -35098.27376583502, -38199.801826453426, -36329.38549868888, -48494.70239814549, -55091.931532851646, -39002.497673332415, -11450.083428631238, -40050.05688071929, -46938.14926602236, -25513.219894554604, -26503.849208813812, -45583.16416539719, -43184.442005687, -0.24, 0.92, -0.14400000000000002, 192.0, 0.0, 0.0, 0.0, 0.0, 0.0, 0.0, 0.0, 0.0, 0.0, 1.673119546949384E9, 0.0, 2023-01-07 14:25:46.949
56.0, -37554.819888451086, -36378.313467301545, -36978.74837860446, -35070.91523062172, -38186.390779780246, -36304.23978617666, -48479.54791540479, -55059.745020836, -38877.998456716356, -11348.67356403751, -39927.3234519152, -46853.43615453674, -25401.55057925589, -26383.03803003288, -45488.19160320659, -43097.225498822394, -0.24, 0.92, -0.14400000000000002, 192.0, 0.0, 0.0, 0.0, 0.0, 0.0, 0.0, 0.0, 0.0, 0.0, 1.6731195469493904E9, 0.0, 2023-01-07 14:25:46.949
58.0, -37573.975333449285, -36402.27453735763, -37002.77650389392, -35094.51867276653, -38216.36446909481, -36341.74601337266, -48513.589622210224, -55099.17349805516, -39007.43740885704, -11458.442981057524, -40052.31440690928, -46927.82276008401, -25524.06049061543, -26499.53532213394, -45599.10095919383, -43193.82973835823, -0.237, 0.923, -0.14, 192.0, 124.0, 88.0, 14.0, 120.0, 125.5, 96.0, 0.0, 0.0, 0.0, 1.6731195469493966E9, 0.0, 2023-01-07 14:25:46.949
60.0, -37502.76267561468, -36330.7266033562, -36926.266482623396, -35025.720003333096, -38147.05170953891, -36275.31662885149, -48446.06500221074, -55021.724703517524, -38852.56217152622, -11344.493787824367, -39899.36141960161, -46827.999869346604, -25383.40096275818, -26369.0234862594, -45484.8835450272, -43086.742530672855, -0.237, 0.923, -0.14, 192.0, 0.0, 0.0, 0.0, 0.0, 0.0, 0.0, 0.0, 0.0, 0.0, 1.6731195469494028E9, 0.0, 2023-01-07 14:25:46.949
62.0, -37595.61182208202, -36426.548531836095, -37024.88237916021, -35127.42044060474, -38242.29249266297, -36380.16866209134, -48546.29022434833, -55124.09569312283, -38974.98267590794, -11433.006695867383, -40017.378630325635, -46890.62945731037, -25498.870074614297, -26482.123313203254, -45585.62285728727, -43180.709264362966, -0.237, 0.923, -0.14, 192.0, 0.0, 0.0, 0.0, 0.0, 0.0, 0.0, 0.0, 0.0, 0.0, 1.6731195469494088E9, 0.0, 2023-01-07 14:25:46.949
64.0, -37506.741286127726, -36342.595379661965, -36931.04975593684, -35047.803526854936, -38150.4044712072, -36299.1659401853, -48457.240874438394, -55038.33204964782, -38888.30261091025, -11391.119526758139, -39938.745193331866, -46869.93174194476, -25425.37753884525, -26421.66184445165, -45535.71141191857, -43149.8862087591, -0.237, 0.923, -0.14, 192.0, 0.0, 0.0, 0.0, 0.0, 0.0, 0.0, 0.0, 0.0, 0.0, 1.6731195469494147E9, 0.0, 2023-01-07 14:25:46.949
66.0, -37598.29403141666, -36436.0480232296, -37022.06605935885, -35137.12109769834, -38234.51408559252, -36382.649705725875, -48536.79073295483, -55116.809024430404, -38952.13919307461, -11426.479986486434, -39996.83737717121, -46879.7665095051, -25476.5630336479, -26486.705420816594, -45567.02620590046, -43181.759796352366, -0.237, 0.923, -0.14, 192.0, 0.0, 0.0, 0.0, 0.0, 0.0, 0.0, 0.0, 0.0, 0.0, 1.673119546949421E9, 0.0, 2023-01-07 14:25:46.949
68.0, -37498.98523080173, -36338.750879615654, -36935.47540133898, -35046.79769835445, -38142.134325758736, -36299.121236696395, -48449.909502257055, -55030.59834606628, -38900.17138721602, -11403.703558886476, -39951.798612093764, -46883.23102989567, -25426.875105723753, -26435.36346380275, -45541.053478843394, -43168.438156657, -0.23149999999999998, 0.9285000000000001, -0.14100000000000001, 192.0, 124.0, 120.0, 14.5, 24.0, 125.5, 72.0, 0.0, 0.0, 0.0, 1.6731195469494295E9, 0.0, 2023-01-07 14:25:46.949
70.0, -37602.719676818815, -36439.02080524216, -37036.08060313232, -35126.14639117079, -38243.16421069673, -36381.82269118103, -48547.09488714873, -55112.45043426161, -38942.036204580814, -11415.68409391452, -39992.16586258005, -46862.17568661877, -25472.696181857133, -26454.295391356398, -45559.44896453011, -43164.124269977125, -0.23149999999999998, 0.9285000000000001, -0.14100000000000001, 192.0, 0.0, 0.0, 0.0, 0.0, 0.0, 0.0, 0.0, 0.0, 0.0, 1.6731195469494371E9, 0.0, 2023-01-07 14:25:46.949
72.0, -37450.50429707817, -36287.20775690171, -36905.12173236868, -34981.44119756713, -38106.550348585886, -36240.55966622349, -48406.77063545831, -54981.91624664262, -38895.79044530278, -11390.091346513194, -39945.428364924, -46848.25054982311, -25438.721530285067, -26402.46169596454, -45530.12347580474, -43129.41201083804, -0.23149999999999998, 0.9285000000000001, -0.14100000000000001, 192.0, 0.0, 0.0, 0.0, 0.0, 0.0, 0.0, 0.0, 0.0, 0.0, 1.673119546949443E9, 0.0, 2023-01-07 14:25:46.949
74.0, -37599.076342472596, -36440.13839246493, -37058.0970714208, -35125.65465279277, -38259.32452193791, -36375.944182389285, -48559.47775357697, -55114.55149824041, -38911.12374199912, -11380.457744652957, -39963.7344436329, -46812.46540695017, -25462.19086196314, -26402.46169596454, -45531.03989732741, -43109.22838559489, -0.23149999999999998, 0.9285000000000001, -0.14100000000000001, 192.0, 0.0, 0.0, 0.0, 0.0, 0.0, 0.0, 0.0, 0.0, 0.0, 1.6731195469494495E9, 0.0, 2023-01-07 14:25:46.949
76.0, -37456.85219250348, -36302.09401870895, -36927.518180312894, -34992.237090139046, -38127.96331977407, -36249.209791327696, -48429.90469096955, -54996.53428751639, -38917.96337580244, -11409.224439766936, -39971.40109198107, -46856.811267949495, -25477.054772025916, -26408.69783266757, -45551.26822605947, -43132.876531228605, -0.23149999999999998, 0.9285000000000001, -0.14100000000000001, 192.0, 0.0, 0.0, 0.0, 0.0, 0.0, 0.0, 0.0, 0.0, 0.0, 1.6731195469494555E9, 0.0, 2023-01-07 14:25:46.949
78.0, -37555.177516362375, -36401.246357112694, -37027.922216406136, -35089.93656515319, -38233.75412628104, -36346.1269552859, -48527.581814239245, -55082.58850366933, -38892.7282563124, -11355.513197840834, -39938.56637937622, -46779.071900733936, -25449.830347279352, -26370.990439771467, -45503.56960339184, -43081.355760259125, -0.21875, 0.94525, -0.1385, 192.0, 124.5, 72.0, 15.0, 8.0, 125.5, 96.0, 0.0, 0.0, 0.0, 1.673119546949462E9, 0.0, 2023-01-07 14:25:46.949
80.0, -37392.88149987239, -36246.5052302486, -36883.77581641386, -34955.669636210165, -38102.03529620592, -36229.31673876247, -48403.64139123457, -54969.4216214921, -38898.047971492764, -11385.531590644312, -39947.44002192498, -46818.03099131954, -25467.622335865777, -26393.141018526676, -45538.77360090895, -43126.729801503396, -0.21875, 0.94525, -0.1385, 192.0, 0.0, 0.0, 0.0, 0.0, 0.0, 0.0, 0.0, 0.0, 0.0, 1.6731195469494689E9, 0.0, 2023-01-07 14:25:46.949
82.0, -37483.8978032944, -36340.02492904961, -36972.624000623706, -35048.33996872186, -38203.445160799645, -36318.61195786142, -48500.40209298159, -55047.116285218755, -38831.79740092724, -11296.035205845263, -39877.09908212413, -46717.761065693034, -25400.45534377758, -26329.192677640043, -45465.57163781782, -43052.1643820005, -0.21875, 0.94525, -0.1385, 192.0, 0.0, 0.0, 0.0, 0.0, 0.0, 0.0, 0.0, 0.0, 0.0, 1.6731195469494748E9, 0.0, 2023-01-07 14:25:46.949
84.0, -37367.15464200433, -36233.36240450888, -36870.67769416305, -34956.697816455104, -38105.700982296585, -36235.08348883194, -48412.00094366085, -54969.77924940339, -38864.02861643179, -11352.58511931719, -39915.65584130953, -46784.90570603678, -25450.925582757664, -26392.381059215197, -45528.82707462634, -43124.87460671361, -0.21875, 0.94525, -0.1385, 192.0, 0.0, 0.0, 0.0, 0.0, 0.0, 0.0, 0.0, 0.0, 0.0, 1.6731195469494808E9, 0.0, 2023-01-07 14:25:46.949
86.0, -37484.97068702825, -36349.077385554, -36978.278991970896, -35055.44782345865, -38218.08555341787, -36327.79852483255, -48513.097883832204, -55045.17168345114, -38821.716764177894, -11295.610522700612, -39862.12341333907, -46715.25767031404, -25395.292090808405, -26335.250000387434, -45464.61051280624, -43060.92626582697, -0.21875, 0.94525, -0.1385, 192.0, 0.0, 0.0, 0.0, 0.0, 0.0, 0.0, 0.0, 0.0, 0.0, 1.6731195469494867E9, 0.0, 2023-01-07 14:25:46.949
88.0, -37364.42772918078, -36238.21273305568, -36878.7019704225, -34949.724072185054, -38114.3958108897, -36230.36727075187, -48416.29247859627, -54949.03683054887, -38894.628154591104, -11389.510201157356, -39954.57022840622, -46811.39252321632, -25481.32395521688, -26414.24106529249, -45544.607406211784, -43138.79974350926, -0.208375, 0.961625, -0.13825, 192.0, 124.5, 104.0, 15.0, 72.0, 125.5, 88.0, 0.0, 0.0, 0.0, 1.6731195469494927E9, 0.0, 2023-01-07 14:25:46.949
90.0, -37427.34788982247, -36303.99391698765, -36931.385032103666, -35002.45183735512, -38175.2596110415, -36280.34577135393, -48476.262208969856, -54983.19029607657, -38763.51282161627, -11265.435667685946, -39825.041869287714, -46681.59594316434, -25352.175575754118, -26283.371601506664, -45409.89344237965, -43002.11882616506, -0.208375, 0.961625, -0.13825, 192.0, 0.0, 0.0, 0.0, 0.0, 0.0, 0.0, 0.0, 0.0, 0.0, 1.673119546949499E9, 0.0, 2023-01-07 14:25:46.949
92.0, -37349.00502550662, -36227.90857886179, -36868.42016797306, -34938.92817961314, -38106.84092126381, -36228.62383468435, -48414.392580317566, -54929.92608903958, -38868.700131022946, -11372.098192226673, -39930.13977171657, -46780.94944726818, -25454.56891710388, -26384.200320744556, -45503.167271991646, -43094.67739995449, -0.208375, 0.961625, -0.13825, 192.0, 0.0, 0.0, 0.0, 0.0, 0.0, 0.0, 0.0, 0.0, 0.0, 1.673119546949505E9, 0.0, 2023-01-07 14:25:46.949
94.0, -37410.807598925545, -36292.90745173782, -36920.477380809476, -34988.63845928174, -38162.474413213065, -36268.36523632589, -48464.50519138637, -54956.27879575238, -38763.24460068281, -11276.56683642469, -39822.42671518645, -46682.82528910939, -25344.911258806143, -26284.98092710745, -45400.0139713304, -42983.72334047835, -0.208375, 0.961625, -0.13825, 192.0, 0.0, 0.0, 0.0, 0.0, 0.0, 0.0, 0.0, 0.0, 0.0, 1.673119546949511E9, 0.0, 2023-01-07 14:25:46.949
96.0, -37370.21683099471, -36255.89296291983, -36891.040133361836, -34956.071967610354, -38130.936101786625, -36243.666558702775, -48436.85608349516, -54936.60926063172, -38876.255020648845, -11383.92226504353, -39946.00951027984, -46789.912496794765, -25465.52127188698, -26406.0826785663, -45519.01465881046, -43092.24105980886, -0.208375, 0.961625, -0.13825, 192.0, 0.0, 0.0, 0.0, 0.0, 0.0, 0.0, 0.0, 0.0, 0.0, 1.6731195469495173E9, 0.0, 2023-01-07 14:25:46.949
98.0, -37409.66765995832, -36294.67323954979, -36919.58331103126, -34985.12923540226, -38160.306294000904, -36263.738425223644, -48461.64416809609, -54945.25938573592, -38760.47298437035, -11269.28016773226, -39827.96994781136, -46687.76502463401, -25346.095901262273, -26276.57667119225, -45404.171395799094, -42991.01000917077, -0.20618750000000002, 0.9668125, -0.134125, 192.0, 124.5, 80.0, 15.0, 48.0, 125.5, 120.0, 0.0, 0.0, 0.0, 1.6731195469495232E9, 0.0, 2023-01-07 14:25:46.949
100.0, -37394.803749895545, -36283.27384987758, -36917.77281973038, -34984.39162783523, -38155.29950324291, -36273.75200673962, -48463.611121608155, -54960.36916498771, -38902.87594829511, -11395.96985530494, -39972.54103094829, -46809.60438365989, -25486.42015295269, -26413.45875423655, -45531.50928396098, -43128.80851373774, -0.20618750000000002, 0.9668125, -0.134125, 192.0, 0.0, 0.0, 0.0, 0.0, 0.0, 0.0, 0.0, 0.0, 0.0, 1.6731195469495308E9, 0.0, 2023-01-07 14:25:46.949
102.0, -37371.73674961767, -36262.79965195652, -36878.21023204449, -34954.417938520666, -38126.756325573486, -36243.57715172495, -48427.15542640155, -54917.11853946669, -38762.48464137133, -11268.430801442957, -39819.85626457408, -46695.14110030426, -25339.993875025975, -26283.215139295477, -45394.96247708351, -43013.272346648264, -0.20618750000000002, 0.9668125, -0.134125, 192.0, 0.0, 0.0, 0.0, 0.0, 0.0, 0.0, 0.0, 0.0, 0.0, 1.6731195469495368E9, 0.0, 2023-01-07 14:25:46.949
104.0, -37404.88438664489, -36302.47399836469, -36913.79420921734, -34997.534453574954, -38165.17897429216, -36289.62174530289, -48470.36134843366, -54964.325423756294, -38884.65927656404, -11385.44218366649, -39944.28842595678, -46795.366322441856, -25470.058676011406, -26409.927178612612, -45502.58612663581, -43121.81241772323, -0.20618750000000002, 0.9668125, -0.134125, 192.0, 0.0, 0.0, 0.0, 0.0, 0.0, 0.0, 0.0, 0.0, 0.0, 1.6731195469495428E9, 0.0, 2023-01-07 14:25:46.949
106.0, -37360.7173396012, -36262.12909962286, -36852.48337417643, -34950.43932800762, -38118.53088361393, -36239.97852086765, -48424.85319672265, -54908.84839401823, -38759.02012098076, -11290.76019415381, -39811.764933081264, -46718.99041163807, -25348.48753791899, -26292.088781844235, -45396.817671873294, -43032.293681179726, -0.20618750000000002, 0.9668125, -0.134125, 192.0, 0.0, 0.0, 0.0, 0.0, 0.0, 0.0, 0.0, 0.0, 0.0, 1.6731195469495487E9, 0.0, 2023-01-07 14:25:46.949
108.0, -37423.659851987344, -36329.161981244324, -36912.564863272295, -35013.15832294921, -38182.43452101166, -36311.32528916899, -48494.233011511926, -54984.956083888545, -38881.95471548494, -11390.896009313585, -39932.35259441764, -46803.07767427894, -25464.80601606441, -26411.76002165795, -45488.86215554025, -43129.4790660714, -0.21309375000000003, 0.96040625, -0.12406249999999999, 192.0, 124.5, 16.0, 14.5, 104.0, 126.0, 56.0, 0.0, 0.0, 0.0, 1.673119546949555E9, 0.0, 2023-01-07 14:25:46.949
110.0, -37326.362708373395, -36234.14471556481, -36807.75753352136, -34907.16635074215, -38075.235554604005, -36207.41202919627, -48393.0243126183, -54885.04378617332, -38756.38261513503, -11290.447269731436, -39808.38981966851, -46723.7289814626, -25342.36315993824, -26301.744735448927, -45379.137442009145, -43027.823332288666, -0.21309375000000003, 0.96040625, -0.12406249999999999, 192.0, 0.0, 0.0, 0.0, 0.0, 0.0, 0.0, 0.0, 0.0, 0.0, 1.673119546949561E9, 0.0, 2023-01-07 14:25:46.949
112.0, -37444.223456886226, -36351.7819466331, -36922.69020351055, -35015.438200883655, -38195.55499500692, -36329.69842311125, -48511.10857857568, -55009.05126441136, -38876.59029681567, -11379.429564408012, -39930.340937416666, -46792.415892173754, -25452.154928702705, -26419.1360973282, -45463.06824243883, -43103.1263593586, -0.21309375000000003, 0.96040625, -0.12406249999999999, 192.0, 0.0, 0.0, 0.0, 0.0, 0.0, 0.0, 0.0, 0.0, 0.0, 1.6731195469495673E9, 0.0, 2023-01-07 14:25:46.949
114.0, -37319.076039680964, -36225.67340441625, -36787.61861176713, -34883.518205108434, -38065.020807387926, -36203.63458438332, -48384.30713228073, -54883.032129172345, -38773.36994092106, -11295.699929678432, -39824.438372187426, -46738.525836292014, -25347.705226863054, -26327.516296805898, -45387.58640141325, -43035.26646319228, -0.21309375000000003, 0.96040625, -0.12406249999999999, 192.0, 0.0, 0.0, 0.0, 0.0, 0.0, 0.0, 0.0, 0.0, 0.0, 1.6731195469495733E9, 0.0, 2023-01-07 14:25:46.949
116.0, -37462.954218739775, -36369.86450789744, -36926.69116576805, -35022.12137247579, -38210.284794602965, -36340.069632538514, -48531.292203818826, -55026.55268031987, -38868.9236484675, -11358.910662998042, -39909.8220360067, -46775.92030476574, -25417.152096885693, -26396.069097050324, -45453.0770126673, -43089.22357430739, -0.21309375000000003, 0.96040625, -0.12406249999999999, 192.0, 0.0, 0.0, 0.0, 0.0, 0.0, 0.0, 0.0, 0.0, 0.0, 1.6731195469495792E9, 0.0, 2023-01-07 14:25:46.949
118.0, -37322.24998739362, -36228.869703873366, -36783.23766985389, -34890.3354871673, -38074.78851971489, -36210.02718329754, -48398.25462082084, -54898.67835029106, -38788.41266493948, -11325.919488182008, -39848.488849221336, -46771.3381971524, -25369.565232940346, -26355.970067497503, -45429.25005307794, -43074.38201598907, -0.227546875, 0.948203125, -0.11603125, 192.0, 124.0, 56.0, 14.5, 32.0, 126.0, 80.0, 0.0, 0.0, 0.0, 1.6731195469495852E9, 0.0, 2023-01-07 14:25:46.949
120.0, -37467.06693971955, -36369.41747300833, -36915.559997029304, -35026.50231438903, -38211.91647194821, -36340.918998827816, -48530.50989276289, -55024.675133785626, -38829.65163345953, -11341.699819767455, -39883.20110836042, -46767.38193838381, -25402.288186822916, -26388.916538824626, -45442.92932068459, -43089.603553963134, -0.227546875, 0.948203125, -0.11603125, 192.0, 0.0, 0.0, 0.0, 0.0, 0.0, 0.0, 0.0, 0.0, 0.0, 1.673119546949592E9, 0.0, 2023-01-07 14:25:46.949
122.0, -37317.60082454691, -36214.56458742197, -36761.8246986657, -34875.47157710452, -38061.98097014201, -36190.42470341024, -48382.13901306856, -54880.88636170464, -38802.76248487979, -11335.91071795353, -39860.22351506037, -46783.78811881401, -25387.960718627062, -26379.484102664486, -45439.42009680511, -43094.655048210036, -0.227546875, 0.948203125, -0.11603125, 192.0, 0.0, 0.0, 0.0, 0.0, 0.0, 0.0, 0.0, 0.0, 0.0, 1.6731195474298024E9, 0.0, 2023-01-07 14:25:47.429
124.0, -37473.861870033965, -36365.61767645093, -36892.18007232906, -35004.73171528956, -38201.25468984302, -36318.45549565023, -48512.09205533172, -54998.74711021747, -38815.25711003031, -11312.754310697832, -39862.659855205995, -46744.69491776168, -25389.391230272202, -26373.896166550658, -45415.52608198239, -43058.95931231491, -0.227546875, 0.948203125, -0.11603125, 192.0, 0.0, 0.0, 0.0, 0.0, 0.0, 0.0, 0.0, 0.0, 0.0, 1.6731195474298947E9, 0.0, 2023-01-07 14:25:47.429
126.0, -37333.58232183246, -36224.3993549823, -36742.08810831167, -34867.67081828962, -38063.36677829824, -36193.464540656154, -48378.450975233434, -54875.36548082418, -38832.60206372763, -11343.91264246853, -39875.62386699008, -46786.98441827112, -25415.07338465135, -26386.524902167905, -45439.73302122748, -43084.350894016134, -0.227546875, 0.948203125, -0.11603125, 192.0, 0.0, 0.0, 0.0, 0.0, 0.0, 0.0, 0.0, 0.0, 0.0, 1.6731195474299212E9, 0.0, 2023-01-07 14:25:47.429
128.0, -37488.50226265219, -36378.939316146294, -36869.58245868474, -35006.07281995688, -38204.98743116706, -36332.827667335, -48514.52839547735, -55004.5809155203, -38817.69345017594, -11304.506516993824, -39858.03304410375, -46738.034097913995, -25402.77992520093, -26369.917556037613, -45408.10530282323, -43045.95059704192, -0.227546875, 0.948203125, -0.11603125, 192.0, 0.0, 0.0, 0.0, 0.0, 0.0, 0.0, 0.0, 0.0, 0.0, 1.6731195474299748E9, 0.0, 2023-01-07 14:25:47.429
130.0, -37337.00213873412, -36226.187494538724, -36710.77331432978, -34859.19950714106, -38060.90808640815, -36200.617098881856, -48372.863039119606, -54874.94079767953, -38847.82360170169, -11368.432506136001, -39893.97464918788, -46805.558717913475, -25446.74580654452, -26419.069042094834, -45460.94482671557, -43102.34404830266, -0.26, 0.926, -0.08600000000000001, 192.0, 123.5, 112.0, 14.0, 120.0, 126.5, 40.0, 0.0, 0.0, 0.0, 1.6731195474300013E9, 0.0, 2023-01-07 14:25:47.430
132.0, -37494.15725399939, -36383.208499337255, -36837.17242922454, -34992.59471805033, -38190.52585250448, -36332.09005976797, -48497.11638654666, -54990.81224093583, -38793.01712429728, -11299.5667814692, -39832.3508897246, -46722.790208195474, -25373.521491708936, -26361.40154140014, -45378.53394490886, -43024.51527410928, -0.26, 0.926, -0.08600000000000001, 192.0, 0.0, 0.0, 0.0, 0.0, 0.0, 0.0, 0.0, 0.0, 0.0, 1.673119547430082E9, 0.0, 2023-01-07 14:25:47.430
134.0, -37347.328644672474, -36235.23995104313, -36694.76946529978, -34855.44441407257, -38048.74873742447, -36208.64137514131, -48367.85624836162, -54878.8523529592, -38883.54168934127, -11398.49560242839, -39927.09993447065, -46828.06692457997, -25453.540736858933, -26452.976638433534, -45466.532762829396, -43119.55489153325, -0.26, 0.926, -0.08600000000000001, 192.0, 0.0, 0.0, 0.0, 0.0, 0.0, 0.0, 0.0, 0.0, 0.0, 1.6731195474301057E9, 0.0, 2023-01-07 14:25:47.430
136.0, -37465.32350365204, -36352.161926288834, -36793.69828625897, -34961.05640662389, -38156.61825616578, -36310.498274624144, -48467.88030479912, -54969.66749068112, -38754.1474406895, -11275.13632477955, -39803.4947876328, -46696.52690846049, -25332.617799355725, -26322.084822903256, -45342.569988080264, -42994.966267939366, -0.26, 0.926, -0.08600000000000001, 192.0, 0.0, 0.0, 0.0, 0.0, 0.0, 0.0, 0.0, 0.0, 0.0, 1.6731195474301167E9, 0.0, 2023-01-07 14:25:47.430
138.0, -37354.10122324243, -36241.49843949061, -36695.998811244826, -34863.89337347667, -38056.30362705036, -36220.35368923589, -48380.17205955649, -54892.9563037105, -38885.35218064215, -11413.180698535527, -39931.458524639434, -46830.9055961258, -25461.252088696016, -26450.339132587807, -45470.779594275904, -43127.5791677927, -0.26, 0.926, -0.08600000000000001, 192.0, 0.0, 0.0, 0.0, 0.0, 0.0, 0.0, 0.0, 0.0, 0.0, 1.6731195474301274E9, 0.0, 2023-01-07 14:25:47.430
140.0, -37468.5421548536, -36353.19010653378, -36789.98789667939, -34958.798880433904, -38152.7067008861, -36304.57506234349, -48468.81907806624, -54967.29820576885, -38737.2942253702, -11259.579510638656, -39788.005028725274, -46696.75042590504, -25317.10568870374, -26309.299625074822, -45332.82462749775, -42986.38319806853, -0.274, 0.91, -0.064, 192.0, 123.5, 56.0, 14.0, 56.0, 127.0, 0.0, 0.0, 0.0, 0.0, 1.673119547430138E9, 0.0, 2023-01-07 14:25:47.430
142.0, -37417.42371528432, -36307.48078912268, -36750.738233415876, -34923.52782768343, -38114.14994170069, -36272.76852998359, -48438.42070560702, -54951.54022592786, -38929.85450385267, -11444.316678561769, -39982.711074675455, -46884.68389328526, -25501.641690926754, -26500.675261101158, -45525.608423424776, -43170.47216540243, -0.274, 0.91, -0.064, 192.0, 0.0, 0.0, 0.0, 0.0, 0.0, 0.0, 0.0, 0.0, 0.0, 1.6731195474301484E9, 0.0, 2023-01-07 14:25:47.430
144.0, -37450.28077963362, -36342.26010349514, -36765.80330917875, -34944.20319130459, -38129.59499711931, -36287.364219112904, -48448.434287123004, -54953.59658641775, -38757.18727793542, -11285.798106884731, -39816.816427328165, -46737.45295255816, -25333.44481390057, -26340.569715567795, -45366.754575580904, -43018.97204148436, -0.274, 0.91, -0.064, 192.0, 0.0, 0.0, 0.0, 0.0, 0.0, 0.0, 0.0, 0.0, 0.0, 1.6731195474301589E9, 0.0, 2023-01-07 14:25:47.430
146.0, -37427.95138692277, -36317.226149705195, -36749.79946014875, -34924.80187711738, -38116.899206268696, -36281.0610271765, -48440.25354865236, -54956.859941108225, -38913.06834376673, -11435.93477439103, -39973.546859448776, -46877.39722459284, -25489.70585938762, -26484.894929515714, -45506.40827493767, -43158.64809258558, -0.274, 0.91, -0.064, 192.0, 0.0, 0.0, 0.0, 0.0, 0.0, 0.0, 0.0, 0.0, 0.0, 1.673119547430169E9, 0.0, 2023-01-07 14:25:47.430
148.0, -37457.34393088149, -36343.60120816246, -36761.04238760977, -34934.3460719998, -38134.91471229967, -36290.18053891427, -48448.76956328983, -54954.55771142933, -38762.797565793706, -11292.615388943601, -39822.29260471971, -46745.320766606426, -25345.760625095445, -26339.139203922656, -45370.80024132732, -43023.10711420859, -0.274, 0.91, -0.064, 192.0, 0.0, 0.0, 0.0, 0.0, 0.0, 0.0, 0.0, 0.0, 0.0, 1.6731195474301796E9, 0.0, 2023-01-07 14:25:47.430
150.0, -37455.131108180416, -36338.99674880466, -36758.24841955285, -34923.997214316994, -38141.79904959191, -36301.15524544183, -48452.94933950297, -54967.968758102514, -38930.301538741776, -11454.754943222397, -39989.77422592333, -46883.9686374627, -25516.505600989534, -26503.04454601342, -45526.793065880905, -43168.8404880572, -0.28200000000000003, 0.896, -0.052000000000000005, 192.0, 123.5, 24.0, 14.0, 0.0, 127.0, 48.0, 0.0, 0.0, 0.0, 1.6731195474301903E9, 0.0, 2023-01-07 14:25:47.430
152.0, -37428.7336979787, -36312.50993162512, -36699.17275895748, -34873.795196270374, -38097.810816503865, -36247.13107909335, -48399.640428977065, -54904.713321293995, -38749.207705164874, -11278.176162025471, -39797.57157535214, -46715.63764996978, -25336.5293546354, -26321.50367754742, -45352.0024242404, -42995.167433639464, -0.28200000000000003, 0.896, -0.052000000000000005, 192.0, 0.0, 0.0, 0.0, 0.0, 0.0, 0.0, 0.0, 0.0, 0.0, 1.6731195474302008E9, 0.0, 2023-01-07 14:25:47.430
154.0, -37496.727704611745, -36383.208499337255, -36764.23868706688, -34946.52777272794, -38165.78247139245, -36321.85296080744, -48474.20584847997, -54982.653854209646, -38924.5347886723, -11438.080541858739, -39973.32334200422, -46855.87249468237, -25507.833124140874, -26504.989147781034, -45500.46271091255, -43145.035880212294, -0.28200000000000003, 0.896, -0.052000000000000005, 192.0, 0.0, 0.0, 0.0, 0.0, 0.0, 0.0, 0.0, 0.0, 0.0, 1.6731195474302115E9, 0.0, 2023-01-07 14:25:47.430
156.0, -37423.90572117636, -36311.347640913446, -36676.485738335345, -34868.56488806783, -38087.99840068798, -36240.78318366804, -48389.515088738815, -54890.69877752051, -38775.26983919976, -11309.558011240722, -39826.941767566415, -46743.06324041644, -25361.83152935881, -26359.74751231045, -45372.45427041701, -43022.905948508494, -0.28200000000000003, 0.896, -0.052000000000000005, 192.0, 0.0, 0.0, 0.0, 0.0, 0.0, 0.0, 0.0, 0.0, 0.0, 1.6731195474302225E9, 0.0, 2023-01-07 14:25:47.430
158.0, -37527.81898114908, -36414.947976463794, -36782.544765775776, -34972.38874106273, -38190.4140937822, -36347.53511518659, -48489.2932759873, -54992.17569734761, -38918.56687290274, -11435.241870312915, -39971.08816755869, -46848.496419012125, -25497.506618202522, -26489.85701678479, -45489.24213519599, -43132.98828995089, -0.28200000000000003, 0.896, -0.052000000000000005, 192.0, 0.0, 0.0, 0.0, 0.0, 0.0, 0.0, 0.0, 0.0, 0.0, 1.6731195474302328E9, 0.0, 2023-01-07 14:25:47.430
160.0, -37412.55103499306, -36304.217434432205, -36662.04651141721, -34853.54451579387, -38076.554307526865, -36232.64714868631, -48379.18858280046, -54879.41114657059, -38796.21342375439, -11337.855319721142, -39850.299340522215, -46765.19146742719, -25384.02681160293, -26381.40635268764, -45402.87499462068, -43045.72707959737, -0.292, 0.9, -0.034, 192.0, 123.0, 112.0, 14.0, 16.0, 127.0, 120.0, 0.0, 0.0, 0.0, 1.6731195474302435E9, 0.0, 2023-01-07 14:25:47.430
162.0, -37523.12511481346, -36417.38431660942, -36768.17259409101, -34960.36350254578, -38196.42671304068, -36344.24940875166, -48492.2437062554, -54992.35451130325, -38886.31330565373, -11421.696713172998, -39943.059080011735, -46815.39348547381, -25475.534853402958, -26480.24576666901, -45483.587143848796, -43110.949469917956, -0.292, 0.9, -0.034, 192.0, 0.0, 0.0, 0.0, 0.0, 0.0, 0.0, 0.0, 0.0, 0.0, 1.6731195474302545E9, 0.0, 2023-01-07 14:25:47.430
164.0, -37389.99812483766, -36285.956059212214, -36619.95817660787, -34823.5708264793, -38051.69916769257, -36216.57624442295, -48354.15462901052, -54858.13228584913, -38775.42630141095, -11340.202252888948, -39832.44029670242, -46744.49375206158, -25370.146378296184, -26373.35972468373, -45400.28219226387, -43034.28298643625, -0.292, 0.9, -0.034, 192.0, 0.0, 0.0, 0.0, 0.0, 0.0, 0.0, 0.0, 0.0, 0.0, 1.6731195474302676E9, 0.0, 2023-01-07 14:25:47.430
166.0, -37579.853842241035, -36478.11400629449, -36803.68951603049, -35013.471247371584, -38241.80075428495, -36411.57286305104, -48540.34466032322, -55045.46225612906, -38886.76034054284, -11430.682114444031, -39949.4293271815, -46824.110665811386, -25476.250109225526, -26484.649060326705, -45488.72804507352, -43130.46254282744, -0.292, 0.9, -0.034, 192.0, 0.0, 0.0, 0.0, 0.0, 0.0, 0.0, 0.0, 0.0, 0.0, 1.6731195474302783E9, 0.0, 2023-01-07 14:25:47.430
168.0, -37395.697819673755, -36292.46041684871, -36617.85711262907, -34835.10432661824, -38051.453298503555, -36236.335186521435, -48362.89416109254, -54874.069079645764, -38832.40089802753, -11396.30513147177, -39890.37601833058, -46807.05628479199, -25420.571913787357, -26440.57142026084, -45449.94776844356, -43105.115664615114, -0.292, 0.9, -0.034, 192.0, 0.0, 0.0, 0.0, 0.0, 0.0, 0.0, 0.0, 0.0, 0.0, 1.673119547430289E9, 0.0, 2023-01-07 14:25:47.430
170.0, -37560.18430712036, -36454.376453682955, -36771.99474239287, -34988.0573139259, -38234.08940244787, -36390.91985117434, -48516.13772107813, -55017.947258704575, -38863.2239536314, -11404.374111220135, -39918.02512622179, -46796.03687477552, -25445.94114374413, -26463.079626927334, -45455.200428390555, -43102.43345528048, -0.298, 0.902, -0.016, 192.0, 123.0, 88.0, 14.0, 24.0, 127.5, 64.0, 0.0, 0.0, 0.0, 1.6731195474302995E9, 0.0, 2023-01-07 14:25:47.430
172.0, -37373.83781359647, -36269.99691367113, -36587.4363884254, -34803.5660151918, -38060.37164454122, -36218.76671537956, -48343.5599021387, -54849.392753767104, -38831.81975267169, -11396.975683805429, -39885.07865489467, -46796.416854431256, -25432.060710437385, -26452.171975633144, -45460.98953020448, -43093.13512958707, -0.298, 0.902, -0.016, 192.0, 0.0, 0.0, 0.0, 0.0, 0.0, 0.0, 0.0, 0.0, 0.0, 1.6731195474303102E9, 0.0, 2023-01-07 14:25:47.430
174.0, -37565.99576067874, -36462.78070959815, -36758.27077129731, -34968.96892416107, -38235.452858859644, -36386.27068832763, -48514.59545071071, -55010.72764524551, -38833.317319550195, -11376.501485884368, -39877.143785613036, -46751.10986842035, -25422.918846955163, -26426.467469509542, -45433.45218103554, -43052.6114168896, -0.298, 0.902, -0.016, 192.0, 0.0, 0.0, 0.0, 0.0, 0.0, 0.0, 0.0, 0.0, 0.0, 1.6731195474303207E9, 0.0, 2023-01-07 14:25:47.430
176.0, -37379.09047354347, -36275.78601548505, -36575.50055688626, -34783.44944518202, -38049.48634499149, -36206.473255929144, -48337.4578759024, -54846.91171013257, -38858.26186636232, -11423.864832385163, -39908.86091099512, -46807.682133636736, -25457.56405086089, -26457.55874604687, -45473.864135010735, -43099.684190712476, -0.298, 0.902, -0.016, 192.0, 0.0, 0.0, 0.0, 0.0, 0.0, 0.0, 0.0, 0.0, 0.0, 1.6731195474303317E9, 0.0, 2023-01-07 14:25:47.430
178.0, -37551.62358899398, -36449.88375304744, -36734.98025357488, -34946.03603434993, -38203.82514045538, -36368.70221718576, -48489.51679343186, -54993.40504329265, -38805.86937735908, -11347.600680303656, -39851.57338995617, -46721.180882594694, -25394.956814641573, -26394.12449528271, -45391.3638462262, -43024.49292236482, -0.298, 0.902, -0.016, 192.0, 0.0, 0.0, 0.0, 0.0, 0.0, 0.0, 0.0, 0.0, 0.0, 1.6731195474303424E9, 0.0, 2023-01-07 14:25:47.430
180.0, -37392.568575450015, -36292.01338195961, -36590.47622567132, -34804.214215781, -38051.69916769257, -36229.94258760722, -48350.10896326411, -54865.843637686216, -38879.92070673951, -11436.962954635974, -39931.36911766161, -46820.51203495408, -25475.691315614145, -26475.015458466467, -45477.95450424606, -43123.26528111283, -0.302, 0.902, -0.012, 192.0, 123.0, 72.0, 14.0, 24.0, 127.5, 80.0, 0.0, 0.0, 0.0, 1.673119547430353E9, 0.0, 2023-01-07 14:25:47.430
182.0, -37529.56241721659, -36433.85755227298, -36710.818017818696, -34930.993310331505, -38175.77370116398, -36341.65660639484, -48464.46048789746, -54969.48867672547, -38790.51372891828, -11341.588061045179, -39836.84359036012, -46717.73871394858, -25381.054029590374, -26394.70564063855, -45373.974189039975, -43022.03423047474, -0.302, 0.902, -0.012, 192.0, 0.0, 0.0, 0.0, 0.0, 0.0, 0.0, 0.0, 0.0, 0.0, 1.6731195474303637E9, 0.0, 2023-01-07 14:25:47.430
184.0, -37399.207043553244, -36305.200911188236, -36590.230356482316, -34810.36094550621, -38058.49409800698, -36236.55870396599, -48358.84849534613, -54875.18666686853, -38882.200584673956, -11448.474103030456, -39933.53723687377, -46824.6024041894, -25475.177225491672, -26490.66167958518, -45479.83205078031, -43128.87556897111, -0.302, 0.902, -0.012, 192.0, 0.0, 0.0, 0.0, 0.0, 0.0, 0.0, 0.0, 0.0, 0.0, 1.6731195474303746E9, 0.0, 2023-01-07 14:25:47.430
186.0, -37519.2582630227, -36425.16272367987, -36684.28649715024, -34908.261586220455, -38157.020587565974, -36322.92584454129, -48454.044574981286, -54955.29531899635, -38765.14449896151, -11338.078837165694, -39815.54237789421, -46706.518138232015, -25359.97633456902, -26372.912689794626, -45366.57576162527, -43006.18684365593, -0.302, 0.902, -0.012, 192.0, 0.0, 0.0, 0.0, 0.0, 0.0, 0.0, 0.0, 0.0, 0.0, 1.673119547430385E9, 0.0, 2023-01-07 14:25:47.430
188.0, -37437.20500912726, -36335.35341445845, -36602.233243254814, -34822.02855611188, -38083.058665163364, -36257.03290188705, -48389.00099861634, -54897.650170046116, -38901.82541630571, -11474.64799578762, -39951.19511499347, -46838.281671796045, -25494.310318745414, -26501.032889012444, -45500.932097546116, -43131.82599923921, -0.302, 0.902, -0.012, 192.0, 0.0, 0.0, 0.0, 0.0, 0.0, 0.0, 0.0, 0.0, 0.0, 1.673119547430396E9, 0.0, 2023-01-07 14:25:47.430
190.0, -37552.919990172384, -36447.603875112996, -36693.11543621009, -34913.38013570072, -38184.73675069055, -36351.692539655276, -48478.430328182025, -54973.86961863871, -38776.409778166984, -11345.320802369215, -39829.02047980076, -46712.21783306811, -25369.989916084996, -26379.528806153394, -45381.19380249904, -43011.148930925, -0.302, 0.912, 0.006, 192.0, 123.0, 72.0, 14.0, 64.0, 0.0, 24.0, 0.0, 0.0, 0.0, 1.6731195474304066E9, 0.0, 2023-01-07 14:25:47.430
192.0, -37485.37301842845, -36383.141444103894, -36637.10196460509, -34850.70584424804, -38128.075078496346, -36309.06776297901, -48425.2778798673, -54936.944536798546, -38960.81166992327, -11517.161013741616, -40004.83930168621, -46870.06585241149, -25544.445281558666, -26557.560450739915, -45548.183685324635, -43177.44590967249, -0.302, 0.912, 0.006, 192.0, 0.0, 0.0, 0.0, 0.0, 0.0, 0.0, 0.0, 0.0, 0.0, 1.6731195474304173E9, 0.0, 2023-01-07 14:25:47.430
194.0, -37515.65963216539, -36422.078182945035, -36647.2496565878, -34866.24030664448, -38150.449174696114, -36323.99872827515, -48433.39156310458, -54939.649097877635, -38777.92969678995, -11350.305241382748, -39825.71242162138, -46700.773739906996, -25378.774151655933, -26376.354858440744, -45381.19380249904, -43016.08866644963, -0.302, 0.912, 0.006, 192.0, 0.0, 0.0, 0.0, 0.0, 0.0, 0.0, 0.0, 0.0, 0.0, 1.6731195474304276E9, 0.0, 2023-01-07 14:25:47.430
196.0, -37491.67621036484, -36401.02283966814, -36625.099077832594, -34843.888562189175, -38128.298595940905, -36305.42442863279, -48414.77255997331, -54930.73075183997, -38936.53767544481, -11497.044443731838, -39979.67123742953, -46834.54893047201, -25528.307322061937, -26520.814182855393, -45511.77269360694, -43147.427516869015, -0.302, 0.912, 0.006, 192.0, 0.0, 0.0, 0.0, 0.0, 0.0, 0.0, 0.0, 0.0, 0.0, 1.6731195474304404E9, 0.0, 2023-01-07 14:25:47.430
198.0, -37491.18447198683, -36403.81680772505, -36599.52868217572, -34825.627186969185, -38081.35993258475, -36272.72382649468, -48385.022388103294, -54895.0573676893, -38770.53126937524, -11341.744523256366, -39808.702744090886, -46687.3179897449, -25367.911203850654, -26361.625058844693, -45346.88387476014, -42987.12080563555, -0.302, 0.912, 0.006, 192.0, 0.0, 0.0, 0.0, 0.0, 0.0, 0.0, 0.0, 0.0, 0.0, 1.673119547430451E9, 0.0, 2023-01-07 14:25:47.430
200.0, -37524.130943313954, -36437.54559010811, -36639.091269861616, -34855.556172794844, -38121.727183071045, -36304.03862047656, -48430.329374114204, -54945.08057178028, -38933.47548645443, -11494.809269286308, -39977.97250485093, -46829.899767625306, -25525.021615627007, -26521.752956122513, -45481.59783859227, -43121.54419678977, -0.299, 0.92, 0.012, 192.0, 123.0, 96.0, 14.5, 0.0, 0.0, 72.0, 0.0, 0.0, 0.0, 1.6731195474304612E9, 0.0, 2023-01-07 14:25:47.430
202.0, -37478.15340496939, -36400.93343269032, -36587.48109191431, -34805.82354138178, -38091.73114201202, -36254.931837908254, -48375.455841476425, -54881.89219020512, -38791.0054672963, -11351.467532094424, -39823.723116364854, -46702.65128644124, -25363.26204100395, -26386.390791701175, -45346.48154335994, -42979.05182588719, -0.299, 0.92, 0.012, 192.0, 0.0, 0.0, 0.0, 0.0, 0.0, 0.0, 0.0, 0.0, 0.0, 1.6731195474304717E9, 0.0, 2023-01-07 14:25:47.430
204.0, -37537.18436207585, -36463.205392742806, -36667.388578342034, -34874.778673026405, -38167.54825920442, -36336.448649936756, -48461.15242971807, -54970.06982208131, -38932.84963760968, -11502.85589729022, -39980.34178976319, -46839.91334914129, -25522.898199903753, -26532.146517294233, -45496.595859121786, -43117.364420576625, -0.299, 0.92, 0.012, 192.0, 0.0, 0.0, 0.0, 0.0, 0.0, 0.0, 0.0, 0.0, 0.0, 1.673119547430482E9, 0.0, 2023-01-07 14:25:47.430
206.0, -37443.038814430096, -36368.6351619524, -36572.6842370849, -34786.98102080596, -38074.09561563678, -36251.288503562035, -48373.488887964355, -54877.578303525246, -38776.4544816559, -11359.178883931505, -39819.99037504082, -46715.99527788106, -25372.135683552708, -26381.495759665464, -45369.280322704355, -42999.1013406636, -0.299, 0.92, 0.012, 192.0, 0.0, 0.0, 0.0, 0.0, 0.0, 0.0, 0.0, 0.0, 0.0, 1.6731195474304929E9, 0.0, 2023-01-07 14:25:47.430
208.0, -37532.155219573404, -36456.969256039774, -36664.28168586274, -34881.03716147389, -38169.89519237223, -36354.48650771219, -48466.09216524269, -54975.76951691741, -38907.18983497499, -11469.328280607258, -39949.004644036846, -46817.02516281905, -25499.048888569938, -26511.20293273961, -45474.512335599946, -43118.0796763992, -0.299, 0.92, 0.012, 192.0, 0.0, 0.0, 0.0, 0.0, 0.0, 0.0, 0.0, 0.0, 0.0, 1.6731195474305031E9, 0.0, 2023-01-07 14:25:47.430
210.0, -37421.581139753005, -36346.57399017501, -36542.06234718113, -34765.67980834005, -38050.96156012554, -36236.402241754804, -48343.47049516088, -54855.137152092124, -38770.687731586426, -11363.5821775892, -39817.95636629538, -46725.96415590813, -25370.571061440834, -26395.59971041676, -45364.78762206884, -43019.217910673375, -0.2995, 0.915, 0.02, 192.0, 123.0, 80.0, 14.0, 56.0, 0.0, 112.0, 0.0, 0.0, 0.0, 1.6731195474305136E9, 0.0, 2023-01-07 14:25:47.430
212.0, -37576.09874917254, -36496.93417512586, -36688.80154953022, -34909.98267054351, -38199.734771220064, -36378.78285393511, -48490.76849112135, -55000.982284663, -38908.0839047532, -11465.886111961141, -39949.4293271815, -46821.94254659922, -25489.348231476335, -26523.898723590224, -45468.16444017464, -43117.789103721276, -0.2995, 0.915, 0.02, 192.0, 0.0, 0.0, 0.0, 0.0, 0.0, 0.0, 0.0, 0.0, 0.0, 1.6731195474305243E9, 0.0, 2023-01-07 14:25:47.430
214.0, -37427.19142761129, -36343.645911651365, -36532.58520753207, -34754.056901223295, -38037.77403089691, -36224.77933463804, -48341.30237594872, -54852.23142531293, -38820.2639007883, -11385.732756344409, -39860.06705284918, -46762.4869063481, -25402.10937286727, -26425.70751019806, -45397.957610840516, -43049.14689649903, -0.2995, 0.915, 0.02, 192.0, 0.0, 0.0, 0.0, 0.0, 0.0, 0.0, 0.0, 0.0, 0.0, 1.6731195474305348E9, 0.0, 2023-01-07 14:25:47.430
216.0, -37574.57883054958, -36491.10036982303, -36678.6091540586, -34899.52205413843, -38208.675469002184, -36370.64681895338, -48494.61299116767, -54999.84234569578, -38884.50281435285, -11439.26518431487, -39929.71508857192, -46800.663685877764, -25474.84194932484, -26487.19715919461, -45452.115887655724, -43089.692960940956, -0.2995, 0.915, 0.02, 192.0, 0.0, 0.0, 0.0, 0.0, 0.0, 0.0, 0.0, 0.0, 0.0, 1.6731195474305456E9, 0.0, 2023-01-07 14:25:47.430
218.0, -37399.16234006433, -36314.208664203725, -36501.38217227247, -34719.76932522885, -38038.668100675124, -36198.60544188088, -48331.959346766394, -54839.22271003994, -38816.195883297434, -11394.338177959702, -39863.37511102857, -46768.231304673114, -25419.58843703132, -26437.598638248284, -45422.45512276353, -43057.32763496967, -0.2995, 0.915, 0.02, 192.0, 0.0, 0.0, 0.0, 0.0, 0.0, 0.0, 0.0, 0.0, 0.0, 1.6731195474305575E9, 0.0, 2023-01-07 14:25:47.430
220.0, -37597.53407210518, -36517.09544862455, -36685.426436117465, -34903.27714720692, -38221.617129041806, -36388.86349068445, -48517.0541426008, -55018.81897673834, -38854.55147678274, -11415.929963103528, -39896.27687886678, -46771.47230761914, -25447.349303644813, -26462.923164716147, -45428.423038533096, -43063.09438503914, -0.29674999999999996, 0.9035, 0.028000000000000004, 192.0, 123.0, 104.0, 13.5, 112.0, 0.5, 16.0, 0.0, 0.0, 0.0, 1.6731195474305687E9, 0.0, 2023-01-07 14:25:47.430
222.0, -37423.79396245408, -36341.43308895029, -36513.18389334487, -34739.505915582886, -38043.80900189984, -36223.03589857053, -48355.92041682249, -54865.351899308196, -38852.49511629285, -11435.666553457566, -39902.021277191794, -46811.50428193859, -25451.126748457762, -26485.207853938085, -45445.03038466339, -43090.25175455234, -0.29674999999999996, 0.9035, 0.028000000000000004, 192.0, 0.0, 0.0, 0.0, 0.0, 0.0, 0.0, 0.0, 0.0, 0.0, 1.6731195474305794E9, 0.0, 2023-01-07 14:25:47.430
224.0, -37605.67010708691, -36526.81845746261, -36688.75684604131, -34914.967109557045, -38211.91647194821, -36401.35811583497, -48522.21739556997, -55021.76940700643, -38853.098613393144, -11415.214707280958, -39899.00379169033, -46787.43145316022, -25438.922695985162, -26476.15539743369, -45412.620355203195, -43063.38495771706, -0.29674999999999996, 0.9035, 0.028000000000000004, 192.0, 0.0, 0.0, 0.0, 0.0, 0.0, 0.0, 0.0, 0.0, 0.0, 1.67311954743059E9, 0.0, 2023-01-07 14:25:47.430
226.0, -37420.46355253024, -36340.18139126079, -36515.93315791287, -34737.337796370724, -38037.66227217463, -36226.23219802764, -48350.04190803074, -54850.733858434425, -38875.2268404039, -11449.614041997676, -39924.3730216471, -46836.404125261804, -25462.95082127462, -26495.646118598717, -45455.42394583511, -43101.33821980217, -0.29674999999999996, 0.9035, 0.028000000000000004, 192.0, 0.0, 0.0, 0.0, 0.0, 0.0, 0.0, 0.0, 0.0, 0.0, 1.673119547430601E9, 0.0, 2023-01-07 14:25:47.430
228.0, -37613.403810668446, -36529.880646452984, -36694.30007866622, -34910.60851938826, -38210.307146347426, -36392.19390060829, -48512.87436638765, -55003.46332829754, -38828.01995611429, -11393.958198303962, -39876.98732340185, -46767.605455828365, -25416.45919280758, -26443.164222617655, -45400.28219226387, -43039.625053361066, -0.29674999999999996, 0.9035, 0.028000000000000004, 192.0, 0.0, 0.0, 0.0, 0.0, 0.0, 0.0, 0.0, 0.0, 0.0, 1.673119547430614E9, 0.0, 2023-01-07 14:25:47.430
230.0, -37442.971759196735, -36359.20272579226, -36537.435536078876, -34751.86643026667, -38059.991664885485, -36248.293369805026, -48367.14099253905, -54869.755192965895, -38917.58339614671, -11479.386565612145, -39961.2310482539, -46863.315625585994, -25505.016804339506, -26526.1115462913, -45497.95931553356, -43142.39837436657, -0.29737499999999994, 0.8947499999999999, 0.037000000000000005, 192.0, 123.0, 88.0, 13.5, 88.0, 0.5, 56.0, 0.0, 0.0, 0.0, 1.6731195474306245E9, 0.0, 2023-01-07 14:25:47.430
232.0, -37597.310554660624, -36513.36270730051, -36664.77342424076, -34888.279126677415, -38195.55499500692, -36385.10839761596, -48497.228145268935, -54992.510973514436, -38801.935470334945, -11373.104020727162, -39850.32169226667, -46745.521932306525, -25397.482561765024, -26433.642379479694, -45387.966381068996, -43034.55120736971, -0.29737499999999994, 0.8947499999999999, 0.037000000000000005, 192.0, 0.0, 0.0, 0.0, 0.0, 0.0, 0.0, 0.0, 0.0, 0.0, 1.6731195474306355E9, 0.0, 2023-01-07 14:25:47.430
234.0, -37455.198163413785, -36372.70317944326, -36529.27714935269, -34750.771194788365, -38070.7875574574, -36267.1135386364, -48377.8698298776, -54885.200248384506, -38917.65045138007, -11502.028882745371, -39964.5838099222, -46867.74127098814, -25510.4706299866, -26553.425378015683, -45505.603612137274, -43156.4352698845, -0.29737499999999994, 0.8947499999999999, 0.037000000000000005, 192.0, 0.0, 0.0, 0.0, 0.0, 0.0, 0.0, 0.0, 0.0, 0.0, 1.673119547430647E9, 0.0, 2023-01-07 14:25:47.430
236.0, -37567.35921709052, -36487.389980243446, -36625.18848481041, -34842.3239400773, -38169.381102249754, -36356.34170250198, -48464.14756347508, -54961.24088302146, -38782.73532184784, -11348.003011703851, -39825.69006987692, -46719.81742618292, -25376.69543942159, -26406.686175666593, -45359.132630721644, -43008.69023903492, -0.29737499999999994, 0.8947499999999999, 0.037000000000000005, 192.0, 0.0, 0.0, 0.0, 0.0, 0.0, 0.0, 0.0, 0.0, 0.0, 1.673119547430658E9, 0.0, 2023-01-07 14:25:47.430
238.0, -37482.02025676015, -36400.15112163438, -36553.372329875514, -34756.02385473536, -38099.57660431583, -36289.688800536256, -48398.76871094331, -54906.948495739525, -38933.363727732154, -11502.297103678835, -39978.19602229548, -46864.74613723113, -25527.05562437244, -26556.30875305042, -45505.84948132628, -43146.62285406862, -0.29737499999999994, 0.8947499999999999, 0.037000000000000005, 192.0, 0.0, 0.0, 0.0, 0.0, 0.0, 0.0, 0.0, 0.0, 0.0, 1.6731195474306688E9, 0.0, 2023-01-07 14:25:47.430
240.0, -37561.30189434313, -36475.65531440441, -36615.06314457216, -34806.829369882274, -38169.29169527193, -36336.47100168121, -48452.92698775852, -54947.36044971472, -38773.52640313225, -11341.409247089536, -39820.660927374476, -46704.08179808639, -25369.20760502906, -26399.533617440895, -45354.818744041775, -42986.74082597981, -0.2996875, 0.895375, 0.0495, 192.0, 123.0, 72.0, 14.0, 0.0, 0.5, 120.0, 0.0, 0.0, 0.0, 1.6731195474306796E9, 0.0, 2023-01-07 14:25:47.430
242.0, -37490.446864419806, -36409.04711592759, -36559.876687512005, -34738.34362487121, -38116.36276440177, -36287.34186736845, -48408.35760931464, -54912.759949297906, -38948.92054187305, -11504.37581591318, -39991.45060675748, -46855.85014293792, -25542.634790257787, -26571.64204974676, -45515.48308318652, -43132.92123471752, -0.2996875, 0.895375, 0.0495, 192.0, 0.0, 0.0, 0.0, 0.0, 0.0, 0.0, 0.0, 0.0, 0.0, 1.6731195479093375E9, 0.0, 2023-01-07 14:25:47.909
244.0, -37528.13190557145, -36453.325921693555, -36576.61814410903, -34763.98107576145, -38127.02454650695, -36300.55174834153, -48417.76769373032, -54915.86684177719, -38752.71692904436, -11327.461758549423, -39793.54826135019, -46672.94581806014, -25353.360218210248, -26373.13620723918, -45336.356203121686, -42952.11797381854, -0.2996875, 0.895375, 0.0495, 192.0, 0.0, 0.0, 0.0, 0.0, 0.0, 0.0, 0.0, 0.0, 0.0, 1.6731195479093833E9, 0.0, 2023-01-07 14:25:47.909
246.0, -37529.69652768332, -36462.93717180934, -36585.3353244466, -34779.51553815789, -38123.604729605286, -36314.16396071482, -48427.3789438461, -54940.34200195575, -38943.42201273704, -11525.744083612453, -39989.126025334124, -46860.11932612888, -25536.309246576937, -26562.92486940919, -45502.250850468976, -43129.05438292675, -0.2996875, 0.895375, 0.0495, 192.0, 0.0, 0.0, 0.0, 0.0, 0.0, 0.0, 0.0, 0.0, 0.0, 1.6731195479094238E9, 0.0, 2023-01-07 14:25:47.909
248.0, -37512.82096061957, -36448.9002762914, -36560.83781252358, -34764.49516588392, -38079.30357209487, -36272.50030905012, -48390.94560038395, -54902.27698114837, -38755.71206280137, -11358.329517642203, -39817.53168315073, -46710.854376656345, -25351.6838373761, -26394.2809574939, -45328.30957511778, -42970.28994206071, -0.2996875, 0.895375, 0.0495, 192.0, 0.0, 0.0, 0.0, 0.0, 0.0, 0.0, 0.0, 0.0, 0.0, 1.6731195479094298E9, 0.0, 2023-01-07 14:25:47.909
250.0, -37555.0657576401, -36493.46965473529, -36623.91443537646, -34819.636919455166, -38139.87679956875, -36346.931618086295, -48451.13884820209, -54972.1261825712, -38938.41522197905, -11530.057970292328, -40001.62065048464, -46870.26701811159, -25531.704787219143, -26584.136674897276, -45488.973914262526, -43136.519865574825, -0.29884374999999996, 0.9016875, 0.059750000000000004, 192.0, 123.0, 88.0, 14.0, 48.0, 1.0, 24.0, 0.0, 0.0, 0.0, 1.6731195479094357E9, 0.0, 2023-01-07 14:25:47.909
252.0, -37483.6966375943, -36426.03444171363, -36553.5287920867, -34739.19299116051, -38081.7399122405, -36279.85403297592, -48370.80667862972, -54889.536486808836, -38775.18043222195, -11363.20219793346, -39832.08266879114, -46717.001106381555, -25374.16969229814, -26409.681309423606, -45341.11712469067, -42990.898250448496, -0.29884374999999996, 0.9016875, 0.059750000000000004, 192.0, 0.0, 0.0, 0.0, 0.0, 0.0, 0.0, 0.0, 0.0, 0.0, 1.6731195479094417E9, 0.0, 2023-01-07 14:25:47.909
254.0, -37568.70032175783, -36511.88749216646, -36647.316711821164, -34818.02759385438, -38177.13715757575, -36372.01027536515, -48463.56641811925, -54983.480868754494, -38934.190742276995, -11504.644036846643, -39985.30387703227, -46836.828808406455, -25530.542496507467, -26549.44676750264, -45489.82328055183, -43126.70744975894, -0.29884374999999996, 0.9016875, 0.059750000000000004, 192.0, 0.0, 0.0, 0.0, 0.0, 0.0, 0.0, 0.0, 0.0, 0.0, 1.6731195479094477E9, 0.0, 2023-01-07 14:25:47.909
0.0, -37461.568410583546, -36404.82263622554, -36535.84856222255, -34702.91610990955, -38071.86044119125, -36260.49742227762, -48359.18377151296, -54875.209018612986, -38797.733342377345, -11370.399459648068, -39839.48109620585, -46716.91169940373, -25394.062744863364, -26411.84942863577, -45379.763290853894, -43012.646497803515, -0.29884374999999996, 0.9016875, 0.059750000000000004, 192.0, 0.0, 0.0, 0.0, 0.0, 0.0, 0.0, 0.0, 0.0, 0.0, 1.6731195479094536E9, 0.0, 2023-01-07 14:25:47.909
2.0, -37583.29601088715, -36532.07111740961, -36657.84438345962, -34819.189884566054, -38203.512216033014, -36384.2366795822, -48486.745177119396, -55001.58578176329, -38916.89049206859, -11484.572170325777, -39967.86951635713, -46816.55577618549, -25518.04787135695, -26545.60226745633, -45493.39955966468, -43122.23710086788, -0.29884374999999996, 0.9016875, 0.059750000000000004, 192.0, 0.0, 0.0, 0.0, 0.0, 0.0, 0.0, 0.0, 0.0, 0.0, 1.6731195479094594E9, 0.0, 2023-01-07 14:25:47.909
4.0, -37460.98726522771, -36413.2939473741, -36530.52884704219, -34691.829644659716, -38078.3871505722, -36261.10091937792, -48364.59289367114, -54878.11474539218, -38814.452447229916, -11388.660834868055, -39857.921285381475, -46739.978699681604, -25412.145306127706, -26440.861992938757, -45407.457102234024, -43037.658099849, -0.29942187499999995, 0.90484375, 0.064875, 192.0, 123.0, 80.0, 14.0, 48.0, 1.0, 24.0, 0.0, 0.0, 0.0, 1.6731195479094753E9, 0.0, 2023-01-07 14:25:47.909
6.0, -37597.71288606082, -36548.43259435089, -36661.08538640563, -34821.6709282006, -38211.067105658905, -36396.2395663547, -48499.686837159024, -55005.98907542099, -38896.863329036634, -11471.474048074968, -39950.90454231555, -46802.60828764538, -25503.7204031611, -26524.926903835167, -45467.96327447454, -43095.63852496607, -0.29942187499999995, 0.90484375, 0.064875, 192.0, 0.0, 0.0, 0.0, 0.0, 0.0, 0.0, 0.0, 0.0, 0.0, 1.6731195479094813E9, 0.0, 2023-01-07 14:25:47.909
8.0, -37441.20597138476, -36390.80809245206, -36512.78156194467, -34672.62949617261, -38064.10438586526, -36244.47122150317, -48352.47824817637, -54847.872835144146, -38836.35715679612, -11409.73852988941, -39877.56846875769, -46751.89217947629, -25431.79248950392, -26454.56361228986, -45412.977983114484, -43040.34030918364, -0.29942187499999995, 0.90484375, 0.064875, 192.0, 0.0, 0.0, 0.0, 0.0, 0.0, 0.0, 0.0, 0.0, 0.0, 1.6731195479094872E9, 0.0, 2023-01-07 14:25:47.909
10.0, -37610.40867691144, -36559.96609448983, -36682.74422678283, -34839.820544698305, -38225.08164943238, -36402.16277863536, -48508.918107619065, -54986.721871700516, -38899.41142790454, -11463.047440415316, -39942.18736197798, -46786.291514193006, -25492.477475700078, -26516.701461875615, -45447.936111442585, -43070.38105373157, -0.29942187499999995, 0.90484375, 0.064875, 192.0, 0.0, 0.0, 0.0, 0.0, 0.0, 0.0, 0.0, 0.0, 0.0, 1.6731195479094932E9, 0.0, 2023-01-07 14:25:47.909
12.0, -37430.34302357948, -36378.335819046, -36510.456980521325, -34667.55565018125, -38045.932417623095, -36223.28176775954, -48334.909777034496, -54804.68926485649, -38839.4193457865, -11433.587841223221, -39897.86385272311, -46773.93099950922, -25447.729283300556, -26474.14374043271, -45417.9177186391, -43039.490942894336, -0.29942187499999995, 0.90484375, 0.064875, 192.0, 0.0, 0.0, 0.0, 0.0, 0.0, 0.0, 0.0, 0.0, 0.0, 1.673119547909499E9, 0.0, 2023-01-07 14:25:47.909
14.0, -37613.94025253537, -36561.57542009061, -36688.55568034121, -34843.665044744615, -38208.519006791, -36395.1890343653, -48495.618819668154, -54950.355583471726, -38867.157860655534, -11442.237966327426, -39928.61985309361, -46778.55781061147, -25453.876013025765, -26473.361429376775, -45408.86526213471, -43034.75237306981, -0.29942187499999995, 0.90484375, 0.064875, 192.0, 0.0, 0.0, 0.0, 0.0, 0.0, 0.0, 0.0, 0.0, 0.0, 1.673119547909505E9, 0.0, 2023-01-07 14:25:47.909
16.0, -37449.811393000055, -36393.57970876452, -36536.69792851185, -34687.89573763558, -38032.85664711674, -36240.44790750121, -48340.05067825922, -54795.34623567417, -38878.53489858328, -11458.442981057524, -39940.08629799918, -46808.77736911504, -25457.072312482873, -26481.586871336327, -45425.785532687376, -43061.32859722717, -0.28400000000000003, 0.912, 0.076, 192.0, 123.5, 16.0, 14.0, 64.0, 1.0, 48.0, 0.0, 0.0, 0.0, 1.6731195479095109E9, 0.0, 2023-01-07 14:25:47.909
18.0, -37611.503912389744, -36562.96122824684, -36698.233985690356, -34847.28602734638, -38195.77851245148, -36388.86349068445, -48493.540107433815, -54938.55386239933, -38860.027654174286, -11429.475120243445, -39919.790914033765, -46764.92324649373, -25438.56506807388, -26466.23122289553, -45394.76131138341, -43030.32672766766, -0.28400000000000003, 0.912, 0.076, 192.0, 0.0, 0.0, 0.0, 0.0, 0.0, 0.0, 0.0, 0.0, 0.0, 1.6731195479095166E9, 0.0, 2023-01-07 14:25:47.909
20.0, -37443.61995978594, -36391.12101687444, -36536.51911455621, -34687.9404411245, -38042.020862343416, -36229.272035273556, -48340.162436981496, -54792.17228796152, -38890.31426791123, -11477.911350478096, -39953.564399905736, -46824.35653500039, -25475.490149914047, -26513.013424040488, -45449.59014053227, -43096.06320811072, -0.28400000000000003, 0.912, 0.076, 192.0, 0.0, 0.0, 0.0, 0.0, 0.0, 0.0, 0.0, 0.0, 0.0, 1.6731195479095223E9, 0.0, 2023-01-07 14:25:47.909
22.0, -37620.51166540523, -36571.276077184215, -36706.481779394366, -34856.69611176206, -38220.1195621633, -36416.33378462002, -48501.89965986009, -54944.18650200206, -38836.64772947404, -11412.73366364642, -39891.98534393136, -46753.32269112142, -25409.865428193265, -26444.013588906957, -45380.07621527627, -43031.77959105725, -0.28400000000000003, 0.912, 0.076, 192.0, 0.0, 0.0, 0.0, 0.0, 0.0, 0.0, 0.0, 0.0, 0.0, 1.6731195479095283E9, 0.0, 2023-01-07 14:25:47.909
24.0, -37453.05239594608, -36406.96840369325, -36555.92042874342, -34701.95498489797, -38072.39688305818, -36267.7617392256, -48359.98843431335, -54810.70188411497, -38919.863274081144, -11513.920010795595, -39979.403016496064, -46864.74613723113, -25503.586292694366, -26547.099834334833, -45489.309190429354, -43137.52569407531, -0.28400000000000003, 0.912, 0.076, 192.0, 0.0, 0.0, 0.0, 0.0, 0.0, 0.0, 0.0, 0.0, 0.0, 1.673119547909534E9, 0.0, 2023-01-07 14:25:47.909
26.0, -37580.92672597489, -36533.658091265934, -36673.3564941116, -34812.149085062636, -38194.45975952861, -36374.49131899969, -48470.22723796693, -54906.27794340586, -38805.26588025879, -11392.035948280805, -39866.21378257439, -46741.29745260447, -25388.228939560526, -26431.496612011983, -45373.30363670631, -43010.88070999154, -0.28400000000000003, 0.91, 0.08, 192.0, 123.5, 16.0, 14.0, 56.0, 1.0, 64.0, 0.0, 0.0, 0.0, 1.67311954790954E9, 0.0, 2023-01-07 14:25:47.909
28.0, -37468.60921008697, -36419.68654628832, -36578.20511796536, -34702.84905467618, -38097.83316824832, -36286.55955631251, -48384.01655960281, -54831.08667505821, -38926.591149162196, -11507.974446770484, -39991.517661990845, -46859.3593668174, -25510.582388708877, -26555.660552461213, -45504.083693514316, -43128.763810248834, -0.28400000000000003, 0.91, 0.08, 192.0, 0.0, 0.0, 0.0, 0.0, 0.0, 0.0, 0.0, 0.0, 0.0, 1.6731195479095478E9, 0.0, 2023-01-07 14:25:47.909
30.0, -37558.57498151958, -36511.03812587716, -36654.06693864667, -34776.98979103444, -38177.69595118713, -36353.570086189524, -48452.65876682506, -54891.30227462081, -38791.810130096696, -11372.500523626868, -39856.33431152515, -46716.710533703634, -25378.327116766824, -26428.345016043786, -45368.27449420387, -42987.545488780204, -0.28400000000000003, 0.91, 0.08, 192.0, 0.0, 0.0, 0.0, 0.0, 0.0, 0.0, 0.0, 0.0, 0.0, 1.6731195479095535E9, 0.0, 2023-01-07 14:25:47.909
32.0, -37484.03191376113, -36431.82354352755, -36583.94951629037, -34716.26010134937, -38111.60184283279, -36296.64019306185, -48394.63363821908, -54848.699849688994, -38943.8913993706, -11522.681894622076, -40006.35922030917, -46867.60716052141, -25524.731042949086, -26567.97636365609, -45513.42672269663, -43134.843484740675, -0.28400000000000003, 0.91, 0.08, 192.0, 0.0, 0.0, 0.0, 0.0, 0.0, 0.0, 0.0, 0.0, 0.0, 1.6731195479095595E9, 0.0, 2023-01-07 14:25:47.909
34.0, -37546.639149980445, -36498.901128637925, -36623.981490609825, -34772.988828776935, -38154.33837823133, -36337.16390575933, -48430.619946792125, -54878.11474539218, -38782.645914870016, -11360.497636854368, -39835.86011360408, -46718.610431982335, -25355.126006022216, -26406.328547755307, -45346.99563348242, -42974.64853222949, -0.28400000000000003, 0.91, 0.08, 192.0, 0.0, 0.0, 0.0, 0.0, 0.0, 0.0, 0.0, 0.0, 0.0, 1.6731195479095652E9, 0.0, 2023-01-07 14:25:47.909
36.0, -37502.98619305923, -36454.667026360876, -36594.74540886228, -34743.61863656266, -38108.986688731515, -36305.35737339943, -48404.602516246145, -54864.010794640875, -38933.11785854314, -11533.678952894086, -40003.58760399671, -46890.94238173275, -25520.95359813614, -26576.537081782473, -45497.646391111186, -43128.897920715564, -0.28200000000000003, 0.906, 0.078, 192.0, 123.5, 24.0, 14.0, 40.0, 1.0, 56.0, 0.0, 0.0, 0.0, 1.6731195479095728E9, 0.0, 2023-01-07 14:25:47.909
38.0, -37545.63332147996, -36496.688305936856, -36629.32355753465, -34770.28426769785, -38136.188761733625, -36320.578911373486, -48419.24290886437, -54871.6550912446, -38774.666342099474, -11362.039907221784, -39841.29158750673, -46733.25082460056, -25353.7849013549, -26417.057385093856, -45335.88681648813, -42964.41143326896, -0.28200000000000003, 0.906, 0.078, 192.0, 0.0, 0.0, 0.0, 0.0, 0.0, 0.0, 0.0, 0.0, 0.0, 1.6731195479095788E9, 0.0, 2023-01-07 14:25:47.909
40.0, -37572.54482180415, -36526.103201640035, -36677.84919474712, -34798.581576178265, -38169.49286097203, -36358.35335950296, -48452.68111856951, -54916.045655732836, -38995.233356384444, -11565.060802109338, -40057.455308134, -46919.440855913264, -25560.069150932926, -26599.581730315895, -45529.60938568228, -43146.48874360189, -0.28200000000000003, 0.906, 0.078, 192.0, 0.0, 0.0, 0.0, 0.0, 0.0, 0.0, 0.0, 0.0, 0.0, 1.6731195479095843E9, 0.0, 2023-01-07 14:25:47.909
42.0, -37533.33986202954, -36488.39580874393, -36638.71129020587, -34750.88295351064, -38126.64456685121, -36305.22326293269, -48404.64721973506, -54862.826152184745, -38813.67013617398, -11396.34983496068, -39883.581088016166, -46761.70459529217, -25390.17354132814, -26428.948513144078, -45376.81286058579, -42992.015837671264, -0.28200000000000003, 0.906, 0.078, 192.0, 0.0, 0.0, 0.0, 0.0, 0.0, 0.0, 0.0, 0.0, 0.0, 1.6731195479095905E9, 0.0, 2023-01-07 14:25:47.909
44.0, -37584.99474346575, -36540.162448902425, -36693.49541586583, -34807.1646460491, -38186.256669313516, -36374.893650399885, -48471.97067403444, -54938.15153099913, -38977.44136779802, -11551.359182758235, -40047.12880219565, -46901.2688876711, -25550.860232217343, -26590.328108111396, -45536.80664739689, -43141.43724935499, -0.28200000000000003, 0.906, 0.078, 192.0, 0.0, 0.0, 0.0, 0.0, 0.0, 0.0, 0.0, 0.0, 0.0, 1.6731195479095964E9, 0.0, 2023-01-07 14:25:47.909
46.0, -37518.69946941131, -36484.4619017198, -36613.02913582673, -34742.32223538426, -38127.85156105179, -36316.868521793906, -48405.00484764634, -54871.67744298905, -38813.08899081814, -11414.700617158487, -39883.13405312706, -46771.98639774161, -25398.46603852106, -26450.205022121077, -45404.68548592156, -43016.24512866082, -0.28400000000000003, 0.918, 0.084, 192.0, 123.5, 16.0, 14.0, 88.0, 1.0, 80.0, 0.0, 0.0, 0.0, 1.673119547909602E9, 0.0, 2023-01-07 14:25:47.909
48.0, -37602.2726419297, -36567.833908538094, -36695.708238566905, -34822.54264623435, -38205.255652100524, -36405.31437460356, -48489.09211028721, -54962.0231940774, -38965.885515914626, -11557.729429927997, -40035.617653801164, -46900.55363184853, -25545.473461803613, -26601.951015228155, -45535.71141191857, -43148.99213898089, -0.28400000000000003, 0.918, 0.084, 192.0, 0.0, 0.0, 0.0, 0.0, 0.0, 0.0, 0.0, 0.0, 0.0, 1.673119547909608E9, 0.0, 2023-01-07 14:25:47.909
50.0, -37506.33895472753, -36474.716541137284, -36590.00683903776, -34719.232883361925, -38103.30934563987, -36308.08428622297, -48385.53647822577, -54859.31692830526, -38822.72259267838, -11422.479024228935, -39893.97464918788, -46782.96110426916, -25406.31150082487, -26485.34196440482, -45405.6689626776, -43034.21593120288, -0.28400000000000003, 0.918, 0.084, 192.0, 0.0, 0.0, 0.0, 0.0, 0.0, 0.0, 0.0, 0.0, 0.0, 1.6731195479096136E9, 0.0, 2023-01-07 14:25:47.909
52.0, -37624.870255574024, -36594.61129839555, -36717.32237545519, -34834.83610568477, -38221.88534997527, -36421.40763061138, -48514.59545071071, -54988.42060427912, -38966.69017871501, -11547.805255389841, -40030.655566532085, -46885.30974213001, -25534.29758957596, -26607.382489130796, -45519.26052799947, -43141.99604296638, -0.28400000000000003, 0.918, 0.084, 192.0, 0.0, 0.0, 0.0, 0.0, 0.0, 0.0, 0.0, 0.0, 0.0, 1.6731195479096196E9, 0.0, 2023-01-07 14:25:47.909
54.0, -37449.118488921944, -36412.01989794015, -36547.18089666139, -34656.96092330944, -38070.49698477948, -36267.80644271451, -48352.411192943, -54825.498738944385, -38822.3649647671, -11424.557736463277, -39895.15929164401, -46775.62973208782, -25413.17348637265, -26469.069894441356, -45411.3686575137, -43038.149838227015, -0.28400000000000003, 0.918, 0.084, 192.0, 0.0, 0.0, 0.0, 0.0, 0.0, 0.0, 0.0, 0.0, 0.0, 1.6731195479096265E9, 0.0, 2023-01-07 14:25:47.909
56.0, -37599.59043259507, -36560.94957124586, -36694.32243041068, -34801.80022737983, -38209.591890524855, -36401.00048792368, -48491.573153921745, -54960.86090336573, -38903.099465739666, -11476.950225466517, -39969.79176638029, -46814.43236046223, -25483.7155918736, -26522.33410147835, -45469.79611751987, -43086.7201789284, -0.28, 0.918, 0.084, 192.0, 123.5, 32.0, 14.0, 88.0, 1.0, 80.0, 0.0, 0.0, 0.0, 1.6731195479096322E9, 0.0, 2023-01-07 14:25:47.909
58.0, -37447.732680765715, -36409.427095583334, -36535.11095465552, -34655.686873875486, -38045.1277548227, -36245.09707034792, -48340.27419570377, -54813.9875905499, -38826.43298225796, -11420.087387572215, -39893.572317787686, -46772.232266930616, -25410.625387504744, -26466.342981617807, -45414.296736037344, -43032.919530024476, -0.28, 0.918, 0.084, 192.0, 0.0, 0.0, 0.0, 0.0, 0.0, 0.0, 0.0, 0.0, 0.0, 1.673119547909638E9, 0.0, 2023-01-07 14:25:47.909
60.0, -37635.68849989039, -36601.69680138789, -36714.95309054293, -34841.80984995483, -38229.931977979184, -36417.339613120515, -48507.12996806264, -54980.39632801966, -38898.495006381876, -11471.675213775065, -39964.740272133386, -46815.72876164064, -25473.23262372406, -26521.998825311523, -45450.05952716584, -43069.53168744227, -0.28, 0.918, 0.084, 192.0, 0.0, 0.0, 0.0, 0.0, 0.0, 0.0, 0.0, 0.0, 0.0, 1.673119547909644E9, 0.0, 2023-01-07 14:25:47.909
62.0, -37488.479910907736, -36454.5552676386, -36579.05448425466, -34708.99578440139, -38093.36281935726, -36280.6139922874, -48372.70657690842, -54855.09244860321, -38886.02273297581, -11485.153315681615, -39956.067795284725, -46838.97457587416, -25464.89542304223, -26518.355490965307, -45452.58527428929, -43072.72798689938, -0.28, 0.918, 0.084, 192.0, 0.0, 0.0, 0.0, 0.0, 0.0, 0.0, 0.0, 0.0, 0.0, 1.6731195479096496E9, 0.0, 2023-01-07 14:25:47.909
64.0, -37651.424127986924, -36621.65690918647, -36742.55749494523, -34870.39773111317, -38251.05437648945, -36440.965407009775, -48529.43700902903, -55011.0852731568, -38923.573663660725, -11499.257266432915, -39988.16490032255, -46842.774372431566, -25492.164551277707, -26548.463290746608, -45467.918570985625, -43083.92621087148, -0.28, 0.918, 0.084, 192.0, 0.0, 0.0, 0.0, 0.0, 0.0, 0.0, 0.0, 0.0, 0.0, 1.6731195479096553E9, 0.0, 2023-01-07 14:25:47.909
66.0, -37456.47221284774, -36433.25405517269, -36558.71439680033, -34694.73537143891, -38068.21710684503, -36283.63147778886, -48357.77561161228, -54852.119666590654, -38894.96343075793, -11508.265019448403, -39966.260190756344, -46854.151410359314, -25483.156798262215, -26553.291267548953, -45474.489983855485, -43097.31490580022, -0.28200000000000003, 0.914, 0.084, 192.0, 123.5, 24.0, 14.0, 72.0, 1.0, 80.0, 0.0, 0.0, 0.0, 1.6731195479096613E9, 0.0, 2023-01-07 14:25:47.909
68.0, -37614.23082521329, -36592.33142046111, -36707.75582882832, -34835.79723069635, -38219.04667842945, -36429.05192721509, -48498.85982261418, -54988.15238334565, -38854.104441893636, -11456.051344400805, -39916.907538999025, -46790.51599389505, -25438.877992496255, -26521.596493911326, -45420.734038440474, -43042.217855717885, -0.28200000000000003, 0.914, 0.084, 192.0, 0.0, 0.0, 0.0, 0.0, 0.0, 0.0, 0.0, 0.0, 0.0, 1.6731195479096696E9, 0.0, 2023-01-07 14:25:47.909
70.0, -37444.40227084187, -36425.40859286888, -36542.24116113677, -34666.25924900285, -38061.37747304171, -36279.63051553137, -48351.91945456499, -54850.309175289774, -38903.27827969531, -11510.522545638389, -39959.1299842751, -46846.685927711245, -25487.984775064564, -26575.061866648422, -45480.033216480406, -43101.15940584653, -0.28200000000000003, 0.914, 0.084, 192.0, 0.0, 0.0, 0.0, 0.0, 0.0, 0.0, 0.0, 0.0, 0.0, 1.6731195479096751E9, 0.0, 2023-01-07 14:25:47.909
72.0, -37624.62438638501, -36597.91935657494, -36693.49541586583, -34815.434791497566, -38225.19340815466, -36428.49313360371, -48505.81121513977, -54991.86277292523, -38823.97429036788, -11434.548966234799, -39889.236079363356, -46757.323653378924, -25418.73907074202, -26490.818141796368, -45399.25401201892, -43018.793227528724, -0.28200000000000003, 0.914, 0.084, 192.0, 0.0, 0.0, 0.0, 0.0, 0.0, 0.0, 0.0, 0.0, 0.0, 1.673119547909681E9, 0.0, 2023-01-07 14:25:47.909
74.0, -37466.75401529718, -36430.25892141568, -36550.04191995167, -34656.938571564984, -38078.3871505722, -36289.33117262497, -48368.92913209547, -54860.85919867268, -38926.27822473982, -11520.670237621098, -39991.1376823351, -46852.765602203086, -25514.449240499645, -26569.87626193479, -45497.713446344555, -43114.88337694209, -0.28200000000000003, 0.914, 0.084, 192.0, 0.0, 0.0, 0.0, 0.0, 0.0, 0.0, 0.0, 0.0, 0.0, 1.6731195479096868E9, 0.0, 2023-01-07 14:25:47.909
76.0, -37593.30959240313, -36555.78631827668, -36670.62958128805, -34770.37367467567, -38198.43837004166, -36394.69729598729, -48479.413804938056, -54954.691821896056, -38813.58072919616, -11387.185619734004, -39877.18848910195, -46720.487978516576, -25397.728430954034, -26445.51115578546, -45376.72345360797, -42989.020703914255, -0.28400000000000003, 0.915, 0.085, 192.0, 123.5, 8.0, 14.0, 80.0, 1.0, 88.0, 0.0, 0.0, 0.0, 1.6731195479096925E9, 0.0, 2023-01-07 14:25:47.909
78.0, -37486.110625995476, -36446.24041870122, -36581.31201044464, -34675.57992644071, -38113.07705796684, -36303.658640820824, -48398.76871094331, -54879.254684359395, -38944.2937307708, -11524.33592371177, -40007.56621450975, -46848.18349458975, -25532.598856997356, -26573.184320114175, -45515.43837969761, -43115.9786124204, -0.28400000000000003, 0.915, 0.085, 192.0, 0.0, 0.0, 0.0, 0.0, 0.0, 0.0, 0.0, 0.0, 0.0, 1.6731195479096985E9, 0.0, 2023-01-07 14:25:47.909
80.0, -37557.92678093038, -36522.28105333818, -36639.38184253953, -34736.82370624825, -38168.15175630472, -36345.36699597442, -48444.030993465305, -54908.87074576268, -38790.893708574025, -11367.024346235317, -39848.824125388164, -46697.420978238704, -25378.12595106673, -26417.169143816132, -45359.914941777584, -42957.39298550999, -0.28400000000000003, 0.915, 0.085, 192.0, 0.0, 0.0, 0.0, 0.0, 0.0, 0.0, 0.0, 0.0, 0.0, 1.673119547909704E9, 0.0, 2023-01-07 14:25:47.909
82.0, -37519.07944906705, -36488.37345699948, -36617.76770565125, -34719.925787440035, -38132.903055298695, -36323.5740451305, -48421.09810365416, -54896.15260316761, -38946.37244300514, -11533.321324982802, -40015.16580762456, -46866.22135236518, -25537.315075077426, -26568.915136923213, -45517.51709193195, -43112.24587109636, -0.28400000000000003, 0.915, 0.085, 192.0, 0.0, 0.0, 0.0, 0.0, 0.0, 0.0, 0.0, 0.0, 0.0, 1.6731195479097111E9, 0.0, 2023-01-07 14:25:47.909
84.0, -37566.17457463439, -36542.06234718113, -36657.196182870415, -34771.379503176155, -38162.85439286881, -36343.28828374008, -48440.2311969079, -54908.893097507134, -38792.10070277461, -11390.404270935569, -39872.584029744154, -46735.530702535, -25386.75372442648, -26428.076795110323, -45375.73997685194, -42977.196631097395, -0.28400000000000003, 0.915, 0.085, 192.0, 0.0, 0.0, 0.0, 0.0, 0.0, 0.0, 0.0, 0.0, 0.0, 1.673119547909719E9, 0.0, 2023-01-07 14:25:47.909
86.0, -37543.15227784542, -36517.18485560237, -36648.74722346631, -34764.22694495046, -38143.00604379249, -36344.33881572948, -48430.50818806985, -54910.05538821881, -38969.88647817212, -11560.121066584716, -40046.25708416189, -46897.156166691326, -25548.803871727454, -26602.107477439342, -45530.95049034959, -43136.095182430174, -0.28300000000000003, 0.9135, 0.0835, 192.0, 123.5, 24.0, 14.0, 64.0, 1.0, 72.0, 0.0, 0.0, 0.0, 1.6731195479097264E9, 0.0, 2023-01-07 14:25:47.909
88.0, -37566.48749905676, -36545.3257018716, -36658.73845323783, -34781.61660213669, -38169.51521271649, -36361.86258338244, -48442.95810973145, -54914.0116469874, -38811.56907219518, -11407.995093821895, -39883.37992231607, -46757.480115590115, -25395.001518130484, -26457.268173368953, -45384.47950893397, -42995.18978538392, -0.28300000000000003, 0.9135, 0.0835, 192.0, 0.0, 0.0, 0.0, 0.0, 0.0, 0.0, 0.0, 0.0, 0.0, 1.6731195479097335E9, 0.0, 2023-01-07 14:25:47.909
90.0, -37557.703263485826, -36537.770812245704, -36661.06303466118, -34783.44944518202, -38167.436500482145, -36376.502976000666, -48456.70443257147, -54935.98341178697, -38981.33057133324, -11584.350357574267, -40057.991750000925, -46918.23386171268, -25564.5842033129, -26646.296876227487, -45544.62975795624, -43159.452755385966, -0.28300000000000003, 0.9135, 0.0835, 192.0, 0.0, 0.0, 0.0, 0.0, 0.0, 0.0, 0.0, 0.0, 0.0, 1.6731195479097412E9, 0.0, 2023-01-07 14:25:47.909
92.0, -37517.31366125508, -36496.01775360319, -36610.212816025356, -34730.58756954522, -38119.87198828125, -36328.80435333304, -48404.84838543515, -54879.321739592764, -38783.472929414864, -11403.480041441922, -39858.90476213751, -46748.85234223036, -25376.24840453248, -26458.47516756954, -45370.330854693755, -42990.60767777058, -0.28300000000000003, 0.9135, 0.0835, 192.0, 0.0, 0.0, 0.0, 0.0, 0.0, 0.0, 0.0, 0.0, 0.0, 1.673119547909749E9, 0.0, 2023-01-07 14:25:47.909
94.0, -37587.76635977821, -36563.363559647034, -36683.34772388312, -34795.76525637689, -38194.23624208406, -36406.36490659296, -48486.27579048584, -54964.59364468976, -38957.7941844218, -11554.533130470889, -40029.38151709813, -46888.66250379831, -25546.81456647093, -26611.808134532945, -45524.58024317983, -43137.6821562865, -0.28300000000000003, 0.9135, 0.0835, 192.0, 0.0, 0.0, 0.0, 0.0, 0.0, 0.0, 0.0, 0.0, 0.0, 1.673119547909757E9, 0.0, 2023-01-07 14:25:47.909
96.0, -37515.92785309885, -36492.37441925698, -36599.57338566463, -34710.94038616901, -38111.80300853289, -36320.154228228836, -48402.61321098962, -54877.019509913865, -38808.01514482679, -11415.639390425611, -39881.03298914826, -46759.715290035645, -25403.65164323469, -26463.39255134971, -45394.35897998321, -43007.952631467895, -0.2795, 0.91075, 0.08275, 192.0, 123.5, 48.0, 14.0, 48.0, 1.0, 72.0, 0.0, 0.0, 0.0, 1.6731195479097648E9, 0.0, 2023-01-07 14:25:47.909
98.0, -37592.46022611383, -36566.22458293731, -36678.385636614046, -34784.03059053786, -38188.693009459144, -36396.93247043282, -48481.581924150225, -54960.011537076425, -38959.939951889515, -11548.319345512313, -40025.40290658509, -46870.55759078951, -25536.62217099931, -26607.158971686244, -45507.7940830939, -43118.01262116583, -0.2795, 0.91075, 0.08275, 192.0, 0.0, 0.0, 0.0, 0.0, 0.0, 0.0, 0.0, 0.0, 0.0, 1.6731195479097726E9, 0.0, 2023-01-07 14:25:47.909
100.0, -37465.85994551897, -36441.792421554615, -36543.13523091498, -34651.060062773235, -38066.31720856634, -36271.13685263835, -48355.316919722194, -54832.070151814245, -38797.48747318834, -11402.295398985792, -39864.60445697361, -46736.46947580212, -25383.26685229145, -26449.869745954245, -45371.31433144979, -42985.62323875705, -0.2795, 0.91075, 0.08275, 192.0, 0.0, 0.0, 0.0, 0.0, 0.0, 0.0, 0.0, 0.0, 0.0, 1.6731195479097824E9, 0.0, 2023-01-07 14:25:47.909
102.0, -37609.000517010754, -36582.51900464523, -36683.21361341639, -34784.47762542697, -38207.08849514586, -36409.62826128343, -48491.23787775492, -54967.7228889135, -38919.84092233669, -11511.148394483138, -39988.16490032255, -46826.23408153464, -25502.915740360706, -26559.30388680743, -45466.68922504059, -43080.19346954745, -0.2795, 0.91075, 0.08275, 192.0, 0.0, 0.0, 0.0, 0.0, 0.0, 0.0, 0.0, 0.0, 0.0, 1.6731195479097908E9, 0.0, 2023-01-07 14:25:47.909
104.0, -37451.82305000103, -36424.246302157204, -36528.87481795249, -34626.808420039226, -38051.54270548138, -36257.725805965165, -48342.174093982474, -54818.34618071868, -38833.22791257237, -11425.608268452677, -39885.816262461696, -46755.513162078045, -25406.60207350279, -26462.073798426845, -45389.978038069974, -43000.42009358646, -0.2795, 0.91075, 0.08275, 192.0, 0.0, 0.0, 0.0, 0.0, 0.0, 0.0, 0.0, 0.0, 0.0, 1.6731195479097996E9, 0.0, 2023-01-07 14:25:47.909
106.0, -37615.61663336952, -36590.54328090468, -36697.317564167686, -34789.842044096236, -38219.00197494054, -36413.092781674, -48502.771377893856, -54974.56252271683, -38884.23459341939, -11473.46335333149, -39953.45264118345, -46791.90180205129, -25474.6631353692, -26524.032834056954, -45436.31320432582, -43039.44623940543, -0.28175000000000006, 0.9123749999999999, 0.080375, 192.0, 123.5, 16.0, 14.0, 72.0, 1.0, 56.0, 0.0, 0.0, 0.0, 1.6731195483911335E9, 0.0, 2023-01-07 14:25:48.391
108.0, -37441.83182022951, -36415.35030786399, -36534.23923662177, -34622.695699059455, -38055.029577616406, -36246.46052675969, -48343.157570738505, -54817.92149757403, -38840.62633998708, -11433.900765645596, -39910.0232017068, -46775.87560127683, -25435.257009894493, -26493.075667986355, -45414.162625570614, -43014.36758212657, -0.28175000000000006, 0.9123749999999999, 0.080375, 192.0, 0.0, 0.0, 0.0, 0.0, 0.0, 0.0, 0.0, 0.0, 0.0, 1.6731195483911767E9, 0.0, 2023-01-07 14:25:48.391
110.0, -37614.54374963567, -36587.078760514116, -36702.480817136864, -34787.20453825051, -38215.09041966086, -36403.570938536046, -48496.177613279535, -54967.09704006875, -38885.39688413106, -11453.994983910918, -39946.16597249103, -46782.581124613425, -25469.477530655568, -26508.900703060714, -45428.46774202201, -43020.335497896136, -0.28175000000000006, 0.9123749999999999, 0.080375, 192.0, 0.0, 0.0, 0.0, 0.0, 0.0, 0.0, 0.0, 0.0, 0.0, 1.6731195483912437E9, 0.0, 2023-01-07 14:25:48.391
112.0, -37439.57429403953, -36410.56703455056, -36530.730012742286, -34622.963919992915, -38044.4795542335, -36240.47025924567, -48328.91950952048, -54809.74075910339, -38853.99268317135, -11439.108722103683, -39918.583919833174, -46785.866831048355, -25445.874088510765, -26486.57131034986, -45419.191768073055, -43016.17807342745, -0.28175000000000006, 0.9123749999999999, 0.080375, 192.0, 0.0, 0.0, 0.0, 0.0, 0.0, 0.0, 0.0, 0.0, 0.0, 1.67311954839127E9, 0.0, 2023-01-07 14:25:48.391
114.0, -37634.6826713899, -36605.72011538984, -36716.02597427678, -34810.740925161954, -38228.07678318939, -36424.69333704631, -48505.54299420631, -54985.22430482201, -38872.16465141352, -11446.976536151951, -39937.35938517564, -46775.56267685445, -25452.736074058543, -26504.184484980644, -45418.20829131702, -43014.83696876013, -0.28175000000000006, 0.9123749999999999, 0.080375, 192.0, 0.0, 0.0, 0.0, 0.0, 0.0, 0.0, 0.0, 0.0, 0.0, 1.6731195483913553E9, 0.0, 2023-01-07 14:25:48.391
116.0, -37470.866736276956, -36445.77103206766, -36564.14587070297, -34663.800557112765, -38084.71269425305, -36293.28743139356, -48370.96314084091, -54865.17308535255, -38902.65243085056, -11498.117327465694, -39967.93657159049, -46830.97265135916, -25491.628109410776, -26545.736377923058, -45469.751414030965, -43073.77851888878, -0.28487500000000004, 0.9121874999999999, 0.0751875, 192.0, 123.5, 0.0, 14.0, 64.0, 1.0, 24.0, 0.0, 0.0, 0.0, 1.6731195483913815E9, 0.0, 2023-01-07 14:25:48.391
118.0, -37624.44557242937, -36602.948499077385, -36707.28644219475, -34809.24335828345, -38233.24003615857, -36441.725366321254, -48510.70624717549, -54999.55177301786, -38846.72836622338, -11443.668477972566, -39919.58974833367, -46768.05249071747, -25452.110225213793, -26514.555694407907, -45419.66115470662, -43027.5551113552, -0.28487500000000004, 0.9121874999999999, 0.0751875, 192.0, 0.0, 0.0, 0.0, 0.0, 0.0, 0.0, 0.0, 0.0, 0.0, 1.673119548391405E9, 0.0, 2023-01-07 14:25:48.391
120.0, -37448.425584843826, -36422.234645156226, -36543.13523091498, -34642.65580685804, -38065.89252542168, -36286.805425501516, -48350.17601849747, -54850.13036133413, -38914.25298622286, -11508.935571782062, -39978.8889263736, -46837.54406422902, -25511.85643814283, -26590.439866833673, -45484.32475141582, -43096.66670521101, -0.28487500000000004, 0.9121874999999999, 0.0751875, 192.0, 0.0, 0.0, 0.0, 0.0, 0.0, 0.0, 0.0, 0.0, 0.0, 1.6731195483914113E9, 0.0, 2023-01-07 14:25:48.391
122.0, -37601.95971750733, -36577.489862142786, -36683.057151205205, -34784.4105701936, -38208.049620157435, -36417.317261376054, -48481.73838636141, -54969.66749068112, -38807.2104820264, -11394.584047148712, -39871.77936694377, -46716.218795325614, -25398.913073410164, -26471.86386249827, -45369.72735759346, -42977.80012819769, -0.28487500000000004, 0.9121874999999999, 0.0751875, 192.0, 0.0, 0.0, 0.0, 0.0, 0.0, 0.0, 0.0, 0.0, 0.0, 1.6731195483914175E9, 0.0, 2023-01-07 14:25:48.391
124.0, -37481.01442825967, -36455.69520660582, -36575.679370841906, -34674.43998747349, -38100.24715664949, -36308.17369320079, -48382.69780667994, -54881.66867276057, -38945.23250403792, -11533.94717382755, -40010.82956920023, -46861.19220986274, -25532.04006338597, -26599.380564615796, -45509.91749881715, -43116.00096416485, -0.28487500000000004, 0.9121874999999999, 0.0751875, 192.0, 0.0, 0.0, 0.0, 0.0, 0.0, 0.0, 0.0, 0.0, 0.0, 1.6731195483914237E9, 0.0, 2023-01-07 14:25:48.391
126.0, -37582.82662425359, -36555.49574559877, -36667.50033706431, -34761.36592166018, -38188.201271081125, -36380.973324891725, -48457.6879093275, -54942.68893512356, -38796.30283073221, -11379.362509174647, -39866.4596517634, -46709.96030687813, -25389.77120992794, -26446.2934668414, -45364.16177322409, -42962.802107668176, -0.2924375, 0.9120937499999999, 0.06959375000000001, 192.0, 123.0, 80.0, 14.0, 64.0, 1.0, 0.0, 0.0, 0.0, 0.0, 1.67311954839143E9, 0.0, 2023-01-07 14:25:48.391
