%OpenBCI Raw EEG Data
%Number of channels = 16
%Sample Rate = 125 Hz
%Board = OpenBCI_GUI$BoardCytonSerialDaisy
Sample Index, EXG Channel 0, EXG Channel 1, EXG Channel 2, EXG Channel 3, EXG Channel 4, EXG Channel 5, EXG Channel 6, EXG Channel 7, EXG Channel 8, EXG Channel 9, EXG Channel 10, EXG Channel 11, EXG Channel 12, EXG Channel 13, EXG Channel 14, EXG Channel 15, Accel Channel 0, Accel Channel 1, Accel Channel 2, Other, Other, Other, Other, Other, Other, Other, Analog Channel 0, Analog Channel 1, Analog Channel 2, Timestamp, Other, Timestamp (Formatted)
0.0, -1505.278230342654, -84.33313182987355, -25489.08001054287, -25332.550744122356, -12199.962103362335, 4014.0603797507742, 63389.68138571756, 26674.66123994127, 0.0, 0.0, 0.0, 0.0, 0.0, 0.0, 0.0, 0.0, 0.0, 0.0, 0.0, 192.0, 0.0, 0.0, 0.0, 0.0, 0.0, 0.0, 0.0, 0.0, 0.0, 1.662678283559062E9, 0.0, 2022-09-08 19:04:43.559
46.0, -1501.1431576184223, -79.21458234960824, -25488.61062390931, -25331.522563877414, -12180.31491998612, 4013.546289628302, 63474.61801464773, 26690.821551182456, -13075.479933676712, -2556.45842033129, -16920.225849178536, -20961.57770890924, 6890.372263237508, -8408.212173964044, -10143.91453789646, -7722.5947645419565, 0.21, 0.872, 0.41200000000000003, 192.0, 3.0, 72.0, 13.5, 32.0, 6.0, 112.0, 0.0, 0.0, 0.0, 1.6626782835590684E9, 0.0, 2022-09-08 19:04:43.559
48.0, -1499.377369806453, -69.13394560026474, -25483.402667451224, -25328.214505698026, -12205.639446453983, 4022.0176007768637, 63424.88538323467, 26688.295804059006, -13073.356517953458, -2560.526437822156, -16921.49989861249, -20963.611717654672, 6898.1730220524105, -8409.642685609184, -10152.363497300566, -7721.678343019288, 0.21, 0.872, 0.41200000000000003, 192.0, 0.0, 0.0, 0.0, 0.0, 0.0, 0.0, 0.0, 0.0, 0.0, 1.6626782835590727E9, 0.0, 2022-09-08 19:04:43.559
50.0, -1494.191765092822, -68.53044849997146, -25483.96146106261, -25335.143546479172, -12201.727891174305, 4014.46271115097, 63445.6278020892, 26707.38419382384, -13067.075677761517, -2559.900588977407, -16917.521288099444, -20956.95089780699, 6899.5811819530945, -8408.86037455325, -10153.123456612046, -7726.19339539926, 0.21, 0.872, 0.41200000000000003, 192.0, 0.0, 0.0, 0.0, 0.0, 0.0, 0.0, 0.0, 0.0, 0.0, 1.6626782835590773E9, 0.0, 2022-09-08 19:04:43.559
52.0, -1498.2150790947771, -71.99496889054404, -25481.301603472424, -25332.975427267007, -12191.647254424961, 4009.522975626347, 63414.71533950751, 26688.698135459203, -13070.897826063374, -2561.196990155815, -16920.71758755655, -20955.81095883977, 6912.545193737173, -8417.465796168543, -10154.263395579266, -7734.709410036732, 0.21, 0.872, 0.41200000000000003, 192.0, 0.0, 0.0, 0.0, 0.0, 0.0, 0.0, 0.0, 0.0, 0.0, 1.6626782835590816E9, 0.0, 2022-09-08 19:04:43.559
54.0, -1488.670884212361, -70.34093980085133, -25478.03824878195, -25330.494383632467, -12177.65506239594, 4013.6804000950337, 63439.21285143052, 26691.80502793849, -13064.840503315987, -2553.5526935521, -16918.772985788943, -20951.944107049003, 6903.5150889772285, -8407.005179763459, -10138.460712249365, -7728.182700655783, 0.21, 0.872, 0.41200000000000003, 192.0, 0.0, 0.0, 0.0, 0.0, 0.0, 0.0, 0.0, 0.0, 0.0, 1.662678283559086E9, 0.0, 2022-09-08 19:04:43.559
56.0, -1497.2092505942883, -78.1640503602088, -25473.03145802396, -25331.29904643286, -12184.785268877182, 3991.5074695953695, 63405.059385902816, 26665.42996948123, -13062.024183514617, -2552.9938999407173, -16921.455195123577, -20960.549528664294, 6903.135109321489, -8408.323932686322, -10139.734761683318, -7739.492683350169, 0.21, 0.866, 0.41200000000000003, 192.0, 3.0, 72.0, 13.5, 8.0, 6.0, 112.0, 0.0, 0.0, 0.0, 1.6626782835590916E9, 0.0, 2022-09-08 19:04:43.559
58.0, -1490.9507621468024, -70.69856771213624, -25466.75061783202, -25331.701377833055, -12187.914513100925, 4021.5035106543914, 63445.35958115573, 26701.103353631897, -13066.248663216671, -2557.2183796427703, -16916.269590409946, -20957.80026409629, 6902.598667454561, -8404.434729151099, -10126.122549310036, -7735.29055539257, 0.21, 0.866, 0.41200000000000003, 192.0, 0.0, 0.0, 0.0, 0.0, 0.0, 0.0, 0.0, 0.0, 0.0, 1.662678283559096E9, 0.0, 2022-09-08 19:04:43.559
60.0, -1501.031398896146, -79.50515502752722, -25473.94787954663, -25335.322360434817, -12189.45678346834, 4021.257641465383, 63410.93789469456, 26687.13351334733, -13062.158293981349, -2560.548789566611, -16915.062596209358, -20955.72155186195, 6910.5558884806505, -8413.71070310005, -10122.702732408374, -7725.791063999065, 0.21, 0.866, 0.41200000000000003, 192.0, 0.0, 0.0, 0.0, 0.0, 0.0, 0.0, 0.0, 0.0, 0.0, 1.6626782835591009E9, 0.0, 2022-09-08 19:04:43.559
62.0, -1499.6679424843721, -76.71118697061384, -25484.229681996072, -25334.517697634423, -12177.811524607127, 4028.2760892243496, 63440.978639242494, 26728.841868500935, -13076.575169155023, -2569.1542111819044, -16928.048959737895, -20966.159816522577, 6899.983513353291, -8421.422054937131, -10138.348953527087, -7723.153558153339, 0.21, 0.866, 0.41200000000000003, 192.0, 0.0, 0.0, 0.0, 0.0, 0.0, 0.0, 0.0, 0.0, 0.0, 1.662678283559106E9, 0.0, 2022-09-08 19:04:43.559
64.0, -1508.8545094555034, -85.56247777491544, -25488.61062390931, -25328.795651053864, -12170.346041959054, 4022.7552083438886, 63449.002915501944, 26716.928388706256, -13077.469238933236, -2559.878237232952, -16932.742826073507, -20958.962554807968, 6897.010731340734, -8400.679636082607, -10124.75909289826, -7705.853307944931, 0.21, 0.866, 0.41200000000000003, 192.0, 0.0, 0.0, 0.0, 0.0, 0.0, 0.0, 0.0, 0.0, 0.0, 1.6626782835591104E9, 0.0, 2022-09-08 19:04:43.559
66.0, -1511.9166984458802, -86.76947197550201, -25496.366679235303, -25334.003607511953, -12193.927132359402, 4014.820339062255, 63417.08462441977, 26680.09271384391, -13095.529448453122, -2573.3339873950467, -16952.077085027347, -20973.558243937285, 6881.990359066768, -8416.90700255716, -10152.810532189671, -7722.840633730964, 0.216, 0.864, 0.41200000000000003, 192.0, 3.0, 96.0, 13.5, 0.0, 6.0, 112.0, 0.0, 0.0, 0.0, 1.6626782835591147E9, 0.0, 2022-09-08 19:04:43.559
68.0, -1503.7583117196932, -80.33216957237359, -25484.788475607453, -25330.650845843655, -12175.777515861693, 4024.900975811598, 63415.810574985815, 26680.964431877666, -13071.210750485749, -2555.944330208818, -16933.234564451526, -20960.370714708653, 6902.84453664357, -8414.09068275579, -10126.882508621515, -7706.590915511956, 0.216, 0.864, 0.41200000000000003, 192.0, 0.0, 0.0, 0.0, 0.0, 0.0, 0.0, 0.0, 0.0, 0.0, 1.6626782835591195E9, 0.0, 2022-09-08 19:04:43.559
70.0, -1503.5347942751403, -82.6120475068149, -25482.799170350932, -25329.712072576534, -12172.871789082503, 4036.4121242060814, 63409.30621734932, 26726.114955677385, -13068.617948128933, -2562.783964012142, -16931.893459784205, -20970.00431656889, 6920.636525229994, -8405.865240796238, -10136.024372103737, -7722.281840119582, 0.216, 0.864, 0.41200000000000003, 192.0, 0.0, 0.0, 0.0, 0.0, 0.0, 0.0, 0.0, 0.0, 0.0, 1.662678283559124E9, 0.0, 2022-09-08 19:04:43.559
72.0, -1495.1975935933106, -77.40409104872836, -25477.56886214839, -25326.359310908236, -12175.330480972587, 4027.1808537460392, 63407.294560348346, 26731.412319113293, -13062.11359049244, -2557.039565687128, -16925.43380563662, -20957.01795304036, 6900.385844753486, -8403.831232050805, -10128.2906685222, -7708.021427157096, 0.216, 0.864, 0.41200000000000003, 192.0, 0.0, 0.0, 0.0, 0.0, 0.0, 0.0, 0.0, 0.0, 0.0, 1.6626782835591285E9, 0.0, 2022-09-08 19:04:43.559
74.0, -1494.9070209153917, -72.7996316909351, -25472.159739990206, -25330.695549332566, -12182.639501409472, 4016.0049815183856, 63388.25087407242, 26700.455153042694, -13066.338070194492, -2562.2698738896697, -16921.946933501593, -20957.330877462733, 6904.2750482887095, -8416.504671156963, -10136.516110481753, -7722.550061053045, 0.216, 0.864, 0.41200000000000003, 192.0, 0.0, 0.0, 0.0, 0.0, 0.0, 0.0, 0.0, 0.0, 0.0, 1.6626782835591333E9, 0.0, 2022-09-08 19:04:43.559
76.0, -1507.379294321453, -83.43906205166127, -25485.302565729926, -25339.412729670137, -12193.636559681483, 3995.7319492974225, 63409.28386560486, 26710.021699669567, -13068.126209750917, -2562.225170400759, -16927.4454626376, -20956.749732106895, 6903.537440721684, -8422.584345648807, -10142.14875008449, -7718.90672670683, 0.21, 0.872, 0.40800000000000003, 192.0, 3.0, 72.0, 13.5, 32.0, 6.0, 96.0, 0.0, 0.0, 0.0, 1.66267828355914E9, 0.0, 2022-09-08 19:04:43.559
78.0, -1505.7252652317602, -77.2029253486306, -25479.60287089382, -25329.39914815416, -12178.258559496231, 4002.6609900785675, 63389.6143304842, 26716.123725905865, -13084.10770703646, -2565.980263469251, -16936.386160419723, -20964.103456032688, 6892.607437683039, -8416.817595579338, -10152.139979856012, -7726.3498576104475, 0.21, 0.872, 0.40800000000000003, 192.0, 0.0, 0.0, 0.0, 0.0, 0.0, 0.0, 0.0, 0.0, 0.0, 1.6626782835591445E9, 0.0, 2022-09-08 19:04:43.559
80.0, -1506.4852245432407, -75.41478579220603, -25482.262728484005, -25333.400110411658, -12198.88921962848, 4012.4063506610814, 63417.95634245352, 26730.495897590627, -13077.312776722049, -2551.0269464286503, -16933.45808189608, -20953.888708816616, 6897.144841807466, -8409.37446467572, -10146.887319909016, -7712.33531383697, 0.21, 0.872, 0.40800000000000003, 192.0, 0.0, 0.0, 0.0, 0.0, 0.0, 0.0, 0.0, 0.0, 0.0, 1.6626782835591488E9, 0.0, 2022-09-08 19:04:43.559
82.0, -1503.8924221864252, -80.13100387227583, -25481.435713939158, -25336.998741268962, -12191.982530591791, 4017.9272315415424, 63359.193606280525, 26710.602845025405, -13079.324433723026, -2560.1241064219603, -16937.39198892021, -20966.87507234515, 6895.759033651238, -8420.304467714366, -10154.017526390258, -7731.356648368436, 0.21, 0.872, 0.40800000000000003, 192.0, 0.0, 0.0, 0.0, 0.0, 0.0, 0.0, 0.0, 0.0, 0.0, 1.6626782835591536E9, 0.0, 2022-09-08 19:04:43.559
84.0, -1500.606715751495, -76.2418003370524, -25481.6145278948, -25340.709130848543, -12180.851361853047, 4022.0176007768637, 63458.18948247308, 26739.77187153958, -13071.993061541685, -2553.351527852002, -16930.239430694513, -20959.610755397174, 6904.409158755441, -8423.880746827215, -10128.827110389127, -7712.558831281523, 0.21, 0.872, 0.40800000000000003, 192.0, 0.0, 0.0, 0.0, 0.0, 0.0, 0.0, 0.0, 0.0, 0.0, 1.662678283559158E9, 0.0, 2022-09-08 19:04:43.559
86.0, -1506.798148965615, -82.5896957623596, -25483.246205240037, -25352.01911354293, -12184.718213643815, 4006.684304080523, 63410.31204584981, 26680.51739698856, -13071.702488863766, -2564.5497518241114, -16934.128634229735, -20969.378467724142, 6889.209972525832, -8428.932241074115, -10126.703694665874, -7737.279860649092, 0.20800000000000002, 0.869, 0.40700000000000003, 192.0, 3.0, 56.0, 13.5, 8.0, 6.0, 88.0, 0.0, 0.0, 0.0, 1.6626782835591624E9, 0.0, 2022-09-08 19:04:43.559
88.0, -1500.0032186512017, -73.96192240261107, -25479.781684849466, -25348.174613496616, -12187.802754378648, 4011.6240396051458, 63441.09039796477, 26723.611560298392, -13066.87451206142, -2572.7975455281194, -16935.78266331943, -20972.530063692342, 6905.1020628335555, -8435.458950455064, -10136.717276181851, -7743.292479907571, 0.20800000000000002, 0.869, 0.40700000000000003, 192.0, 0.0, 0.0, 0.0, 0.0, 0.0, 0.0, 0.0, 0.0, 0.0, 1.662678283559167E9, 0.0, 2022-09-08 19:04:43.559
90.0, -1489.6767127128498, -64.19421007564189, -25478.17235924868, -25334.562401123334, -12183.93590258788, 4016.6978855965003, 63367.441399984535, 26738.00608372761, -13065.958090538752, -2560.2135133997817, -16927.82544229334, -20964.61754615516, 6907.583106468094, -8412.838985066293, -10150.910633910971, -7737.43632286028, 0.20800000000000002, 0.869, 0.40700000000000003, 192.0, 0.0, 0.0, 0.0, 0.0, 0.0, 0.0, 0.0, 0.0, 0.0, 1.6626782835591717E9, 0.0, 2022-09-08 19:04:43.559
92.0, -1487.4191865228638, -65.8258874208793, -25496.500789702033, -25345.179479739607, -12184.718213643815, 4003.644466834601, 63396.34220556524, 26730.048862701522, -13065.82398007202, -2546.824818471053, -16927.73603531552, -20955.989772795412, 6906.264353545232, -8399.539697115386, -10164.00875616178, -7727.825072744498, 0.20800000000000002, 0.869, 0.40700000000000003, 192.0, 0.0, 0.0, 0.0, 0.0, 0.0, 0.0, 0.0, 0.0, 0.0, 1.662678283559176E9, 0.0, 2022-09-08 19:04:43.559
94.0, -1507.9157361883804, -84.02020740749924, -25511.632920698277, -25357.696456634578, -12191.468440469318, 3993.653237063079, 63369.72127791897, 26683.445475512206, -13084.01830005864, -2561.0628796890833, -16947.182052991637, -20977.179226539043, 6871.797963595148, -8427.14410151769, -10182.001910448304, -7749.618023588422, 0.20800000000000002, 0.869, 0.40700000000000003, 192.0, 0.0, 0.0, 0.0, 0.0, 0.0, 0.0, 0.0, 0.0, 0.0, 1.6626782835591805E9, 0.0, 2022-09-08 19:04:43.559
96.0, -1498.9973901507128, -71.61498923480383, -25497.014879824506, -25350.25332573096, -12204.834783653592, 4002.8621557786655, 63430.71918853751, 26740.174202939776, -13077.335128466502, -2567.097850692016, -16948.03141928094, -20978.609738184183, 6895.379053995497, -8440.555148190875, -10174.58113128914, -7738.6209653164115, 0.20700000000000002, 0.8694999999999999, 0.40850000000000003, 192.0, 3.0, 56.0, 13.5, 24.0, 6.0, 104.0, 0.0, 0.0, 0.0, 1.6626782835591853E9, 0.0, 2022-09-08 19:04:43.559
98.0, -1514.2412798692324, -77.98523640456634, -25491.47164719959, -25345.335941950794, -12193.278931770199, 4002.9962662453972, 63389.0108333839, 26742.945819252232, -13072.820076086531, -2562.2698738896697, -16942.085855255827, -20973.893520104113, 6903.023350599212, -8410.71556934304, -10169.194360875412, -7731.758979768632, 0.20700000000000002, 0.8694999999999999, 0.40850000000000003, 192.0, 0.0, 0.0, 0.0, 0.0, 0.0, 0.0, 0.0, 0.0, 0.0, 1.6626782835591896E9, 0.0, 2022-09-08 19:04:43.559
100.0, -1499.6232389954614, -67.90459965522285, -25489.28117624297, -25350.49919491997, -12185.768745633215, 4002.2810104228274, 63449.96404051352, 26758.234412459664, -13076.664576132844, -2561.6440250449214, -16943.717532601062, -20970.071371802256, 6887.622998669505, -8425.62418289473, -10148.2954798097, -7732.384828613381, 0.20700000000000002, 0.8694999999999999, 0.40850000000000003, 192.0, 0.0, 0.0, 0.0, 0.0, 0.0, 0.0, 0.0, 0.0, 0.0, 1.662678283559194E9, 0.0, 2022-09-08 19:04:43.559
102.0, -1485.2287155662436, -56.61696870529279, -25479.66992612719, -25341.580848882302, -12182.639501409472, 4006.930173269531, 63402.0642521458, 26730.58530456845, -13071.568378397034, -2566.092022191527, -16933.279267940434, -20968.86437760167, 6886.438356213374, -8431.10036028628, -10147.423761775943, -7745.125322952906, 0.20700000000000002, 0.8694999999999999, 0.40850000000000003, 192.0, 0.0, 0.0, 0.0, 0.0, 0.0, 0.0, 0.0, 0.0, 0.0, 1.6626782835591989E9, 0.0, 2022-09-08 19:04:43.559
104.0, -1475.7068724282828, -48.90561686821185, -25471.98092603456, -25327.09691847526, -12174.682280383382, 4014.2838971953274, 63443.86201427723, 26745.873897775877, -13048.389619396881, -2551.675147017854, -16915.621389820742, -20951.25120297089, 6894.641446428472, -8401.32783667181, -10137.09725583759, -7727.95918321123, 0.20700000000000002, 0.8694999999999999, 0.40850000000000003, 192.0, 0.0, 0.0, 0.0, 0.0, 0.0, 0.0, 0.0, 0.0, 0.0, 1.6626782835592031E9, 0.0, 2022-09-08 19:04:43.559
106.0, -1494.0353028816346, -64.14950658673126, -25478.977022049075, -25332.23781969998, -12174.861094339025, 4021.391751932115, 63382.84175191424, 26722.29280737553, -13073.535331909101, -2560.191161655326, -16929.479471383034, -20959.186072252523, 6908.2089553128435, -8413.2860199554, -10147.982555387325, -7734.418837358813, 0.20650000000000002, 0.86775, 0.40825, 192.0, 3.0, 56.0, 13.5, 8.0, 6.0, 96.0, 0.0, 0.0, 0.0, 1.6626782835592077E9, 0.0, 2022-09-08 19:04:43.559
108.0, -1490.1460993464113, -58.80743966191288, -25473.99258303554, -25329.510906876436, -12175.196370505855, 4017.904879797087, 63382.2606065584, 26733.602790069915, -13067.410953928347, -2553.686804018832, -16931.982866762028, -20958.85079608569, 6916.412045527941, -8400.165545960135, -10153.034049634225, -7726.238098888171, 0.20650000000000002, 0.86775, 0.40825, 192.0, 0.0, 0.0, 0.0, 0.0, 0.0, 0.0, 0.0, 0.0, 0.0, 1.6626782835592132E9, 0.0, 2022-09-08 19:04:43.559
110.0, -1504.7864919646374, -72.17378284618651, -25472.60677487931, -25333.53422087839, -12166.210969234822, 4013.389827417115, 63378.01377511189, 26736.977903482664, -13074.787029598598, -2561.0628796890833, -16940.275363954945, -20963.991697310412, 6897.457766229841, -8412.19078447709, -10147.557872242674, -7717.7220842506995, 0.20650000000000002, 0.86775, 0.40825, 192.0, 0.0, 0.0, 0.0, 0.0, 0.0, 0.0, 0.0, 0.0, 0.0, 1.6626782835592177E9, 0.0, 2022-09-08 19:04:43.559
112.0, -1499.2656110841765, -68.70926245561391, -25470.99744927853, -25336.57405812431, -12185.478172955296, 4008.1595192145733, 63400.58903701175, 26746.097415220433, -13074.787029598598, -2569.4671356042786, -16937.190823220113, -20967.880900845637, 6894.574391195106, -8414.3365519448, -10136.471406992843, -7725.545194810056, 0.20650000000000002, 0.86775, 0.40825, 192.0, 0.0, 0.0, 0.0, 0.0, 0.0, 0.0, 0.0, 0.0, 0.0, 1.6626782835592222E9, 0.0, 2022-09-08 19:04:43.559
114.0, -1497.7233407167603, -68.53044849997146, -25467.152949232215, -25335.411767412636, -12178.213856007322, 4014.4403594065143, 63411.09435690575, 26743.549316352528, -13070.24962547417, -2561.778135511653, -16940.02949476594, -20968.95378457949, 6911.919344892424, -8425.847700339282, -10133.185700557911, -7723.6229447869, 0.20650000000000002, 0.86775, 0.40825, 192.0, 0.0, 0.0, 0.0, 0.0, 0.0, 0.0, 0.0, 0.0, 0.0, 1.6626782835592265E9, 0.0, 2022-09-08 19:04:43.559
116.0, -1503.445387297319, -78.65578873822555, -25484.542606418447, -25356.131834522705, -12171.642443137462, 4006.7513593138888, 63396.096336376235, 26749.941915266743, -13065.82398007202, -2570.1600396823933, -16938.263706953967, -20979.68262191804, 6904.386807010986, -8439.057581312369, -10130.86111913456, -7730.775503012598, 0.20925, 0.869875, 0.407125, 192.0, 3.0, 80.0, 13.5, 32.0, 6.0, 88.0, 0.0, 0.0, 0.0, 1.6626782835592313E9, 0.0, 2022-09-08 19:04:43.559
118.0, -1505.702913487305, -83.93080042967802, -25486.733077375065, -25348.956924552553, -12166.88152156848, 4011.266411693861, 63416.03409243037, 26760.53664213856, -13065.846331816476, -2579.100737464516, -16945.39391343521, -20988.846837144716, 6898.709463919337, -8445.00314533748, -10133.632735447018, -7731.826035001998, 0.20925, 0.869875, 0.407125, 192.0, 0.0, 0.0, 0.0, 0.0, 0.0, 0.0, 0.0, 0.0, 0.0, 1.6626782835592356E9, 0.0, 2022-09-08 19:04:43.559
120.0, -1500.0032186512017, -73.31372181340717, -25477.32299295938, -25335.903505790655, -12167.507370413228, 4022.710504854978, 63399.02441489988, 26772.852453333435, -13066.15925623885, -2570.584722827044, -16942.06350351137, -20976.419267227564, 6886.728928891293, -8416.66113336815, -10134.549156969686, -7722.684171519777, 0.20925, 0.869875, 0.407125, 192.0, 0.0, 0.0, 0.0, 0.0, 0.0, 0.0, 0.0, 0.0, 0.0, 1.6626782835592403E9, 0.0, 2022-09-08 19:04:43.559
122.0, -1506.507576287696, -70.07271886738764, -25470.215138222593, -25334.24947670096, -12159.013707520213, 4027.873757824154, 63434.72015079501, 26760.134310738365, -13073.557683653557, -2562.9627779677844, -16944.388084934722, -20970.250185757897, 6917.261411817242, -8406.155813474157, -10129.564717956153, -7715.308095849526, 0.20925, 0.869875, 0.407125, 192.0, 0.0, 0.0, 0.0, 0.0, 0.0, 0.0, 0.0, 0.0, 0.0, 1.6626782835592456E9, 0.0, 2022-09-08 19:04:43.559
124.0, -1500.2267360957546, -68.70926245561391, -25466.437693409647, -25329.980293509998, -12148.486035881762, 4021.2129379764724, 63394.17408635308, 26738.162545938798, -13079.25737848966, -2561.822839000564, -16935.760311574973, -20967.076238045247, 6903.582144210594, -8411.85550831026, -10126.502528965775, -7723.846462231453, 0.20925, 0.869875, 0.407125, 192.0, 0.0, 0.0, 0.0, 0.0, 0.0, 0.0, 0.0, 0.0, 0.0, 1.66267828355925E9, 0.0, 2022-09-08 19:04:43.559
126.0, -1500.2937913291207, -67.18934383265304, -25463.107283485806, -25326.806345797344, -12163.864036067014, 4026.7561706013885, 63427.768758269405, 26763.06238926201, -13073.40122144237, -2562.6722052898654, -16930.15002371669, -20960.370714708653, 6910.757054180748, -8403.317141928334, -10123.038008575202, -7720.672514518799, 0.204625, 0.8689374999999999, 0.41056250000000005, 192.0, 3.0, 32.0, 13.5, 16.0, 6.0, 120.0, 0.0, 0.0, 0.0, 1.6626782835592546E9, 0.0, 2022-09-08 19:04:43.559
128.0, -1484.5358114881292, -47.72097441208058, -25444.51063209899, -25307.494438587957, -12147.055524236623, 4039.2060922629944, 63394.30819681981, 26782.553110427038, -13063.164122481838, -2542.846207958008, -16916.96249448806, -20950.826519826238, 6925.03981888769, -8399.964380260037, -10104.106081021559, -7712.067092903507, 0.204625, 0.8689374999999999, 0.41056250000000005, 192.0, 0.0, 0.0, 0.0, 0.0, 0.0, 0.0, 0.0, 0.0, 0.0, 1.6626782835592592E9, 0.0, 2022-09-08 19:04:43.559
130.0, -1481.160698075378, -52.39248900323975, -25453.048998480917, -25313.283540401884, -12147.010820747713, 4024.8562723226873, 63432.68614204957, 26790.21975877521, -13051.272994431614, -2533.190254353315, -16900.556314057867, -20933.57097310674, 6933.354667825064, -8395.80695579135, -10089.3315779366, -7693.962179894707, 0.204625, 0.8689374999999999, 0.41056250000000005, 192.0, 0.0, 0.0, 0.0, 0.0, 0.0, 0.0, 0.0, 0.0, 0.0, 1.6626782835592637E9, 0.0, 2022-09-08 19:04:43.559
132.0, -1472.0411863376125, -48.97267210157777, -25443.013065220486, -25308.120287432706, -12157.158512730422, 4015.3344291847266, 63382.2606065584, 26748.62316234388, -13048.613136841434, -2543.717925991765, -16890.96741568654, -20937.996618508892, 6928.280821833709, -8389.637874321685, -10099.948656552871, -7709.228421357682, 0.204625, 0.8689374999999999, 0.41056250000000005, 192.0, 0.0, 0.0, 0.0, 0.0, 0.0, 0.0, 0.0, 0.0, 0.0, 1.662678283559268E9, 0.0, 2022-09-08 19:04:43.559
134.0, -1477.4726602402523, -54.98529136005538, -25454.300696170416, -25320.90548526114, -12159.371335431497, 4003.1750802010397, 63442.20798518753, 26743.258743674607, -13051.317697920525, -2538.5993765114995, -16884.95479642806, -20936.00731325237, 6932.147673624477, -8388.743804543472, -10103.52493566572, -7715.062226660518, 0.204625, 0.8689374999999999, 0.41056250000000005, 192.0, 0.0, 0.0, 0.0, 0.0, 0.0, 0.0, 0.0, 0.0, 0.0, 1.6626782835592723E9, 0.0, 2022-09-08 19:04:43.559
136.0, -1476.310369528576, -56.259340794007876, -25452.445501380626, -25315.80928752533, -12141.333477656064, 4019.7824263313328, 63383.959339137, 26743.90694426381, -13063.812323071043, -2552.0551266735947, -16895.6389302777, -20953.10639776068, 6925.3527433100635, -8395.359920902243, -10114.544345682187, -7729.38969485637, 0.2023125, 0.8684687499999999, 0.41228125000000004, 192.0, 3.0, 32.0, 13.5, 16.0, 6.0, 120.0, 0.0, 0.0, 0.0, 1.6626782835592768E9, 0.0, 2022-09-08 19:04:43.559
138.0, -1480.6019044639952, -63.56836123089329, -25468.829330066364, -25327.387491153182, -12160.801847076636, 4029.03604853583, 63447.52770036789, 26740.0624442175, -13049.48485487519, -2539.672260245354, -16893.739031998997, -20941.215269710454, 6934.427551558919, -8377.567932315818, -10105.514240922243, -7715.330447593981, 0.2023125, 0.8684687499999999, 0.41228125000000004, 192.0, 0.0, 0.0, 0.0, 0.0, 0.0, 0.0, 0.0, 0.0, 0.0, 1.662678283559281E9, 0.0, 2022-09-08 19:04:43.559
140.0, -1492.1577563473888, -68.88807641125636, -25479.80403659392, -25338.608066869747, -12168.513198913717, 4004.225612190439, 63399.40439455562, 26689.70396395969, -13071.34486095248, -2555.564350553078, -16907.328892627822, -20959.34253446371, 6925.531557265706, -8403.473604139519, -10125.04966557618, -7738.643317060866, 0.2023125, 0.8684687499999999, 0.41228125000000004, 192.0, 0.0, 0.0, 0.0, 0.0, 0.0, 0.0, 0.0, 0.0, 0.0, 1.6626782835592868E9, 0.0, 2022-09-08 19:04:43.559
142.0, -1478.254971296188, -53.66653843719226, -25470.908042300707, -25324.63822658518, -12163.327594200087, 4029.6618973805785, 63440.66571482012, 26755.0157612581, -13060.213692213738, -2544.9249201923517, -16897.739994256495, -20950.71476110396, 6914.221574571321, -8415.23062172301, -10126.658991176962, -7726.372209354903, 0.2023125, 0.8684687499999999, 0.41228125000000004, 192.0, 0.0, 0.0, 0.0, 0.0, 0.0, 0.0, 0.0, 0.0, 0.0, 1.6626782835592914E9, 0.0, 2022-09-08 19:04:43.559
144.0, -1480.2889800416208, -55.43232624916151, -25464.023705008472, -25309.751964777945, -12168.669661124904, 4013.255716950383, 63390.95543515151, 26733.401624369817, -13059.699602091267, -2545.617824270466, -16889.402793574667, -20943.696313344994, 6907.292533790176, -8398.533868614897, -10125.00496208727, -7721.76774999711, 0.2023125, 0.8684687499999999, 0.41228125000000004, 192.0, 0.0, 0.0, 0.0, 0.0, 0.0, 0.0, 0.0, 0.0, 0.0, 1.662678283559296E9, 0.0, 2022-09-08 19:04:43.559
146.0, -1474.321064272054, -50.6267011912705, -25459.26278343949, -25302.8229239968, -12169.228454736287, 4014.5297663843357, 63439.68223806408, 26730.473545846173, -13058.5820148685, -2543.8073329695862, -16881.82555220432, -20933.36980740664, 6946.005755186768, -8388.989673732482, -10109.738720624295, -7705.674493989289, 0.20215625, 0.8662343749999999, 0.41214062500000004, 192.0, 3.0, 40.0, 13.5, 0.0, 6.0, 112.0, 0.0, 0.0, 0.0, 1.6626782835593004E9, 0.0, 2022-09-08 19:04:43.559
148.0, -1481.473622497752, -55.946416371633575, -25457.005257249508, -25307.62854905469, -12159.281928453676, 4011.8252053052433, 63399.78437421136, 26697.750591963602, -13060.325450936014, -2544.209664369782, -16884.440706305588, -20937.66134234206, 6918.647219973472, -8391.917752256126, -10111.437453202898, -7712.648238259344, 0.20215625, 0.8662343749999999, 0.41214062500000004, 192.0, 0.0, 0.0, 0.0, 0.0, 0.0, 0.0, 0.0, 0.0, 0.0, 1.6626782835593047E9, 0.0, 2022-09-08 19:04:43.559
150.0, -1479.3949102634085, -54.69471868213638, -25448.958629245597, -25303.471124586, -12149.69303008235, 4042.067115553274, 63429.91452573711, 26744.10810996391, -13052.591747354478, -2535.3807253099353, -16882.63021500471, -20936.61081035266, 6908.007789612746, -8382.172391673612, -10106.81064210065, -7703.081691632473, 0.20215625, 0.8662343749999999, 0.41214062500000004, 192.0, 0.0, 0.0, 0.0, 0.0, 0.0, 0.0, 0.0, 0.0, 0.0, 1.6626782835593092E9, 0.0, 2022-09-08 19:04:43.559
152.0, -1498.9973901507128, -70.81032643441277, -25460.737998573542, -25319.944360249563, -12162.299413955143, 4027.0914467682182, 63403.07008064629, 26686.440609269215, -13058.783180568598, -2541.3709928239577, -16895.01308143295, -20947.652572113584, 6938.450865560873, -8400.076138982313, -10111.504508436265, -7703.886354432864, 0.20215625, 0.8662343749999999, 0.41214062500000004, 192.0, 0.0, 0.0, 0.0, 0.0, 0.0, 0.0, 0.0, 0.0, 0.0, 1.6626782835593135E9, 0.0, 2022-09-08 19:04:43.559
154.0, -1501.5678407630733, -72.57611424638203, -25468.80697832191, -25323.788860295877, -12177.856228096036, 4035.450999194503, 63468.98537504499, 26733.133403436354, -13060.77248582512, -2551.2057603842927, -16900.556314057867, -20953.933412305523, 6931.99121141329, -8384.139345185678, -10110.364569469044, -7708.8037382130315, 0.20215625, 0.8662343749999999, 0.41214062500000004, 192.0, 0.0, 0.0, 0.0, 0.0, 0.0, 0.0, 0.0, 0.0, 0.0, 1.662678283559318E9, 0.0, 2022-09-08 19:04:43.559
156.0, -1499.6455907399168, -76.577076503882, -25475.668963869688, -25327.54395336437, -12186.46164971133, 4018.4636734084697, 63406.33343533677, 26696.945929163212, -13067.053326017061, -2558.26891163217, -16907.038319949905, -20959.186072252523, 6933.265260847243, -8404.010046006448, -10129.162386555958, -7716.38097958338, 0.203078125, 0.8661171875, 0.41107031250000003, 192.0, 3.0, 48.0, 13.5, 8.0, 6.0, 104.0, 0.0, 0.0, 0.0, 1.6626782835593226E9, 0.0, 2022-09-08 19:04:43.559
158.0, -1482.6806166983388, -59.232122806563716, -25468.33759168835, -25321.173706194604, -12169.966062303312, 4011.288763438316, 63391.693042718536, 26661.294896756997, -13056.704468334256, -2545.5731207815556, -16891.615616275743, -20946.53498489082, 6917.216708328332, -8393.437670879088, -10137.09725583759, -7720.471348818702, 0.203078125, 0.8661171875, 0.41107031250000003, 192.0, 0.0, 0.0, 0.0, 0.0, 0.0, 0.0, 0.0, 0.0, 0.0, 1.662678283559327E9, 0.0, 2022-09-08 19:04:43.559
160.0, -1485.0499016106012, -61.7131664411028, -25454.32304791487, -25315.094031702763, -12163.819332578103, 3991.3063038952714, 63419.99035119896, 26651.907164085766, -13051.675325831811, -2542.488580046723, -16889.693366252588, -20943.76336857836, 6919.585993240595, -8400.52317387142, -10130.279973778723, -7730.440226845769, 0.203078125, 0.8661171875, 0.41107031250000003, 192.0, 0.0, 0.0, 0.0, 0.0, 0.0, 0.0, 0.0, 0.0, 0.0, 1.6626782835593317E9, 0.0, 2022-09-08 19:04:43.559
162.0, -1476.3327212730314, -49.62087269078168, -25452.803129291908, -25312.97061597951, -12162.254710466232, 4007.623077347646, 63408.43449931556, 26731.81465051349, -13050.49068337568, -2528.854015928986, -16884.39600281668, -20935.403816152077, 6947.23510113181, -8387.045071964869, -10105.223668244324, -7722.550061053045, 0.203078125, 0.8661171875, 0.41107031250000003, 192.0, 0.0, 0.0, 0.0, 0.0, 0.0, 0.0, 0.0, 0.0, 0.0, 1.662678283559336E9, 0.0, 2022-09-08 19:04:43.559
164.0, -1492.4930325142184, -64.77535543147987, -25464.627202108768, -25323.610046340233, -12168.580254147084, 3999.710559810467, 63406.17697312558, 26684.496007501606, -13051.340049664981, -2541.1921788683153, -16890.810953475353, -20935.80614755227, 6937.154464382465, -8407.563973374841, -10113.694979392885, -7721.208956385727, 0.203078125, 0.8661171875, 0.41107031250000003, 192.0, 0.0, 0.0, 0.0, 0.0, 0.0, 0.0, 0.0, 0.0, 0.0, 1.6626782835593405E9, 0.0, 2022-09-08 19:04:43.559
166.0, -1474.2763607831432, -53.152448314720196, -25458.27930668346, -25309.595502566757, -12162.45587616633, 4023.0457810218077, 63426.00297045743, 26744.063406474997, -13056.570357867522, -2544.209664369782, -16888.26285460745, -20942.355208677676, 6904.766786666726, -8396.18693544709, -10120.601668429574, -7726.305154121537, 0.203078125, 0.8661171875, 0.41107031250000003, 192.0, 0.0, 0.0, 0.0, 0.0, 0.0, 0.0, 0.0, 0.0, 0.0, 1.6626782835593448E9, 0.0, 2022-09-08 19:04:43.559
0.0, -774.1526692095601, -78.99106490505515, -12752.720743742078, -12695.969664570053, -6101.646256643088, 1971.9826545694657, 31615.559055275808, 13341.108064783582, -6530.509177507064, -1272.6636257962734, -8445.226662782034, -10472.105201733733, 3465.995605706645, -4198.886954651708, -5059.6749853700385, -3853.396040606027, 0.20600000000000002, 0.878, 0.406, 192.0, 3.0, 56.0, 13.5, 56.0, 6.0, 88.0, 0.0, 0.0, 0.0, 1.6626782841387992E9, 0.0, 2022-09-08 19:04:44.138
2.0, -1542.3374226495532, -152.68476637420255, -25505.70970841762, -25390.866445406253, -12200.967931862824, 3944.166474839029, 63227.09479654966, 26663.306553757975, -13058.403200912859, -2644.18901731837, -16945.080989012837, -21043.653314549127, 6880.537495677173, -8472.875770673249, -10192.171954175468, -7775.903675067863, 0.20600000000000002, 0.878, 0.406, 192.0, 0.0, 0.0, 0.0, 0.0, 0.0, 0.0, 0.0, 0.0, 0.0, 1.6626782841388807E9, 0.0, 2022-09-08 19:04:44.138
4.0, -1538.8058470256146, -146.11335350434226, -25502.692222916154, -25386.373744770735, -12210.310961045143, 3942.3112800492386, 63306.599951577184, 26691.536807005028, -13046.981459496195, -2633.817807891108, -16943.69518085661, -21033.371512099686, 6895.088481317578, -8476.899084675204, -10174.514076055775, -7769.488724409191, 0.20600000000000002, 0.878, 0.406, 192.0, 0.0, 0.0, 0.0, 0.0, 0.0, 0.0, 0.0, 0.0, 0.0, 1.6626782841389215E9, 0.0, 2022-09-08 19:04:44.138
6.0, -1541.6668703158941, -152.41654544073887, -25513.51046723252, -25396.16380884216, -12224.526670518717, 3928.9896403538755, 63252.776950928805, 26700.633966998335, -13053.351706665959, -2638.422267248901, -16946.667962869164, -21039.093558680244, 6887.086556802578, -8476.988491653025, -10183.924160471459, -7775.478991923213, 0.20600000000000002, 0.878, 0.406, 192.0, 0.0, 0.0, 0.0, 0.0, 0.0, 0.0, 0.0, 0.0, 0.0, 1.6626782841389265E9, 0.0, 2022-09-08 19:04:44.138
8.0, -1543.0973819610338, -152.68476637420255, -25504.413307239214, -25393.772172185443, -12216.167118092433, 3932.3200502777163, 63281.8342187207, 26719.185914896243, -13062.068887003528, -2646.71476444182, -16950.601869893297, -21042.043988948346, 6885.678396901893, -8493.01469242748, -10192.77545127576, -7776.104840767961, 0.212, 0.878, 0.394, 192.0, 3.0, 80.0, 13.5, 56.0, 6.0, 40.0, 0.0, 0.0, 0.0, 1.6626782841389315E9, 0.0, 2022-09-08 19:04:44.138
10.0, -1547.120695962989, -158.63033039931423, -25495.025574567986, -25391.514645995456, -12211.048568612166, 3942.512445749336, 63217.03651154477, 26682.90903364528, -13063.789971326587, -2646.290081297169, -16945.39391343521, -21039.048855191333, 6869.138106004966, -8481.168267866167, -10187.008701206292, -7774.92019831183, 0.212, 0.878, 0.394, 192.0, 0.0, 0.0, 0.0, 0.0, 0.0, 0.0, 0.0, 0.0, 0.0, 1.6626782841389363E9, 0.0, 2022-09-08 19:04:44.138
12.0, -1543.0973819610338, -156.75278386506844, -25496.85841761332, -25388.02777386043, -12215.764786692238, 3949.843817930677, 63297.36868111714, 26698.264682086075, -13066.986270783696, -2649.2405115652696, -16950.93714606013, -21043.139224426657, 6885.812507368625, -8474.10511661829, -10182.806573248694, -7772.752079099665, 0.212, 0.878, 0.394, 192.0, 0.0, 0.0, 0.0, 0.0, 0.0, 0.0, 0.0, 0.0, 0.0, 1.6626782841389413E9, 0.0, 2022-09-08 19:04:44.138
14.0, -1542.5832918385615, -155.41167919775, -25499.47357171459, -25380.383477256713, -12221.375074550519, 3944.457047516948, 63237.80128214375, 26714.983786938643, -13063.052363759562, -2646.2453778082586, -16949.998372793005, -21044.83795700526, 6857.425791910386, -8472.786363695426, -10177.732727257338, -7763.766677828632, 0.212, 0.878, 0.394, 192.0, 0.0, 0.0, 0.0, 0.0, 0.0, 0.0, 0.0, 0.0, 0.0, 1.6626782841389463E9, 0.0, 2022-09-08 19:04:44.138
16.0, -1533.9778702232684, -150.71781286213553, -25507.274330529493, -25383.44566624709, -12222.93969666239, 3932.6329747000905, 63270.747753470874, 26688.251100570098, -13050.53538686459, -2643.965499873817, -16946.802073335897, -21037.77480575738, 6891.311036504631, -8481.302378332899, -10180.794916247716, -7764.459581906746, 0.212, 0.878, 0.394, 192.0, 0.0, 0.0, 0.0, 0.0, 0.0, 0.0, 0.0, 0.0, 0.0, 1.6626782841389513E9, 0.0, 2022-09-08 19:04:44.138
18.0, -1538.6940883033383, -150.42724018421654, -25518.517257990512, -25381.54576796839, -12231.746283977782, 3925.927451363498, 63193.74599382234, 26684.98774587962, -13046.445017629268, -2647.5641307311216, -16946.243279724513, -21039.562945313806, 6884.158478278933, -8475.91560791917, -10195.703529799406, -7774.96490180074, 0.216, 0.876, 0.384, 192.0, 3.0, 96.0, 13.5, 48.0, 6.0, 0.0, 0.0, 0.0, 0.0, 1.662678284138956E9, 0.0, 2022-09-08 19:04:44.138
20.0, -1528.702858531816, -138.73727783409095, -25512.437583498668, -25375.331983009815, -12212.61319072404, 3942.288928304783, 63268.40082030307, 26684.786580179523, -13048.389619396881, -2636.5000172257446, -16940.67769535514, -21028.521183552886, 6865.427716425385, -8475.669738730161, -10199.615085079085, -7775.546047156578, 0.216, 0.876, 0.384, 192.0, 0.0, 0.0, 0.0, 0.0, 0.0, 0.0, 0.0, 0.0, 0.0, 1.662678284138961E9, 0.0, 2022-09-08 19:04:44.138
22.0, -1536.0789342020673, -147.32034770492885, -25502.915740360706, -25375.868424876742, -12220.302190816665, 3939.964346881431, 63221.35039822465, 26695.582472751437, -13049.797779297565, -2638.1987498043477, -16939.62716336574, -21031.06928242079, 6869.383975193975, -8468.96421539357, -10189.042709951724, -7769.756945342654, 0.216, 0.876, 0.384, 192.0, 0.0, 0.0, 0.0, 0.0, 0.0, 0.0, 0.0, 0.0, 0.0, 1.662678284138966E9, 0.0, 2022-09-08 19:04:44.138
24.0, -1533.083800445056, -150.76251635104614, -25508.078993329884, -25389.7935616724, -12223.543193762684, 3944.769971939322, 63270.65834649305, 26688.742838948114, -13055.765695067132, -2641.61856670601, -16944.16456749017, -21040.59112555875, 6883.331463734086, -8482.643483000218, -10189.892076241025, -7767.588826130489, 0.216, 0.876, 0.384, 192.0, 0.0, 0.0, 0.0, 0.0, 0.0, 0.0, 0.0, 0.0, 0.0, 1.6626782841389709E9, 0.0, 2022-09-08 19:04:44.138
26.0, -1544.7737627951817, -160.57493216692595, -25510.157705564226, -25393.74982044099, -12220.481004772308, 3931.15775956604, 63229.642895417564, 26692.76615295007, -13064.39346842688, -2658.203561091848, -16952.76998910546, -21049.621230318695, 6864.578350136084, -8496.680378518151, -10187.791012262227, -7781.715128626243, 0.216, 0.876, 0.384, 192.0, 0.0, 0.0, 0.0, 0.0, 0.0, 0.0, 0.0, 0.0, 0.0, 1.6626782841389759E9, 0.0, 2022-09-08 19:04:44.138
28.0, -1526.4900358307405, -138.9160917897334, -25498.37833623628, -25380.517587723447, -12212.769652935225, 3939.003221869853, 63268.71374472544, 26705.08196414494, -13046.243851929172, -2639.025764349194, -16935.805015063885, -21031.20339288752, 6889.008806825735, -8479.044852142913, -10181.085488925635, -7763.878436550908, 0.214, 0.882, 0.378, 192.0, 3.0, 88.0, 13.5, 72.0, 5.5, 104.0, 0.0, 0.0, 0.0, 1.6626782841389816E9, 0.0, 2022-09-08 19:04:44.138
30.0, -1540.8398557710477, -152.61771114083663, -25505.553246206433, -25383.624480202732, -12214.915420402935, 3934.1752450675067, 63247.814863659725, 26699.985766409132, -13054.871625288919, -2645.6865841968756, -16943.73988434552, -21036.232535389965, 6873.720213618304, -8487.225590613556, -10186.11463142808, -7781.11163152595, 0.214, 0.882, 0.378, 192.0, 0.0, 0.0, 0.0, 0.0, 0.0, 0.0, 0.0, 0.0, 0.0, 1.6626782841389866E9, 0.0, 2022-09-08 19:04:44.138
32.0, -1525.4842073302518, -134.87042604332282, -25497.171342035694, -25374.661430676155, -12206.17588832091, 3951.587253998191, 63256.062657363735, 26738.14019419434, -13041.706447804743, -2636.768238159208, -16933.68159934063, -21022.374453827677, 6895.98255109579, -8489.43841331463, -10175.810477234183, -7758.335203925992, 0.214, 0.882, 0.378, 192.0, 0.0, 0.0, 0.0, 0.0, 0.0, 0.0, 0.0, 0.0, 0.0, 1.6626782841389914E9, 0.0, 2022-09-08 19:04:44.138
34.0, -1537.6882598028494, -143.20762672515235, -25493.975042578586, -25373.96852659804, -12209.908629644946, 3948.7932859412776, 63250.273555549815, 26693.548464006006, -13061.443038158779, -2639.875130638496, -16945.438616924122, -21028.58823878625, 6871.395632194953, -8481.749413222005, -10179.319701113665, -7764.459581906746, 0.214, 0.882, 0.378, 192.0, 0.0, 0.0, 0.0, 0.0, 0.0, 0.0, 0.0, 0.0, 0.0, 1.6626782841389964E9, 0.0, 2022-09-08 19:04:44.138
36.0, -1544.63965232845, -146.09100175988695, -25499.00418508103, -25379.534110967412, -12217.41881578193, 3942.803018427255, 63254.0286486183, 26714.737917749637, -13061.688907347789, -2633.8625113800185, -16943.628125623243, -21026.35306434072, 6864.220722224799, -8473.255750328988, -10178.023299935257, -7757.530541125601, 0.214, 0.882, 0.378, 192.0, 0.0, 0.0, 0.0, 0.0, 0.0, 0.0, 0.0, 0.0, 0.0, 1.6626782841390023E9, 0.0, 2022-09-08 19:04:44.139
38.0, -1547.0983442185336, -149.3767081948171, -25491.58340592187, -25372.225090530526, -12213.306094802154, 3953.0624691322414, 63254.00629687385, 26708.099449646408, -13062.493570148179, -2633.4378282353673, -16947.986715792027, -21030.82341323178, 6861.225588467788, -8477.122602119756, -10175.452849322897, -7750.623852088911, 0.214, 0.872, 0.38, 192.0, 3.0, 88.0, 13.5, 32.0, 5.5, 112.0, 0.0, 0.0, 0.0, 1.662678284139007E9, 0.0, 2022-09-08 19:04:44.139
40.0, -1545.7795912956706, -151.2989582179735, -25490.37641172128, -25372.850939375276, -12212.054397112655, 3945.462876017437, 63274.86047445065, 26699.56108326448, -13059.766657324632, -2646.871226653007, -16948.970192548062, -21036.478404578975, 6887.332425991586, -8475.24505558551, -10170.289596353721, -7750.601500344455, 0.214, 0.872, 0.38, 192.0, 0.0, 0.0, 0.0, 0.0, 0.0, 0.0, 0.0, 0.0, 0.0, 1.662678284139012E9, 0.0, 2022-09-08 19:04:44.139
42.0, -1556.9778152677793, -163.346548479384, -25505.91087411772, -25383.19979705808, -12210.400368022963, 3932.722381677912, 63255.70502945245, 26693.503760517095, -13061.845369558976, -2644.814866163119, -16955.049867039903, -21034.846727233737, 6887.93592309188, -8478.955445165091, -10171.898921954504, -7752.367288156425, 0.214, 0.872, 0.38, 192.0, 0.0, 0.0, 0.0, 0.0, 0.0, 0.0, 0.0, 0.0, 0.0, 1.662678284139017E9, 0.0, 2022-09-08 19:04:44.139
44.0, -1543.410306383408, -148.7285076056132, -25500.94878684864, -25375.577852198825, -12200.677359184905, 3943.2724050608167, 63228.94999133945, 26710.491086303125, -13069.981404540707, -2647.4076685199343, -16961.531872931944, -21041.664009292606, 6877.74352762026, -8470.81941018336, -10189.355634374098, -7771.053346521062, 0.214, 0.872, 0.38, 192.0, 0.0, 0.0, 0.0, 0.0, 0.0, 0.0, 0.0, 0.0, 0.0, 1.662678284139022E9, 0.0, 2022-09-08 19:04:44.139
46.0, -1536.213044668799, -141.88887380228923, -25496.72430714659, -25369.855805618266, -12185.522876444207, 3960.550303524769, 63254.676849207506, 26722.315159119986, -13050.960070009241, -2634.510711969222, -16950.825387337853, -21024.184945128556, 6878.458783442829, -8471.512314261474, -10178.336224357632, -7749.595671843967, 0.214, 0.872, 0.38, 192.0, 0.0, 0.0, 0.0, 0.0, 0.0, 0.0, 0.0, 0.0, 0.0, 1.6626782841390269E9, 0.0, 2022-09-08 19:04:44.139
48.0, -1536.9506522358242, -144.81695232593447, -25495.89729260174, -25376.360163254758, -12204.097176086567, 3939.1373323365847, 63244.57386071371, 26685.36772553536, -13051.518863620624, -2648.838180165074, -16950.579518148843, -21032.07511092128, 6867.640539126461, -8483.381090567242, -10176.659843523485, -7768.1476197418715, 0.22, 0.876, 0.386, 192.0, 3.0, 112.0, 13.5, 48.0, 6.0, 8.0, 0.0, 0.0, 0.0, 1.6626782841390316E9, 0.0, 2022-09-08 19:04:44.139
50.0, -1545.5337221066623, -148.32617620541768, -25501.596987437846, -25381.16578831265, -12211.875583157014, 3934.2870037897833, 63257.13554109759, 26703.025603655053, -13056.05626774505, -2650.2686918102136, -16950.043076281916, -21029.281142864365, 6889.5452486926615, -8487.762032480483, -10175.877532467548, -7763.029070261607, 0.22, 0.876, 0.386, 192.0, 0.0, 0.0, 0.0, 0.0, 0.0, 0.0, 0.0, 0.0, 0.0, 1.6626782841390367E9, 0.0, 2022-09-08 19:04:44.139
52.0, -1538.5599778366063, -140.88304530180042, -25496.61254842431, -25371.822759130333, -12186.618111922517, 3949.8214661862216, 63226.44659596046, 26723.835077742944, -13061.934776536797, -2649.5981394765545, -16952.3006024719, -21038.378302857676, 6894.999074339757, -8483.626959756251, -10181.554875559197, -7765.063079007039, 0.22, 0.876, 0.386, 192.0, 0.0, 0.0, 0.0, 0.0, 0.0, 0.0, 0.0, 0.0, 0.0, 1.6626782841390414E9, 0.0, 2022-09-08 19:04:44.139
54.0, -1544.0361552281565, -147.27564421601824, -25501.887560115763, -25371.040448074396, -12203.203106308354, 3948.9273964080094, 63269.45135229247, 26723.43274634275, -13059.140808479884, -2643.2725957957027, -16950.35600070429, -21028.699997508527, 6873.899027573947, -8471.758183450484, -10170.982500431837, -7744.454770619246, 0.22, 0.876, 0.386, 192.0, 0.0, 0.0, 0.0, 0.0, 0.0, 0.0, 0.0, 0.0, 0.0, 1.6626782841390464E9, 0.0, 2022-09-08 19:04:44.139
56.0, -1540.5492830931287, -141.06185925744288, -25498.311281002916, -25363.954945082063, -12214.870716914025, 3949.039155130286, 63212.1191277646, 26714.313234604986, -13061.957128281252, -2646.9159301419177, -16947.83025358084, -21030.175212642578, 6880.336329977075, -8478.329596320344, -10180.839619736627, -7758.893997537375, 0.22, 0.876, 0.386, 192.0, 0.0, 0.0, 0.0, 0.0, 0.0, 0.0, 0.0, 0.0, 0.0, 1.662678284139052E9, 0.0, 2022-09-08 19:04:44.139
58.0, -1528.4346375983523, -130.33302191889547, -25492.633937911265, -25355.34952346677, -12179.957292074836, 3973.804887986766, 63262.18703534449, 26742.811708785503, -13055.519825878124, -2630.7556189007305, -16944.16456749017, -21016.58535201375, 6848.619204594995, -8461.230511812033, -10179.63262553604, -7749.305099166048, 0.224, 0.878, 0.38, 192.0, 3.5, 0.0, 13.5, 56.0, 5.5, 112.0, 0.0, 0.0, 0.0, 1.6626782841390572E9, 0.0, 2022-09-08 19:04:44.139
60.0, -1523.2713846291763, -127.38259165079495, -25477.971193548587, -25348.86751757473, -12190.350853246553, 3965.2441698603834, 63206.97822653988, 26718.604769540405, -13045.14861645086, -2626.8887671099624, -16933.547488873897, -21011.399747300118, 6912.411083270441, -8447.439485483108, -10168.34499458611, -7746.220558431216, 0.224, 0.878, 0.38, 192.0, 0.0, 0.0, 0.0, 0.0, 0.0, 0.0, 0.0, 0.0, 0.0, 1.662678284139062E9, 0.0, 2022-09-08 19:04:44.139
62.0, -1528.702858531816, -131.45060914166083, -25477.166530748193, -25356.757683367454, -12205.192411564876, 3954.7835534552996, 63262.41055278904, 26727.545467322525, -13036.431436113291, -2622.418418218901, -16923.77977654693, -21006.951750153512, 6909.125376835511, -8450.926357618137, -10155.045706635203, -7736.855177504442, 0.224, 0.878, 0.38, 192.0, 0.0, 0.0, 0.0, 0.0, 0.0, 0.0, 0.0, 0.0, 0.0, 1.6626782841390676E9, 0.0, 2022-09-08 19:04:44.139
64.0, -1526.6464980419278, -130.26596668552955, -25467.354114932314, -25346.20765998455, -12194.351815504053, 3957.5328180233028, 63214.6225231436, 26726.941970222233, -13044.053380972551, -2639.8527788940405, -16926.01495099246, -21017.68058749206, 6902.93394362139, -8447.014802338457, -10162.265320094266, -7749.662727077333, 0.224, 0.878, 0.38, 192.0, 0.0, 0.0, 0.0, 0.0, 0.0, 0.0, 0.0, 0.0, 0.0, 1.66267828413909E9, 0.0, 2022-09-08 19:04:44.139
66.0, -1529.0828381875563, -134.64690859876976, -25489.974080321084, -25362.658543903657, -12198.93392311739, 3947.139256851585, 63277.94501518548, 26721.219923641675, -13029.882374987887, -2626.7993601321414, -16912.715663041552, -21005.185962341544, 6902.2857430321865, -8455.91079663167, -10153.235215334322, -7746.354668897948, 0.224, 0.878, 0.38, 192.0, 0.0, 0.0, 0.0, 0.0, 0.0, 0.0, 0.0, 0.0, 0.0, 1.6626782841390953E9, 0.0, 2022-09-08 19:04:44.139
68.0, -1524.6571927854054, -131.49531263057145, -25491.739868133052, -25357.763511867943, -12176.2245507508, 3952.883655176599, 63235.49905246485, 26716.324891605964, -13039.337162892482, -2630.4426944783563, -16914.54850608689, -21011.53385776685, 6880.984530566279, -8455.664927442662, -10169.999023675802, -7760.637433604888, 0.222, 0.879, 0.383, 192.0, 3.0, 112.0, 13.5, 64.0, 6.0, 8.0, 0.0, 0.0, 0.0, 1.662678284139102E9, 0.0, 2022-09-08 19:04:44.139
70.0, -1529.6639835433941, -135.67508884371387, -25504.413307239214, -25366.100712549774, -12183.93590258788, 3957.264597089839, 63281.43188732051, 26744.845717530934, -13033.168081422817, -2620.5185199402, -16912.358035130266, -21008.96340715449, 6892.138051049477, -8454.279119286433, -10173.463544066375, -7752.791971301076, 0.222, 0.879, 0.383, 192.0, 0.0, 0.0, 0.0, 0.0, 0.0, 0.0, 0.0, 0.0, 0.0, 1.6626782841391072E9, 0.0, 2022-09-08 19:04:44.139
72.0, -1527.54056782014, -134.98218476559936, -25492.74569663354, -25358.612878157244, -12200.543248718173, 3961.779649469811, 63236.79545364326, 26731.904057491312, -13052.77056131012, -2629.9509561003397, -16921.29873291239, -21021.078052649267, 6924.615135743039, -8447.774761649938, -10174.53642780023, -7757.44113414778, 0.222, 0.879, 0.383, 192.0, 0.0, 0.0, 0.0, 0.0, 0.0, 0.0, 0.0, 0.0, 0.0, 1.6626782841391122E9, 0.0, 2022-09-08 19:04:44.139
74.0, -1518.5551665491066, -124.25334742705196, -25485.928414574675, -25357.987029312495, -12200.230324295799, 3956.2811203338056, 63268.71374472544, 26718.71652826268, -13043.002848983151, -2617.61279316101, -16905.5407530714, -21006.415308286585, 6910.466481502829, -8451.708668674073, -10167.942663185915, -7753.574282357012, 0.222, 0.879, 0.383, 192.0, 0.0, 0.0, 0.0, 0.0, 0.0, 0.0, 0.0, 0.0, 0.0, 1.6626782841391172E9, 0.0, 2022-09-08 19:04:44.139
76.0, -1526.1100561750004, -127.15907420624188, -25480.206367994117, -25356.265944989438, -12191.177867791399, 3961.064393647241, 63236.907212365535, 26696.543597763015, -13041.527633849102, -2611.7342843692645, -16896.577703544823, -21003.286064062842, 6906.376112267508, -8436.442427211097, -10157.01266014727, -7761.933834783296, 0.222, 0.879, 0.383, 192.0, 0.0, 0.0, 0.0, 0.0, 0.0, 0.0, 0.0, 0.0, 0.0, 1.662678284139122E9, 0.0, 2022-09-08 19:04:44.139
78.0, -1519.605698538506, -123.98512649358828, -25482.91092907321, -25355.528337422413, -12185.120545044012, 3956.817562200733, 63255.593270730176, 26704.85844670039, -13041.237061171183, -2617.478682694278, -16892.241465120493, -21002.570808240274, 6908.588934968583, -8449.115866317257, -10159.560759015174, -7762.090296994484, 0.22, 0.8765000000000001, 0.3855, 192.0, 3.0, 104.0, 13.5, 40.0, 6.0, 16.0, 0.0, 0.0, 0.0, 1.6626782841391273E9, 0.0, 2022-09-08 19:04:44.139
80.0, -1520.9691549502797, -125.50504511654916, -25484.408495951713, -25351.39326469818, -12191.446088724862, 3949.8214661862216, 63234.51557570882, 26658.009190322067, -13035.425607612802, -2610.1473105129376, -16889.91688369714, -21001.25205531741, 6916.74732169477, -8444.466703470553, -10156.431514791431, -7758.8716457929195, 0.22, 0.8765000000000001, 0.3855, 192.0, 0.0, 0.0, 0.0, 0.0, 0.0, 0.0, 0.0, 0.0, 0.0, 1.6626782841391323E9, 0.0, 2022-09-08 19:04:44.139
82.0, -1528.0993614315225, -133.14934172026418, -25498.80301938093, -25360.35631422476, -12193.0777660701, 3944.457047516948, 63271.35125057116, 26688.56402499247, -13038.554851836545, -2619.713857139809, -16902.925598970127, -21009.321035065776, 6901.212859298332, -8439.1916917791, -10159.359593315077, -7760.369212671425, 0.22, 0.8765000000000001, 0.3855, 192.0, 0.0, 0.0, 0.0, 0.0, 0.0, 0.0, 0.0, 0.0, 0.0, 1.6626782841391373E9, 0.0, 2022-09-08 19:04:44.139
84.0, -1525.3500968635199, -125.75091430555753, -25493.550359433935, -25352.287334476394, -12192.809545136637, 3957.577521512213, 63253.29104105128, 26694.397830295307, -13037.571375080512, -2613.030685547672, -16904.847848993286, -21006.996453642423, 6895.379053995497, -8448.713534917062, -10155.649203735496, -7745.550006097556, 0.22, 0.8765000000000001, 0.3855, 192.0, 0.0, 0.0, 0.0, 0.0, 0.0, 0.0, 0.0, 0.0, 0.0, 1.6626782841391423E9, 0.0, 2022-09-08 19:04:44.139
86.0, -1517.6163932819836, -120.00651598054363, -25492.99156582255, -25351.30385772036, -12201.482021985295, 3951.6990127204676, 63268.80315170326, 26684.607766223882, -13039.67243905931, -2613.7235896257866, -16901.271569880435, -21004.560113496795, 6893.233286527788, -8434.587232421307, -10153.257567078777, -7742.331354895992, 0.22, 0.8765000000000001, 0.3855, 192.0, 0.0, 0.0, 0.0, 0.0, 0.0, 0.0, 0.0, 0.0, 0.0, 1.6626782841391473E9, 0.0, 2022-09-08 19:04:44.139
88.0, -1530.893329488436, -137.3961731667725, -25497.417211224703, -25362.68089564811, -12218.245830326776, 3954.1130011216405, 63255.61562247463, 26658.590335677905, -13037.169043680316, -2608.359170956513, -16899.14815415718, -21004.940093152534, 6914.109815849044, -8452.289814029911, -10167.383869574533, -7749.238043932682, 0.219, 0.87625, 0.38375000000000004, 192.0, 3.0, 104.0, 13.5, 48.0, 5.5, 120.0, 0.0, 0.0, 0.0, 1.662678284139152E9, 0.0, 2022-09-08 19:04:44.139
90.0, -1521.1032654170115, -129.05897248494298, -25492.276309999983, -25357.428235701114, -12202.577257463607, 3962.740774481389, 63238.51653796632, 26655.528146687528, -13037.392561124869, -2616.6069646605215, -16899.30461636837, -21011.66796823358, 6921.888222919491, -8450.971061107048, -10173.620006277562, -7759.430439404302, 0.219, 0.87625, 0.38375000000000004, 192.0, 0.0, 0.0, 0.0, 0.0, 0.0, 0.0, 0.0, 0.0, 0.0, 1.662678284139157E9, 0.0, 2022-09-08 19:04:44.139
92.0, -1516.2752886146652, -124.87919627180055, -25487.04600179744, -25353.561383910346, -12194.061242826134, 3951.6319574871013, 63253.22398581791, 26647.772091361534, -13023.981514451685, -2618.9762495727837, -16896.06361342235, -21011.44445078903, 6895.110833062034, -8444.28788951491, -10167.20505561889, -7753.641337590378, 0.219, 0.87625, 0.38375000000000004, 192.0, 0.0, 0.0, 0.0, 0.0, 0.0, 0.0, 0.0, 0.0, 0.0, 1.662678284139162E9, 0.0, 2022-09-08 19:04:44.139
94.0, -1500.24908784021, -111.33403913188448, -25475.08781851385, -25343.078415760807, -12176.60453040654, 3963.008995414853, 63259.43777077649, 26673.007210851578, -13015.979589936685, -2600.84898481953, -16878.29397658038, -20997.765183182382, 6906.733740178793, -8417.868127568738, -10155.62685199104, -7748.925119510308, 0.219, 0.87625, 0.38375000000000004, 192.0, 0.0, 0.0, 0.0, 0.0, 0.0, 0.0, 0.0, 0.0, 0.0, 1.6626782841391673E9, 0.0, 2022-09-08 19:04:44.139
96.0, -1517.1693583928775, -127.80727479544578, -25478.775856348977, -25350.633305386702, -12203.337216775086, 3953.285986576794, 63278.45910530796, 26650.051969295975, -13020.204069638738, -2606.70514186682, -16884.038374905394, -21001.38616578414, 6922.111740364045, -8435.034267310413, -10157.01266014727, -7747.606366587444, 0.219, 0.87625, 0.38375000000000004, 192.0, 0.0, 0.0, 0.0, 0.0, 0.0, 0.0, 0.0, 0.0, 0.0, 1.662678284139172E9, 0.0, 2022-09-08 19:04:44.139
98.0, -1528.8816724874584, -140.72658309061327, -25492.455123955624, -25362.8373578593, -12195.379995748997, 3932.1188845776182, 63220.85865984663, 26616.83727703539, -13041.929965249297, -2626.6652496654096, -16899.05874717936, -21016.741814224937, 6880.671606143905, -8453.921491375148, -10170.58016903164, -7769.645186620377, 0.2195, 0.882125, 0.381875, 192.0, 3.0, 112.0, 13.5, 96.0, 5.5, 112.0, 0.0, 0.0, 0.0, 1.662678284139177E9, 0.0, 2022-09-08 19:04:44.139
100.0, -1525.3724486079752, -144.21345522564116, -25493.706821645123, -25366.458340461057, -12180.605492664039, 3935.6281084571015, 63291.4901723254, 26618.066622980434, -13049.283689175092, -2625.748828142742, -16902.903247225673, -21019.580485770763, 6932.728818980315, -8460.33644203382, -10152.139979856012, -7767.611177874945, 0.2195, 0.882125, 0.381875, 192.0, 0.0, 0.0, 0.0, 0.0, 0.0, 0.0, 0.0, 0.0, 0.0, 1.6626782841391833E9, 0.0, 2022-09-08 19:04:44.139
102.0, -1535.3860301239527, -146.8509610713674, -25501.217007782103, -25371.30866900786, -12184.584103177083, 3924.6981054184566, 63248.57482297121, 26614.333881656396, -13045.014505984129, -2632.3202410126023, -16905.87602923823, -21027.336541096753, 6911.315847792131, -8463.666851957661, -10158.465523536865, -7781.201038503771, 0.2195, 0.882125, 0.381875, 192.0, 0.0, 0.0, 0.0, 0.0, 0.0, 0.0, 0.0, 0.0, 0.0, 1.6626782841391883E9, 0.0, 2022-09-08 19:04:44.139
104.0, -1527.1605881643998, -134.84807429886752, -25496.590196679856, -25363.06087530385, -12199.470364984318, 3931.6047944551465, 63278.97319543042, 26649.314361728953, -13048.859006030441, -2622.3066594966244, -16906.837154249806, -21016.63005550266, 6897.658931929938, -8443.952613348081, -10160.365421815566, -7773.82496283352, 0.2195, 0.882125, 0.381875, 192.0, 0.0, 0.0, 0.0, 0.0, 0.0, 0.0, 0.0, 0.0, 0.0, 1.6626782841391933E9, 0.0, 2022-09-08 19:04:44.139
106.0, -1526.8700154864807, -135.4515713991608, -25492.455123955624, -25355.43893044459, -12204.208934808843, 3950.4026115420597, 63213.30377022074, 26659.21618452265, -13041.05824721554, -2611.7342843692645, -16896.354186100267, -21009.67866297706, 6916.769673439226, -8450.144046562202, -10165.05928815118, -7762.91731153933, 0.2195, 0.882125, 0.381875, 192.0, 0.0, 0.0, 0.0, 0.0, 0.0, 0.0, 0.0, 0.0, 0.0, 1.662678284139198E9, 0.0, 2022-09-08 19:04:44.139
108.0, -1521.8185212395813, -130.73535331909102, -25488.67767914268, -25353.293162976883, -12198.017501594722, 3935.7622189238336, 63289.76908800234, 26626.73909982909, -13043.002848983151, -2615.0199908041945, -16893.001424431972, -21007.063508875788, 6886.50541144674, -8462.48220950153, -10158.666689236963, -7753.127247467905, 0.21975, 0.8850625000000001, 0.38193750000000004, 192.0, 3.0, 112.0, 13.5, 96.0, 5.5, 120.0, 0.0, 0.0, 0.0, 1.662678284139203E9, 0.0, 2022-09-08 19:04:44.139
110.0, -1519.091608416034, -128.34371666237314, -25483.492074429047, -25348.9345728081, -12187.422774722907, 3941.5066172488473, 63254.386276529585, 26607.114268197332, -13039.448921614758, -2613.1871477588593, -16888.978110430016, -21006.370604797674, 6903.895068632969, -8433.939031832104, -10157.638508992019, -7761.084468493995, 0.21975, 0.8850625000000001, 0.38193750000000004, 192.0, 0.0, 0.0, 0.0, 0.0, 0.0, 0.0, 0.0, 0.0, 0.0, 1.662678284139208E9, 0.0, 2022-09-08 19:04:44.139
112.0, -1521.4161898393859, -134.31163243194013, -25493.773876878487, -25355.550689166867, -12202.51020223024, 3939.4949602478696, 63289.5902740467, 26640.775995347023, -13038.95718323674, -2616.294040238147, -16895.370709344235, -21009.075165876766, 6892.473327216307, -8446.456008727075, -10159.404296803987, -7756.256491691648, 0.21975, 0.8850625000000001, 0.38193750000000004, 192.0, 0.0, 0.0, 0.0, 0.0, 0.0, 0.0, 0.0, 0.0, 0.0, 1.6626782841392128E9, 0.0, 2022-09-08 19:04:44.139
114.0, -1521.6844107728496, -131.51766437502675, -25481.435713939158, -25348.711055363543, -12182.773611876204, 3952.235454587395, 63219.40579645703, 26630.583599875405, -13036.409084368835, -2613.0530372921276, -16889.179276130115, -21008.605779243208, 6905.303228533653, -8440.108113301769, -10162.019450905258, -7755.720049824721, 0.21975, 0.8850625000000001, 0.38193750000000004, 192.0, 0.0, 0.0, 0.0, 0.0, 0.0, 0.0, 0.0, 0.0, 0.0, 1.6626782841392176E9, 0.0, 2022-09-08 19:04:44.139
116.0, -1517.1023031595116, -127.98608875108825, -25475.80307433642, -25345.96179079554, -12188.897989856958, 3951.743716209378, 63305.10238469868, 26636.976198789624, -13034.822110512509, -2614.0812175370716, -16891.615616275743, -21006.39295654213, 6917.864908917536, -8450.38991575121, -10149.591880988108, -7752.747267812165, 0.21975, 0.8850625000000001, 0.38193750000000004, 192.0, 0.0, 0.0, 0.0, 0.0, 0.0, 0.0, 0.0, 0.0, 0.0, 1.6626782841392236E9, 0.0, 2022-09-08 19:04:44.139
118.0, -1520.1868438943438, -131.9870510085882, -25479.491112171545, -25345.179479739607, -12193.278931770199, 3942.6018527271576, 63239.298849022256, 26622.246399193577, -13032.38577036688, -2609.4097029459126, -16890.587436030797, -21001.63203497315, 6918.490757762284, -8428.485206185009, -10146.909671653471, -7750.91442476683, 0.21787499999999999, 0.8855312500000001, 0.38096875, 192.0, 3.0, 96.0, 13.5, 88.0, 5.5, 112.0, 0.0, 0.0, 0.0, 1.6626782841392283E9, 0.0, 2022-09-08 19:04:44.139
120.0, -1517.2364136262433, -129.64011784078096, -25488.588272164856, -25356.40005545617, -12195.715271915828, 3942.0430591157747, 63305.996454476895, 26617.17255320222, -13033.033970956085, -2604.13469125446, -16893.873142465727, -21004.135430352144, 6913.774539682215, -8439.281098756921, -10152.251738578288, -7755.943567269274, 0.21787499999999999, 0.8855312500000001, 0.38096875, 192.0, 0.0, 0.0, 0.0, 0.0, 0.0, 0.0, 0.0, 0.0, 0.0, 1.6626782846180775E9, 0.0, 2022-09-08 19:04:44.618
122.0, -1525.9759457082685, -138.9160917897334, -25492.38806872226, -25361.11627353624, -12200.878524885002, 3938.0868003471855, 63246.786683414786, 26592.049192434453, -13040.767674537621, -2618.8868425949627, -16900.601017546775, -21017.479421791963, 6896.966027851824, -8454.48028498653, -10165.126343384545, -7770.941587798785, 0.21787499999999999, 0.8855312500000001, 0.38096875, 192.0, 0.0, 0.0, 0.0, 0.0, 0.0, 0.0, 0.0, 0.0, 0.0, 1.6626782846181111E9, 0.0, 2022-09-08 19:04:44.618
124.0, -1523.3384398625421, -134.11046673184237, -25487.068353541894, -25359.439892702092, -12199.98445510679, 3938.0197451138197, 63275.62043376213, 26597.614776803828, -13039.158348936839, -2623.9159850974065, -16898.522305312432, -21016.138317124645, 6903.3362750215865, -8461.364622278765, -10174.402317333499, -7770.002814531662, 0.21787499999999999, 0.8855312500000001, 0.38096875, 192.0, 0.0, 0.0, 0.0, 0.0, 0.0, 0.0, 0.0, 0.0, 0.0, 1.6626782846182008E9, 0.0, 2022-09-08 19:04:44.618
126.0, -1534.0002219677237, -146.69449886018026, -25479.24524298254, -25356.712979878543, -12191.021405580212, 3926.262727530328, 63260.01891613233, 26559.52740425198, -13040.991191982173, -2626.8217118765965, -16901.092755924794, -21017.322959580775, 6895.714330162326, -8454.837912897816, -10163.494666039309, -7766.49359065218, 0.21787499999999999, 0.8855312500000001, 0.38096875, 192.0, 0.0, 0.0, 0.0, 0.0, 0.0, 0.0, 0.0, 0.0, 0.0, 1.6626782846182067E9, 0.0, 2022-09-08 19:04:44.618
128.0, -1526.154759663911, -138.17848422270825, -25483.402667451224, -25354.902488577663, -12187.288664256175, 3937.4385997579816, 63290.84197173619, 26616.25613167955, -13046.735590307188, -2626.352325243035, -16900.936293713607, -21012.53968626734, 6891.534553949185, -8450.881654129225, -10161.371250316055, -7769.8463523204755, 0.2179375, 0.884765625, 0.381484375, 192.0, 3.0, 104.0, 13.5, 80.0, 5.5, 120.0, 0.0, 0.0, 0.0, 1.6626782846182125E9, 0.0, 2022-09-08 19:04:44.618
130.0, -1518.6892770158383, -130.24361494107424, -25472.316202201393, -25344.285409961394, -12198.866867884026, 3952.4589720319477, 63244.3279915247, 26614.356233400853, -13040.991191982173, -2614.908232081918, -16896.53300005591, -21003.286064062842, 6902.732777921293, -8448.735886661516, -10147.759037942773, -7752.076715478506, 0.2179375, 0.884765625, 0.381484375, 192.0, 0.0, 0.0, 0.0, 0.0, 0.0, 0.0, 0.0, 0.0, 0.0, 1.662678284618218E9, 0.0, 2022-09-08 19:04:44.618
132.0, -1522.086742173045, -136.77032432202392, -25486.934243075164, -25357.674104890124, -12206.93584763239, 3931.448332243959, 63268.579634258705, 26564.48949152106, -13034.129206434394, -2607.398045944935, -16898.432898334613, -21002.503753006906, 6918.826033929114, -8433.067313798347, -10149.3460117991, -7753.507227123646, 0.2179375, 0.884765625, 0.381484375, 192.0, 0.0, 0.0, 0.0, 0.0, 0.0, 0.0, 0.0, 0.0, 0.0, 1.6626782846182292E9, 0.0, 2022-09-08 19:04:44.618
134.0, -1527.9652509647908, -139.5866441233926, -25494.444429212148, -25361.272735747425, -12199.872696384513, 3939.807884670244, 63259.147198098566, 26614.08801246739, -13049.194282197272, -2612.4271884473787, -16909.921694984638, -21015.221895601975, 6897.457766229841, -8463.599796724297, -10161.192436360412, -7762.939663283785, 0.2179375, 0.884765625, 0.381484375, 192.0, 0.0, 0.0, 0.0, 0.0, 0.0, 0.0, 0.0, 0.0, 0.0, 1.6626782846182337E9, 0.0, 2022-09-08 19:04:44.618
136.0, -1512.25197461271, -120.252385169552, -25483.223853495583, -25346.341770451283, -12180.471382197307, 3949.9555766529534, 63266.09859062417, 26633.60108537687, -13042.555814094045, -2607.5098046672115, -16896.86827622274, -21004.649520474617, 6908.723045435316, -8440.510444701964, -10158.756096214784, -7753.976613757207, 0.2179375, 0.884765625, 0.381484375, 192.0, 0.0, 0.0, 0.0, 0.0, 0.0, 0.0, 0.0, 0.0, 0.0, 1.662678284618238E9, 0.0, 2022-09-08 19:04:44.618
138.0, -1523.0925706735338, -128.96956550712176, -25479.75933310501, -25344.888907061686, -12193.41304223693, 3942.490094004881, 63240.86347113413, 26624.191000961186, -13043.114607705427, -2602.972400542784, -16892.95672094306, -20992.78074416885, 6906.17494656741, -8423.992505549491, -10159.538407270718, -7746.824055531509, 0.2179375, 0.884765625, 0.381484375, 192.0, 0.0, 0.0, 0.0, 0.0, 0.0, 0.0, 0.0, 0.0, 0.0, 1.6626782846182425E9, 0.0, 2022-09-08 19:04:44.618
140.0, -1520.0974369165226, -128.29901317346253, -25477.077123770374, -25343.39134018318, -12189.054452068145, 3958.0916116346853, 63204.85481081663, 26618.670120080726, -13044.902747261853, -2609.4097029459126, -16898.76817450144, -20999.44156401653, 6930.203071856866, -8426.540604417396, -10163.829942206137, -7753.037840490084, 0.22, 0.88, 0.38, 192.0, 3.0, 112.0, 13.5, 64.0, 5.5, 112.0, 0.0, 0.0, 0.0, 1.6626782846182473E9, 0.0, 2022-09-08 19:04:44.618
142.0, -1520.566823550084, -131.58471960839267, -25480.67575462768, -25351.34856120927, -12196.095251571567, 3941.3725067821156, 63272.647651749576, 26566.747017711048, -13044.321601906015, -2606.7274936112753, -16901.137459413705, -21000.983834383947, 6909.818280913625, -8443.930261603626, -10161.818285205161, -7757.508189381146, 0.22, 0.88, 0.38, 192.0, 0.0, 0.0, 0.0, 0.0, 0.0, 0.0, 0.0, 0.0, 0.0, 1.6626782846182516E9, 0.0, 2022-09-08 19:04:44.618
144.0, -1511.0449804121233, -127.58375735089271, -25482.307431972913, -25351.080340275807, -12200.230324295799, 3931.3365735216826, 63258.67781146501, 26577.788779471968, -13034.084502945483, -2600.558412141611, -16890.699194753077, -20998.59219772723, 6908.2089553128435, -8437.224738267034, -10149.368363543554, -7767.901750552864, 0.22, 0.88, 0.38, 192.0, 0.0, 0.0, 0.0, 0.0, 0.0, 0.0, 0.0, 0.0, 0.0, 1.662678284618256E9, 0.0, 2022-09-08 19:04:44.618
146.0, -1515.7611984921932, -131.91999577522228, -25491.069315799396, -25355.573040911324, -12191.401385235953, 3932.9458991224647, 63264.71278246794, 26633.064643509944, -13040.477101859702, -2613.8353483480632, -16897.67293902313, -21004.135430352144, 6878.16821076491, -8450.322860517843, -10164.366384073066, -7762.53733188359, 0.22, 0.88, 0.38, 192.0, 0.0, 0.0, 0.0, 0.0, 0.0, 0.0, 0.0, 0.0, 0.0, 1.6626782846182604E9, 0.0, 2022-09-08 19:04:44.618
148.0, -1507.3345908325423, -122.10757995934249, -25481.212196494605, -25349.87334607522, -12202.353740019053, 3951.453143531459, 63253.67102070702, 26661.741931646102, -13033.86098550093, -2610.8849180799625, -16887.18997087359, -21002.01201462889, 6888.338254492075, -8452.043944840902, -10156.900901424993, -7759.206921959749, 0.22, 0.88, 0.38, 192.0, 0.0, 0.0, 0.0, 0.0, 0.0, 0.0, 0.0, 0.0, 0.0, 1.6626782846182659E9, 0.0, 2022-09-08 19:04:44.618
150.0, -1513.123692646467, -128.61193759583685, -25481.547472661434, -25353.5837356548, -12197.592818450072, 3930.8895386325767, 63284.76229724435, 26642.877059325823, -13033.86098550093, -2606.32516221108, -16884.53011328341, -20989.830313900748, 6923.966935153835, -8433.782569620917, -10153.861064179071, -7751.249700933659, 0.212, 0.88, 0.376, 192.0, 3.0, 80.0, 13.5, 64.0, 5.5, 96.0, 0.0, 0.0, 0.0, 1.6626782846182704E9, 0.0, 2022-09-08 19:04:44.618
152.0, -1522.667887528883, -134.71396383213568, -25487.135408775262, -25363.44085495959, -12200.073862084611, 3932.2976985332607, 63234.89555536456, 26614.356233400853, -13044.880395517397, -2616.5175576827, -16896.15302040017, -21003.39782278512, 6910.2653158027315, -8446.076029071335, -10167.316814341166, -7771.187456987794, 0.212, 0.88, 0.376, 192.0, 0.0, 0.0, 0.0, 0.0, 0.0, 0.0, 0.0, 0.0, 0.0, 1.6626782846182747E9, 0.0, 2022-09-08 19:04:44.618
154.0, -1519.6951055163272, -128.54488236247093, -25487.60479540882, -25358.501119434968, -12199.85034464006, 3930.6883729324786, 63286.6398437786, 26637.155012745265, -13047.786122296588, -2616.070522793594, -16906.658340294165, -21005.208314085998, 6902.50926047674, -8449.227625039533, -10163.651128250496, -7763.990195273184, 0.212, 0.88, 0.376, 192.0, 0.0, 0.0, 0.0, 0.0, 0.0, 0.0, 0.0, 0.0, 0.0, 1.6626782846182792E9, 0.0, 2022-09-08 19:04:44.618
156.0, -1521.215024139288, -129.37189690731728, -25489.683507643167, -25355.394226955683, -12183.51121944323, 3930.174282810007, 63222.4232819585, 26612.433983377694, -13046.579128096, -2606.459272677812, -16900.377500102222, -21000.1568198391, 6897.4130627409295, -8440.152816790678, -10170.714279498372, -7761.665613849833, 0.212, 0.88, 0.376, 192.0, 0.0, 0.0, 0.0, 0.0, 0.0, 0.0, 0.0, 0.0, 0.0, 1.6626782846182835E9, 0.0, 2022-09-08 19:04:44.618
158.0, -1518.9798496937574, -129.37189690731728, -25492.723344889087, -25357.74116012349, -12185.388765977475, 3943.3394602941826, 63264.64572723457, 26645.201640749176, -13044.746285050665, -2604.224098232281, -16899.371671601733, -20999.642729716626, 6891.914533604924, -8460.425849011643, -10167.54033178572, -7757.597596358967, 0.212, 0.88, 0.376, 192.0, 0.0, 0.0, 0.0, 0.0, 0.0, 0.0, 0.0, 0.0, 0.0, 1.662678284618288E9, 0.0, 2022-09-08 19:04:44.618
160.0, -1534.5590155791065, -144.32521394791772, -25487.85066459783, -25360.06574154684, -12211.026216867713, 3938.042096858275, 63217.66236038952, 26609.952939743154, -13050.468331631224, -2616.294040238147, -16908.714700784054, -21012.91966592308, 6900.385844753486, -8440.443389468597, -10179.364404602577, -7770.695718609777, 0.214, 0.88, 0.382, 192.0, 3.0, 88.0, 13.5, 64.0, 5.5, 120.0, 0.0, 0.0, 0.0, 1.6626782846182923E9, 0.0, 2022-09-08 19:04:44.618
162.0, -1527.92054747588, -137.3961731667725, -25479.871091827285, -25351.77324435392, -12189.926170101902, 3947.6086434851463, 63269.11607612563, 26629.242495208087, -13042.645221071867, -2609.4767581792785, -16904.132593170714, -21002.459049518, 6901.928115120902, -8435.704819644072, -10159.985442159825, -7752.747267812165, 0.214, 0.88, 0.382, 192.0, 0.0, 0.0, 0.0, 0.0, 0.0, 0.0, 0.0, 0.0, 0.0, 1.662678284618297E9, 0.0, 2022-09-08 19:04:44.618
164.0, -1520.3656578499863, -137.3067661889513, -25474.28315571346, -25349.49336641948, -12190.149687546455, 3947.228663829406, 63215.78481385527, 26625.17447771722, -13051.116532220429, -2617.456330949823, -16909.87699149573, -21014.752508968417, 6898.038911585679, -8450.613433195762, -10168.367346330566, -7760.883302793897, 0.214, 0.88, 0.382, 192.0, 0.0, 0.0, 0.0, 0.0, 0.0, 0.0, 0.0, 0.0, 0.0, 1.6626782846183026E9, 0.0, 2022-09-08 19:04:44.618
166.0, -1512.900175201914, -134.445742898672, -25479.871091827285, -25359.931631080108, -12186.014614822223, 3956.7058034784563, 63284.38231758861, 26636.08212901141, -13032.966915722718, -2606.839252333552, -16893.359052343258, -21002.928436151557, 6921.284725819198, -8451.306337273876, -10152.452904278387, -7743.739514796676, 0.214, 0.88, 0.382, 192.0, 0.0, 0.0, 0.0, 0.0, 0.0, 0.0, 0.0, 0.0, 0.0, 1.662678284618307E9, 0.0, 2022-09-08 19:04:44.618
168.0, -1528.702858531816, -149.4214116837277, -25493.215083267103, -25375.756666154466, -12193.41304223693, 3935.2704805458166, 63229.35232273964, 26597.905349481745, -13046.735590307188, -2628.4086857329235, -16905.786622260406, -21022.39680557213, 6892.540382449673, -8453.697973930595, -10167.562683530174, -7770.159276742849, 0.214, 0.88, 0.382, 192.0, 0.0, 0.0, 0.0, 0.0, 0.0, 0.0, 0.0, 0.0, 0.0, 1.6626782846183116E9, 0.0, 2022-09-08 19:04:44.618
170.0, -1515.314163603087, -137.7090975891468, -25488.67767914268, -25371.420427730136, -12180.493733941763, 3933.370582267116, 63268.75844821435, 26630.44948940867, -13040.72297104871, -2630.286232267169, -16907.10537518327, -21021.92741893857, 6902.621019199017, -8453.139180319213, -10174.11174465558, -7776.864800079442, 0.22, 0.878, 0.39, 192.0, 3.0, 112.0, 13.5, 56.0, 6.0, 24.0, 0.0, 0.0, 0.0, 1.662678284618316E9, 0.0, 2022-09-08 19:04:44.618
172.0, -1525.439503841341, -146.94036804918863, -25491.47164719959, -25372.470959719536, -12191.84842012506, 3933.5717479672135, 63230.51461345132, 26645.827489593925, -13036.677305302299, -2622.261956007714, -16904.15494491517, -21017.97116016998, 6917.395522283974, -8443.080895314324, -10168.836732964128, -7762.358517927947, 0.22, 0.878, 0.39, 192.0, 0.0, 0.0, 0.0, 0.0, 0.0, 0.0, 0.0, 0.0, 0.0, 1.6626782846183205E9, 0.0, 2022-09-08 19:04:44.618
174.0, -1516.1188264034781, -135.20570221015242, -25490.488170443557, -25361.742122380987, -12213.619019224529, 3942.3112800492386, 63262.790532444786, 26647.436815194706, -13041.393523382369, -2625.9276420983842, -16914.213229920057, -21020.519259037883, 6898.195373796866, -8459.822351911349, -10180.705509269896, -7773.422631433325, 0.22, 0.878, 0.39, 192.0, 0.0, 0.0, 0.0, 0.0, 0.0, 0.0, 0.0, 0.0, 0.0, 1.6626782846183248E9, 0.0, 2022-09-08 19:04:44.618
176.0, -1509.34624783352, -127.2261294396078, -25477.166530748193, -25348.644000130178, -12203.471327241818, 3940.0761056037077, 63208.69931086294, 26632.93053304321, -13039.560680337034, -2612.4495401918343, -16899.438726835102, -21003.01784312938, 6891.825126627104, -8452.245110541, -10180.638454036529, -7764.839561562487, 0.22, 0.878, 0.39, 192.0, 0.0, 0.0, 0.0, 0.0, 0.0, 0.0, 0.0, 0.0, 0.0, 1.6626782846183293E9, 0.0, 2022-09-08 19:04:44.618
178.0, -1501.9701721632687, -124.11923696032012, -25478.79820809343, -25352.622610643222, -12203.493678986273, 3956.1246581226183, 63214.264895232314, 26666.32403925944, -13030.016485454618, -2603.3523801985243, -16882.786677215896, -20994.479476747452, 6901.346969765064, -8433.156720776167, -10172.033032421235, -7749.7744857996095, 0.22, 0.878, 0.39, 192.0, 0.0, 0.0, 0.0, 0.0, 0.0, 0.0, 0.0, 0.0, 0.0, 1.6626782846183343E9, 0.0, 2022-09-08 19:04:44.618
180.0, -1524.344268363031, -143.7217168476244, -25484.050868040427, -25364.379628226714, -12198.375129506008, 3944.613509728135, 63244.97619211391, 26642.050044780975, -13049.753075808654, -2616.5175576827, -16900.891590224695, -21013.12083162318, 6873.295530473653, -8462.951596135092, -10184.25943663829, -7760.324509182515, 0.22, 0.876, 0.388, 192.0, 3.0, 112.0, 13.5, 48.0, 6.0, 16.0, 0.0, 0.0, 0.0, 1.662678284618339E9, 0.0, 2022-09-08 19:04:44.618
182.0, -1521.5279485616625, -141.73241159110208, -25482.732115117564, -25361.853881103263, -12204.946542375868, 3946.155780095551, 63255.88384340809, 26658.724446144635, -13049.551910108556, -2620.8314443625745, -16902.657378036663, -21010.840953688737, 6884.136126534478, -8446.567767449353, -10167.808552719183, -7756.1670847138275, 0.22, 0.876, 0.388, 192.0, 0.0, 0.0, 0.0, 0.0, 0.0, 0.0, 0.0, 0.0, 0.0, 1.6626782846183436E9, 0.0, 2022-09-08 19:04:44.618
184.0, -1529.6639835433941, -147.27564421601824, -25483.246205240037, -25369.45347421807, -12195.871734127013, 3939.1596840810403, 63243.12099732411, 26619.22891369211, -13058.961994524241, -2629.861549122518, -16911.575724074333, -21019.02169215938, 6892.69684466086, -8452.043944840902, -10168.210884119379, -7757.508189381146, 0.22, 0.876, 0.388, 192.0, 0.0, 0.0, 0.0, 0.0, 0.0, 0.0, 0.0, 0.0, 0.0, 1.662678284618348E9, 0.0, 2022-09-08 19:04:44.618
186.0, -1521.8855764729474, -144.54873139247078, -25476.33951620335, -25360.15514852466, -12201.45967024084, 3953.2189313434283, 63251.77112242832, 26667.821606137946, -13052.01060199864, -2624.7653513867085, -16903.663206537152, -21015.60187525772, 6890.573428937606, -8455.664927442662, -10166.668613751963, -7756.703526580754, 0.22, 0.876, 0.388, 192.0, 0.0, 0.0, 0.0, 0.0, 0.0, 0.0, 0.0, 0.0, 0.0, 1.662678284618353E9, 0.0, 2022-09-08 19:04:44.618
188.0, -1530.4686463437852, -151.2989582179735, -25479.893443571742, -25361.11627353624, -12195.067071326623, 3935.6281084571015, 63263.550491756265, 26653.024751308534, -13048.814302541532, -2628.1851682883703, -16907.507706583467, -21013.366700812185, 6899.514126719729, -8468.316014804366, -10162.779410216739, -7749.170988699316, 0.22, 0.876, 0.388, 192.0, 0.0, 0.0, 0.0, 0.0, 0.0, 0.0, 0.0, 0.0, 0.0, 1.6626782846183574E9, 0.0, 2022-09-08 19:04:44.618
190.0, -1539.4540476148186, -162.72069963463542, -25490.488170443557, -25380.092904578796, -12206.555867976651, 3924.6981054184566, 63231.63220067409, 26624.973312017122, -13044.63452632839, -2635.9635753588173, -16913.363863630755, -21024.721386995483, 6909.661818702438, -8467.265482814966, -10172.323605099155, -7767.4994191526675, 0.22, 0.876, 0.386, 192.0, 3.0, 112.0, 13.5, 48.0, 6.0, 8.0, 0.0, 0.0, 0.0, 1.6626782846183617E9, 0.0, 2022-09-08 19:04:44.618
192.0, -1528.3005271316204, -153.1765047522193, -25482.75446686202, -25373.812064386853, -12204.253638297754, 3931.4706839884147, 63251.99463987287, 26617.194904946675, -13050.468331631224, -2644.3454795295575, -16917.990674733006, -21029.057625419813, 6892.1827545383885, -8461.923415890147, -10176.570436545664, -7772.774430844121, 0.22, 0.876, 0.386, 192.0, 0.0, 0.0, 0.0, 0.0, 0.0, 0.0, 0.0, 0.0, 0.0, 1.6626782846183662E9, 0.0, 2022-09-08 19:04:44.618
194.0, -1519.024553182668, -140.16778947923058, -25477.39004819275, -25368.06766606184, -12186.79692587816, 3943.9653091389314, 63240.841119389675, 26685.81476042447, -13045.752113551154, -2633.5272352131888, -16905.607808304765, -21016.87592469167, 6897.010731340734, -8466.460820014576, -10174.58113128914, -7766.694756352277, 0.22, 0.876, 0.386, 192.0, 0.0, 0.0, 0.0, 0.0, 0.0, 0.0, 0.0, 0.0, 0.0, 1.6626782846183708E9, 0.0, 2022-09-08 19:04:44.618
196.0, -1531.7426957777377, -148.25912097205173, -25493.43860071166, -25382.059858090863, -12211.585010479095, 3926.553300208247, 63267.77497145832, 26648.219126250642, -13042.824035027508, -2630.0850665670714, -16910.77106127394, -21018.708767737004, 6886.751280635748, -8474.641558485218, -10180.906674969992, -7762.135000483394, 0.22, 0.876, 0.386, 192.0, 0.0, 0.0, 0.0, 0.0, 0.0, 0.0, 0.0, 0.0, 0.0, 1.6626782846183763E9, 0.0, 2022-09-08 19:04:44.618
198.0, -1514.9565356918022, -129.7742283075128, -25483.670888384688, -25361.20568051406, -12215.094234358578, 3945.3064138062496, 63190.72850832087, 26649.60493440687, -13052.949375265764, -2635.4718369808006, -16910.793413018397, -21021.994474171934, 6883.2644085007205, -8471.646424728206, -10196.552896088708, -7774.8978465673745, 0.22, 0.876, 0.386, 192.0, 0.0, 0.0, 0.0, 0.0, 0.0, 0.0, 0.0, 0.0, 0.0, 1.6626782846183805E9, 0.0, 2022-09-08 19:04:44.618
200.0, -1505.3676373204753, -120.98999273657714, -25475.557205147412, -25348.644000130178, -12223.230269340309, 3945.8875591620877, 63242.87512813511, 26678.595146965403, -13047.96493625223, -2615.3776187154795, -16900.57866580232, -20998.77101168287, 6886.728928891293, -8456.782514665427, -10188.416861106976, -7752.38963990088, 0.218, 0.872, 0.384, 192.0, 3.0, 104.0, 13.5, 32.0, 6.0, 0.0, 0.0, 0.0, 0.0, 1.6626782846183853E9, 0.0, 2022-09-08 19:04:44.618
202.0, -1497.2986575721095, -112.56338507692637, -25465.633030609257, -25341.223220971016, -12203.672492941916, 3934.8010939122555, 63245.579689214195, 26643.45820468166, -13039.270107659115, -2604.7605400992084, -16891.68267150911, -20989.427982500554, 6886.460707957829, -8447.126561060735, -10168.00971841928, -7750.981480000196, 0.218, 0.872, 0.384, 192.0, 0.0, 0.0, 0.0, 0.0, 0.0, 0.0, 0.0, 0.0, 0.0, 1.6626782846183896E9, 0.0, 2022-09-08 19:04:44.618
204.0, -1503.4677390417742, -122.55461484844862, -25469.76810333349, -25346.721750107023, -12198.263370783732, 3942.6018527271576, 63290.17141940253, 26676.0470480975, -13030.999962210652, -2604.3135052101024, -16889.71571799704, -20985.449371987506, 6892.607437683039, -8450.76989540695, -10162.399430560998, -7746.332317153492, 0.218, 0.872, 0.384, 192.0, 0.0, 0.0, 0.0, 0.0, 0.0, 0.0, 0.0, 0.0, 0.0, 1.662678284618394E9, 0.0, 2022-09-08 19:04:44.618
206.0, -1507.0663698990786, -128.4107718957391, -25466.41534166519, -25348.509889663448, -12193.45774572584, 3938.936166636487, 63206.26297071731, 26649.35906521786, -13039.20305242575, -2614.282383237169, -16894.230770377013, -20999.463915760985, 6901.816356398625, -8444.779627892927, -10170.758982987283, -7759.6316051044, 0.218, 0.872, 0.384, 192.0, 0.0, 0.0, 0.0, 0.0, 0.0, 0.0, 0.0, 0.0, 0.0, 1.6626782846183984E9, 0.0, 2022-09-08 19:04:44.618
208.0, -1506.3734658209642, -126.82379803941227, -25462.168510218682, -25353.047293787873, -12185.969911333314, 3952.4142685430375, 63294.28414038231, 26682.998440623098, -13029.480043587691, -2608.9626680568063, -16891.34739534228, -20998.39103202713, 6906.934905878891, -8457.207197810078, -10152.855235678582, -7753.82015154602, 0.218, 0.872, 0.384, 192.0, 0.0, 0.0, 0.0, 0.0, 0.0, 0.0, 0.0, 0.0, 0.0, 1.6626782846184027E9, 0.0, 2022-09-08 19:04:44.618
210.0, -1508.7651024776821, -125.41563813872793, -25464.38133291976, -25354.45545368856, -12185.74639388876, 3954.649442988568, 63209.39221494106, 26662.56894619095, -13030.038837199074, -2620.0491333066384, -16891.97324418703, -21003.06254661829, 6916.210879827843, -8448.445313983597, -10158.15259911449, -7757.731706825699, 0.217, 0.875, 0.387, 192.0, 3.0, 96.0, 13.5, 56.0, 6.0, 24.0, 0.0, 0.0, 0.0, 1.6626782846184072E9, 0.0, 2022-09-08 19:04:44.618
212.0, -1506.8428524545257, -127.85197828435639, -25476.920661559187, -25363.194985770584, -12194.240056781777, 3949.68735571949, 63258.07431436471, 26691.80502793849, -13024.093273173961, -2613.5000721812335, -16901.137459413705, -21000.894427406125, 6927.431455544407, -8445.383124993221, -10161.661822993974, -7754.781276557598, 0.217, 0.875, 0.387, 192.0, 0.0, 0.0, 0.0, 0.0, 0.0, 0.0, 0.0, 0.0, 0.0, 1.6626782846184115E9, 0.0, 2022-09-08 19:04:44.618
214.0, -1525.0595241856008, -144.0346412699987, -25490.28700474346, -25375.130817309717, -12211.27208605672, 3938.5114834918363, 63212.90143882054, 26683.065495856466, -13037.616078569423, -2624.1842060308704, -16918.102433455282, -21018.149974125623, 6895.669626673416, -8448.467665728052, -10176.25751212329, -7763.163180728338, 0.217, 0.875, 0.387, 192.0, 0.0, 0.0, 0.0, 0.0, 0.0, 0.0, 0.0, 0.0, 0.0, 1.662678284618416E9, 0.0, 2022-09-08 19:04:44.618
216.0, -1526.2665183861875, -149.57787389491486, -25500.702917659633, -25391.112314595262, -12226.918307175436, 3925.256899029839, 63269.987794159395, 26660.42317872324, -13039.784197781588, -2634.421304991401, -16927.177241704136, -21026.710692252003, 6906.5102227342395, -8466.214950825566, -10187.835715751138, -7774.607273889455, 0.217, 0.875, 0.387, 192.0, 0.0, 0.0, 0.0, 0.0, 0.0, 0.0, 0.0, 0.0, 0.0, 1.6626782846184204E9, 0.0, 2022-09-08 19:04:44.618
218.0, -1528.8369689985477, -151.34366170688412, -25499.495923459046, -25387.223111060037, -12220.816280939136, 3917.9925820818644, 63190.10265947613, 26655.57285017644, -13046.243851929172, -2645.843046408063, -16932.608715606777, -21032.656256277118, 6884.069071301112, -8486.197410368612, -10199.123346701068, -7789.560590930056, 0.217, 0.875, 0.387, 192.0, 0.0, 0.0, 0.0, 0.0, 0.0, 0.0, 0.0, 0.0, 0.0, 1.662678284618425E9, 0.0, 2022-09-08 19:04:44.618
220.0, -1524.2101578962993, -148.61674888333667, -25497.260749013516, -25383.333907524815, -12229.444054298885, 3912.8293291126884, 63237.28719202128, 26678.304574287486, -13047.674363574311, -2640.8586073945294, -16928.54069811591, -21026.30836085181, 6869.093402516056, -8477.569637008863, -10194.474183854365, -7784.531448427612, 0.2165, 0.8765000000000001, 0.3885, 192.0, 3.0, 96.0, 13.5, 56.0, 6.0, 24.0, 0.0, 0.0, 0.0, 1.6626782846184292E9, 0.0, 2022-09-08 19:04:44.618
222.0, -1510.1732623783664, -131.3612021638396, -25475.065466769396, -25356.69062813409, -12191.55784744714, 3932.811788655733, 63198.93159853597, 26680.115065588365, -13046.377962395904, -2632.2978892681467, -16920.136442200714, -21014.77486071287, 6883.0855945450785, -8468.67364271565, -10175.318738856166, -7768.125267997417, 0.2165, 0.8765000000000001, 0.3885, 192.0, 0.0, 0.0, 0.0, 0.0, 0.0, 0.0, 0.0, 0.0, 0.0, 1.6626782846184337E9, 0.0, 2022-09-08 19:04:44.618
224.0, -1501.7466547187157, -126.10854221684245, -25472.51736790149, -25357.36118046775, -12210.646237211971, 3946.6251667291126, 63240.08116007819, 26718.24714162912, -13039.113645447927, -2616.450502449334, -16903.171468159137, -20999.843895416725, 6886.684225402382, -8471.15468635019, -10165.193398617912, -7751.450866633758, 0.2165, 0.8765000000000001, 0.3885, 192.0, 0.0, 0.0, 0.0, 0.0, 0.0, 0.0, 0.0, 0.0, 0.0, 1.6626782846184392E9, 0.0, 2022-09-08 19:04:44.618
226.0, -1514.509500802696, -132.83641729788988, -25470.103379500317, -25362.747950881476, -12207.673455199416, 3947.5639399962356, 63231.20751752944, 26707.38419382384, -13041.304116404548, -2618.842139106052, -16899.97516870203, -21002.503753006906, 6877.810582853625, -8462.973947879547, -10166.57920677414, -7745.460599119735, 0.2165, 0.8765000000000001, 0.3885, 192.0, 0.0, 0.0, 0.0, 0.0, 0.0, 0.0, 0.0, 0.0, 0.0, 1.6626782846184447E9, 0.0, 2022-09-08 19:04:44.618
228.0, -1501.3666750629754, -118.84422526886765, -25464.64955385322, -25356.757683367454, -12199.626827195505, 3942.1548178380513, 63243.277459535304, 26671.241423039606, -13034.620944812412, -2621.2784792516804, -16899.438726835102, -21003.44252627403, 6894.686149917383, -8456.983680365525, -10161.371250316055, -7749.886244521886, 0.2165, 0.8765000000000001, 0.3885, 192.0, 0.0, 0.0, 0.0, 0.0, 0.0, 0.0, 0.0, 0.0, 0.0, 1.6626782846184509E9, 0.0, 2022-09-08 19:04:44.618
230.0, -1507.3122390880872, -126.22030093911899, -25469.14225448874, -25352.868479832232, -12200.498545229262, 3947.8992161630654, 63205.21243872791, 26695.38130705134, -13034.330372134493, -2612.650705891932, -16901.45038383608, -20999.01688087188, 6887.712405647327, -8450.456970984575, -10174.625834778051, -7761.084468493995, 0.21125, 0.8772500000000001, 0.39125, 192.0, 3.0, 56.0, 13.5, 56.0, 6.0, 40.0, 0.0, 0.0, 0.0, 1.662678284618476E9, 0.0, 2022-09-08 19:04:44.618
232.0, -1516.1411781479333, -133.37285916481724, -25480.89927207223, -25367.21829977254, -12190.931998602391, 3959.767992468833, 63238.67300017751, 26747.349112909927, -13038.398389625358, -2611.689580880354, -16905.518401326943, -20998.9051221496, 6900.162327308933, -8454.279119286433, -10173.709413255383, -7748.276918921104, 0.21125, 0.8772500000000001, 0.39125, 192.0, 0.0, 0.0, 0.0, 0.0, 0.0, 0.0, 0.0, 0.0, 0.0, 1.6626782846184802E9, 0.0, 2022-09-08 19:04:44.618
234.0, -1528.993431209735, -145.46515291513836, -25489.14706577624, -25382.573948213336, -12215.250696569765, 3944.2111783279397, 63223.22794475889, 26697.1023913744, -13047.093218218473, -2625.1676827869037, -16923.846831780294, -21014.484288034953, 6885.879562601992, -8468.047793870903, -10184.39354710502, -7762.8055528170535, 0.21125, 0.8772500000000001, 0.39125, 192.0, 0.0, 0.0, 0.0, 0.0, 0.0, 0.0, 0.0, 0.0, 0.0, 1.6626782846184845E9, 0.0, 2022-09-08 19:04:44.618
236.0, -1541.73392554926, -151.07544077342044, -25497.819542624897, -25395.60501523078, -12231.880394444514, 3937.952689880454, 63206.084156761666, 26666.346391003895, -13052.323526421014, -2640.612738205521, -16934.709779585573, -21034.757320255914, 6888.964103336823, -8491.785346482438, -10199.190401934435, -7786.431346706313, 0.21125, 0.8772500000000001, 0.39125, 192.0, 0.0, 0.0, 0.0, 0.0, 0.0, 0.0, 0.0, 0.0, 0.0, 1.662678284618489E9, 0.0, 2022-09-08 19:04:44.618
238.0, -1547.0983442185336, -158.36210946585055, -25496.27727225748, -25390.41941051715, -12222.090330373088, 3918.909003604532, 63212.78968009826, 26702.71267923268, -13050.691849075778, -2636.3435550145573, -16934.150985974193, -21030.97987544297, 6880.805716610636, -8479.894218432215, -10196.441137366432, -7776.685986123799, 0.21125, 0.8772500000000001, 0.39125, 192.0, 0.0, 0.0, 0.0, 0.0, 0.0, 0.0, 0.0, 0.0, 0.0, 1.6626782846184933E9, 0.0, 2022-09-08 19:04:44.618
240.0, -1545.5784255955728, -158.36210946585055, -25496.165513535205, -25392.766343684954, -12222.135033862, 3917.9255268484985, 63183.55359835072, 26681.880853400333, -13055.698639833767, -2645.6195289635098, -16936.54262263091, -21037.17130865709, 6871.59679789505, -8494.244038372522, -10205.650056082017, -7786.788974617598, 0.206625, 0.880625, 0.390625, 192.0, 3.0, 40.0, 13.5, 80.0, 6.0, 24.0, 0.0, 0.0, 0.0, 1.6626782850989933E9, 0.0, 2022-09-08 19:04:45.098
242.0, -1550.9428442648464, -161.58076066741475, -25500.099420559338, -25399.337756554814, -12238.161234636455, 3902.6369336410685, 63221.55156392474, 26676.494082986606, -13059.431381157801, -2645.0160318632165, -16938.263706953967, -21035.807852245314, 6862.790210579659, -8503.184736154644, -10199.615085079085, -7783.100936782473, 0.206625, 0.880625, 0.390625, 192.0, 0.0, 0.0, 0.0, 0.0, 0.0, 0.0, 0.0, 0.0, 0.0, 1.6626782850991104E9, 0.0, 2022-09-08 19:04:45.099
244.0, -1542.4491813718298, -153.04239428548746, -25484.497902929535, -25386.26198604846, -12226.89595543098, 3918.5737274377025, 63184.73824080685, 26683.75839993458, -13064.460523660246, -2649.329918543091, -16948.232584981037, -21047.989552973457, 6863.684280357872, -8512.058378703401, -10213.07083524118, -7800.065910824051, 0.206625, 0.880625, 0.390625, 192.0, 0.0, 0.0, 0.0, 0.0, 0.0, 0.0, 0.0, 0.0, 0.0, 1.6626782850991158E9, 0.0, 2022-09-08 19:04:45.099
246.0, -1527.3841056089527, -139.2290162121077, -25462.19086196314, -25368.425293973127, -12203.113699330534, 3935.8292741571995, 63223.96555232591, 26704.120839133364, -13052.994078754673, -2630.1521218004373, -16921.67871256813, -21015.467764790985, 6915.786196683192, -8487.58321852484, -10168.546160286209, -7755.518884124624, 0.206625, 0.880625, 0.390625, 192.0, 0.0, 0.0, 0.0, 0.0, 0.0, 0.0, 0.0, 0.0, 0.0, 1.6626782850991204E9, 0.0, 2022-09-08 19:04:45.099
248.0, -1512.0955124015227, -126.19794919466368, -25457.496995627524, -25365.5866224273, -12201.839649896581, 3946.9604428959424, 63191.28730193226, 26706.46777230117, -13045.282726917592, -2625.100627553538, -16915.688445054107, -21012.91966592308, 6898.016559841223, -8476.966139908569, -10168.34499458611, -7759.564549871034, 0.206625, 0.880625, 0.390625, 192.0, 0.0, 0.0, 0.0, 0.0, 0.0, 0.0, 0.0, 0.0, 0.0, 1.662678285099125E9, 0.0, 2022-09-08 19:04:45.099
250.0, -1499.8020529511039, -117.25725141254085, -25455.105358970806, -25364.022000315428, -12204.454803997853, 3962.651367503568, 63246.09377933667, 26711.608673525894, -13037.258450658137, -2623.4018949749347, -16912.045110707895, -21005.16361059709, 6886.438356213374, -8484.856305701293, -10161.170084615957, -7747.941642754275, 0.2023125, 0.8863125000000001, 0.3933125, 192.0, 3.0, 24.0, 13.5, 112.0, 6.0, 48.0, 0.0, 0.0, 0.0, 1.6626782850991292E9, 0.0, 2022-09-08 19:04:45.099
252.0, -1478.567895718562, -96.00074243554383, -25431.859544737286, -25343.056064016353, -12186.50635320024, 3976.732966510411, 63195.243560700845, 26716.57076079497, -13027.423683097802, -2609.074426779083, -16892.129706398217, -20994.144200580624, 6893.03212082769, -8463.44333451311, -10148.228424576333, -7734.351782125447, 0.2023125, 0.8863125000000001, 0.3933125, 192.0, 0.0, 0.0, 0.0, 0.0, 0.0, 0.0, 0.0, 0.0, 0.0, 1.6626782850991335E9, 0.0, 2022-09-08 19:04:45.099
254.0, -1469.604846191984, -90.36810283280646, -25434.340588371826, -25347.235840229492, -12186.640463666972, 3956.7952104562773, 63244.79737815826, 26723.365691109382, -13017.030121926085, -2605.1852232438596, -16887.301729595867, -20986.902235377103, 6891.467498715819, -8461.141104834212, -10143.86983440755, -7727.2886308775705, 0.2023125, 0.8863125000000001, 0.3933125, 192.0, 0.0, 0.0, 0.0, 0.0, 0.0, 0.0, 0.0, 0.0, 0.0, 1.6626782850991383E9, 0.0, 2022-09-08 19:04:45.099
0.0, -1471.2141717927661, -96.91716395821142, -25439.615600063276, -25359.059913046352, -12181.633672908983, 3952.950710409965, 63200.94325553695, 26698.644661741815, -13010.414005567314, -2612.7848163586636, -16885.3347760838, -20991.618453457173, 6893.434452227885, -8476.116773619267, -10145.792084430705, -7739.224462416704, 0.2023125, 0.8863125000000001, 0.3933125, 192.0, 0.0, 0.0, 0.0, 0.0, 0.0, 0.0, 0.0, 0.0, 0.0, 1.662678285099157E9, 0.0, 2022-09-08 19:04:45.099
2.0, -1472.2423520377104, -93.6985127566472, -25445.851736766308, -25360.87040434723, -12176.135143772977, 3955.297643577772, 63237.28719202128, 26712.256874115097, -13011.57629627899, -2612.9859820587617, -16893.96254944355, -20993.116020335678, 6883.711443389827, -8480.877695188248, -10149.457770521376, -7742.688982807277, 0.2023125, 0.8863125000000001, 0.3933125, 192.0, 0.0, 0.0, 0.0, 0.0, 0.0, 0.0, 0.0, 0.0, 0.0, 1.6626782850991616E9, 0.0, 2022-09-08 19:04:45.099
4.0, -1488.9167534013693, -105.81315825142363, -25462.14615847423, -25379.668221434145, -12189.143859045966, 3929.2802130317946, 63172.78005752326, 26649.671989640236, -13023.378017351391, -2627.4252089768897, -16906.30071238288, -21004.403651285607, 6899.60353369755, -8489.05843365889, -10175.743422000816, -7772.237988977193, 0.19515625, 0.8851562500000001, 0.39265625000000004, 192.0, 2.5, 112.0, 13.5, 80.0, 6.0, 32.0, 0.0, 0.0, 0.0, 1.662678285099172E9, 0.0, 2022-09-08 19:04:45.099
6.0, -1484.2452388102101, -104.62851579529236, -25470.036324266952, -25387.468980249047, -12198.978626606302, 3918.7301896488893, 63212.70027312044, 26672.448417240194, -13030.128244176894, -2631.828502634585, -16919.26472416696, -21013.25494208991, 6907.627809957005, -8499.899029719714, -10191.791974519727, -7782.58684666, 0.19515625, 0.8851562500000001, 0.39265625000000004, 192.0, 0.0, 0.0, 0.0, 0.0, 0.0, 0.0, 0.0, 0.0, 0.0, 1.6626782850991771E9, 0.0, 2022-09-08 19:04:45.099
8.0, -1478.2773230406433, -97.85593722533432, -25460.223908451073, -25381.568119712847, -12183.1759432764, 3923.8040356402444, 63242.60690720164, 26707.294786846018, -13018.795909738054, -2629.973307844795, -16907.999444961482, -21006.415308286585, 6916.009714127746, -8503.028273943457, -10165.416916062464, -7770.1369249983945, 0.19515625, 0.8851562500000001, 0.39265625000000004, 192.0, 0.0, 0.0, 0.0, 0.0, 0.0, 0.0, 0.0, 0.0, 0.0, 1.6626782850991817E9, 0.0, 2022-09-08 19:04:45.099
10.0, -1481.160698075378, -102.08041692738736, -25479.04407728244, -25388.385401771713, -12203.896010386468, 3940.009050370342, 63274.2346256059, 26726.785508011046, -13021.925153961796, -2628.453389221834, -16910.43578510711, -21009.544552510328, 6898.105966819045, -8510.672570547173, -10171.563645787674, -7763.587863872989, 0.19515625, 0.8851562500000001, 0.39265625000000004, 192.0, 0.0, 0.0, 0.0, 0.0, 0.0, 0.0, 0.0, 0.0, 0.0, 1.6626782850991862E9, 0.0, 2022-09-08 19:04:45.099
12.0, -1485.541639988618, -106.08137918488733, -25479.066429026894, -25379.891738878698, -12208.500469744262, 3940.031402114797, 63225.01608431531, 26718.537714307036, -13034.91151749033, -2640.5680347166103, -16921.812823034863, -21017.725290980972, 6879.755184621237, -8489.281951103443, -10183.991215704826, -7760.7491923271655, 0.19515625, 0.8851562500000001, 0.39265625000000004, 192.0, 0.0, 0.0, 0.0, 0.0, 0.0, 0.0, 0.0, 0.0, 0.0, 1.6626782850991907E9, 0.0, 2022-09-08 19:04:45.099
14.0, -1485.2734190551544, -107.31072512992921, -25485.79430410794, -25383.579776713825, -12201.839649896581, 3950.3132045642383, 63256.04030561928, 26717.934217206745, -13029.412988354325, -2627.1569880434263, -16920.359959645266, -21008.62813098766, 6887.243019013766, -8479.760107965483, -10177.308044112688, -7750.266224177626, 0.192578125, 0.882578125, 0.391328125, 192.0, 2.5, 120.0, 13.5, 64.0, 6.0, 24.0, 0.0, 0.0, 0.0, 1.662678285099195E9, 0.0, 2022-09-08 19:04:45.099
16.0, -1482.6135614649727, -102.66156228322534, -25474.126693502272, -25372.716828908546, -12180.426678708396, 3944.188826583484, 63207.492316662356, 26691.872083171857, -13035.135034934883, -2619.132711783971, -16927.69133182661, -21010.975064155467, 6866.254730970232, -8477.39082305322, -10177.330395857143, -7751.964956756229, 0.192578125, 0.882578125, 0.391328125, 192.0, 0.0, 0.0, 0.0, 0.0, 0.0, 0.0, 0.0, 0.0, 0.0, 1.6626782850991993E9, 0.0, 2022-09-08 19:04:45.099
18.0, -1466.3414915015092, -87.79765222044614, -25462.973173019072, -25368.82762537332, -12170.748373359249, 3948.9944516413752, 63224.34553198166, 26713.1062404044, -13024.227383640693, -2610.2143657463034, -16916.806032276872, -21003.82250592977, 6916.724969950315, -8479.335424820832, -10168.63556726403, -7754.669517835322, 0.192578125, 0.882578125, 0.391328125, 192.0, 0.0, 0.0, 0.0, 0.0, 0.0, 0.0, 0.0, 0.0, 0.0, 1.662678285099204E9, 0.0, 2022-09-08 19:04:45.099
20.0, -1472.9352561158248, -91.86566971131202, -25463.42020790818, -25374.79554114289, -12207.159365076945, 3931.6718496885123, 63184.53707510675, 26689.48044651514, -13019.980552194185, -2609.6332203904653, -16909.58641881781, -21001.989662884436, 6903.805661655148, -8465.186770580623, -10171.653052765496, -7763.721974339721, 0.192578125, 0.882578125, 0.391328125, 192.0, 0.0, 0.0, 0.0, 0.0, 0.0, 0.0, 0.0, 0.0, 0.0, 1.6626782850992084E9, 0.0, 2022-09-08 19:04:45.099
22.0, -1460.1947617762999, -78.02993989347695, -25450.6573618242, -25358.434064201603, -12186.551056689152, 3940.3666782816267, 63221.84213660266, 26691.849731427403, -13017.588915537468, -2605.2746302216806, -16903.05970943686, -20993.808924413792, 6903.492737232774, -8458.660061199673, -10174.2011516334, -7764.928968540307, 0.192578125, 0.882578125, 0.391328125, 192.0, 0.0, 0.0, 0.0, 0.0, 0.0, 0.0, 0.0, 0.0, 0.0, 1.662678285099213E9, 0.0, 2022-09-08 19:04:45.099
24.0, -1470.2083432922773, -81.62857075078139, -25454.14423395923, -25352.242630987483, -12189.613245679528, 3936.2763090463054, 63214.24254348785, 26695.940100662723, -13018.81826148251, -2602.257144720214, -16898.92463671263, -20988.355098766697, 6895.60257144005, -8462.213988568066, -10164.947529428904, -7762.5820353725, 0.192578125, 0.882578125, 0.391328125, 192.0, 0.0, 0.0, 0.0, 0.0, 0.0, 0.0, 0.0, 0.0, 0.0, 1.6626782850992172E9, 0.0, 2022-09-08 19:04:45.099
26.0, -1456.0820407965232, -68.48574501106084, -25443.03541696494, -25335.52352613491, -12178.862056596525, 3951.8331231871994, 63206.19591548394, 26719.610598040894, -13017.47715681519, -2605.2969819661357, -16889.134572641204, -20980.91196786308, 6901.123452320511, -8446.321898260343, -10160.030145648736, -7742.286651407082, 0.218, 0.88, 0.388, 192.0, 3.0, 104.0, 13.5, 64.0, 6.0, 16.0, 0.0, 0.0, 0.0, 1.6626782850992217E9, 0.0, 2022-09-08 19:04:45.099
28.0, -1458.7195466422495, -70.78797468995747, -25447.952800745108, -25337.848107558264, -12174.481114683285, 3943.6300329721016, 63234.94025885347, 26690.642737226815, -12996.734737960665, -2590.187202714348, -16872.214302088538, -20960.86245308667, 6903.0457023436675, -8448.378258750232, -10140.67353495044, -7738.777427527599, 0.218, 0.88, 0.388, 192.0, 0.0, 0.0, 0.0, 0.0, 0.0, 0.0, 0.0, 0.0, 0.0, 1.662678285099226E9, 0.0, 2022-09-08 19:04:45.099
30.0, -1464.732165900727, -72.24083807955243, -25457.85462353881, -25339.770357581423, -12177.36448971802, 3938.489131747381, 63196.27174094579, 26713.687385760237, -13012.805642224032, -2601.966572042295, -16882.67491849362, -20972.306546247786, 6904.967952366824, -8449.741715162005, -10162.421782305453, -7754.2895381795815, 0.218, 0.88, 0.388, 192.0, 0.0, 0.0, 0.0, 0.0, 0.0, 0.0, 0.0, 0.0, 0.0, 1.6626782850992303E9, 0.0, 2022-09-08 19:04:45.099
32.0, -1459.032471064624, -67.32345429938488, -25456.267649682482, -25336.57405812431, -12166.83681807957, 3946.3122423067384, 63193.12014497759, 26701.61744375437, -13013.967932935708, -2590.3213131810803, -16879.970357414528, -20966.405685711587, 6885.767803879715, -8442.700915658585, -10165.327509084644, -7758.91634928183, 0.218, 0.88, 0.388, 192.0, 0.0, 0.0, 0.0, 0.0, 0.0, 0.0, 0.0, 0.0, 0.0, 1.6626782850992348E9, 0.0, 2022-09-08 19:04:45.099
34.0, -1451.2764157386323, -66.25057056553014, -25457.117015971784, -25330.561438865836, -12165.361602945519, 3962.9866436703974, 63234.113244308624, 26762.68240960627, -13009.698749744744, -2583.3699206554797, -16866.827531674808, -20961.845929842704, 6927.967897411335, -8418.829252580315, -10141.075866350635, -7737.481026349191, 0.218, 0.88, 0.388, 192.0, 0.0, 0.0, 0.0, 0.0, 0.0, 0.0, 0.0, 0.0, 0.0, 1.662678285099239E9, 0.0, 2022-09-08 19:04:45.099
36.0, -1442.894511567892, -58.8744948952788, -25453.69719907012, -25320.123174205208, -12156.197387718843, 3977.135297910607, 63264.176340601014, 26755.10516823592, -13012.157441634829, -2577.3125979080914, -16858.5797379708, -20953.888708816616, 6904.766786666726, -8427.412322451153, -10132.515148224253, -7725.522843065602, 0.23600000000000002, 0.866, 0.396, 192.0, 3.5, 48.0, 13.5, 8.0, 6.0, 48.0, 0.0, 0.0, 0.0, 1.6626782850992448E9, 0.0, 2022-09-08 19:04:45.099
38.0, -1463.256950766677, -74.31955031389599, -25473.165568490695, -25340.329151192804, -12177.565655418117, 3951.967233653931, 63217.46119468942, 26732.44049935824, -13013.789118980065, -2580.0842142205497, -16863.698287451065, -20962.807054854282, 6894.194411539365, -8414.940049045092, -10139.041857605203, -7734.351782125447, 0.23600000000000002, 0.866, 0.396, 192.0, 0.0, 0.0, 0.0, 0.0, 0.0, 0.0, 0.0, 0.0, 0.0, 1.6626782850992491E9, 0.0, 2022-09-08 19:04:45.099
40.0, -1472.0411863376125, -78.52167827149371, -25478.977022049075, -25345.40299718416, -12174.07878328309, 3947.9439196519756, 63232.19099428547, 26717.24131312863, -13022.908630717831, -2593.8305370605635, -16876.550540512864, -20973.06650555927, 6905.973780867313, -8433.179072520623, -10147.91550015396, -7743.180721185294, 0.23600000000000002, 0.866, 0.396, 192.0, 0.0, 0.0, 0.0, 0.0, 0.0, 0.0, 0.0, 0.0, 0.0, 1.6626782850992537E9, 0.0, 2022-09-08 19:04:45.099
42.0, -1459.4348024648193, -67.43521302166141, -25462.14615847423, -25329.175630709608, -12148.039000992656, 3966.7864402277996, 63209.168697496505, 26734.49685984813, -13017.253639370638, -2586.521516623678, -16869.554444498353, -20971.05484855829, 6912.6122489705385, -8420.818557836837, -10138.572470971641, -7733.837692002976, 0.23600000000000002, 0.866, 0.396, 192.0, 0.0, 0.0, 0.0, 0.0, 0.0, 0.0, 0.0, 0.0, 0.0, 1.662678285099258E9, 0.0, 2022-09-08 19:04:45.099
44.0, -1470.3648055034646, -83.14848937374228, -25482.352135461824, -25349.605125141756, -12167.753239602238, 3952.63778598759, 63273.45231454996, 26677.119931831352, -13014.482023058179, -2585.2474671897253, -16869.465037520535, -20972.172435781056, 6908.521879735217, -8438.968174334548, -10130.458787734364, -7730.14965416785, 0.23600000000000002, 0.866, 0.396, 192.0, 0.0, 0.0, 0.0, 0.0, 0.0, 0.0, 0.0, 0.0, 0.0, 1.6626782850992625E9, 0.0, 2022-09-08 19:04:45.099
46.0, -1471.86237238197, -83.17084111819759, -25484.341440718348, -25347.615819885235, -12173.251768738242, 3935.382239268093, 63196.53996187925, 26671.867271884355, -13025.523784819101, -2600.0666737635943, -16878.33868006929, -20988.53391272234, 6881.520972433206, -8440.108113301769, -10156.498570024798, -7755.764753313631, 0.264, 0.868, 0.394, 192.0, 4.0, 32.0, 13.5, 16.0, 6.0, 40.0, 0.0, 0.0, 0.0, 1.662678285099267E9, 0.0, 2022-09-08 19:04:45.099
48.0, -1466.4979537126965, -82.03090215097691, -25484.74377211854, -25339.323322692315, -12180.829010108591, 3948.480361518903, 63238.91886936651, 26701.9527199212, -13014.750243991642, -2597.3397609400467, -16872.57192999982, -20979.883787618135, 6909.885336146991, -8432.28500274241, -10151.536482755719, -7738.173930427305, 0.264, 0.868, 0.394, 192.0, 0.0, 0.0, 0.0, 0.0, 0.0, 0.0, 0.0, 0.0, 0.0, 1.6626782850992713E9, 0.0, 2022-09-08 19:04:45.099
50.0, -1470.7447851592046, -84.89192544125622, -25478.23941448205, -25330.15910746564, -12173.721155371804, 3954.6270912441128, 63190.46028738741, 26708.501781046605, -13019.175889393795, -2594.612848116499, -16870.850845676763, -20979.235587028932, 6893.9485423503575, -8429.133406774212, -10153.212863589868, -7740.364401383925, 0.264, 0.868, 0.394, 192.0, 0.0, 0.0, 0.0, 0.0, 0.0, 0.0, 0.0, 0.0, 0.0, 1.6626782850992758E9, 0.0, 2022-09-08 19:04:45.099
52.0, -1480.3336835305315, -91.1280621442869, -25488.767086120497, -25338.786880825388, -12166.099210512544, 3948.1897888409844, 63257.15789284205, 26675.600013208394, -13017.7230260042, -2586.454461390312, -16872.035488132893, -20973.602947426196, 6900.005865097745, -8425.937107317104, -10138.974802371837, -7733.703581536243, 0.264, 0.868, 0.394, 192.0, 0.0, 0.0, 0.0, 0.0, 0.0, 0.0, 0.0, 0.0, 0.0, 1.66267828509928E9, 0.0, 2022-09-08 19:04:45.099
54.0, -1482.345340531509, -89.83166096587908, -25482.553301161923, -25333.355406922747, -12176.716289128815, 3942.3559835381493, 63190.482639131864, 26658.500928700083, -13032.274011644604, -2599.3737696854796, -16885.71475573954, -20989.785610411836, 6884.829030612592, -8446.321898260343, -10154.308099068177, -7749.349802654959, 0.264, 0.868, 0.394, 192.0, 0.0, 0.0, 0.0, 0.0, 0.0, 0.0, 0.0, 0.0, 0.0, 1.6626782850992846E9, 0.0, 2022-09-08 19:04:45.099
56.0, -1464.4639449672634, -76.84529743734568, -25468.33759168835, -25318.178572437595, -12176.962158317823, 3947.6980504629673, 63248.95480262695, 26669.721504416648, -13014.705540502733, -2588.555525369111, -16869.10740960925, -20971.591290425218, 6892.674492916405, -8405.865240796238, -10137.030200604226, -7728.920308222808, 0.28, 0.858, 0.404, 192.0, 4.0, 96.0, 13.0, 104.0, 6.0, 80.0, 0.0, 0.0, 0.0, 1.6626782850992892E9, 0.0, 2022-09-08 19:04:45.099
58.0, -1465.8274013790372, -68.46339326660554, -25462.168510218682, -25309.5731508223, -12154.40924816242, 3963.657196004057, 63200.205647969924, 26674.772998663546, -13009.430528811281, -2578.229019430759, -16857.775075170408, -20965.176339766545, 6909.862984402536, -8407.496918141474, -10125.206127787367, -7721.544232552556, 0.28, 0.858, 0.404, 192.0, 0.0, 0.0, 0.0, 0.0, 0.0, 0.0, 0.0, 0.0, 0.0, 1.6626782850992937E9, 0.0, 2022-09-08 19:04:45.099
60.0, -1461.4017559768863, -62.29431179694078, -25464.493091642034, -25307.494438587957, -12163.662870366916, 3963.388975070593, 63234.6273344311, 26709.44055431373, -13012.515069546112, -2570.8976472494182, -16854.3776100132, -20955.855662328682, 6896.027254584701, -8409.218002464533, -10124.177947542423, -7712.514127792612, 0.28, 0.858, 0.404, 192.0, 0.0, 0.0, 0.0, 0.0, 0.0, 0.0, 0.0, 0.0, 0.0, 1.662678285099298E9, 0.0, 2022-09-08 19:04:45.099
62.0, -1468.4649072247635, -69.04453862244351, -25464.18016721966, -25312.188304923573, -12160.712440098816, 3956.772858711822, 63223.25029650334, 26653.158861775264, -13023.601534795946, -2576.5079351077006, -16864.257081062446, -20966.092761289212, 6894.574391195106, -8415.968229290036, -10132.649258690984, -7722.281840119582, 0.28, 0.858, 0.404, 192.0, 0.0, 0.0, 0.0, 0.0, 0.0, 0.0, 0.0, 0.0, 0.0, 1.6626782850993023E9, 0.0, 2022-09-08 19:04:45.099
64.0, -1452.4834099392187, -53.91240762620063, -25453.250164181016, -25295.111572159716, -12143.479245123774, 3973.6037222866685, 63262.2317388334, 26691.827379682945, -13008.379996821881, -2560.6381965444325, -16847.96265935453, -20948.971325036448, 6901.011693598234, -8405.127633229213, -10107.503546178765, -7709.407235313325, 0.28, 0.858, 0.404, 192.0, 0.0, 0.0, 0.0, 0.0, 0.0, 0.0, 0.0, 0.0, 0.0, 1.6626782850993068E9, 0.0, 2022-09-08 19:04:45.099
66.0, -1472.6893869268165, -69.37981478927313, -25465.387161420247, -25306.466258343014, -12170.03311753668, 3965.043004160286, 63214.46606093241, 26672.157844562276, -13023.981514451685, -2565.2426559022256, -16857.260985047935, -20955.363923950663, 6882.795021867159, -8407.675732097117, -10123.730912653316, -7707.306171334526, 0.294, 0.856, 0.398, 192.0, 4.5, 24.0, 13.0, 96.0, 6.0, 56.0, 0.0, 0.0, 0.0, 1.6626782850993118E9, 0.0, 2022-09-08 19:04:45.099
68.0, -1462.1393635439115, -59.05330885092126, -25456.267649682482, -25305.326319375792, -12167.97675704679, 3964.5736175267243, 63266.74679121337, 26637.445585423182, -13023.57918305149, -2574.4068711289015, -16861.172540327614, -20960.90715657558, 6892.674492916405, -8414.3365519448, -10116.891278849993, -7719.174947640294, 0.294, 0.856, 0.398, 192.0, 0.0, 0.0, 0.0, 0.0, 0.0, 0.0, 0.0, 0.0, 0.0, 1.6626782850993185E9, 0.0, 2022-09-08 19:04:45.099
70.0, -1470.6553781813834, -58.76273617300227, -25459.016914250486, -25302.085316429773, -12163.55111164464, 3961.0867453916962, 63238.04715133276, 26684.361897034873, -13018.460633571225, -2567.5672373255775, -16853.818816401817, -20952.05586577128, 6903.135109321489, -8406.535793129897, -10113.00207531477, -7711.463595803213, 0.294, 0.856, 0.398, 192.0, 0.0, 0.0, 0.0, 0.0, 0.0, 0.0, 0.0, 0.0, 0.0, 1.6626782850993228E9, 0.0, 2022-09-08 19:04:45.099
72.0, -1470.3648055034646, -63.724823442080435, -25471.511539401003, -25313.06002295733, -12165.227492478787, 3956.750506967367, 63286.058698422756, 26700.253987342596, -13026.95429646424, -2573.2445804172257, -16861.396057772166, -20960.10249377519, 6885.79015562417, -8410.42499666512, -10118.81352887315, -7712.938810937263, 0.294, 0.856, 0.398, 192.0, 0.0, 0.0, 0.0, 0.0, 0.0, 0.0, 0.0, 0.0, 0.0, 1.6626782850993273E9, 0.0, 2022-09-08 19:04:45.099
74.0, -1476.6456456954058, -71.59263749034852, -25475.356039447313, -25311.853028756745, -12160.623033120995, 3953.5095040213473, 63263.0811051227, 26652.354198974874, -13033.145729678361, -2583.1464032109266, -16867.81100843084, -20967.81384561227, 6877.721175875804, -8415.074159511823, -10121.071055063136, -7719.979610440685, 0.294, 0.856, 0.398, 192.0, 0.0, 0.0, 0.0, 0.0, 0.0, 0.0, 0.0, 0.0, 0.0, 1.6626782850993319E9, 0.0, 2022-09-08 19:04:45.099
76.0, -1475.3045410280874, -74.85599218082335, -25488.498865187034, -25316.39043288117, -12161.047716265646, 3958.426887801515, 63242.13752056808, 26679.712734188168, -13029.144767420861, -2577.871391519474, -16866.894586908173, -20970.317240991266, 6874.435469440874, -8408.770967575427, -10131.218747045845, -7724.874642476398, 0.31, 0.846, 0.404, 192.0, 4.5, 88.0, 13.0, 56.0, 6.0, 80.0, 0.0, 0.0, 0.0, 1.6626782850993364E9, 0.0, 2022-09-08 19:04:45.099
78.0, -1474.6116369499728, -72.73257645756918, -25485.973118063586, -25313.618816568713, -12170.815428592614, 3952.011937142842, 63266.72443946892, 26659.484405456118, -13027.066055186517, -2577.513763608189, -16872.05783987735, -20968.10441829019, 6866.701765859338, -8403.361845417243, -10137.320773282145, -7724.360552353925, 0.31, 0.846, 0.404, 192.0, 0.0, 0.0, 0.0, 0.0, 0.0, 0.0, 0.0, 0.0, 0.0, 1.662678285099341E9, 0.0, 2022-09-08 19:04:45.099
80.0, -1485.1616603328778, -81.38270156177302, -25498.4677432141, -25329.39914815416, -12183.22064676531, 3946.133428351096, 63257.22494807541, 26652.42125420824, -13030.552927321545, -2573.132821694949, -16871.744915454976, -20969.71374389097, 6886.639521913472, -8409.754444331462, -10147.624927476041, -7735.335258881481, 0.31, 0.846, 0.404, 192.0, 0.0, 0.0, 0.0, 0.0, 0.0, 0.0, 0.0, 0.0, 0.0, 1.6626782850993452E9, 0.0, 2022-09-08 19:04:45.099
82.0, -1487.2403725672214, -79.08047188287638, -25500.635862426265, -25331.075528988305, -12191.289626513675, 3948.010974885342, 63291.803096747775, 26626.64969285127, -13038.219575669717, -2586.588571857044, -16882.49610453798, -20977.492150961418, 6861.829085568081, -8421.958496804058, -10152.877587423038, -7745.170026441816, 0.31, 0.846, 0.404, 192.0, 0.0, 0.0, 0.0, 0.0, 0.0, 0.0, 0.0, 0.0, 0.0, 1.6626782850993495E9, 0.0, 2022-09-08 19:04:45.099
84.0, -1466.9002851128919, -61.82492516337933, -25488.811789609408, -25309.64020605567, -12179.107925785533, 3956.0576028892524, 63258.81192193174, 26661.451358968185, -13024.786177252076, -2577.2902461636363, -16869.263871820436, -20969.71374389097, 6871.6415013839605, -8404.591191362286, -10142.81930241815, -7733.658878047333, 0.31, 0.846, 0.404, 192.0, 0.0, 0.0, 0.0, 0.0, 0.0, 0.0, 0.0, 0.0, 0.0, 1.662678285099354E9, 0.0, 2022-09-08 19:04:45.099
86.0, -1469.6271979364394, -65.87059090978991, -25494.84676061234, -25312.501229345948, -12194.642388181972, 3944.8593789171437, 63275.59808201768, 26622.156992215754, -13024.897935974353, -2567.880161747952, -16872.974261400017, -20965.82454035575, 6881.856248600036, -8409.70974084255, -10137.566642471153, -7727.9368314667745, 0.324, 0.844, 0.41200000000000003, 192.0, 5.0, 16.0, 13.0, 48.0, 6.0, 112.0, 0.0, 0.0, 0.0, 1.6626782850993583E9, 0.0, 2022-09-08 19:04:45.099
88.0, -1465.156849045378, -62.003739119021795, -25486.80013260843, -25304.745174019954, -12174.324652472098, 3951.8331231871994, 63242.62925894609, 26641.088919769398, -13021.00873243913, -2573.4680978617785, -16863.81004617334, -20961.845929842704, 6873.362585707019, -8424.037209038403, -10135.15265406998, -7738.822131016509, 0.324, 0.844, 0.41200000000000003, 192.0, 0.0, 0.0, 0.0, 0.0, 0.0, 0.0, 0.0, 0.0, 0.0, 1.6626782850993629E9, 0.0, 2022-09-08 19:04:45.099
90.0, -1474.7233956722494, -69.73744270055803, -25500.658214170722, -25314.982272980487, -12186.79692587816, 3946.111076606641, 63287.466858323445, 26651.482480941115, -13024.339142362971, -2573.7139670507872, -16876.57289225732, -20965.176339766545, 6869.428678682885, -8418.09164501329, -10139.287726794211, -7733.144787924861, 0.324, 0.844, 0.41200000000000003, 192.0, 0.0, 0.0, 0.0, 0.0, 0.0, 0.0, 0.0, 0.0, 0.0, 1.6626782850993671E9, 0.0, 2022-09-08 19:04:45.099
92.0, -1473.2928840271097, -65.15533508722008, -25495.89729260174, -25310.131944433684, -12182.326576987098, 3961.332614580705, 63223.85379360364, 26642.050044780975, -13032.497529089158, -2570.3388536380357, -16876.394078301677, -20968.77497062385, 6851.726097074283, -8422.785511348906, -10147.870796665049, -7742.353706640448, 0.324, 0.844, 0.41200000000000003, 192.0, 0.0, 0.0, 0.0, 0.0, 0.0, 0.0, 0.0, 0.0, 0.0, 1.6626782850993717E9, 0.0, 2022-09-08 19:04:45.099
94.0, -1469.2919217696099, -58.40510826171735, -25491.404591966224, -25306.041575198364, -12173.296472227154, 3958.158666868051, 63291.020785691835, 26651.683646641213, -13030.217651154715, -2561.196990155815, -16873.91303466714, -20959.65545888608, 6876.201257252844, -8403.384197161698, -10134.459749991865, -7734.776465270098, 0.324, 0.844, 0.41200000000000003, 192.0, 0.0, 0.0, 0.0, 0.0, 0.0, 0.0, 0.0, 0.0, 0.0, 1.662678285099376E9, 0.0, 2022-09-08 19:04:45.099
96.0, -1479.6854829413276, -64.82005892039048, -25496.120810046294, -25315.63047356969, -12159.103114498033, 3950.4920185198807, 63230.71577915142, 26618.51365786954, -13026.7754825086, -2563.4992198347118, -16878.96452891404, -20963.969345565958, 6879.755184621237, -8409.530926886908, -10138.81834016065, -7741.124360695406, 0.332, 0.85, 0.40800000000000003, 192.0, 5.0, 48.0, 13.0, 72.0, 6.0, 96.0, 0.0, 0.0, 0.0, 1.6626782850993805E9, 0.0, 2022-09-08 19:04:45.099
98.0, -1476.3550730174868, -62.49547749703855, -25498.33363274737, -25320.279636416395, -12177.520951929208, 3962.427850059015, 63245.26676479182, 26696.61065299638, -13027.736607520177, -2566.5614088250886, -16877.377555057712, -20961.33183972023, 6864.824219325093, -8414.828290322816, -10137.119607582046, -7737.145750182361, 0.332, 0.85, 0.40800000000000003, 192.0, 0.0, 0.0, 0.0, 0.0, 0.0, 0.0, 0.0, 0.0, 0.0, 1.6626782850993848E9, 0.0, 2022-09-08 19:04:45.099
100.0, -1470.5659712035622, -56.95224487212239, -25486.554263419424, -25311.92008399011, -12165.898044812448, 3973.4696118199367, 63223.786738370276, 26670.36970500585, -13034.48683434568, -2566.6061123139993, -16877.019927146426, -20971.613642169672, 6865.606530381028, -8414.224793222522, -10151.357668800078, -7742.309003151537, 0.332, 0.85, 0.40800000000000003, 192.0, 0.0, 0.0, 0.0, 0.0, 0.0, 0.0, 0.0, 0.0, 0.0, 1.6626782850993905E9, 0.0, 2022-09-08 19:04:45.099
102.0, -1471.571799704051, -68.0834136108653, -25491.225778010583, -25316.278674158893, -12165.83098957908, 3960.2150273579396, 63312.47846036893, 26681.500873744593, -13028.809491254031, -2570.964702482784, -16869.28622356489, -20963.857586843682, 6862.5443413906505, -8428.753427118472, -10121.3392759966, -7732.317773380015, 0.332, 0.85, 0.40800000000000003, 192.0, 0.0, 0.0, 0.0, 0.0, 0.0, 0.0, 0.0, 0.0, 0.0, 1.6626782850993948E9, 0.0, 2022-09-08 19:04:45.099
104.0, -1474.8575061389813, -73.7607567025133, -25490.801094865932, -25313.752927035443, -12173.855265838536, 3948.458009774448, 63266.053887135255, 26645.760434360556, -13035.380904123891, -2581.693539821332, -16872.035488132893, -20969.57963342424, 6846.920472016392, -8414.984752534003, -10133.520976724742, -7741.079657206495, 0.332, 0.85, 0.40800000000000003, 192.0, 0.0, 0.0, 0.0, 0.0, 0.0, 0.0, 0.0, 0.0, 0.0, 1.6626782855784936E9, 0.0, 2022-09-08 19:04:45.578
106.0, -1473.4046427493863, -69.24570432254129, -25495.67377515719, -25315.228142169493, -12176.917454828914, 3964.2830448488053, 63338.47353917045, 26668.782731149524, -13037.124340191405, -2573.5575048396, -16872.795447444376, -20964.885767088625, 6873.250826984743, -8411.252011209966, -10118.679418406418, -7736.542253082068, 0.33, 0.844, 0.404, 192.0, 5.0, 32.0, 13.0, 24.0, 6.0, 64.0, 0.0, 0.0, 0.0, 1.662678285578548E9, 0.0, 2022-09-08 19:04:45.578
108.0, -1473.8516776384924, -68.21752407759716, -25487.984775064564, -25307.896769988154, -12164.042850022657, 3967.1217163946294, 63277.14035238509, 26667.374571248838, -13039.58303208149, -2582.095871221527, -16874.91886316763, -20970.920738091558, 6890.372263237508, -8410.357941431754, -10127.977744099826, -7737.235157160182, 0.33, 0.844, 0.404, 192.0, 0.0, 0.0, 0.0, 0.0, 0.0, 0.0, 0.0, 0.0, 0.0, 1.66267828557857E9, 0.0, 2022-09-08 19:04:45.578
110.0, -1485.7204539442605, -79.23693409406354, -25512.169362565204, -25325.91227601913, -12190.976702091302, 3958.0022046568643, 63313.73015805843, 26665.832300881422, -13037.951354736251, -2569.422432115368, -16877.019927146426, -20967.389162467618, 6867.59583563755, -8399.025606992915, -10132.425741246432, -7733.43536060278, 0.33, 0.844, 0.404, 192.0, 0.0, 0.0, 0.0, 0.0, 0.0, 0.0, 0.0, 0.0, 0.0, 1.662678285578575E9, 0.0, 2022-09-08 19:04:45.578
112.0, -1475.2598375391767, -64.82005892039048, -25496.590196679856, -25314.6246450692, -12158.521969142195, 3959.9915099133864, 63250.072389849716, 26652.756530375067, -13062.158293981349, -2583.526382866667, -16898.946988457083, -20989.71855517847, 6842.4054196364195, -8427.389970706698, -10162.041802649714, -7760.972709771719, 0.33, 0.844, 0.404, 192.0, 0.0, 0.0, 0.0, 0.0, 0.0, 0.0, 0.0, 0.0, 0.0, 1.6626782855785792E9, 0.0, 2022-09-08 19:04:45.578
114.0, -1453.2433692506993, -45.01641333298842, -25478.842911582342, -25296.7208977605, -12168.64730938045, 3979.705748522967, 63290.28317812481, 26653.56119317546, -13025.34497086346, -2546.7354114932314, -16857.931537381595, -20950.915926804057, 6884.471402701307, -8387.357996387243, -10128.268316777745, -7732.407180357836, 0.33, 0.844, 0.404, 192.0, 0.0, 0.0, 0.0, 0.0, 0.0, 0.0, 0.0, 0.0, 0.0, 1.6626782855785837E9, 0.0, 2022-09-08 19:04:45.578
116.0, -1471.0130060926683, -62.808401919412844, -25491.605757666322, -25311.026014211897, -12184.65115841045, 3967.948730939476, 63244.104474080144, 26622.156992215754, -13028.34010462047, -2558.201856398804, -16861.977203128004, -20956.660325129073, 6867.1711524929, -8407.675732097117, -10142.551081484686, -7747.002869487152, 0.325, 0.845, 0.403, 192.0, 5.0, 0.0, 13.0, 56.0, 6.0, 72.0, 0.0, 0.0, 0.0, 1.662678285578589E9, 0.0, 2022-09-08 19:04:45.578
118.0, -1460.351223987487, -55.7005471826252, -25479.60287089382, -25300.163066406618, -12179.130277529988, 3978.8787339781206, 63304.7447567874, 26708.837057213434, -13029.77061626561, -2570.9870542272397, -16866.06757236333, -20966.517444433863, 6871.954425806335, -8402.847755294772, -10127.53070921072, -7738.375096127403, 0.325, 0.845, 0.403, 192.0, 0.0, 0.0, 0.0, 0.0, 0.0, 0.0, 0.0, 0.0, 0.0, 1.6626782855785935E9, 0.0, 2022-09-08 19:04:45.578
120.0, -1463.48046821123, -56.68402393865871, -25477.412399937202, -25300.788915251367, -12160.26540520971, 3971.7932309857883, 63289.7914397468, 26642.60883839236, -13027.468386586714, -2562.3369291230356, -16860.122008338214, -20954.559261150273, 6877.296492731153, -8411.05084550987, -10117.293610250188, -7731.021372201607, 0.325, 0.845, 0.403, 192.0, 0.0, 0.0, 0.0, 0.0, 0.0, 0.0, 0.0, 0.0, 0.0, 1.662678285578598E9, 0.0, 2022-09-08 19:04:45.578
122.0, -1456.5514274300847, -50.49259072453865, -25470.863338811796, -25293.345784347748, -12161.047716265646, 3966.7864402277996, 63294.75352701587, 26674.41537075226, -13032.028142455596, -2559.297091877114, -16859.89849089366, -20955.72155186195, 6848.507445872718, -8403.227734950511, -10113.694979392885, -7733.39065711387, 0.325, 0.845, 0.403, 192.0, 0.0, 0.0, 0.0, 0.0, 0.0, 0.0, 0.0, 0.0, 0.0, 1.6626782855786037E9, 0.0, 2022-09-08 19:04:45.578
124.0, -1468.1966862912998, -62.6519397082257, -25474.394914435736, -25299.894845473154, -12173.587044905073, 3966.4064605720596, 63293.03244269281, 26652.153033274775, -13035.760883779632, -2555.4078883418906, -16861.77603742791, -20954.179281494533, 6895.1778882953995, -8400.389063404687, -10121.227517274323, -7730.462578590224, 0.325, 0.845, 0.403, 192.0, 0.0, 0.0, 0.0, 0.0, 0.0, 0.0, 0.0, 0.0, 0.0, 1.6626782855786085E9, 0.0, 2022-09-08 19:04:45.578
126.0, -1464.9780350897356, -58.06983209488775, -25478.865263326796, -25304.00756645293, -12174.54816991665, 3975.16834439854, 63282.504771054366, 26638.02673077902, -13036.63260181339, -2562.6051500564995, -16861.686630450087, -20955.028647783834, 6882.50444918924, -8396.745729058472, -10130.48113947882, -7732.6754012913, 0.3175, 0.8465, 0.3995, 192.0, 4.5, 88.0, 13.0, 64.0, 6.0, 48.0, 0.0, 0.0, 0.0, 1.6626782855786133E9, 0.0, 2022-09-08 19:04:45.578
128.0, -1475.1033753279896, -66.69760545463627, -25491.18107452167, -25313.507057846437, -12162.92526279989, 3983.4161381025483, 63329.398730921595, 26646.833318094414, -13039.895956503864, -2557.1513244094044, -16870.62732823221, -20959.65545888608, 6871.619149639506, -8413.174261233124, -10130.1905668009, -7734.195319914261, 0.3175, 0.8465, 0.3995, 192.0, 0.0, 0.0, 0.0, 0.0, 0.0, 0.0, 0.0, 0.0, 0.0, 1.6626782855786176E9, 0.0, 2022-09-08 19:04:45.578
130.0, -1463.3240060000428, -51.34195701384032, -25485.32491747438, -25302.8229239968, -12162.522931399695, 3985.0254637033304, 63330.22574546644, 26670.727332917137, -13048.546081608069, -2564.84032450203, -16883.14430512718, -20970.361944480177, 6860.890312300959, -8410.223830965022, -10137.276069793234, -7734.821168759009, 0.3175, 0.8465, 0.3995, 192.0, 0.0, 0.0, 0.0, 0.0, 0.0, 0.0, 0.0, 0.0, 0.0, 1.6626782855786223E9, 0.0, 2022-09-08 19:04:45.578
132.0, -1468.0625758245678, -54.27003553748555, -25486.911891330707, -25298.553740805834, -12184.494696199263, 3985.5619055702577, 63361.138208048134, 26656.958658332667, -13035.403255868347, -2542.846207958008, -16870.76143869894, -20950.781816337327, 6857.314033188109, -8388.430880121097, -10121.607496930063, -7709.5636975245125, 0.3175, 0.8465, 0.3995, 192.0, 0.0, 0.0, 0.0, 0.0, 0.0, 0.0, 0.0, 0.0, 0.0, 1.662678285578632E9, 0.0, 2022-09-08 19:04:45.578
