%OpenBCI Raw EEG Data
%Number of channels = 16
%Sample Rate = 125 Hz
%Board = OpenBCI_GUI$BoardCytonSerialDaisy
Sample Index, EXG Channel 0, EXG Channel 1, EXG Channel 2, EXG Channel 3, EXG Channel 4, EXG Channel 5, EXG Channel 6, EXG Channel 7, EXG Channel 8, EXG Channel 9, EXG Channel 10, EXG Channel 11, EXG Channel 12, EXG Channel 13, EXG Channel 14, EXG Channel 15, Accel Channel 0, Accel Channel 1, Accel Channel 2, Other, Other, Other, Other, Other, Other, Other, Analog Channel 0, Analog Channel 1, Analog Channel 2, Timestamp, Other, Timestamp (Formatted)
180.0, -32909.3674313268, -35140.9432460002, -34641.40410916854, -29036.860649211485, -32214.004661322197, -31042.19210650827, -38889.42019813302, -36795.70994325995, -29626.90199934268, -10492.735861865982, -36495.637773947456, -37866.80553755826, -20427.438071660767, -22579.687545262284, -35911.13965644117, -34072.59691626989, -0.07200000000000001, 0.467, -0.09, 192.0, 125.5, 64.0, 14.5, 24.0, 125.0, 48.0, 0.0, 0.0, 0.0, 1.673120018060022E9, 0.0, 2023-01-07 14:33:38.060
182.0, -32906.79698071444, -35134.26007440806, -34653.85403083015, -29013.145448344407, -32203.454637939292, -31007.681013069276, -38879.965410228426, -36745.79849789125, -29652.4500432551, -10498.815536357824, -36518.10127712504, -37875.7909388293, -20447.129958525893, -22598.46301060474, -35930.74213632848, -34079.97299194014, -0.07200000000000001, 0.467, -0.09, 192.0, 0.0, 0.0, 0.0, 0.0, 0.0, 0.0, 0.0, 0.0, 0.0, 1.6731200180600317E9, 0.0, 2023-01-07 14:33:38.060
184.0, -32897.99039339905, -35134.058908707964, -34620.75109729184, -29035.765413733177, -32195.318602957563, -31029.831591824484, -38885.30747715324, -36783.684704743, -29628.265455754456, -10482.49876290545, -36486.808834887604, -37859.20594444346, -20421.023121002094, -22579.084048161993, -35902.95891797053, -34064.41617779925, -0.07200000000000001, 0.467, -0.09, 192.0, 0.0, 0.0, 0.0, 0.0, 0.0, 0.0, 0.0, 0.0, 0.0, 1.6731200180600395E9, 0.0, 2023-01-07 14:33:38.060
186.0, -32893.72121020809, -35125.52054232604, -34625.28850141627, -29006.41757326336, -32184.008620263176, -30980.389533089347, -38866.330846110686, -36731.493381439854, -29636.692063414106, -10489.852486831247, -36491.6144599455, -37871.63351436061, -20426.09696699345, -22594.774972769617, -35903.093028437266, -34062.11394812035, -0.07200000000000001, 0.467, -0.09, 192.0, 0.0, 0.0, 0.0, 0.0, 0.0, 0.0, 0.0, 0.0, 0.0, 1.6731200180600476E9, 0.0, 2023-01-07 14:33:38.060
188.0, -32873.58228845386, -35113.47295206463, -34583.60249800712, -29010.26207330967, -32169.390579389405, -30987.385629103857, -38831.64093871605, -36747.4748787254, -29611.09931601278, -10478.967187281512, -36463.83124158755, -37843.67148204702, -20396.302091634523, -22574.99367892667, -35868.112548364705, -34027.759316892545, -0.07200000000000001, 0.467, -0.09, 192.0, 0.0, 0.0, 0.0, 0.0, 0.0, 0.0, 0.0, 0.0, 0.0, 1.6731200180600557E9, 0.0, 2023-01-07 14:33:38.060
190.0, -32903.24305334604, -35137.85870526537, -34636.442021899464, -29019.426288536346, -32217.893864857422, -30977.75202724362, -38847.71184297941, -36723.31264296921, -29632.53463894542, -10504.805803871848, -36487.94877385483, -37878.719017352945, -20425.2699524486, -22588.941167466783, -35885.70337125103, -34057.57654399592, -0.11, 0.6995, -0.134, 192.0, 125.5, 48.0, 14.5, 16.0, 125.0, 56.0, 0.0, 0.0, 0.0, 1.6731200180600636E9, 0.0, 2023-01-07 14:33:38.060
192.0, -32892.20129158512, -35130.86260925086, -34610.02225995329, -29037.08416665604, -32182.019315006655, -31008.66448982531, -38889.50960511084, -36770.2289545809, -29614.42972593662, -10469.825323799292, -36476.03529406015, -37850.01937747233, -20409.84724877444, -22562.811978198526, -35876.85208044673, -34041.61739845484, -0.11, 0.6995, -0.134, 192.0, 0.0, 0.0, 0.0, 0.0, 0.0, 0.0, 0.0, 0.0, 0.0, 1.6731200180600712E9, 0.0, 2023-01-07 14:33:38.060
194.0, -32935.69778629515, -35169.70994111418, -34666.52746993631, -29065.292068158637, -32202.18058850534, -31023.729565588186, -38917.203416490964, -36773.55936450474, -29652.070063599356, -10531.51613849594, -36518.347146314045, -37919.42154400606, -20439.70917936673, -22615.696205579785, -35923.567226358326, -34116.02635574655, -0.11, 0.6995, -0.134, 192.0, 0.0, 0.0, 0.0, 0.0, 0.0, 0.0, 0.0, 0.0, 0.0, 1.673120018060079E9, 0.0, 2023-01-07 14:33:38.060
196.0, -32907.869864448294, -35142.753737301085, -34626.182571194484, -29051.501041829713, -32191.56350988907, -31028.28932145707, -38881.3288666402, -36779.0802453852, -29643.755214661982, -10487.84082983027, -36500.95748912782, -37870.15829922656, -20418.251504689637, -22587.9800424552, -35914.02303147591, -34074.07213140394, -0.11, 0.6995, -0.134, 192.0, 0.0, 0.0, 0.0, 0.0, 0.0, 0.0, 0.0, 0.0, 0.0, 1.6731200180600865E9, 0.0, 2023-01-07 14:33:38.060
198.0, -32929.79692575895, -35165.10548175639, -34660.090167533184, -29056.843108754532, -32222.38656549294, -31032.133821503383, -38902.42891340601, -36772.28531507079, -29643.241124539512, -10528.252783805465, -36512.93802415586, -37917.07461083825, -20435.104720008938, -22616.210295702254, -35932.932607285096, -34109.074963220955, -0.11, 0.6995, -0.134, 192.0, 0.0, 0.0, 0.0, 0.0, 0.0, 0.0, 0.0, 0.0, 0.0, 1.6731200180600936E9, 0.0, 2023-01-07 14:33:38.060
200.0, -32906.685221992164, -35146.06179548047, -34631.39052765257, -29051.36693136298, -32194.42453317935, -31032.357338947935, -38898.27148893732, -36786.2328036109, -29641.989426850014, -10490.321873464809, -36504.22084381829, -37867.54314512529, -20430.723778095697, -22613.550438112074, -35930.42921190611, -34063.94679116569, -0.13, 0.8167500000000001, -0.15300000000000002, 192.0, 125.5, 40.0, 14.5, 24.0, 125.0, 80.0, 0.0, 0.0, 0.0, 1.6731200180601017E9, 0.0, 2023-01-07 14:33:38.060
202.0, -32921.48207682158, -35157.774109575046, -34656.69270237598, -29047.52243131667, -32210.942472331823, -31021.248521953647, -38896.50570112535, -36773.96169590494, -29638.86018262627, -10544.502502024472, -36509.02646887618, -37916.71698292696, -20437.56341189902, -22623.72048183924, -35937.87234280972, -34102.145922439806, -0.13, 0.8167500000000001, -0.15300000000000002, 192.0, 0.0, 0.0, 0.0, 0.0, 0.0, 0.0, 0.0, 0.0, 0.0, 1.67312001806011E9, 0.0, 2023-01-07 14:33:38.060
204.0, -32904.13712312426, -35136.025862220034, -34631.636396841575, -29027.204695606793, -32188.65778310988, -31014.699460828244, -38875.271543892806, -36767.41263477953, -29641.25181928299, -10477.626082614193, -36497.67178269289, -37844.29733089177, -20417.29037967806, -22570.74684748016, -35918.00164198895, -34045.528953734516, -0.13, 0.8167500000000001, -0.15300000000000002, 192.0, 0.0, 0.0, 0.0, 0.0, 0.0, 0.0, 0.0, 0.0, 0.0, 1.6731200180601175E9, 0.0, 2023-01-07 14:33:38.060
206.0, -32937.66473980722, -35165.93249630123, -34668.76264438184, -29049.645847039923, -32216.485704956736, -31033.564333148523, -38901.66895409453, -36778.700265729465, -29643.710511173074, -10531.22556581802, -36518.66007073642, -37908.290375267316, -20442.547850912553, -22607.269597920134, -35939.72753759951, -34106.16923644176, -0.13, 0.8167500000000001, -0.15300000000000002, 192.0, 0.0, 0.0, 0.0, 0.0, 0.0, 0.0, 0.0, 0.0, 0.0, 1.6731200180601249E9, 0.0, 2023-01-07 14:33:38.060
208.0, -32899.04092538845, -35124.87234173684, -34632.552818364245, -29017.861666424476, -32184.053323752087, -31000.439047865755, -38863.64863677605, -36748.7265764149, -29649.209040309077, -10469.892379032657, -36508.333564798064, -37838.374118611115, -20431.751958340643, -22571.03742015808, -35924.01426124743, -34044.07609034492, -0.13, 0.8167500000000001, -0.15300000000000002, 192.0, 0.0, 0.0, 0.0, 0.0, 0.0, 0.0, 0.0, 0.0, 0.0, 1.673120018060132E9, 0.0, 2023-01-07 14:33:38.060
210.0, -32930.44512634815, -35160.32220844295, -34659.82194659972, -29051.948076718818, -32218.944396846822, -31028.95987379073, -38889.48725336639, -36777.67208548452, -29628.444269710097, -10513.232411531499, -36508.065343864604, -37892.08536053722, -20432.578972885487, -22592.69626053527, -35929.49043863898, -34089.98657345612, -0.139, 0.879375, -0.16250000000000003, 192.0, 125.5, 48.0, 14.5, 56.0, 125.0, 80.0, 0.0, 0.0, 0.0, 1.67312001806014E9, 0.0, 2023-01-07 14:33:38.060
212.0, -32902.66190799021, -35135.91410349776, -34639.57126612321, -29033.194963120815, -32211.009527565187, -31004.08238221197, -38864.922686210004, -36748.637169437075, -29651.064235098867, -10479.347166937252, -36513.07213462259, -37848.365348382635, -20439.91034506683, -22594.283234391598, -35929.19986596106, -34044.85840140085, -0.139, 0.879375, -0.16250000000000003, 192.0, 0.0, 0.0, 0.0, 0.0, 0.0, 0.0, 0.0, 0.0, 0.0, 1.6731200180601532E9, 0.0, 2023-01-07 14:33:38.060
214.0, -32931.22743740409, -35165.06077826748, -34657.89969657656, -29070.589431594544, -32222.38656549294, -31040.694539629763, -38902.89830003957, -36788.266812356334, -29629.025415065935, -10522.642495947182, -36502.74562868424, -37896.57806117273, -20423.41475765881, -22607.604874086963, -35928.81988630532, -34087.72904726613, -0.139, 0.879375, -0.16250000000000003, 192.0, 0.0, 0.0, 0.0, 0.0, 0.0, 0.0, 0.0, 0.0, 0.0, 1.6731200180601616E9, 0.0, 2023-01-07 14:33:38.060
216.0, -32903.77949521298, -35132.36017612936, -34642.92402779151, -29039.922838201863, -32192.345820945004, -31005.2670246681, -38870.53297406829, -36743.98800659037, -29659.11086310278, -10502.905905593147, -36523.2198266053, -37860.256476432856, -20440.71500786722, -22600.541722839087, -35937.82763932081, -34061.8904306758, -0.139, 0.879375, -0.16250000000000003, 192.0, 0.0, 0.0, 0.0, 0.0, 0.0, 0.0, 0.0, 0.0, 0.0, 1.67312001806017E9, 0.0, 2023-01-07 14:33:38.060
218.0, -32905.165303369206, -35135.042385464, -34634.6762340875, -29052.328056374557, -32187.741361587214, -31021.4720393982, -38870.28710487927, -36758.4272335085, -29620.732917873018, -10517.836870889292, -36495.146035569436, -37879.143700497596, -20415.971626755196, -22580.291042362576, -35908.12217093971, -34073.71450349266, -0.139, 0.879375, -0.16250000000000003, 192.0, 0.0, 0.0, 0.0, 0.0, 0.0, 0.0, 0.0, 0.0, 0.0, 1.673120018060178E9, 0.0, 2023-01-07 14:33:38.060
220.0, -32883.39470426973, -35107.25916710606, -34627.21075143942, -29011.536122743622, -32165.16609968735, -30977.617916776886, -38833.98787188386, -36696.334087411655, -29631.3946999782, -10474.295672690354, -36496.71065768131, -37834.37315635361, -20418.765594812106, -22567.66230674533, -35900.03083944689, -34035.85064838536, -0.1375, 0.9116875, -0.16425, 192.0, 125.5, 96.0, 14.5, 64.0, 125.0, 104.0, 0.0, 0.0, 0.0, 1.6731200180601864E9, 0.0, 2023-01-07 14:33:38.060
222.0, -32911.736716239066, -35140.80913553347, -34643.035786513785, -29055.50200408721, -32186.064980753064, -31034.078423270992, -38877.3279043827, -36759.4777654979, -29608.707679356063, -10497.832059601791, -36483.27725926367, -37859.54122061029, -20414.585818598964, -22578.61466152843, -35889.61492653071, -34059.02940738552, -0.1375, 0.9116875, -0.16425, 192.0, 0.0, 0.0, 0.0, 0.0, 0.0, 0.0, 0.0, 0.0, 0.0, 1.6731200180601945E9, 0.0, 2023-01-07 14:33:38.060
224.0, -32895.82227418688, -35119.396164345286, -34649.115461005626, -29025.26009383918, -32184.65682085238, -30996.32632688598, -38863.045139675756, -36710.92977654097, -29658.797938680404, -10501.833021859291, -36520.582320759575, -37861.01643574434, -20446.28059223659, -22594.931434980805, -35925.48947638148, -34070.42879705773, -0.1375, 0.9116875, -0.16425, 192.0, 0.0, 0.0, 0.0, 0.0, 0.0, 0.0, 0.0, 0.0, 0.0, 1.6731200180602024E9, 0.0, 2023-01-07 14:33:38.060
226.0, -32886.74746593803, -35117.026879433026, -34624.014451982315, -29039.676969012853, -32184.7462278302, -31017.784001563075, -38867.090805422165, -36738.86945711011, -29606.047821765882, -10483.83986757277, -36476.14705278243, -37852.65688331806, -20401.755917281618, -22563.437827043275, -35888.5196910524, -34059.18586959671, -0.1375, 0.9116875, -0.16425, 192.0, 0.0, 0.0, 0.0, 0.0, 0.0, 0.0, 0.0, 0.0, 0.0, 1.6731200180602124E9, 0.0, 2023-01-07 14:33:38.060
228.0, -32870.54245120793, -35097.37969605681, -34628.95418750694, -29002.818942406055, -32180.477044639236, -30973.929878941763, -38826.50003749133, -36682.2077849159, -29637.63083668123, -10477.335509936274, -36495.74953266973, -37848.6335693161, -20423.928847781284, -22568.04228640107, -35901.30488888084, -34054.64846547228, -0.1375, 0.9116875, -0.16425, 192.0, 0.0, 0.0, 0.0, 0.0, 0.0, 0.0, 0.0, 0.0, 0.0, 1.6731200180602205E9, 0.0, 2023-01-07 14:33:38.060
230.0, -32861.177070281155, -35096.35151581187, -34601.70741101592, -29016.565265246067, -32178.93477427182, -30989.598451804934, -38817.98402285386, -36700.536215369255, -29589.4851791245, -10461.108143461723, -36456.63397987294, -37833.65790053104, -20393.575178810977, -22536.861602885914, -35861.898763406134, -34040.969197865634, -0.14175, 0.9218437500000001, -0.16412500000000002, 192.0, 125.5, 56.0, 14.5, 16.0, 125.0, 112.0, 0.0, 0.0, 0.0, 1.6731200180602283E9, 0.0, 2023-01-07 14:33:38.060
232.0, -32896.515178265, -35126.3922603598, -34656.20096399796, -29031.920913686863, -32194.826864579543, -30990.738390772152, -38864.11802340961, -36699.88801478005, -29628.33251098782, -10497.094452034766, -36494.296669280135, -37867.87842129212, -20413.89291452085, -22574.300774848554, -35892.54300505436, -34066.137262122305, -0.14175, 0.9218437500000001, -0.16412500000000002, 192.0, 0.0, 0.0, 0.0, 0.0, 0.0, 0.0, 0.0, 0.0, 0.0, 1.6731200180602365E9, 0.0, 2023-01-07 14:33:38.060
234.0, -32901.723134723085, -35137.97046398764, -34647.84141157167, -29065.31441990309, -32190.378867432937, -31032.200876736748, -38882.42410211851, -36750.47001248241, -29616.173162004136, -10487.46085017453, -36486.540613954145, -37868.12429048113, -20405.51101035011, -22584.13554240889, -35885.5692607843, -34073.625096514836, -0.14175, 0.9218437500000001, -0.16412500000000002, 192.0, 0.0, 0.0, 0.0, 0.0, 0.0, 0.0, 0.0, 0.0, 0.0, 1.6731200180602448E9, 0.0, 2023-01-07 14:33:38.060
236.0, -32911.51319879451, -35145.57005710245, -34676.92103110803, -29051.858669740996, -32203.789914106124, -31007.077515968984, -38877.730235782896, -36720.3175092122, -29665.77168295046, -10527.693990194082, -36533.21105637682, -37918.214549805474, -20441.117339267414, -22624.882772550915, -35928.953996772056, -34120.675518593256, -0.14175, 0.9218437500000001, -0.16412500000000002, 192.0, 0.0, 0.0, 0.0, 0.0, 0.0, 0.0, 0.0, 0.0, 0.0, 1.6731200180602531E9, 0.0, 2023-01-07 14:33:38.060
238.0, -32879.68431469015, -35117.71978351114, -34622.271015914805, -29031.4515270533, -32169.435282878316, -31001.62369032189, -38836.7147847074, -36721.61391039061, -29617.268397482443, -10474.742707579459, -36483.321962752576, -37864.05627299026, -20400.03483295856, -22568.668135245818, -35882.86469970521, -34065.422006299734, -0.14175, 0.9218437500000001, -0.16412500000000002, 192.0, 0.0, 0.0, 0.0, 0.0, 0.0, 0.0, 0.0, 0.0, 0.0, 1.6731200180602615E9, 0.0, 2023-01-07 14:33:38.060
240.0, -32908.40630631522, -35139.110402954866, -34664.67227514652, -29031.987968920228, -32197.307908214083, -30990.961908216705, -38867.53784031127, -36705.498302638334, -29639.86601112676, -10503.50940269344, -36503.70675369582, -37896.22043326145, -20424.4205861593, -22591.46691459023, -35906.40108661665, -34093.98753571362, -0.14787499999999998, 0.9249218750000001, -0.1680625, 192.0, 125.5, 24.0, 14.5, 0.0, 125.0, 80.0, 0.0, 0.0, 0.0, 1.6731200180602698E9, 0.0, 2023-01-07 14:33:38.060
242.0, -32902.639556245755, -35139.53508609952, -34639.258341700835, -29047.433024338847, -32180.85702429498, -31026.009443522627, -38876.00915145983, -36748.99479734836, -29634.5462959464, -10488.198457741555, -36495.81658790309, -37865.95617126896, -20407.500315606634, -22574.41253357083, -35905.84229300526, -34074.07213140394, -0.14787499999999998, 0.9249218750000001, -0.1680625, 192.0, 0.0, 0.0, 0.0, 0.0, 0.0, 0.0, 0.0, 0.0, 0.0, 1.6731200180602775E9, 0.0, 2023-01-07 14:33:38.060
244.0, -32926.86884723531, -35161.93153404374, -34677.2339555304, -29048.818832495075, -32207.455600196794, -31018.163981218815, -38886.49211960937, -36731.33691922866, -29652.137118832725, -10527.60458321626, -36523.175123116394, -37922.21551206297, -20436.646990376354, -22614.13158346791, -35939.012281776944, -34121.88251279384, -0.14787499999999998, 0.9249218750000001, -0.1680625, 192.0, 0.0, 0.0, 0.0, 0.0, 0.0, 0.0, 0.0, 0.0, 0.0, 1.6731200180602868E9, 0.0, 2023-01-07 14:33:38.060
246.0, -32910.261501105015, -35150.643903093805, -34648.623722627606, -29047.27656212766, -32202.47116118326, -31022.36610917641, -38871.94113396897, -36746.0220153358, -29646.146851318703, -10497.094452034766, -36508.914710153906, -37875.61212487365, -20422.967722769707, -22599.178266427312, -35925.48947638148, -34077.93898319471, -0.14787499999999998, 0.9249218750000001, -0.1680625, 192.0, 0.0, 0.0, 0.0, 0.0, 0.0, 0.0, 0.0, 0.0, 0.0, 1.673120018060294E9, 0.0, 2023-01-07 14:33:38.060
248.0, -32931.20508565963, -35171.29691497051, -34679.84910963167, -29046.31543711608, -32212.574149677057, -31016.509952129123, -38889.17432894401, -36736.50017219784, -29653.05354035539, -10550.291603838397, -36523.868027194505, -37931.17856158955, -20438.79275784406, -22619.71951958174, -35945.360177202245, -34117.61332960288, -0.14787499999999998, 0.9249218750000001, -0.1680625, 192.0, 0.0, 0.0, 0.0, 0.0, 0.0, 0.0, 0.0, 0.0, 0.0, 1.6731200180603013E9, 0.0, 2023-01-07 14:33:38.060
250.0, -32908.875692948786, -35150.91212402727, -34649.29427496127, -29036.65948351139, -32197.41966693636, -31015.727641073187, -38869.30362812324, -36739.78587863277, -29653.277057799944, -10495.663940389626, -36516.17902710188, -37874.5392411398, -20429.494432150655, -22586.41542034333, -35933.31258694084, -34066.763110967055, -0.14787499999999998, 0.9249218750000001, -0.1680625, 192.0, 0.0, 0.0, 0.0, 0.0, 0.0, 0.0, 0.0, 0.0, 0.0, 1.6731200180603087E9, 0.0, 2023-01-07 14:33:38.060
252.0, -32928.1205449248, -35166.69245561272, -34669.05321705976, -29036.324207344558, -32191.407047677883, -31011.078478226482, -38871.6729130355, -36730.17462851699, -29643.978732106538, -10544.793074702391, -36521.074059137594, -37924.60714871969, -20427.438071660767, -22606.979025242214, -35927.188208960084, -34104.6493178188, -0.152, 0.9380000000000001, -0.178, 192.0, 125.5, 32.0, 14.5, 40.0, 125.0, 56.0, 0.0, 0.0, 0.0, 1.673120018060316E9, 0.0, 2023-01-07 14:33:38.060
254.0, -32908.13808538176, -35146.3970716473, -34649.40603368355, -29027.36115781798, -32170.08348346752, -31010.09500147045, -38855.2220291164, -36729.973462816895, -29652.494746744007, -10483.661053617127, -36517.69894572484, -37859.36240665465, -20422.43128090278, -22575.217196371224, -35914.961804743034, -34051.094538103884, -0.152, 0.9380000000000001, -0.178, 192.0, 0.0, 0.0, 0.0, 0.0, 0.0, 0.0, 0.0, 0.0, 0.0, 1.6731200180603235E9, 0.0, 2023-01-07 14:33:38.060
0.0, -32943.83382127689, -35181.93634533123, -34689.438008003, -29065.269716414183, -32210.674251398355, -31040.068690785014, -38882.51350909633, -36753.95688461744, -29655.981618879036, -10548.65992649316, -36536.6755767674, -37929.256311566394, -20439.48566192218, -22625.888601051403, -35936.911217798144, -34119.356765670396, -0.152, 0.9380000000000001, -0.178, 192.0, 0.0, 0.0, 0.0, 0.0, 0.0, 0.0, 0.0, 0.0, 0.0, 1.6731200180603309E9, 0.0, 2023-01-07 14:33:38.060
2.0, -32910.55207378293, -35150.018054249056, -34662.05712104525, -29041.420405080367, -32182.555756873582, -31015.347661417447, -38852.53981978176, -36729.45937269442, -29662.173052093156, -10503.241181759975, -36532.76402148772, -37872.52758413882, -20433.607153130433, -22608.52129560963, -35930.67508109511, -34070.45114880218, -0.152, 0.9380000000000001, -0.178, 192.0, 0.0, 0.0, 0.0, 0.0, 0.0, 0.0, 0.0, 0.0, 0.0, 1.673120018060338E9, 0.0, 2023-01-07 14:33:38.060
4.0, -32936.681263051185, -35173.576792904954, -34684.43121724501, -29068.264850171192, -32206.382716462937, -31042.326216975, -38865.772052499306, -36752.347559016656, -29637.273208769944, -10545.620089247239, -36520.6717277374, -37919.86857889516, -20431.081406006982, -22609.549475854576, -35928.05992699384, -34111.310137666485, -0.152, 0.9380000000000001, -0.178, 192.0, 0.0, 0.0, 0.0, 0.0, 0.0, 0.0, 0.0, 0.0, 0.0, 1.6731200180603452E9, 0.0, 2023-01-07 14:33:38.060
6.0, -32916.7211552526, -35152.38733916132, -34675.08818806269, -29045.331960360047, -32198.023164036655, -31021.293225442558, -38866.77788099979, -36735.695509397454, -29671.314915575378, -10507.867992862224, -36538.7766407462, -37878.62961037512, -20448.739284126674, -22603.134525195903, -35947.08126152531, -34081.31409660746, -0.152, 0.9440000000000001, -0.17, 192.0, 125.5, 32.0, 14.5, 64.0, 125.0, 88.0, 0.0, 0.0, 0.0, 1.6731200180603523E9, 0.0, 2023-01-07 14:33:38.060
8.0, -32925.39363210126, -35165.97719979015, -34677.30101076377, -29059.726483789265, -32214.541103189124, -31043.28734198658, -38874.55628807024, -36758.762509675325, -29644.492822229007, -10540.434484533607, -36526.863160951514, -37917.25342479389, -20439.776234600096, -22610.75647005516, -35948.02003479243, -34116.58514935793, -0.152, 0.9440000000000001, -0.17, 192.0, 0.0, 0.0, 0.0, 0.0, 0.0, 0.0, 0.0, 0.0, 0.0, 1.6731200180603592E9, 0.0, 2023-01-07 14:33:38.060
10.0, -32901.47726553408, -35137.23285642062, -34659.24080124388, -29026.75766071769, -32188.389562176417, -31003.09890545594, -38860.9217239525, -36719.02110803379, -29651.488918243518, -10492.199419999055, -36520.448210292845, -37856.38962464209, -20438.636295632878, -22583.42028658632, -35942.432098678604, -34062.76214870955, -0.152, 0.9440000000000001, -0.17, 192.0, 0.0, 0.0, 0.0, 0.0, 0.0, 0.0, 0.0, 0.0, 0.0, 1.6731200180603664E9, 0.0, 2023-01-07 14:33:38.060
12.0, -32933.9767019721, -35174.24734523861, -34667.17567052552, -29066.74493154823, -32204.41576295087, -31047.556525177544, -38883.586392830184, -36768.75373944685, -29636.15562154718, -10529.951516384068, -36515.79904744614, -37901.987183330915, -20427.795699572052, -22602.79924902907, -35942.05211902286, -34102.280032906536, -0.152, 0.9440000000000001, -0.17, 192.0, 0.0, 0.0, 0.0, 0.0, 0.0, 0.0, 0.0, 0.0, 0.0, 1.6731200180603738E9, 0.0, 2023-01-07 14:33:38.060
14.0, -32906.12642838078, -35139.64684482179, -34649.115461005626, -29014.821829178552, -32180.477044639236, -30986.066876180994, -38834.25609281732, -36702.614927603594, -29660.541374747918, -10502.101242792754, -36526.237312106765, -37868.52662188133, -20435.3729409424, -22601.033461217103, -35934.474877652516, -34061.82337544244, -0.152, 0.9440000000000001, -0.17, 192.0, 0.0, 0.0, 0.0, 0.0, 0.0, 0.0, 0.0, 0.0, 0.0, 1.6731200180603812E9, 0.0, 2023-01-07 14:33:38.060
16.0, -32918.643405275754, -35157.72940608614, -34646.2767894598, -29039.364044590482, -32199.923062315356, -31020.51091438662, -38845.49902027834, -36743.02688157879, -29621.13524927321, -10513.0312458314, -36502.87973915097, -37885.33513371171, -20413.736452309662, -22593.880902991405, -35913.46423786452, -34067.23249760062, -0.138, 0.936, -0.17, 192.0, 125.5, 88.0, 14.5, 32.0, 125.0, 88.0, 0.0, 0.0, 0.0, 1.6731200180603886E9, 0.0, 2023-01-07 14:33:38.060
18.0, -32924.70072802314, -35158.28819969752, -34671.3330949942, -29028.74696597421, -32202.0017745497, -31004.372954889892, -38863.939209453965, -36725.3690034591, -29656.696874701607, -10501.609504414739, -36524.58328301708, -37870.180650971015, -20439.776234600096, -22597.457182104252, -35930.29510143937, -34057.86711667384, -0.138, 0.936, -0.17, 192.0, 0.0, 0.0, 0.0, 0.0, 0.0, 0.0, 0.0, 0.0, 0.0, 1.673120018060396E9, 0.0, 2023-01-07 14:33:38.060
20.0, -32918.24107387556, -35153.303760683986, -34650.56832439522, -29042.336826603037, -32190.445922666306, -31028.490487157167, -38866.75552925534, -36763.41167252203, -29637.63083668123, -10529.102150094766, -36510.61344273251, -37885.46924417844, -20419.547905868043, -22592.606853557452, -35925.04244149238, -34080.17415764024, -0.138, 0.936, -0.17, 192.0, 0.0, 0.0, 0.0, 0.0, 0.0, 0.0, 0.0, 0.0, 0.0, 1.673120018060406E9, 0.0, 2023-01-07 14:33:38.060
22.0, -32921.07974542138, -35151.87324903885, -34675.132891551606, -29024.83541069453, -32200.593614649013, -30996.527492586076, -38860.96642744141, -36722.329166213174, -29662.933011404635, -10506.996274828467, -36525.00796616173, -37870.27005794884, -20435.842327575963, -22596.13842918139, -35932.61968286272, -34074.29564884849, -0.138, 0.936, -0.17, 192.0, 0.0, 0.0, 0.0, 0.0, 0.0, 0.0, 0.0, 0.0, 0.0, 1.673120018060414E9, 0.0, 2023-01-07 14:33:38.060
24.0, -32931.36154787082, -35167.29595271301, -34668.561478681746, -29063.88390825795, -32200.884187326934, -31044.80726060954, -38888.0790934657, -36778.677913985004, -29648.404377508687, -10511.60073418626, -36516.44724803534, -37879.16605224205, -20428.600362372443, -22594.730269280706, -35929.60219736126, -34084.26452687556, -0.138, 0.936, -0.17, 192.0, 0.0, 0.0, 0.0, 0.0, 0.0, 0.0, 0.0, 0.0, 0.0, 1.6731200180604217E9, 0.0, 2023-01-07 14:33:38.060
26.0, -32931.585065315376, -35162.311513699475, -34683.69360967798, -29045.108442915494, -32189.171873232353, -31007.18927469126, -38868.0742821782, -36732.7227273849, -29683.87659595926, -10535.382990286707, -36549.14785017346, -37908.96092760097, -20449.678057393798, -22640.081958780524, -35954.68085464011, -34110.63958533282, -0.14400000000000002, 0.932, -0.178, 192.0, 125.5, 64.0, 14.5, 16.0, 125.0, 56.0, 0.0, 0.0, 0.0, 1.67312001806043E9, 0.0, 2023-01-07 14:33:38.060
28.0, -32904.85237894683, -35140.54091460001, -34644.53335339229, -29051.903373229907, -32184.857986552477, -31022.544923132056, -38851.846915703645, -36754.783899162285, -29642.078833827836, -10502.615332915228, -36508.17710258688, -37874.82981381772, -20418.407966900824, -22604.47562986322, -35915.90057801015, -34075.21207037116, -0.14400000000000002, 0.932, -0.178, 192.0, 0.0, 0.0, 0.0, 0.0, 0.0, 0.0, 0.0, 0.0, 0.0, 1.673120018060438E9, 0.0, 2023-01-07 14:33:38.060
30.0, -32929.75222227004, -35158.48936539762, -34685.92878412352, -29052.37275986347, -32200.481855926737, -31014.475943383688, -38882.06647420722, -36738.489477454365, -29653.120595588756, -10518.37331275622, -36521.208169604324, -37894.1417210271, -20431.61784787391, -22613.058699734058, -35929.95982527254, -34093.473445591146, -0.14400000000000002, 0.932, -0.178, 192.0, 0.0, 0.0, 0.0, 0.0, 0.0, 0.0, 0.0, 0.0, 0.0, 1.6731200180604458E9, 0.0, 2023-01-07 14:33:38.060
32.0, -32926.2206466461, -35155.06954849596, -34664.73933037989, -29060.486443100745, -32213.624681666457, -31038.101737272948, -38878.914878239026, -36771.25713482584, -29661.48014801504, -10508.426786473607, -36528.58424527458, -37884.41871218905, -20443.33016196849, -22609.2365514322, -35943.08029926781, -34092.82524500194, -0.14400000000000002, 0.932, -0.178, 192.0, 0.0, 0.0, 0.0, 0.0, 0.0, 0.0, 0.0, 0.0, 0.0, 1.673120018060454E9, 0.0, 2023-01-07 14:33:38.060
34.0, -32933.9767019721, -35157.48353689713, -34683.96183061145, -29043.94615220382, -32224.353519005006, -31016.018213751104, -38881.03829396228, -36737.32718674269, -29673.550090020908, -10540.054504877866, -36537.7261087568, -37911.95606135798, -20458.082313308994, -22618.19960095878, -35959.352369231274, -34109.67846032124, -0.14400000000000002, 0.932, -0.178, 192.0, 0.0, 0.0, 0.0, 0.0, 0.0, 0.0, 0.0, 0.0, 0.0, 1.6731200180604632E9, 0.0, 2023-01-07 14:33:38.060
36.0, -32899.622070744284, -35125.07350743694, -34630.98819625237, -29031.384471819936, -32191.339992444515, -31009.267986925603, -38852.606875015124, -36736.79074487576, -29648.359674019775, -10484.108088506233, -36502.611518217505, -37855.5849618417, -20422.5206878806, -22587.1306761659, -35928.21638920503, -34059.74466320809, -0.154, 0.93, -0.17400000000000002, 192.0, 125.5, 24.0, 14.5, 8.0, 125.0, 72.0, 0.0, 0.0, 0.0, 1.6731200180604713E9, 0.0, 2023-01-07 14:33:38.060
38.0, -32937.26240840703, -35161.46214741017, -34674.39528398458, -29047.4553760833, -32210.495437442714, -31019.259216697126, -38886.00038123136, -36742.78101238978, -29652.271229299455, -10525.324705281819, -36517.028393391185, -37902.411866475566, -20434.7247403532, -22620.166554470845, -35936.01714801993, -34095.7980270145, -0.154, 0.93, -0.17400000000000002, 192.0, 0.0, 0.0, 0.0, 0.0, 0.0, 0.0, 0.0, 0.0, 0.0, 1.6731200180604794E9, 0.0, 2023-01-07 14:33:38.060
40.0, -32906.32759408088, -35135.534123842015, -34625.400260138544, -29031.540934031123, -32173.41389339136, -31014.74416431715, -38858.23951461787, -36742.2222187784, -29655.333418289832, -10492.869972332714, -36509.16057934291, -37860.815270044244, -20420.173754712792, -22593.880902991405, -35915.6770605656, -34062.49392777609, -0.154, 0.93, -0.17400000000000002, 192.0, 0.0, 0.0, 0.0, 0.0, 0.0, 0.0, 0.0, 0.0, 0.0, 1.6731200180604877E9, 0.0, 2023-01-07 14:33:38.060
42.0, -32930.51218158152, -35160.836298565424, -34655.59746689766, -29031.429175308847, -32184.9473935303, -31004.819989778996, -38850.237590102864, -36726.196018003946, -29642.48116522803, -10527.202251816065, -36511.708678210816, -37907.03867757782, -20423.951199525738, -22600.675833305817, -35906.60225231675, -34091.41708510126, -0.154, 0.93, -0.17400000000000002, 192.0, 0.0, 0.0, 0.0, 0.0, 0.0, 0.0, 0.0, 0.0, 0.0, 1.673120018060496E9, 0.0, 2023-01-07 14:33:38.060
44.0, -32908.20514061512, -35140.00447273308, -34636.598484110655, -29019.49334376971, -32185.841463308512, -30995.923995485784, -38839.64286323105, -36721.05511677922, -29647.398549008198, -10481.850562316247, -36507.573605486585, -37852.18749668449, -20418.5197256231, -22566.097684633456, -35899.56145281332, -34039.62809319831, -0.154, 0.93, -0.17400000000000002, 192.0, 0.0, 0.0, 0.0, 0.0, 0.0, 0.0, 0.0, 0.0, 0.0, 1.6731200180605032E9, 0.0, 2023-01-07 14:33:38.060
46.0, -32935.988358973074, -35163.83143232244, -34682.57602245522, -29047.27656212766, -32206.025088551654, -31021.00265276464, -38875.338599126175, -36748.056024081234, -29650.416034509664, -10531.002048373468, -36527.287844096165, -37915.44293349301, -20431.84136531846, -22598.03832746009, -35933.64786310767, -34103.62113757386, -0.152, 0.934, -0.17400000000000002, 192.0, 125.5, 32.0, 14.5, 24.0, 125.0, 72.0, 0.0, 0.0, 0.0, 1.6731200180605116E9, 0.0, 2023-01-07 14:33:38.060
0.0, -16408.750880807744, -17494.822143891113, -17294.41640310483, -14473.492142378349, -16075.776943657034, -15468.949433439904, -19402.185905240287, -18317.276932868594, -14838.004390955495, -5243.451028281574, -18268.594833444935, -18930.1170623442, -10219.955172533415, -11294.559990711212, -17970.08728624431, -17031.157556910224, -0.155, 0.935, -0.166, 192.0, 125.5, 8.0, 14.5, 32.0, 125.5, 8.0, 0.0, 0.0, 0.0, 1.673120018609E9, 0.0, 2023-01-07 14:33:38.609
2.0, -32785.471711811035, -34954.417938520666, -34562.010712863295, -28903.24192085766, -32132.17492487132, -30903.3430699519, -38782.93648754794, -36604.91545258945, -29613.647414880685, -10350.377601430131, -36416.37848810893, -37729.23055043585, -20394.60335905592, -22466.319497384968, -35830.919245591074, -33975.612697078315, -0.155, 0.935, -0.166, 192.0, 0.0, 0.0, 0.0, 0.0, 0.0, 0.0, 0.0, 0.0, 0.0, 1.6731200186090612E9, 0.0, 2023-01-07 14:33:38.609
4.0, -32810.61742432325, -34983.51990980148, -34568.04568386623, -28931.96391248273, -32162.774463030633, -30948.068910606973, -38815.95001410842, -36661.510069550284, -29589.976917502514, -10357.53015965583, -36402.90038620238, -37747.51427740029, -20387.294338619035, -22478.568253346475, -35828.08057404525, -34000.87016831281, -0.155, 0.935, -0.166, 192.0, 0.0, 0.0, 0.0, 0.0, 0.0, 0.0, 0.0, 0.0, 0.0, 1.6731200186091049E9, 0.0, 2023-01-07 14:33:38.609
6.0, -32800.24621489599, -34966.577287504355, -34568.783291433254, -28880.867824657897, -32153.74435827069, -30896.749305337587, -38786.982153294346, -36607.59766192408, -29618.47539168303, -10337.637107090606, -36420.08887768852, -37724.4025736335, -20405.488658605656, -22469.78401777554, -35838.02710032786, -33970.76236853151, -0.155, 0.935, -0.166, 192.0, 0.0, 0.0, 0.0, 0.0, 0.0, 0.0, 0.0, 0.0, 0.0, 1.6731200186091816E9, 0.0, 2023-01-07 14:33:38.609
8.0, -32808.62811906673, -34976.9037934427, -34552.779442403255, -28888.310955561516, -32142.03204417611, -30928.578189441945, -38803.58949942464, -36652.3011508347, -29599.94579552958, -10345.393162416598, -36407.70601126028, -37733.61149234909, -20392.837571243952, -22454.78599724603, -35827.83470485624, -33976.238545923065, -0.16, 0.9440000000000001, -0.156, 192.0, 125.5, 0.0, 14.5, 64.0, 125.5, 16.0, 0.0, 0.0, 0.0, 1.6731200186092105E9, 0.0, 2023-01-07 14:33:38.609
10.0, -32800.60384280728, -34962.73278745804, -34565.36347453159, -28848.211926008695, -32141.272084864628, -30882.82416854193, -38784.523461404264, -36601.83091185462, -29618.72126087204, -10335.290173922798, -36418.032517198626, -37714.09841943961, -20404.102850449428, -22441.24084010611, -35826.20302751101, -33953.10449041182, -0.16, 0.9440000000000001, -0.156, 192.0, 0.0, 0.0, 0.0, 0.0, 0.0, 0.0, 0.0, 0.0, 0.0, 1.673120018609244E9, 0.0, 2023-01-07 14:33:38.609
12.0, -32787.148092645184, -34953.61327572027, -34543.12348879856, -28863.14289130484, -32134.34304408348, -30899.83384607242, -38769.90542053049, -36631.71519419136, -29594.111990226746, -10318.414606859042, -36397.4912640442, -37701.69320126691, -20384.478018817666, -22416.72097643864, -35805.88529180113, -33942.599170517824, -0.16, 0.9440000000000001, -0.156, 192.0, 0.0, 0.0, 0.0, 0.0, 0.0, 0.0, 0.0, 0.0, 0.0, 1.673120018609269E9, 0.0, 2023-01-07 14:33:38.609
14.0, -32797.3404881168, -34960.698778712605, -34577.99221014884, -28867.367371006894, -32139.103965652463, -30880.29842141848, -38784.97049629337, -36607.10592354607, -29602.38213567521, -10312.04435968928, -36412.53398806262, -37703.526044312246, -20389.551864809022, -22416.81038341646, -35814.2001407385, -33941.79450771744, -0.16, 0.9440000000000001, -0.156, 192.0, 0.0, 0.0, 0.0, 0.0, 0.0, 0.0, 0.0, 0.0, 0.0, 1.6731200186092985E9, 0.0, 2023-01-07 14:33:38.609
16.0, -32805.36476437626, -34973.01458990748, -34580.5626607612, -28922.30795887804, -32159.17583217333, -30926.320663251958, -38816.55351120872, -36665.220459129865, -29598.09060073979, -10326.99767672988, -36419.37362186595, -37716.579463074144, -20387.383745596857, -22427.092185865902, -35830.293396746325, -33965.35324637333, -0.16, 0.9440000000000001, -0.156, 192.0, 0.0, 0.0, 0.0, 0.0, 0.0, 0.0, 0.0, 0.0, 0.0, 1.673120018609308E9, 0.0, 2023-01-07 14:33:38.609
18.0, -32808.44930511109, -34972.76872071847, -34603.96493720591, -28920.944502466264, -32152.336198370005, -30897.82218907144, -38809.624470427574, -36626.17196156645, -29613.2897869694, -10345.28140369432, -36437.99262499722, -37749.05654776771, -20405.93569349476, -22465.67129679576, -35860.04356861634, -33992.309450186425, -0.15, 0.9420000000000001, -0.148, 192.0, 125.5, 40.0, 14.5, 56.0, 125.5, 48.0, 0.0, 0.0, 0.0, 1.673120018609318E9, 0.0, 2023-01-07 14:33:38.609
20.0, -32795.597052049285, -34961.21286883508, -34566.548116987724, -28936.09898520696, -32145.474212822228, -30909.758020610574, -38783.18235673694, -36638.77834543924, -29605.734897343507, -10327.981153485913, -36423.7992672681, -37727.353003901604, -20391.831742743463, -22456.23886063562, -35852.22045805698, -33980.217156436105, -0.15, 0.9420000000000001, -0.148, 192.0, 0.0, 0.0, 0.0, 0.0, 0.0, 0.0, 0.0, 0.0, 0.0, 1.6731200186093276E9, 0.0, 2023-01-07 14:33:38.609
22.0, -32813.299633657894, -34975.24976435301, -34584.384809063056, -28924.274912390105, -32146.79296574509, -30886.82513079943, -38765.52447861725, -36597.18174900791, -29601.711583341552, -10341.593365859195, -36424.469819601756, -37744.27327445427, -20390.289472376047, -22457.53526181403, -35844.844382386735, -33981.78177854798, -0.15, 0.9420000000000001, -0.148, 192.0, 0.0, 0.0, 0.0, 0.0, 0.0, 0.0, 0.0, 0.0, 0.0, 1.6731200186093388E9, 0.0, 2023-01-07 14:33:38.609
24.0, -32812.673784813145, -34983.09522665683, -34571.867832168085, -28946.671360334323, -32144.200163388276, -30919.548084682, -38785.797510838216, -36637.481944260835, -29607.47833341102, -10331.937412254503, -36426.21325566927, -37725.07312596716, -20384.500370562124, -22443.453662807187, -35833.154420036604, -33959.608848048316, -0.15, 0.9420000000000001, -0.148, 192.0, 0.0, 0.0, 0.0, 0.0, 0.0, 0.0, 0.0, 0.0, 0.0, 1.6731200186093493E9, 0.0, 2023-01-07 14:33:38.609
26.0, -32836.009006024484, -35007.90566300222, -34604.18845465046, -28952.751034826164, -32139.483945308206, -30916.150619524793, -38796.39223771003, -36621.56750220865, -29617.134287015713, -10384.48636346893, -36450.353139681, -37784.66287668501, -20406.650949317333, -22473.91909049977, -35853.62861795767, -34003.53002590299, -0.15, 0.9420000000000001, -0.148, 192.0, 0.0, 0.0, 0.0, 0.0, 0.0, 0.0, 0.0, 0.0, 0.0, 1.6731200186093588E9, 0.0, 2023-01-07 14:33:38.609
28.0, -32800.559139318364, -34976.434406809145, -34562.345989030124, -28939.429395130803, -32139.349834841472, -30922.45381146119, -38771.805318809194, -36631.2458075578, -29615.703775370574, -10360.10061026819, -36438.77493605315, -37745.48026865486, -20398.492562591146, -22458.16111065878, -35838.58589393925, -33972.37169413229, -0.14400000000000002, 0.9400000000000001, -0.14200000000000002, 192.0, 125.5, 64.0, 14.5, 48.0, 125.5, 72.0, 0.0, 0.0, 0.0, 1.673120018609368E9, 0.0, 2023-01-07 14:33:38.609
30.0, -32795.66410728265, -34968.47718578306, -34567.241021065835, -28915.468325074715, -32142.322616854028, -30901.26435771756, -38763.08813847162, -36601.07095254314, -29582.779655787905, -10359.273595723344, -36408.75654324968, -37752.69988211392, -20391.451763087724, -22452.97550594515, -35819.78807685233, -33980.48537736957, -0.14400000000000002, 0.9400000000000001, -0.14200000000000002, 192.0, 0.0, 0.0, 0.0, 0.0, 0.0, 0.0, 0.0, 0.0, 0.0, 1.6731200186093774E9, 0.0, 2023-01-07 14:33:38.609
32.0, -32788.15392114567, -34958.48595601153, -34552.578276703156, -28907.28758660407, -32136.39940457337, -30906.472314175644, -38781.1036445026, -36624.36147026557, -29600.884568796704, -10331.71389480995, -36409.985889194715, -37705.2471286353, -20391.94350146574, -22447.722845998152, -35820.27981523035, -33947.18127813116, -0.14400000000000002, 0.9400000000000001, -0.14200000000000002, 192.0, 0.0, 0.0, 0.0, 0.0, 0.0, 0.0, 0.0, 0.0, 0.0, 1.6731200186093867E9, 0.0, 2023-01-07 14:33:38.609
34.0, -32817.47940987103, -34978.937802188135, -34580.69677122793, -28903.845417957953, -32155.59955306048, -30908.05928803197, -38793.66532488648, -36618.90764461847, -29588.14407445718, -10356.278461966333, -36414.1433136634, -37746.64255936653, -20399.900722491828, -22455.233032135133, -35829.91341709059, -33986.095665227855, -0.14400000000000002, 0.9400000000000001, -0.14200000000000002, 192.0, 0.0, 0.0, 0.0, 0.0, 0.0, 0.0, 0.0, 0.0, 0.0, 1.6731200186093965E9, 0.0, 2023-01-07 14:33:38.609
36.0, -32794.94885146008, -34955.13319434324, -34549.04670107921, -28883.95236539273, -32136.153535384365, -30901.219654228647, -38770.57597286415, -36615.443124227895, -29623.99627256349, -10314.480699834909, -36423.329880634534, -37695.88174770853, -20402.60528357092, -22435.16116561427, -35831.94742583602, -33940.31929258339, -0.14400000000000002, 0.9400000000000001, -0.14200000000000002, 192.0, 0.0, 0.0, 0.0, 0.0, 0.0, 0.0, 0.0, 0.0, 0.0, 1.6731200186094089E9, 0.0, 2023-01-07 14:33:38.609
38.0, -32836.299578702405, -34993.287622128446, -34588.05049515373, -28920.989205955175, -32164.070864209043, -30932.646206932808, -38812.73136290686, -36647.02613914325, -29617.134287015713, -10361.709935868972, -36429.767183037664, -37757.661969383, -20406.18156268377, -22461.089189182425, -35842.251580029915, -33998.79145607847, -0.156, 0.9380000000000001, -0.14200000000000002, 192.0, 125.5, 16.0, 14.5, 40.0, 125.5, 72.0, 0.0, 0.0, 0.0, 1.6731200186094184E9, 0.0, 2023-01-07 14:33:38.609
40.0, -32794.30065087088, -34954.283828053936, -34558.83676515064, -28904.068935402505, -32122.764840455635, -30894.849407058886, -38772.989961265324, -36612.515045704255, -29624.152734774678, -10311.776138755815, -36427.26378765867, -37710.2539193933, -20398.447859102234, -22432.747177213096, -35830.04752755732, -33951.58457178886, -0.156, 0.9380000000000001, -0.14200000000000002, 192.0, 0.0, 0.0, 0.0, 0.0, 0.0, 0.0, 0.0, 0.0, 0.0, 1.6731200186094277E9, 0.0, 2023-01-07 14:33:38.609
42.0, -32800.93911897411, -34968.34307531632, -34573.52186125778, -28936.903648007352, -32133.806602216555, -30912.3955264563, -38784.83638582664, -36628.787115667714, -29592.2344436925, -10351.450485163985, -36412.95867120727, -37760.791213606746, -20392.8152194995, -22457.132930413834, -35827.96881532297, -33999.70787760113, -0.156, 0.9380000000000001, -0.14200000000000002, 192.0, 0.0, 0.0, 0.0, 0.0, 0.0, 0.0, 0.0, 0.0, 0.0, 1.6731200186094377E9, 0.0, 2023-01-07 14:33:38.609
44.0, -32794.568871804346, -34963.001008391504, -34574.01359963579, -28933.662645061333, -32134.49950629467, -30906.047631030993, -38782.48945265883, -36617.119505062044, -29614.161505003158, -10321.096816193678, -36417.96546196526, -37719.32872764215, -20391.630577043365, -22455.098921668403, -35834.09319330373, -33965.93439172916, -0.156, 0.9380000000000001, -0.14200000000000002, 192.0, 0.0, 0.0, 0.0, 0.0, 0.0, 0.0, 0.0, 0.0, 0.0, 1.673120018609447E9, 0.0, 2023-01-07 14:33:38.609
46.0, -32809.07515395584, -34977.59669752082, -34572.51603275729, -28944.190316699784, -32148.335236112507, -30928.26526501957, -38792.570089408175, -36644.90272342, -29591.496836125476, -10376.395031976108, -36412.86926422945, -37769.68720789996, -20395.922111978784, -22474.79080853353, -35829.57814092376, -34009.60970039484, -0.156, 0.9380000000000001, -0.14200000000000002, 192.0, 0.0, 0.0, 0.0, 0.0, 0.0, 0.0, 0.0, 0.0, 0.0, 1.6731200186094568E9, 0.0, 2023-01-07 14:33:38.609
48.0, -32797.89928172818, -34962.53162175794, -34563.55298323071, -28911.780287239588, -32137.852267962968, -30896.011697770562, -38775.6051153666, -36611.53156894822, -29616.217865493047, -10333.345572155187, -36415.10443867498, -37722.27915791025, -20396.235036401158, -22456.23886063562, -35818.692841374024, -33962.29105738295, -0.157, 0.935, -0.14400000000000002, 192.0, 125.5, 8.0, 14.5, 16.0, 125.5, 56.0, 0.0, 0.0, 0.0, 1.6731200186094663E9, 0.0, 2023-01-07 14:33:38.609
50.0, -32820.34043316131, -34986.3585813473, -34572.80660543521, -28937.194220685273, -32138.053433663066, -30927.88528536383, -38797.15219702151, -36648.523706021755, -29599.94579552958, -10371.656462151583, -36411.55051130659, -37756.32086471568, -20392.681109032765, -22467.504139841098, -35817.28468147334, -33990.230737952086, -0.157, 0.935, -0.14400000000000002, 192.0, 0.0, 0.0, 0.0, 0.0, 0.0, 0.0, 0.0, 0.0, 0.0, 1.6731200186094756E9, 0.0, 2023-01-07 14:33:38.609
52.0, -32804.31423238686, -34966.37612180426, -34573.90184091352, -28900.358545822924, -32137.472288307228, -30889.842616300895, -38788.01033353929, -36606.43537121241, -29628.91365634366, -10338.911156524558, -36431.13063944944, -37727.59887309061, -20409.981359241174, -22459.658677537285, -35841.93865560754, -33958.401853847725, -0.157, 0.935, -0.14400000000000002, 192.0, 0.0, 0.0, 0.0, 0.0, 0.0, 0.0, 0.0, 0.0, 0.0, 1.6731200186094851E9, 0.0, 2023-01-07 14:33:38.609
54.0, -32822.32973841784, -34987.4091133367, -34573.477157768866, -28927.784136269587, -32162.93092524182, -30930.612198187377, -38803.67890640246, -36655.095118891615, -29599.61051936275, -10352.076334008734, -36414.79151425261, -37745.59202737713, -20400.280702147567, -22456.596488546907, -35836.797754382824, -33976.998505234544, -0.157, 0.935, -0.14400000000000002, 192.0, 0.0, 0.0, 0.0, 0.0, 0.0, 0.0, 0.0, 0.0, 0.0, 1.6731200186094944E9, 0.0, 2023-01-07 14:33:38.609
56.0, -32798.92746197313, -34963.96213340308, -34569.140919344536, -28891.73077246318, -32151.39742510288, -30888.881491289318, -38790.98311555185, -36608.2905660022, -29620.665862639653, -10338.352362913176, -36426.43677311382, -37728.962329502385, -20412.775327298084, -22469.96283173118, -35850.05233884482, -33959.586496303855, -0.157, 0.935, -0.14400000000000002, 192.0, 0.0, 0.0, 0.0, 0.0, 0.0, 0.0, 0.0, 0.0, 0.0, 1.6731200186095035E9, 0.0, 2023-01-07 14:33:38.609
58.0, -32798.81570325085, -34969.05833113889, -34552.019483091775, -28911.422659328302, -32153.140861170396, -30921.31387249397, -38795.25229874281, -36650.11067987808, -29585.841844778282, -10343.13563622661, -36398.184168122316, -37727.39770739051, -20386.020289185082, -22458.429331592244, -35830.96394907999, -33964.59328706185, -0.1625, 0.9385000000000001, -0.14200000000000002, 192.0, 125.0, 96.0, 14.5, 56.0, 125.5, 80.0, 0.0, 0.0, 0.0, 1.6731200186095128E9, 0.0, 2023-01-07 14:33:38.609
60.0, -32782.16365363165, -34948.20415356209, -34551.46068948039, -28870.228394297174, -32128.933921925298, -30864.652200299766, -38756.87435351305, -36586.40820818045, -29598.3364699288, -10331.110397709655, -36406.52136880414, -37712.37733511655, -20394.491600333644, -22446.314686097467, -35830.62867291316, -33945.84017346385, -0.1625, 0.9385000000000001, -0.14200000000000002, 192.0, 0.0, 0.0, 0.0, 0.0, 0.0, 0.0, 0.0, 0.0, 0.0, 1.673120018609522E9, 0.0, 2023-01-07 14:33:38.609
62.0, -32788.466845568044, -34960.72113045706, -34551.81831739168, -28910.215665127715, -32126.519933524127, -30909.713317121666, -38780.76836833577, -36643.628673986044, -29564.831204990292, -10319.018103959335, -36383.990810393196, -37700.08387566613, -20364.204986596702, -22421.414842774255, -35801.504349887895, -33939.08994663834, -0.1625, 0.9385000000000001, -0.14200000000000002, 192.0, 0.0, 0.0, 0.0, 0.0, 0.0, 0.0, 0.0, 0.0, 0.0, 1.673120018609532E9, 0.0, 2023-01-07 14:33:38.609
64.0, -32810.706831301075, -34979.11661614378, -34591.090332399646, -28914.14957215185, -32135.527686539615, -30899.051535016482, -38782.645914870016, -36611.77743813723, -29599.43170540711, -10354.691488110006, -36423.620453312455, -37735.37728016106, -20391.787039254552, -22448.169880887257, -35837.37889973866, -33969.62242956429, -0.1625, 0.9385000000000001, -0.14200000000000002, 192.0, 0.0, 0.0, 0.0, 0.0, 0.0, 0.0, 0.0, 0.0, 0.0, 1.6731200186095417E9, 0.0, 2023-01-07 14:33:38.609
66.0, -32816.20536043708, -34990.44895058262, -34575.220593836384, -28949.979418513707, -32133.091346393987, -30943.665616949278, -38800.951993578914, -36667.70150276441, -29594.201397204568, -10352.053982264279, -36420.37945036643, -37730.28108242525, -20389.596568297933, -22448.929840198736, -35832.57327468077, -33975.54564184495, -0.1625, 0.9385000000000001, -0.14200000000000002, 192.0, 0.0, 0.0, 0.0, 0.0, 0.0, 0.0, 0.0, 0.0, 0.0, 1.6731200186095512E9, 0.0, 2023-01-07 14:33:38.609
68.0, -32835.047881012906, -35008.97854673607, -34604.791951750754, -28953.242773204183, -32155.6889600383, -30938.74823316911, -38802.6060226686, -36639.895932662, -29611.747516601983, -10390.767203660871, -36441.5018488767, -37764.43454795296, -20409.08728946296, -22487.844227295427, -35855.260295302905, -34007.19571199366, -0.16525, 0.94025, -0.14300000000000002, 192.0, 125.0, 96.0, 14.5, 56.0, 125.5, 64.0, 0.0, 0.0, 0.0, 1.673120018609564E9, 0.0, 2023-01-07 14:33:38.609
70.0, -32815.40069763669, -34994.539319817944, -34570.14674784503, -28963.524575653624, -32158.706445539767, -30952.986294387138, -38789.351438206606, -36660.3030753497, -29604.617310120742, -10380.708918655982, -36429.74483129321, -37744.072108754175, -20410.89778076384, -22492.292224442033, -35854.47798424697, -33994.276403698495, -0.16525, 0.94025, -0.14300000000000002, 192.0, 0.0, 0.0, 0.0, 0.0, 0.0, 0.0, 0.0, 0.0, 0.0, 1.6731200186095736E9, 0.0, 2023-01-07 14:33:38.609
72.0, -32834.042052512414, -35010.811389781404, -34600.61217553761, -28960.35062794097, -32176.69959982629, -30941.78807041503, -38806.09289480363, -36639.694766961904, -29602.940929286593, -10398.43385200904, -36431.13063944944, -37767.25086775433, -20417.379786655878, -22509.346605461433, -35858.50129824893, -34004.133523003286, -0.16525, 0.94025, -0.14300000000000002, 192.0, 0.0, 0.0, 0.0, 0.0, 0.0, 0.0, 0.0, 0.0, 0.0, 1.6731200186095834E9, 0.0, 2023-01-07 14:33:38.609
74.0, -32809.05280221138, -34986.135063902744, -34559.149689573016, -28946.7831190566, -32155.8901257384, -30948.538297240535, -38804.528272691765, -36659.54311603822, -29593.016754748438, -10365.085049281723, -36418.01016545417, -37725.542512600725, -20391.898797976828, -22483.77620980456, -35847.638350443645, -33966.806109762925, -0.16525, 0.94025, -0.14300000000000002, 192.0, 0.0, 0.0, 0.0, 0.0, 0.0, 0.0, 0.0, 0.0, 0.0, 1.673120018609593E9, 0.0, 2023-01-07 14:33:38.609
76.0, -32829.527000132446, -35001.55776757691, -34585.927079430476, -28936.54602009607, -32153.83376524851, -30936.423651745758, -38814.18422629646, -36641.952293151895, -29602.180969975114, -10398.67972119805, -36433.85755227298, -37765.68624564246, -20410.629559830377, -22501.523494902074, -35861.36232153921, -33996.578633377394, -0.16525, 0.94025, -0.14300000000000002, 192.0, 0.0, 0.0, 0.0, 0.0, 0.0, 0.0, 0.0, 0.0, 0.0, 1.6731200186096027E9, 0.0, 2023-01-07 14:33:38.609
78.0, -32789.36091534626, -34963.24687758051, -34538.854305607594, -28909.254540116137, -32142.277913365117, -30927.907637108285, -38773.52640313225, -36639.18067683944, -29583.785484288393, -10339.738171069404, -36405.2920228591, -37699.390971588015, -20387.294338619035, -22454.16014840128, -35828.86288510119, -33937.14534487073, -0.15962500000000002, 0.9401250000000001, -0.1405, 192.0, 125.5, 24.0, 14.5, 48.0, 125.5, 88.0, 0.0, 0.0, 0.0, 1.673120018609612E9, 0.0, 2023-01-07 14:33:38.609
80.0, -32806.996441721494, -34977.84256670983, -34562.52480298577, -28903.733659235677, -32159.801681018078, -30924.040785317517, -38789.73141786235, -36633.63744421452, -29577.32583014081, -10380.753622144894, -36403.95091819178, -37735.31022492769, -20400.481867847666, -22472.220357921167, -35834.6072834262, -33973.4669296106, -0.15962500000000002, 0.9401250000000001, -0.1405, 192.0, 0.0, 0.0, 0.0, 0.0, 0.0, 0.0, 0.0, 0.0, 0.0, 1.6731200186096218E9, 0.0, 2023-01-07 14:33:38.609
82.0, -32796.0440869384, -34972.29933408491, -34533.132259027036, -28893.5189120196, -32119.322671809517, -30921.02329981605, -38779.02493226826, -36638.26425531677, -29583.539615099387, -10337.301830923776, -36396.03840065461, -37685.8458144481, -20392.56935031049, -22449.600392532397, -35807.94165229102, -33921.74499294102, -0.15962500000000002, 0.9401250000000001, -0.1405, 192.0, 0.0, 0.0, 0.0, 0.0, 0.0, 0.0, 0.0, 0.0, 0.0, 1.6731200186096313E9, 0.0, 2023-01-07 14:33:38.609
84.0, -32823.6484913407, -34996.81919775238, -34553.80762264819, -28900.447952800747, -32140.802698231066, -30921.984424827628, -38784.657571870994, -36636.96785413836, -29589.57458610232, -10388.822601893258, -36411.103476417484, -37750.7105768574, -20406.405080128323, -22487.64306159533, -35809.30510870279, -33967.90134524123, -0.15962500000000002, 0.9401250000000001, -0.1405, 192.0, 0.0, 0.0, 0.0, 0.0, 0.0, 0.0, 0.0, 0.0, 0.0, 1.6731200186096406E9, 0.0, 2023-01-07 14:33:38.609
86.0, -32810.72918304553, -34979.76481673298, -34546.09627081112, -28897.095191132452, -32132.040814404587, -30904.25949147457, -38785.32812420465, -36634.37505178154, -29613.37919394722, -10345.504921138874, -36417.54077882061, -37701.38027684454, -20395.139800922847, -22458.988125203625, -35805.37120167866, -33922.23673131904, -0.15962500000000002, 0.9401250000000001, -0.1405, 192.0, 0.0, 0.0, 0.0, 0.0, 0.0, 0.0, 0.0, 0.0, 0.0, 1.67312001860965E9, 0.0, 2023-01-07 14:33:38.609
88.0, -32836.45604091359, -35003.614128066794, -34586.17294861948, -28936.903648007352, -32162.32742814153, -30915.860046846876, -38815.34651700813, -36650.17773511144, -29605.421972921133, -10386.453316980997, -36425.87797950244, -37757.12552751607, -20395.02804220057, -22476.891872512326, -35830.226341512964, -33979.47954886908, -0.16481250000000003, 0.9390625000000001, -0.13825, 192.0, 125.0, 88.0, 14.5, 40.0, 125.5, 96.0, 0.0, 0.0, 0.0, 1.6731200186096592E9, 0.0, 2023-01-07 14:33:38.609
90.0, -32798.458075339564, -34968.186613105136, -34568.850346666615, -28928.834668258987, -32134.857134205955, -30901.197302484194, -38779.695484601914, -36626.350775522085, -29618.877723083227, -10343.537967626808, -36429.4989621042, -37715.618338062566, -20397.442030601746, -22464.330192128444, -35846.25254228742, -33959.09475792584, -0.16481250000000003, 0.9390625000000001, -0.13825, 192.0, 0.0, 0.0, 0.0, 0.0, 0.0, 0.0, 0.0, 0.0, 0.0, 1.6731200186096685E9, 0.0, 2023-01-07 14:33:38.609
92.0, -32814.908959258675, -34989.26430812649, -34587.111721886606, -28964.172776242827, -32146.636503533904, -30938.859991891386, -38815.32416526367, -36664.63931377403, -29568.47453933651, -10371.38824121812, -36402.02866816863, -37754.063338525695, -20385.953233951717, -22469.985183475637, -35846.25254228742, -34007.86626432732, -0.16481250000000003, 0.9390625000000001, -0.13825, 192.0, 0.0, 0.0, 0.0, 0.0, 0.0, 0.0, 0.0, 0.0, 0.0, 1.6731200186096776E9, 0.0, 2023-01-07 14:33:38.609
94.0, -32794.01007819296, -34969.46066253909, -34568.13509084405, -28942.648046332368, -32144.490736066193, -30922.654977161288, -38799.208557511396, -36635.89497040451, -29603.790295575895, -10350.824636319237, -36417.07139218705, -37726.168361445474, -20396.88323699036, -22473.025020721558, -35866.27970531937, -33991.86241529732, -0.16481250000000003, 0.9390625000000001, -0.13825, 192.0, 0.0, 0.0, 0.0, 0.0, 0.0, 0.0, 0.0, 0.0, 0.0, 1.673120018609687E9, 0.0, 2023-01-07 14:33:38.609
96.0, -32800.492084085, -34978.78133997695, -34554.47817498186, -28950.20293595826, -32159.55581182907, -30935.686044178732, -38794.71585687588, -36652.92699967945, -29569.837995748283, -10374.852761608692, -36389.80226395158, -37752.27519896927, -20378.21953037018, -22477.473017868164, -35851.28168478986, -34016.1811132647, -0.16481250000000003, 0.9390625000000001, -0.13825, 192.0, 0.0, 0.0, 0.0, 0.0, 0.0, 0.0, 0.0, 0.0, 0.0, 1.6731200186096969E9, 0.0, 2023-01-07 14:33:38.609
98.0, -32788.35508684577, -34962.91160141368, -34543.548171943214, -28918.351700109448, -32146.68120702281, -30906.986404298117, -38789.46319692888, -36617.76770565125, -29582.109103454248, -10339.000563502379, -36386.58361275001, -37699.61448903257, -20378.89008270384, -22466.945346229717, -35831.2545217579, -33955.49612706854, -0.16740625000000003, 0.9395312500000002, -0.138125, 192.0, 125.0, 88.0, 14.5, 48.0, 125.5, 88.0, 0.0, 0.0, 0.0, 1.673120018609706E9, 0.0, 2023-01-07 14:33:38.609
100.0, -32822.91088377367, -34998.3614681198, -34554.14289881503, -28952.10283423696, -32154.571372815535, -30954.014474632084, -38831.48447650486, -36678.07271219167, -29574.487158594988, -10392.108308328188, -36393.08797038651, -37745.43556516595, -20376.721963491676, -22487.374840661865, -35827.6558909006, -33990.230737952086, -0.16740625000000003, 0.9395312500000002, -0.138125, 192.0, 0.0, 0.0, 0.0, 0.0, 0.0, 0.0, 0.0, 0.0, 0.0, 1.6731200186097171E9, 0.0, 2023-01-07 14:33:38.609
102.0, -32828.945854776604, -34995.70161052962, -34568.93975364444, -28923.470249589715, -32157.36534087245, -30915.278901491038, -38813.29015651824, -36642.77930769674, -29619.592978905795, -10377.110287798678, -36428.31431964807, -37736.42781215046, -20405.667472561297, -22489.11827672938, -35842.63155968566, -33961.10641492682, -0.16740625000000003, 0.9395312500000002, -0.138125, 192.0, 0.0, 0.0, 0.0, 0.0, 0.0, 0.0, 0.0, 0.0, 0.0, 1.673120018609726E9, 0.0, 2023-01-07 14:33:38.609
104.0, -32835.53961939092, -35004.262328656, -34555.61811394908, -28940.189354442282, -32145.40715758886, -30940.73753842563, -38808.372772738076, -36668.34970335361, -29589.015792490936, -10384.039328579824, -36411.93049096233, -37752.69988211392, -20396.011518956606, -22477.048334723513, -35827.32061473377, -33967.074330696385, -0.16740625000000003, 0.9395312500000002, -0.138125, 192.0, 0.0, 0.0, 0.0, 0.0, 0.0, 0.0, 0.0, 0.0, 0.0, 1.6731200186097348E9, 0.0, 2023-01-07 14:33:38.609
106.0, -32823.38027040724, -34988.99608719302, -34557.65212269451, -28903.733659235677, -32121.64725323287, -30901.152598995282, -38772.4535193984, -36610.7939613812, -29614.072098025335, -10371.947034829502, -36426.66029055838, -37736.11488772809, -20399.297225391536, -22468.621727063863, -35824.19137051003, -33946.868353708785, -0.16740625000000003, 0.9395312500000002, -0.138125, 192.0, 0.0, 0.0, 0.0, 0.0, 0.0, 0.0, 0.0, 0.0, 0.0, 1.6731200186097438E9, 0.0, 2023-01-07 14:33:38.609
108.0, -32818.14996220469, -34989.9572122046, -34544.86692486607, -28921.10096467745, -32132.286683593597, -30933.473221477656, -38776.990923522826, -36653.08346189064, -29580.05274296436, -10363.498075425396, -36403.32506934703, -37730.146971958515, -20373.548015779023, -22456.64119203582, -35804.38772492263, -33953.037435178456, -0.164703125, 0.9417656250000002, -0.1350625, 192.0, 125.0, 120.0, 14.5, 64.0, 125.5, 112.0, 0.0, 0.0, 0.0, 1.6731200186097531E9, 0.0, 2023-01-07 14:33:38.609
110.0, -32823.13440121822, -34992.52766281697, -34577.254602581816, -28907.511104048623, -32146.234172133707, -30914.45188694619, -38785.73045560485, -36627.557769722676, -29600.348126929777, -10362.246377735899, -36418.792476510105, -37722.43562012144, -20398.872542246885, -22464.419599106266, -35820.27981523035, -33952.23277237806, -0.164703125, 0.9417656250000002, -0.1350625, 192.0, 0.0, 0.0, 0.0, 0.0, 0.0, 0.0, 0.0, 0.0, 0.0, 1.6731200186097624E9, 0.0, 2023-01-07 14:33:38.609
112.0, -32823.13440121822, -34998.674392542176, -34566.056378609705, -28937.194220685273, -32143.507259310158, -30948.35948328489, -38817.40287749802, -36682.990095971836, -29587.764094801438, -10371.522351684851, -36413.36100260747, -37726.593044590125, -20399.543094580546, -22472.198006176714, -35832.93090259205, -33970.02476096449, -0.164703125, 0.9417656250000002, -0.1350625, 192.0, 0.0, 0.0, 0.0, 0.0, 0.0, 0.0, 0.0, 0.0, 0.0, 1.6731200186097715E9, 0.0, 2023-01-07 14:33:38.609
114.0, -32828.4988198875, -34998.45087509762, -34588.07284689818, -28917.703499520245, -32136.35470108446, -30904.192436241203, -38793.28534523074, -36626.68605168892, -29608.99825203398, -10388.062642581779, -36428.671947559356, -37742.21691396438, -20416.75393781113, -22489.87823604086, -35845.15730680911, -33969.935353986664, -0.164703125, 0.9417656250000002, -0.1350625, 192.0, 0.0, 0.0, 0.0, 0.0, 0.0, 0.0, 0.0, 0.0, 0.0, 1.6731200186097803E9, 0.0, 2023-01-07 14:33:38.609
116.0, -32820.34043316131, -34989.06314242639, -34569.81147167819, -28939.71996780872, -32134.655968505856, -30918.139924781317, -38780.187222979934, -36650.93769442293, -29594.22374894902, -10358.245415478399, -36411.57286305104, -37717.495884596814, -20405.287492905558, -22454.920107712762, -35827.41002171159, -33942.263894350996, -0.164703125, 0.9417656250000002, -0.1350625, 192.0, 0.0, 0.0, 0.0, 0.0, 0.0, 0.0, 0.0, 0.0, 0.0, 1.6731200186097894E9, 0.0, 2023-01-07 14:33:38.609
118.0, -32843.20626773909, -35005.9610612346, -34606.043649440246, -28942.960970754742, -32153.722006526234, -30896.414029170755, -38782.82472882566, -36616.650118428486, -29613.2897869694, -10390.63309319414, -36435.086898218025, -37746.5084488998, -20415.681054077275, -22471.169825931767, -35845.13495506465, -33961.262877138004, -0.1513515625, 0.9428828125000002, -0.13853125, 192.0, 125.5, 88.0, 14.5, 64.0, 125.5, 72.0, 0.0, 0.0, 0.0, 1.6731200186097984E9, 0.0, 2023-01-07 14:33:38.609
120.0, -32844.1003375173, -35009.3138229029, -34591.85029171113, -28971.30298272407, -32161.50041359668, -30936.624817445856, -38805.91408084799, -36670.16019465449, -29619.078888783326, -10368.929549328035, -36433.58933133952, -37729.07408822466, -20404.639292316355, -22467.079456696447, -35847.370129510186, -33951.85279272232, -0.1513515625, 0.9428828125000002, -0.13853125, 192.0, 0.0, 0.0, 0.0, 0.0, 0.0, 0.0, 0.0, 0.0, 0.0, 1.6731200190900195E9, 0.0, 2023-01-07 14:33:39.090
122.0, -32855.097395789315, -35010.85609327032, -34608.30117563024, -28950.359398169447, -32172.7433410577, -30907.746363609596, -38789.57495565116, -36627.691880189406, -29637.407319236678, -10408.849764925215, -36453.9070670494, -37766.80383286522, -20423.638275103363, -22493.365108175887, -35871.6664757331, -33991.10245598584, -0.1513515625, 0.9428828125000002, -0.13853125, 192.0, 0.0, 0.0, 0.0, 0.0, 0.0, 0.0, 0.0, 0.0, 0.0, 1.6731200190900943E9, 0.0, 2023-01-07 14:33:39.090
124.0, -32819.60282559429, -34979.58600277734, -34560.669608195974, -28933.34972063896, -32144.46838432174, -30906.226444986638, -38773.7499205768, -36636.006729126784, -29619.011833549957, -10354.847950321193, -36423.84397075701, -37706.677640280446, -20399.856019002917, -22463.525529328053, -35838.49648696143, -33938.553504771415, -0.1513515625, 0.9428828125000002, -0.13853125, 192.0, 0.0, 0.0, 0.0, 0.0, 0.0, 0.0, 0.0, 0.0, 0.0, 1.673120019090123E9, 0.0, 2023-01-07 14:33:39.090
126.0, -32845.754366607, -35008.15153219122, -34593.70548650092, -28944.838517288987, -32165.814300276557, -30929.114631308872, -38806.763447137295, -36647.62963624354, -29613.423897436132, -10395.081090340746, -36427.196732425306, -37750.82233557968, -20410.964835997205, -22490.682898841253, -35849.314731277795, -33983.994601249055, -0.1513515625, 0.9428828125000002, -0.13853125, 192.0, 0.0, 0.0, 0.0, 0.0, 0.0, 0.0, 0.0, 0.0, 0.0, 1.6731200190901296E9, 0.0, 2023-01-07 14:33:39.090
128.0, -32821.92740701764, -34988.75021800402, -34556.623942449565, -28937.238924174184, -32143.909590710355, -30933.495573222113, -38808.663345416, -36660.615999772075, -29623.99627256349, -10379.72544189995, -36422.05583120058, -37717.07120145216, -20401.487696348155, -22483.84326503793, -35853.919190635585, -33963.69921728363, -0.1513515625, 0.9428828125000002, -0.13853125, 192.0, 0.0, 0.0, 0.0, 0.0, 0.0, 0.0, 0.0, 0.0, 0.0, 1.6731200190901356E9, 0.0, 2023-01-07 14:33:39.090
130.0, -32836.59015138032, -35005.022287967484, -34573.72302695787, -28930.28753164858, -32171.782216046122, -30918.676366648244, -38809.33389774965, -36642.086403618625, -29601.24219670799, -10410.213221336988, -36410.32116536154, -37754.28685597025, -20398.470210846688, -22489.34179417393, -35853.516859235395, -33986.54270011696, -0.146, 0.9440000000000001, -0.132, 192.0, 125.5, 56.0, 14.5, 64.0, 125.5, 112.0, 0.0, 0.0, 0.0, 1.673120019090142E9, 0.0, 2023-01-07 14:33:39.090
132.0, -32821.50272387299, -34993.488787828544, -34546.140974300026, -28924.00669145664, -32153.856116992967, -30921.157410282784, -38806.696391903926, -36654.87160144706, -29602.62800486422, -10377.937302343524, -36401.42517106833, -37705.895329224506, -20388.501332819622, -22470.946308487215, -35838.94352185053, -33936.34068207034, -0.146, 0.9440000000000001, -0.132, 192.0, 0.0, 0.0, 0.0, 0.0, 0.0, 0.0, 0.0, 0.0, 0.0, 1.6731200190901558E9, 0.0, 2023-01-07 14:33:39.090
134.0, -32833.32679668985, -35005.1116949453, -34557.965047116886, -28929.996958970663, -32150.950390213777, -30917.268206747558, -38803.72360989137, -36648.45665078839, -29593.888472782193, -10415.711750472994, -36412.288118873614, -37768.23434451036, -20390.445934587235, -22501.009404779605, -35846.23019054296, -33990.20838620763, -0.146, 0.9440000000000001, -0.132, 192.0, 0.0, 0.0, 0.0, 0.0, 0.0, 0.0, 0.0, 0.0, 0.0, 1.673120019090162E9, 0.0, 2023-01-07 14:33:39.090
136.0, -32797.22872939453, -34965.593810748316, -34524.750354856296, -28907.466400559715, -32119.948520654267, -30886.646316843788, -38776.49918514481, -36618.57236845164, -29591.876815781216, -10345.214348460955, -36397.98300242222, -37698.6980675099, -20366.03782964204, -22448.415750076267, -35817.53055066235, -33920.35918478479, -0.146, 0.9440000000000001, -0.132, 192.0, 0.0, 0.0, 0.0, 0.0, 0.0, 0.0, 0.0, 0.0, 0.0, 1.673120019090168E9, 0.0, 2023-01-07 14:33:39.090
138.0, -32829.750517577, -34995.67925878516, -34545.850401622105, -28935.87546776241, -32121.289625321584, -30911.79202935601, -38786.691580616425, -36638.44306927241, -29576.94585048507, -10388.286160026331, -36403.43682806931, -37754.37626294807, -20359.622878983366, -22481.83160803695, -35820.99507105292, -33975.63504882277, -0.146, 0.9440000000000001, -0.132, 192.0, 0.0, 0.0, 0.0, 0.0, 0.0, 0.0, 0.0, 0.0, 0.0, 1.6731200190901744E9, 0.0, 2023-01-07 14:33:39.090
140.0, -32826.643625097706, -34991.74535176103, -34558.70265468391, -28943.49741262167, -32125.53645676809, -30914.183666012726, -38796.99573481032, -36629.18944706791, -29601.91274904165, -10361.419363191053, -36416.15497066438, -37714.7019165399, -20363.5567860075, -22480.758724303094, -35825.51012343289, -33945.79546997493, -0.162, 0.9420000000000001, -0.128, 192.0, 125.0, 120.0, 14.5, 56.0, 126.0, 0.0, 0.0, 0.0, 0.0, 1.6731200190901804E9, 0.0, 2023-01-07 14:33:39.090
142.0, -32851.69993063211, -35018.388631151756, -34591.023277166285, -28981.07069505104, -32149.7880995021, -30947.5548204845, -38817.82756064267, -36657.57616252615, -29606.897188055184, -10422.68549474305, -36434.05871797308, -37783.12060631759, -20383.427486828266, -22514.375747963877, -35860.53530699436, -34020.58440692239, -0.162, 0.9420000000000001, -0.128, 192.0, 0.0, 0.0, 0.0, 0.0, 0.0, 0.0, 0.0, 0.0, 0.0, 1.6731200190901868E9, 0.0, 2023-01-07 14:33:39.090
144.0, -32819.96045350557, -34984.07870341286, -34577.589878748644, -28946.559601612047, -32134.655968505856, -30908.439267687714, -38789.17262425097, -36612.783266637714, -29622.76692661845, -10373.936340086024, -36435.04219472912, -37736.33840517264, -20381.616995527387, -22481.764552803583, -35853.06982434628, -33974.96449648911, -0.162, 0.9420000000000001, -0.128, 192.0, 0.0, 0.0, 0.0, 0.0, 0.0, 0.0, 0.0, 0.0, 0.0, 1.6731200190901928E9, 0.0, 2023-01-07 14:33:39.090
146.0, -32834.66790135716, -35003.16709317769, -34586.99996316433, -28970.274802479125, -32157.9911897172, -30943.375044271357, -38807.14342679303, -36644.187467597425, -29596.414219905644, -10402.948904389013, -36419.93241547733, -37768.72608288838, -20378.688917003743, -22487.48659938414, -35848.264199288395, -34005.98871779307, -0.162, 0.9420000000000001, -0.128, 192.0, 0.0, 0.0, 0.0, 0.0, 0.0, 0.0, 0.0, 0.0, 0.0, 1.6731200190901988E9, 0.0, 2023-01-07 14:33:39.090
148.0, -32814.70779355858, -34981.70941850059, -34578.37218980458, -28934.176735183806, -32143.59666628798, -30907.321680464946, -38774.24165895482, -36597.986411808306, -29622.118726029246, -10388.017939092868, -36428.224912670245, -37736.42781215046, -20400.861847503405, -22484.670279582773, -35849.5606004668, -33976.70793255662, -0.162, 0.9420000000000001, -0.128, 192.0, 0.0, 0.0, 0.0, 0.0, 0.0, 0.0, 0.0, 0.0, 0.0, 1.673120019090205E9, 0.0, 2023-01-07 14:33:39.090
150.0, -32808.739877789005, -34979.697761499614, -34546.342140000124, -28928.63350255889, -32140.288608108596, -30913.580168912435, -38765.27860942824, -36607.77647587973, -29581.03621972039, -10390.811907149782, -36395.63606925441, -37746.21787622188, -20379.203007126216, -22469.471093353164, -35822.09030653123, -33987.995563506556, -0.17, 0.9440000000000001, -0.126, 192.0, 125.0, 88.0, 14.5, 64.0, 126.0, 8.0, 0.0, 0.0, 0.0, 1.6731200190902112E9, 0.0, 2023-01-07 14:33:39.090
152.0, -32813.366688891256, -34979.65305801071, -34564.64821870902, -28903.95717668023, -32142.255561620663, -30887.629793599823, -38767.603190851594, -36576.55108887566, -29601.80099031937, -10365.889712082115, -36399.994659423195, -37711.349154871605, -20377.07959140296, -22470.141645686825, -35815.205969238996, -33947.80712697591, -0.17, 0.9440000000000001, -0.126, 192.0, 0.0, 0.0, 0.0, 0.0, 0.0, 0.0, 0.0, 0.0, 0.0, 1.673120019090217E9, 0.0, 2023-01-07 14:33:39.090
154.0, -32819.96045350557, -34985.240994124535, -34563.955314630904, -28916.988243697673, -32141.294436609085, -30925.225427773647, -38775.04632175521, -36622.05924058667, -29591.049801236368, -10383.14525880161, -36399.34645883399, -37730.88457952554, -20380.186483882248, -22470.476921853653, -35816.79294309532, -33965.71087428461, -0.17, 0.9440000000000001, -0.126, 192.0, 0.0, 0.0, 0.0, 0.0, 0.0, 0.0, 0.0, 0.0, 0.0, 1.6731200190902233E9, 0.0, 2023-01-07 14:33:39.090
156.0, -32807.77875277743, -34967.38195030474, -34578.95333516042, -28880.934879891265, -32141.74147149819, -30883.87470053133, -38779.51667064628, -36575.813481308636, -29612.440420680097, -10363.967462058958, -36417.56313056507, -37713.450218850405, -20400.19129516975, -22461.558575815987, -35831.74626013592, -33949.952894443624, -0.17, 0.9440000000000001, -0.126, 192.0, 0.0, 0.0, 0.0, 0.0, 0.0, 0.0, 0.0, 0.0, 0.0, 1.6731200190902295E9, 0.0, 2023-01-07 14:33:39.090
158.0, -32790.03146767992, -34952.92037164216, -34551.661855180486, -28890.47907477368, -32130.364433570438, -30903.16425599626, -38774.37576942155, -36609.989298580804, -29578.28695515239, -10357.32899395573, -36394.09379888699, -37707.37054435856, -20373.21273961219, -22438.044540649003, -35822.76085886489, -33954.73616775706, -0.17, 0.9440000000000001, -0.126, 192.0, 0.0, 0.0, 0.0, 0.0, 0.0, 0.0, 0.0, 0.0, 0.0, 1.6731200190902357E9, 0.0, 2023-01-07 14:33:39.090
160.0, -32783.95179318807, -34944.136136071225, -34565.855212909606, -28874.18465306576, -32134.54420978358, -30866.932078234207, -38757.34374014661, -36561.977751490806, -29581.729123798505, -10336.787740801305, -36392.90915643086, -37695.971154686355, -20374.75500997961, -22428.746214955594, -35825.398364710614, -33946.48837405305, -0.158, 0.9400000000000001, -0.12, 192.0, 125.5, 8.0, 14.5, 48.0, 126.0, 32.0, 0.0, 0.0, 0.0, 1.673120019090242E9, 0.0, 2023-01-07 14:33:39.090
162.0, -32781.269583853435, -34945.67840643864, -34543.99520683232, -28908.114601148918, -32125.55880851255, -30902.87368331834, -38765.792699550715, -36609.00582182477, -29560.98670494398, -10326.081255207213, -36377.4864527567, -37689.667962749954, -20362.059219128994, -22412.407089758766, -35810.377992436646, -33946.48837405305, -0.158, 0.9400000000000001, -0.12, 192.0, 0.0, 0.0, 0.0, 0.0, 0.0, 0.0, 0.0, 0.0, 0.0, 1.6731200190902493E9, 0.0, 2023-01-07 14:33:39.090
164.0, -32806.16942717665, -34968.43248229414, -34585.74826547483, -28917.681147775787, -32146.591800044993, -30896.101104748384, -38764.22807743884, -36578.98742902129, -29588.501702368463, -10372.595235418707, -36413.472761329744, -37729.02938473575, -20384.522722306578, -22448.795729732006, -35835.99309158243, -33984.19576694915, -0.158, 0.9400000000000001, -0.12, 192.0, 0.0, 0.0, 0.0, 0.0, 0.0, 0.0, 0.0, 0.0, 0.0, 1.6731200190902572E9, 0.0, 2023-01-07 14:33:39.090
166.0, -32787.081037411815, -34957.01074087748, -34558.41208200599, -28933.327368894505, -32132.040814404587, -30915.100087535393, -38769.05605424119, -36605.36248747855, -29572.90018473866, -10342.219214703944, -36395.01022040966, -37707.61641354757, -20367.89302443183, -22440.503232539086, -35818.066992529275, -33961.75461551602, -0.158, 0.9400000000000001, -0.12, 192.0, 0.0, 0.0, 0.0, 0.0, 0.0, 0.0, 0.0, 0.0, 0.0, 1.6731200190902631E9, 0.0, 2023-01-07 14:33:39.090
168.0, -32792.043124680895, -34965.28088632594, -34579.44507353843, -28921.23507514418, -32120.686128221292, -30892.167197724248, -38756.94140874641, -36574.85235629706, -29588.814626790838, -10380.48540121143, -36415.1938456528, -37749.52593440127, -20382.242844372136, -22482.569215603973, -35842.251580029915, -33995.55045313245, -0.158, 0.9400000000000001, -0.12, 192.0, 0.0, 0.0, 0.0, 0.0, 0.0, 0.0, 0.0, 0.0, 0.0, 1.6731200190902696E9, 0.0, 2023-01-07 14:33:39.090
170.0, -32776.12868262872, -34953.568572231365, -34547.392671989524, -28925.77247926861, -32119.59089274298, -30908.48397117662, -38748.872428998046, -36593.9407460619, -29552.31422809532, -10344.119112982646, -36386.069522627535, -37703.07900942314, -20354.303163803, -22446.940534942216, -35808.72396334696, -33943.649702507224, -0.14400000000000002, 0.9400000000000001, -0.12, 192.0, 125.5, 64.0, 14.5, 48.0, 126.0, 32.0, 0.0, 0.0, 0.0, 1.6731200190902755E9, 0.0, 2023-01-07 14:33:39.090
172.0, -32808.62811906673, -34982.60348827881, -34586.754093975316, -28929.39346187037, -32143.864887221443, -30904.035974030015, -38760.540039603715, -36582.317838945135, -29580.90210925366, -10398.657369453595, -36417.473723587245, -37759.941847317445, -20380.65587051581, -22482.010421992592, -35839.725832906464, -33988.37554316229, -0.14400000000000002, 0.9400000000000001, -0.12, 192.0, 0.0, 0.0, 0.0, 0.0, 0.0, 0.0, 0.0, 0.0, 0.0, 1.6731200190902815E9, 0.0, 2023-01-07 14:33:39.090
174.0, -32800.02269745144, -34974.467453297075, -34563.77650067527, -28930.667511304324, -32131.280855093108, -30925.381889984834, -38760.87531577055, -36608.84935961358, -29582.198510432067, -10364.43684869252, -36407.03545892661, -37715.84185550712, -20370.776399466562, -22454.4507210792, -35817.73171636245, -33949.08117640986, -0.14400000000000002, 0.9400000000000001, -0.12, 192.0, 0.0, 0.0, 0.0, 0.0, 0.0, 0.0, 0.0, 0.0, 0.0, 1.6731200190902877E9, 0.0, 2023-01-07 14:33:39.090
176.0, -32829.5493518769, -35000.21666290959, -34605.194283150944, -28937.194220685273, -32156.31480888305, -30932.377985999345, -38797.37571446606, -36611.57627243713, -29602.896225797682, -10419.623305752672, -36435.221008684755, -37775.163385291504, -20400.4148126143, -22498.707175100706, -35844.73262366446, -34006.48045617109, -0.14400000000000002, 0.9400000000000001, -0.12, 192.0, 0.0, 0.0, 0.0, 0.0, 0.0, 0.0, 0.0, 0.0, 0.0, 1.6731200190902936E9, 0.0, 2023-01-07 14:33:39.090
178.0, -32806.795276021396, -34979.45189231061, -34566.2575443098, -28922.017386200117, -32134.521858039127, -30934.769622656066, -38778.42143516796, -36621.92513011994, -29605.243158965488, -10372.1482005296, -36422.45816260078, -37721.16157068749, -20389.730678764663, -22484.893797027325, -35837.021271827376, -33968.05780745242, -0.14400000000000002, 0.9400000000000001, -0.12, 192.0, 0.0, 0.0, 0.0, 0.0, 0.0, 0.0, 0.0, 0.0, 0.0, 1.6731200190902998E9, 0.0, 2023-01-07 14:33:39.090
180.0, -32805.945909732094, -34977.484938798545, -34569.43149202246, -28898.61510975541, -32134.946541183777, -30908.55102640999, -38766.485603628826, -36591.79497859418, -29586.154769200657, -10403.708863700493, -36413.22689214074, -37760.56769616219, -20386.377917096368, -22486.97250926167, -35835.680167160055, -33998.813807822924, -0.16, 0.936, -0.122, 192.0, 125.5, 0.0, 14.5, 32.0, 126.0, 24.0, 0.0, 0.0, 0.0, 1.673120019090306E9, 0.0, 2023-01-07 14:33:39.090
182.0, -32790.27733686892, -34958.62006647827, -34551.01365459128, -28885.67344971579, -32112.326575795007, -30898.64920361629, -38758.729548302836, -36593.40430419496, -29590.401600647165, -10343.67207809354, -36405.33672634801, -37697.46872156486, -20375.962004180194, -22450.695628010708, -35816.390611695126, -33940.922789683675, -0.16, 0.936, -0.122, 192.0, 0.0, 0.0, 0.0, 0.0, 0.0, 0.0, 0.0, 0.0, 0.0, 1.673120019090312E9, 0.0, 2023-01-07 14:33:39.090
184.0, -32823.559084362874, -34992.2594418835, -34587.42464630898, -28914.708365763232, -32142.59083778749, -30922.74438413911, -38794.58174640915, -36616.694821917394, -29586.132417456203, -10388.755546659893, -36411.08112467302, -37753.95157980342, -20377.861902458895, -22477.718887057174, -35826.62771065566, -33990.498958885546, -0.16, 0.936, -0.122, 192.0, 0.0, 0.0, 0.0, 0.0, 0.0, 0.0, 0.0, 0.0, 0.0, 1.6731200190903182E9, 0.0, 2023-01-07 14:33:39.090
186.0, -32790.63496478021, -34960.11763335677, -34561.451919251915, -28879.213795568205, -32127.659872491346, -30887.473331388635, -38761.456461126385, -36586.96700179184, -29613.423897436132, -10357.172531744543, -36422.63697655642, -37712.75731477229, -20387.674318274774, -22458.049351936505, -35832.126239791665, -33944.47671705207, -0.16, 0.936, -0.122, 192.0, 0.0, 0.0, 0.0, 0.0, 0.0, 0.0, 0.0, 0.0, 0.0, 1.6731200190903242E9, 0.0, 2023-01-07 14:33:39.090
188.0, -32816.00419473698, -34986.693857514125, -34578.97568690487, -28902.593720268458, -32157.298285639084, -30901.845503073397, -38773.23583045433, -36603.52964443322, -29580.969164487025, -10383.301721012798, -36403.10155190248, -37746.5084488998, -20378.755972237108, -22464.48665433963, -35826.06891704427, -33970.18122317567, -0.16, 0.936, -0.122, 192.0, 0.0, 0.0, 0.0, 0.0, 0.0, 0.0, 0.0, 0.0, 0.0, 1.6731200190903304E9, 0.0, 2023-01-07 14:33:39.090
190.0, -32811.265624912456, -34983.564613290386, -34571.91253565699, -28904.940653436264, -32137.002901673666, -30897.59867162689, -38777.616772367575, -36598.23228099731, -29620.889380084205, -10368.795438861303, -36424.13454343493, -37721.005108476296, -20393.999861955628, -22473.87438701086, -35840.59755094023, -33942.9120949402, -0.168, 0.934, -0.124, 192.0, 125.0, 96.0, 14.5, 24.0, 126.0, 16.0, 0.0, 0.0, 0.0, 1.6731200190903363E9, 0.0, 2023-01-07 14:33:39.090
192.0, -32806.81762776585, -34981.35179058931, -34558.83676515064, -28919.715156521223, -32130.811468459546, -30906.65112813129, -38777.5050136453, -36608.6928974024, -29595.207225705057, -10404.334712545242, -36414.053906685585, -37768.30139974372, -20377.07959140296, -22480.959890003192, -35833.176771781065, -33990.05192399644, -0.168, 0.934, -0.124, 192.0, 0.0, 0.0, 0.0, 0.0, 0.0, 0.0, 0.0, 0.0, 0.0, 1.6731200190903425E9, 0.0, 2023-01-07 14:33:39.090
194.0, -32782.320115842835, -34953.993255376015, -34545.89510511102, -28896.849321943442, -32108.21385481523, -30875.649258571775, -38741.92103647245, -36572.95245801836, -29594.268452437933, -10351.38342993062, -36405.33672634801, -37713.33846012813, -20370.79875121102, -22454.853052479393, -35813.99897503841, -33942.84503970683, -0.168, 0.934, -0.124, 192.0, 0.0, 0.0, 0.0, 0.0, 0.0, 0.0, 0.0, 0.0, 0.0, 1.6731200190903485E9, 0.0, 2023-01-07 14:33:39.090
196.0, -32820.34043316131, -34993.757008762004, -34573.186585090945, -28942.558639354545, -32151.8891634809, -30921.045651560507, -38781.88595555854, -36623.33329002062, -29571.62613530471, -10392.980026361945, -36397.06658089955, -37747.69309135593, -20368.764742465584, -22466.36420087388, -35812.03202152634, -33976.32795290089, -0.168, 0.934, -0.124, 192.0, 0.0, 0.0, 0.0, 0.0, 0.0, 0.0, 0.0, 0.0, 0.0, 1.673120019090356E9, 0.0, 2023-01-07 14:33:39.090
198.0, -32798.68159278412, -34971.27115383997, -34576.1593671035, -28910.7744587391, -32138.478116807717, -30893.396543669292, -38766.284437928734, -36590.25270822677, -29613.13332475821, -10376.462087209475, -36427.532008592134, -37736.24899819482, -20397.196161412736, -22475.439009122732, -35837.490658460934, -33968.90717374172, -0.168, 0.934, -0.124, 192.0, 0.0, 0.0, 0.0, 0.0, 0.0, 0.0, 0.0, 0.0, 0.0, 1.673120019090362E9, 0.0, 2023-01-07 14:33:39.090
200.0, -32819.40165989419, -34997.26623264149, -34579.065093882695, -28943.273895177117, -32156.80654726107, -30942.570381470967, -38803.83536861365, -36650.06597638917, -29571.268507393423, -10384.039328579824, -36399.88290070092, -37745.05558551021, -20379.02419317057, -22483.060953981992, -35827.70059438951, -33987.95086001764, -0.168, 0.9380000000000001, -0.126, 192.0, 125.0, 96.0, 14.5, 56.0, 126.0, 0.0, 0.0, 0.0, 0.0, 1.673120019090368E9, 0.0, 2023-01-07 14:33:39.090
202.0, -32816.384174392726, -34985.799787735916, -34575.04177988074, -28906.974662181696, -32139.573352286025, -30904.281843219025, -38777.79558632321, -36605.27308050074, -29620.799973106383, -10393.941151373525, -36436.29389241861, -37750.17413499047, -20400.817144014498, -22502.797544336026, -35855.30499879181, -33983.72638031559, -0.168, 0.9380000000000001, -0.126, 192.0, 0.0, 0.0, 0.0, 0.0, 0.0, 0.0, 0.0, 0.0, 0.0, 1.6731200190903742E9, 0.0, 2023-01-07 14:33:39.090
204.0, -32817.434706382126, -34987.07383716987, -34558.07680583916, -28917.167057653318, -32142.59083778749, -30926.96886384116, -38779.71783634637, -36633.95036863689, -29583.42785637711, -10382.228837278943, -36404.599118780985, -37739.04296625173, -20374.576196023965, -22473.15913118829, -35821.218588497475, -33965.06267369541, -0.168, 0.9380000000000001, -0.126, 192.0, 0.0, 0.0, 0.0, 0.0, 0.0, 0.0, 0.0, 0.0, 0.0, 1.6731200190903804E9, 0.0, 2023-01-07 14:33:39.090
206.0, -32815.69127031461, -34978.937802188135, -34589.816282965694, -28894.860016686922, -32149.11754716844, -30893.597709369387, -38775.29219094422, -36593.00197279477, -29612.95451080257, -10377.177343032045, -36430.5494940936, -37734.282044682746, -20399.27487364708, -22470.521625342564, -35844.084423075255, -33954.04326367894, -0.168, 0.9380000000000001, -0.126, 192.0, 0.0, 0.0, 0.0, 0.0, 0.0, 0.0, 0.0, 0.0, 0.0, 1.6731200190903864E9, 0.0, 2023-01-07 14:33:39.090
208.0, -32821.27920642844, -34989.59958429332, -34582.194338106434, -28918.910493720832, -32150.16807915784, -30921.604445171888, -38787.49624341682, -36638.68893846142, -29584.32192615532, -10366.113229526667, -36413.45040958529, -37724.31316665568, -20378.733620492654, -22453.422540834254, -35836.35071949372, -33951.137536899754, -0.168, 0.9380000000000001, -0.126, 192.0, 0.0, 0.0, 0.0, 0.0, 0.0, 0.0, 0.0, 0.0, 0.0, 1.6731200190903924E9, 0.0, 2023-01-07 14:33:39.090
210.0, -32832.656244356185, -34994.87459598477, -34611.94450997645, -28905.186522625274, -32169.70350381178, -30893.843578558397, -38780.03076076874, -36598.47815018632, -29628.690138899106, -10398.322093286764, -36457.103366506504, -37755.80677459321, -20409.22139992969, -22480.334041158443, -35869.07367337628, -33970.918830742696, -0.161, 0.9410000000000001, -0.123, 192.0, 125.5, 24.0, 14.5, 64.0, 126.0, 32.0, 0.0, 0.0, 0.0, 1.6731200190903983E9, 0.0, 2023-01-07 14:33:39.090
212.0, -32817.412354637665, -34985.375104591265, -34580.13797761655, -28923.939636223276, -32145.384805844405, -30920.240988760113, -38781.9530107919, -36633.704499447886, -29590.781580302904, -10375.34449998671, -36420.73707827772, -37723.50850385529, -20389.12718166437, -22460.10571242639, -35839.81523988429, -33947.94123744265, -0.161, 0.9410000000000001, -0.123, 192.0, 0.0, 0.0, 0.0, 0.0, 0.0, 0.0, 0.0, 0.0, 0.0, 1.6731200190904047E9, 0.0, 2023-01-07 14:33:39.090
214.0, -32842.870991572265, -35013.046564226934, -34621.44400136996, -28939.071767219517, -32163.869698508945, -30916.150619524793, -38801.19786276792, -36609.7434293918, -29611.211074735056, -10409.117985858678, -36442.150049465905, -37758.64544613903, -20407.030928973072, -22487.285433684046, -35862.85988841771, -33980.19480469165, -0.161, 0.9410000000000001, -0.123, 192.0, 0.0, 0.0, 0.0, 0.0, 0.0, 0.0, 0.0, 0.0, 0.0, 1.6731200190904107E9, 0.0, 2023-01-07 14:33:39.090
216.0, -32820.4968953725, -34995.27692738497, -34573.92419265797, -28948.101871979463, -32141.60736103146, -30924.68898590672, -38766.843231540115, -36627.758935422775, -29605.489028154498, -10401.339578788231, -36428.82840977054, -37746.75431808881, -20391.451763087724, -22481.92101501477, -35854.88031564716, -33974.271592410994, -0.161, 0.9410000000000001, -0.123, 192.0, 0.0, 0.0, 0.0, 0.0, 0.0, 0.0, 0.0, 0.0, 0.0, 1.673120019090417E9, 0.0, 2023-01-07 14:33:39.090
218.0, -32833.46090715658, -35003.39061062224, -34595.761846990805, -28941.44105213178, -32163.847346764487, -30909.53450316602, -38780.14251949102, -36600.02042055374, -29602.00215601947, -10411.263753326388, -36428.53783709262, -37763.361664219105, -20394.133972422358, -22486.92780577276, -35852.95806562401, -33985.670982083204, -0.161, 0.9410000000000001, -0.123, 192.0, 0.0, 0.0, 0.0, 0.0, 0.0, 0.0, 0.0, 0.0, 0.0, 1.6731200190904229E9, 0.0, 2023-01-07 14:33:39.090
220.0, -32828.0964884873, -35004.172921678175, -34579.73564621635, -28958.718950595732, -32138.053433663066, -30942.771547171065, -38791.11722601858, -36637.548999494196, -29604.036164764904, -10396.131622330144, -36430.482438860236, -37740.8087540637, -20385.349736851425, -22478.00945973509, -35845.09025157574, -33970.18122317567, -0.1535, 0.9415, -0.1215, 192.0, 125.5, 56.0, 14.5, 56.0, 126.0, 32.0, 0.0, 0.0, 0.0, 1.673120019090429E9, 0.0, 2023-01-07 14:33:39.090
222.0, -32843.58624739483, -35014.07474447188, -34609.66463204201, -28951.47698539221, -32159.287590895605, -30931.662730176777, -38796.23577549884, -36614.99608933879, -29603.075039753323, -10425.34535233323, -36443.06647098857, -37778.42673998198, -20393.150495666327, -22496.092020999436, -35848.57712371077, -33997.696220600155, -0.1535, 0.9415, -0.1215, 192.0, 0.0, 0.0, 0.0, 0.0, 0.0, 0.0, 0.0, 0.0, 0.0, 1.6731200190904353E9, 0.0, 2023-01-07 14:33:39.090
224.0, -32805.09654344279, -34977.551994031906, -34567.55394548821, -28932.992092727673, -32129.69388123678, -30927.3488434969, -38768.318446674166, -36616.73952540631, -29602.203321719568, -10386.699186170004, -36426.66029055838, -37727.97885274635, -20389.70832702021, -22473.136779443834, -35834.89785610412, -33957.48543232506, -0.1535, 0.9415, -0.1215, 192.0, 0.0, 0.0, 0.0, 0.0, 0.0, 0.0, 0.0, 0.0, 0.0, 1.6731200190904427E9, 0.0, 2023-01-07 14:33:39.090
226.0, -32825.01194775247, -34991.946517461125, -34595.89595745754, -28926.64419730237, -32158.482928095214, -30917.625834658844, -38771.35828392008, -36600.95919382086, -29595.766019316437, -10417.432834796053, -36431.42121212735, -37768.63667591056, -20397.68789979075, -22500.897646057325, -35839.256446272906, -33993.33763043137, -0.1535, 0.9415, -0.1215, 192.0, 0.0, 0.0, 0.0, 0.0, 0.0, 0.0, 0.0, 0.0, 0.0, 1.6731200190904489E9, 0.0, 2023-01-07 14:33:39.090
228.0, -32780.19670011958, -34945.25372329399, -34547.59383768962, -28889.585004995468, -32119.143857853876, -30895.765828581552, -38747.66543479746, -36587.92812680342, -29582.422027876622, -10352.52336889784, -36405.42613332583, -37696.61935527556, -20366.864844186886, -22448.907488454282, -35810.64621337011, -33929.92573141167, -0.1535, 0.9415, -0.1215, 192.0, 0.0, 0.0, 0.0, 0.0, 0.0, 0.0, 0.0, 0.0, 0.0, 1.6731200190904565E9, 0.0, 2023-01-07 14:33:39.090
230.0, -32818.77581104944, -34985.12923540226, -34590.88916669955, -28916.362394852928, -32143.954294199266, -30915.12243927985, -38783.42822592595, -36605.742467134296, -29583.271394165924, -10391.929494372547, -36417.56313056507, -37749.57063789018, -20379.314765848492, -22478.612956835386, -35830.6063211687, -33984.978078005086, -0.15375, 0.93675, -0.12375, 192.0, 125.5, 24.0, 14.5, 16.0, 126.0, 8.0, 0.0, 0.0, 0.0, 1.6731200190904627E9, 0.0, 2023-01-07 14:33:39.090
232.0, -32813.76902029145, -34983.38579933474, -34581.54613751723, -28921.369185610914, -32131.996110915676, -30923.63845391732, -38787.25037422781, -36622.68508943142, -29606.20428397707, -10366.962595815969, -36425.095668446505, -37714.23252990634, -20382.75693449461, -22468.621727063863, -35833.176771781065, -33954.80322299042, -0.15375, 0.93675, -0.12375, 192.0, 0.0, 0.0, 0.0, 0.0, 0.0, 0.0, 0.0, 0.0, 0.0, 1.673120019090469E9, 0.0, 2023-01-07 14:33:39.090
234.0, -32832.96916877856, -35003.904700744715, -34598.354649347624, -28929.415813614825, -32160.87456475193, -30922.789087628018, -38786.22219398287, -36622.036888842216, -29599.81168506285, -10421.992590664935, -36430.77301153815, -37775.61042018061, -20395.676242789777, -22499.936521045747, -35851.840478401245, -34004.893482314765, -0.15375, 0.93675, -0.12375, 192.0, 0.0, 0.0, 0.0, 0.0, 0.0, 0.0, 0.0, 0.0, 0.0, 1.673120019090475E9, 0.0, 2023-01-07 14:33:39.090
236.0, -32807.30936614387, -34977.79786322092, -34572.158404846006, -28911.132086650385, -32137.606398773958, -30900.414991428257, -38770.1512897195, -36602.47911244382, -29618.497743427488, -10376.48443895393, -36429.32014814856, -37723.26263466628, -20391.27294913208, -22482.12218071487, -35842.72096666348, -33950.86931596629, -0.15375, 0.93675, -0.12375, 192.0, 0.0, 0.0, 0.0, 0.0, 0.0, 0.0, 0.0, 0.0, 0.0, 1.6731200190904813E9, 0.0, 2023-01-07 14:33:39.090
238.0, -32833.7514798345, -35006.96688973509, -34593.66078301201, -28946.850174289964, -32159.01936996214, -30925.672462662755, -38793.21828999738, -36629.39061276801, -29589.75340005796, -10406.949866646513, -36420.55826432208, -37767.72025438789, -20387.540207808044, -22489.4088494073, -35839.41290848409, -33989.33666817387, -0.15375, 0.93675, -0.12375, 192.0, 0.0, 0.0, 0.0, 0.0, 0.0, 0.0, 0.0, 0.0, 0.0, 1.6731200190904875E9, 0.0, 2023-01-07 14:33:39.090
240.0, -32809.365726633754, -34979.67540975516, -34577.74634095983, -28928.00765371414, -32135.46063130625, -30902.583110640422, -38776.4544816559, -36601.07095254314, -29609.04295552289, -10377.467915709964, -36435.33276740703, -37737.18777146194, -20392.54699856603, -22483.932672015748, -35842.63155968566, -33959.184164903665, -0.15387499999999998, 0.9373750000000001, -0.123875, 192.0, 125.5, 24.0, 14.5, 40.0, 126.0, 16.0, 0.0, 0.0, 0.0, 1.6731200195696764E9, 0.0, 2023-01-07 14:33:39.569
242.0, -32836.59015138032, -35010.92314850368, -34594.42074232349, -28964.977439043218, -32168.51886135565, -30943.755023927097, -38810.049153572225, -36644.031005386234, -29585.01483023344, -10413.655389983105, -36422.279348645134, -37776.12451030308, -20384.969757195682, -22500.83059082396, -35842.408042241106, -33998.00914502253, -0.15387499999999998, 0.9373750000000001, -0.123875, 192.0, 0.0, 0.0, 0.0, 0.0, 0.0, 0.0, 0.0, 0.0, 0.0, 1.6731200195697937E9, 0.0, 2023-01-07 14:33:39.569
244.0, -32831.71747108906, -35006.85513101282, -34588.67634399848, -28948.146575468374, -32145.563619800047, -30919.950416082196, -38795.2075952539, -36618.661775429464, -29622.543409173897, -10411.308456815297, -36441.90418027689, -37754.689187370444, -20402.694690548742, -22507.44670718273, -35857.629580215165, -33978.00433373503, -0.15387499999999998, 0.9373750000000001, -0.123875, 192.0, 0.0, 0.0, 0.0, 0.0, 0.0, 0.0, 0.0, 0.0, 0.0, 1.6731200195698E9, 0.0, 2023-01-07 14:33:39.569
246.0, -32846.31316021838, -35023.060145742915, -34585.59180326364, -28968.464311178246, -32150.279837880116, -30946.571343728465, -38801.9578220794, -36646.62380774305, -29600.169312974136, -10434.196643137533, -36432.47174411675, -37789.40144650954, -20391.071783431984, -22526.468041714197, -35845.13495506465, -34003.91000555873, -0.15387499999999998, 0.9373750000000001, -0.123875, 192.0, 0.0, 0.0, 0.0, 0.0, 0.0, 0.0, 0.0, 0.0, 0.0, 1.673120019569806E9, 0.0, 2023-01-07 14:33:39.569
248.0, -32823.38027040724, -34995.232223896055, -34576.964029903895, -28921.39153735537, -32136.488811551193, -30902.605462384876, -38766.86558328457, -36593.44900768388, -29620.129420772722, -10401.361930532687, -36443.22293319976, -37755.605608893115, -20397.531437579568, -22506.39617519333, -35845.44787948702, -33962.9169062277, -0.15387499999999998, 0.9373750000000001, -0.123875, 192.0, 0.0, 0.0, 0.0, 0.0, 0.0, 0.0, 0.0, 0.0, 0.0, 1.673120019569812E9, 0.0, 2023-01-07 14:33:39.569
250.0, -32823.51438087397, -34996.841549496836, -34569.38678853354, -28933.036796216584, -32139.014558674644, -30931.103936565392, -38789.26203122878, -36636.565522738165, -29582.51143485444, -10407.799232935815, -36420.82648525554, -37763.58518166366, -20380.342946093435, -22493.365108175887, -35831.94742583602, -33970.069464453394, -0.1529375, 0.9416875, -0.1219375, 192.0, 125.5, 32.0, 14.5, 72.0, 126.0, 32.0, 0.0, 0.0, 0.0, 1.673120019569818E9, 0.0, 2023-01-07 14:33:39.569
252.0, -32835.91959904666, -34999.993145465036, -34595.22540512388, -28914.395441340857, -32156.7394920277, -30917.715241636666, -38787.0045050388, -36610.212816025356, -29600.079905996314, -10384.195790791011, -36428.47078185926, -37733.49973362681, -20391.965853210193, -22481.31751791448, -35843.05624283031, -33947.42714732017, -0.1529375, 0.9416875, -0.1219375, 192.0, 0.0, 0.0, 0.0, 0.0, 0.0, 0.0, 0.0, 0.0, 0.0, 1.673120019569824E9, 0.0, 2023-01-07 14:33:39.569
254.0, -32829.70581408808, -34997.3109361304, -34570.4596722674, -28923.269083889616, -32142.948465698777, -30934.903733122796, -38786.53511840524, -36642.33227280763, -29595.453094894066, -10405.608761979194, -36423.64280505691, -37746.7096145999, -20390.356527609412, -22483.82091329347, -35846.788984154344, -33974.137481944264, -0.1529375, 0.9416875, -0.1219375, 192.0, 0.0, 0.0, 0.0, 0.0, 0.0, 0.0, 0.0, 0.0, 0.0, 1.67312001956983E9, 0.0, 2023-01-07 14:33:39.569
0.0, -32824.78843030792, -34987.0067819365, -34580.383846805555, -28898.369240566404, -32136.488811551193, -30895.96699428165, -38768.29609492971, -36592.465530927846, -29609.154714245167, -10393.71763392897, -36432.33763365002, -37731.53278011474, -20396.07857418997, -22477.45066612371, -35845.29141727584, -33963.54275507245, -0.1529375, 0.9416875, -0.1219375, 192.0, 0.0, 0.0, 0.0, 0.0, 0.0, 0.0, 0.0, 0.0, 0.0, 1.673120019569836E9, 0.0, 2023-01-07 14:33:39.569
2.0, -32813.88077901373, -34978.60252602131, -34553.29353252573, -28914.90953146333, -32124.865904434435, -30918.944587581707, -38764.742167561315, -36624.24971154329, -29577.281126651902, -10377.870247110159, -36401.76044723517, -37718.30054739721, -20368.31770757648, -22455.83652923543, -35816.77059135087, -33954.02091193449, -0.1529375, 0.9416875, -0.1219375, 192.0, 0.0, 0.0, 0.0, 0.0, 0.0, 0.0, 0.0, 0.0, 0.0, 1.673120019569842E9, 0.0, 2023-01-07 14:33:39.569
4.0, -32844.36855845077, -35003.50236934452, -34603.62966103908, -28923.984339712184, -32158.54998332858, -30913.133134023326, -38782.66826661447, -36607.30708924617, -29617.46956318254, -10403.48534625594, -36440.29485467611, -37748.18482973395, -20404.929864994272, -22496.226131466166, -35843.637388186144, -33975.188013933664, -0.14846875, 0.9458437500000001, -0.12096875, 192.0, 125.5, 64.0, 14.5, 88.0, 126.0, 32.0, 0.0, 0.0, 0.0, 1.6731200195698557E9, 0.0, 2023-01-07 14:33:39.569
6.0, -32843.96622705057, -35009.87261651428, -34593.03493416726, -28951.655799347856, -32164.093215953497, -30949.812346674487, -38812.53019720676, -36658.29141834872, -29608.57356888933, -10396.310436285787, -36435.377470895946, -37739.89233254103, -20404.795754527542, -22487.44189589523, -35847.59364695474, -33970.56120283141, -0.14846875, 0.9458437500000001, -0.12096875, 192.0, 0.0, 0.0, 0.0, 0.0, 0.0, 0.0, 0.0, 0.0, 0.0, 1.6731200195698617E9, 0.0, 2023-01-07 14:33:39.569
8.0, -32850.15766026469, -35015.080572972365, -34605.93189071797, -28935.696653806768, -32146.860020978456, -30914.20601775718, -38803.14246453554, -36616.47130447284, -29624.555066174875, -10430.329791346765, -36455.09170950553, -37772.95056259043, -20413.155306953824, -22512.78877410755, -35868.827804187276, -33990.074275740895, -0.14846875, 0.9458437500000001, -0.12096875, 192.0, 0.0, 0.0, 0.0, 0.0, 0.0, 0.0, 0.0, 0.0, 0.0, 1.6731200195698674E9, 0.0, 2023-01-07 14:33:39.569
10.0, -32837.37246243626, -35006.49750310153, -34569.78911993374, -28946.291380678584, -32145.45186107777, -30926.879456863342, -38796.906327832505, -36640.20885708438, -29597.040068750393, -10399.842011909725, -36429.96834873776, -37734.99730050532, -20394.379841611368, -22478.03181147955, -35839.68112941756, -33949.81878397689, -0.14846875, 0.9458437500000001, -0.12096875, 192.0, 0.0, 0.0, 0.0, 0.0, 0.0, 0.0, 0.0, 0.0, 0.0, 1.673120019569873E9, 0.0, 2023-01-07 14:33:39.569
12.0, -32851.76698586548, -35014.41002063871, -34595.09129465715, -28938.96000849724, -32147.195297145285, -30910.31681422196, -38786.53511840524, -36610.23516776981, -29616.82136259334, -10432.028523925368, -36449.839049558526, -37775.453957969425, -20407.388556884358, -22499.869465812382, -35846.18548705405, -33981.08887446986, -0.14846875, 0.9458437500000001, -0.12096875, 192.0, 0.0, 0.0, 0.0, 0.0, 0.0, 0.0, 0.0, 0.0, 0.0, 1.6731200195698793E9, 0.0, 2023-01-07 14:33:39.569
14.0, -32835.83019206884, -34999.18848266464, -34570.16909958948, -28942.06690097653, -32147.865849478945, -30932.400337743802, -38774.62163861056, -36635.224418070844, -29615.748478859485, -10411.867250426681, -36441.5018488767, -37738.64063485154, -20404.66164406081, -22497.92486404477, -35832.23799851394, -33956.18903114665, -0.14846875, 0.9458437500000001, -0.12096875, 192.0, 0.0, 0.0, 0.0, 0.0, 0.0, 0.0, 0.0, 0.0, 0.0, 1.6731200195698853E9, 0.0, 2023-01-07 14:33:39.569
16.0, -32851.92344807666, -35009.06795371389, -34596.47710281338, -28931.002787471152, -32164.428492120325, -30919.79395387101, -38787.8538713281, -36614.37024049404, -29610.67463286813, -10422.238459853943, -36440.69718607631, -37762.55700141871, -20410.830725530475, -22503.870428069884, -35835.72487064897, -33978.741941302054, -0.154, 0.9400000000000001, -0.126, 192.0, 125.5, 24.0, 14.5, 48.0, 126.0, 8.0, 0.0, 0.0, 0.0, 1.6731200195698912E9, 0.0, 2023-01-07 14:33:39.569
18.0, -32813.1431714467, -34972.27698234045, -34552.33240751414, -28902.839589457464, -32127.570465513527, -30898.470389660644, -38751.93461798842, -36602.032077554715, -29612.753345102472, -10383.43583147953, -36427.97904348124, -37712.243224649814, -20391.898797976828, -22475.684878311742, -35822.35852746469, -33933.323196568876, -0.154, 0.9400000000000001, -0.126, 192.0, 0.0, 0.0, 0.0, 0.0, 0.0, 0.0, 0.0, 0.0, 0.0, 1.6731200195698977E9, 0.0, 2023-01-07 14:33:39.569
20.0, -32823.357918662776, -34979.65305801071, -34571.107872856606, -28897.944557421753, -32143.239038376694, -30889.14971222278, -38759.1989349364, -36590.43152218241, -29586.37828664521, -10400.981950876947, -36411.88578747342, -37738.84180055163, -20388.367222352892, -22475.282546911545, -35815.22832098345, -33950.33287409936, -0.154, 0.9400000000000001, -0.126, 192.0, 0.0, 0.0, 0.0, 0.0, 0.0, 0.0, 0.0, 0.0, 0.0, 1.6731200195699036E9, 0.0, 2023-01-07 14:33:39.569
22.0, -32821.480372128535, -34982.73759874554, -34562.904782641504, -28912.540246551067, -32127.302244580063, -30909.91448282176, -38791.43015044095, -36625.166133065955, -29591.675650081117, -10362.29108122481, -36408.55537754958, -37695.43471281943, -20378.577158281467, -22466.54301482952, -35816.27885297285, -33918.45928650609, -0.154, 0.9400000000000001, -0.126, 192.0, 0.0, 0.0, 0.0, 0.0, 0.0, 0.0, 0.0, 0.0, 0.0, 1.6731200195699093E9, 0.0, 2023-01-07 14:33:39.569
24.0, -32849.21888699757, -35006.6092618238, -34592.67730625597, -28926.890066491374, -32154.95135247128, -30917.290558492015, -38804.41651396949, -36631.84930465809, -29603.14209498669, -10421.612611009194, -36430.63890107142, -37766.33444623166, -20395.85505674542, -22506.664396126795, -35844.75497540891, -33984.08400822688, -0.154, 0.9400000000000001, -0.126, 192.0, 0.0, 0.0, 0.0, 0.0, 0.0, 0.0, 0.0, 0.0, 0.0, 1.6731200195699153E9, 0.0, 2023-01-07 14:33:39.569
26.0, -32825.86131404177, -34983.67637201266, -34564.20118381992, -28910.61799652791, -32140.31095985305, -30904.93004380823, -38774.889859544026, -36615.465475972356, -29616.19551374859, -10370.829447606737, -36425.4979998467, -37708.1528554145, -20399.163114924802, -22469.78401777554, -35837.356547994204, -33932.09385062383, -0.16, 0.9400000000000001, -0.126, 192.0, 125.5, 0.0, 14.5, 48.0, 126.0, 8.0, 0.0, 0.0, 0.0, 1.6731200195699213E9, 0.0, 2023-01-07 14:33:39.569
28.0, -32841.1499072492, -34998.04854369743, -34573.63361998006, -28927.04652870256, -32152.40325360337, -30911.41204970027, -38782.55650789219, -36620.62872894153, -29592.972051259527, -10410.995532392924, -36416.847874742496, -37753.929228058965, -20387.383745596857, -22480.848131280916, -35830.74043163544, -33970.76236853151, -0.16, 0.9400000000000001, -0.126, 192.0, 0.0, 0.0, 0.0, 0.0, 0.0, 0.0, 0.0, 0.0, 0.0, 1.6731200195699272E9, 0.0, 2023-01-07 14:33:39.569
30.0, -32821.14509596171, -34978.98250567705, -34561.96600937438, -28919.58104605449, -32139.841573219488, -30897.486912904613, -38783.539984648225, -36613.431467226925, -29610.115839256745, -10375.880941853637, -36419.95476722178, -37709.78453275973, -20382.779286239063, -22464.73252352864, -35830.42750721306, -33935.02192914748, -0.16, 0.9400000000000001, -0.126, 192.0, 0.0, 0.0, 0.0, 0.0, 0.0, 0.0, 0.0, 0.0, 0.0, 1.6731200195699332E9, 0.0, 2023-01-07 14:33:39.569
32.0, -32849.1071282753, -35009.626747325274, -34583.244870095834, -28952.90749703735, -32160.762806029656, -30928.757003397586, -38813.24545302933, -36649.708348477885, -29589.887510524695, -10412.671913227072, -36416.78081950913, -37762.08761478515, -20385.349736851425, -22485.966680761183, -35834.74139389293, -33984.30752567143, -0.16, 0.9400000000000001, -0.126, 192.0, 0.0, 0.0, 0.0, 0.0, 0.0, 0.0, 0.0, 0.0, 0.0, 1.6731200195699391E9, 0.0, 2023-01-07 14:33:39.569
34.0, -32832.0527472559, -34992.19238665013, -34572.27016356828, -28930.265179904127, -32143.082576165507, -30901.91255830676, -38797.06279004369, -36624.22735979883, -29621.76109811796, -10389.940189116025, -36434.796325540105, -37732.51625687078, -20399.408984113812, -22482.30099467051, -35850.11939407818, -33957.351321858325, -0.16, 0.9400000000000001, -0.126, 192.0, 0.0, 0.0, 0.0, 0.0, 0.0, 0.0, 0.0, 0.0, 0.0, 1.673120019569945E9, 0.0, 2023-01-07 14:33:39.569
36.0, -32850.559991664886, -35013.42654388268, -34579.7132944719, -28954.82974706051, -32156.381864116418, -30927.79587838601, -38807.8586826156, -36650.133031622536, -29589.2840134244, -10417.008151651402, -36418.92658697684, -37763.87575434158, -20380.208835626705, -22499.668300112284, -35838.8094113838, -33979.032513979975, -0.158, 0.9480000000000001, -0.126, 192.0, 125.5, 8.0, 14.5, 80.0, 126.0, 8.0, 0.0, 0.0, 0.0, 1.6731200195699525E9, 0.0, 2023-01-07 14:33:39.569
38.0, -32839.54058164842, -34998.78615126445, -34580.45090203892, -28927.560618825035, -32136.35470108446, -30901.91255830676, -38786.11043526059, -36615.71134516136, -29630.1430022887, -10402.032482866345, -36443.4017471554, -37738.17124821797, -20403.342891137945, -22497.388422177843, -35851.415795256595, -33947.67301650918, -0.158, 0.9480000000000001, -0.126, 192.0, 0.0, 0.0, 0.0, 0.0, 0.0, 0.0, 0.0, 0.0, 0.0, 1.6731200195699584E9, 0.0, 2023-01-07 14:33:39.569
40.0, -32856.19263126762, -35015.505256117016, -34586.687038741955, -28948.548906868567, -32161.165137429853, -30933.696738922208, -38798.20272901091, -36645.05918563118, -29596.973013517025, -10430.955640191512, -36428.31431964807, -37763.27225724128, -20395.810353256507, -22497.96956753368, -35831.94742583602, -33963.81097600591, -0.158, 0.9480000000000001, -0.126, 192.0, 0.0, 0.0, 0.0, 0.0, 0.0, 0.0, 0.0, 0.0, 0.0, 1.6731200195699644E9, 0.0, 2023-01-07 14:33:39.569
42.0, -32857.26551500148, -35014.231206683064, -34600.63452728206, -28927.29239789157, -32149.855154735465, -30914.585997412923, -38792.2571649858, -36620.15934230797, -29633.0934325568, -10409.855593425704, -36454.935247294336, -37745.59202737713, -20417.335083166967, -22497.12020124438, -35852.22045805698, -33946.734243242056, -0.158, 0.9480000000000001, -0.126, 192.0, 0.0, 0.0, 0.0, 0.0, 0.0, 0.0, 0.0, 0.0, 0.0, 1.6731200195699701E9, 0.0, 2023-01-07 14:33:39.569
44.0, -32857.01964581247, -35016.332270661864, -34578.68511422695, -28940.234057931193, -32156.426567605326, -30927.39354698581, -38781.97536253636, -36640.72294720685, -29611.30048171288, -10428.273430856876, -36435.35511915149, -37761.03708279575, -20404.214609171704, -22494.013308765094, -35836.596588682725, -33959.49708932604, -0.158, 0.9480000000000001, -0.126, 192.0, 0.0, 0.0, 0.0, 0.0, 0.0, 0.0, 0.0, 0.0, 0.0, 1.673120019569976E9, 0.0, 2023-01-07 14:33:39.569
46.0, -32854.09156728883, -35011.236072926054, -34589.10102714313, -28925.951293224254, -32135.8853144509, -30898.246872216092, -38780.85777531359, -36604.334307233614, -29635.57447619134, -10417.008151651402, -36449.45906990279, -37750.151783246016, -20414.85403953243, -22504.809201337004, -35844.553809708814, -33943.06855715139, -0.154, 0.9480000000000001, -0.11800000000000001, 192.0, 125.5, 24.0, 14.5, 80.0, 126.0, 40.0, 0.0, 0.0, 0.0, 1.673120019569982E9, 0.0, 2023-01-07 14:33:39.569
48.0, -32856.21498301208, -35017.91924451819, -34574.170061846984, -28957.288438950593, -32139.97568368622, -30942.63743670433, -38791.385446952045, -36653.97753166885, -29607.031298521913, -10425.568869777784, -36432.20352318329, -37756.589085649146, -20393.4634200887, -22489.34179417393, -35830.293396746325, -33961.2181736491, -0.154, 0.9480000000000001, -0.11800000000000001, 192.0, 0.0, 0.0, 0.0, 0.0, 0.0, 0.0, 0.0, 0.0, 0.0, 1.673120019569988E9, 0.0, 2023-01-07 14:33:39.569
50.0, -32841.77575609395, -34998.3614681198, -34580.83088169466, -28925.504258335146, -32139.349834841472, -30898.20216872718, -38770.28540018623, -36598.90283333097, -29623.258664996465, -10418.68453248555, -36448.989683269225, -37756.432623437955, -20409.936655752263, -22493.789791320538, -35841.80454514081, -33959.452385837125, -0.154, 0.9480000000000001, -0.11800000000000001, 192.0, 0.0, 0.0, 0.0, 0.0, 0.0, 0.0, 0.0, 0.0, 0.0, 1.6731200195699937E9, 0.0, 2023-01-07 14:33:39.569
52.0, -32833.95264553459, -34994.1593401622, -34555.34989301561, -28941.44105213178, -32136.82408771802, -30930.45573597619, -38776.02979851125, -36639.38184253953, -29585.394809889178, -10389.515505971374, -36410.00824093917, -37727.7553353018, -20381.438181571746, -22466.58771831843, -35810.735620347936, -33941.16865887269, -0.154, 0.9480000000000001, -0.11800000000000001, 192.0, 0.0, 0.0, 0.0, 0.0, 0.0, 0.0, 0.0, 0.0, 0.0, 1.6731200195699997E9, 0.0, 2023-01-07 14:33:39.569
54.0, -32844.949703806604, -35002.988279222045, -34580.47325378338, -28927.940598480774, -32143.26139012115, -30907.768715354054, -38777.21444096738, -36606.8377026126, -29615.256740481465, -10419.064512141289, -36434.528104606645, -37747.73779484484, -20404.594588827444, -22494.54975063202, -35833.735565392446, -33961.53109807147, -0.154, 0.9480000000000001, -0.11800000000000001, 192.0, 0.0, 0.0, 0.0, 0.0, 0.0, 0.0, 0.0, 0.0, 0.0, 1.6731200195700057E9, 0.0, 2023-01-07 14:33:39.570
56.0, -32848.72714861955, -35008.21858742459, -34565.6093437206, -28950.62761910291, -32145.49656456668, -30941.296332037015, -38786.78098759425, -36654.469270046866, -29606.852484566272, -10402.501869499907, -36421.47468584475, -37726.57069284567, -20391.205893898714, -22492.135762230846, -35819.743373363424, -33948.58943803185, -0.138, 0.9440000000000001, -0.116, 192.0, 125.5, 88.0, 14.5, 64.0, 126.0, 48.0, 0.0, 0.0, 0.0, 1.6731200195700116E9, 0.0, 2023-01-07 14:33:39.570
58.0, -32863.56870693788, -35015.32644216138, -34594.13016964557, -28934.288493906082, -32153.565544315046, -30915.278901491038, -38799.18620576694, -36617.49948471779, -29635.10508955778, -10440.25396588492, -36455.136412994434, -37770.5142224448, -20416.70923432222, -22516.163887520303, -35858.16602208209, -33981.20063319214, -0.138, 0.9440000000000001, -0.116, 192.0, 0.0, 0.0, 0.0, 0.0, 0.0, 0.0, 0.0, 0.0, 0.0, 1.6731200195700188E9, 0.0, 2023-01-07 14:33:39.570
60.0, -32833.147982734205, -34987.29735461442, -34547.392671989524, -28920.966854210717, -32126.095250379476, -30908.12634326534, -38765.43507163943, -36621.813371397664, -29605.109048498758, -10386.38626174763, -36419.64184279941, -37714.94778572891, -20382.600472283422, -22462.363238616377, -35815.13891400563, -33928.964606400084, -0.138, 0.9440000000000001, -0.116, 192.0, 0.0, 0.0, 0.0, 0.0, 0.0, 0.0, 0.0, 0.0, 0.0, 1.6731200195700247E9, 0.0, 2023-01-07 14:33:39.570
62.0, -32857.37727372376, -35008.59856708033, -34588.45282655392, -28926.331272879994, -32166.03781772111, -30903.030145529527, -38795.431112698454, -36610.995127081296, -29607.254815966466, -10416.136433617645, -36434.349290651, -37750.44235592394, -20402.47117310419, -22484.938500516237, -35839.211742784, -33960.435862593156, -0.138, 0.9440000000000001, -0.116, 192.0, 0.0, 0.0, 0.0, 0.0, 0.0, 0.0, 0.0, 0.0, 0.0, 1.6731200195700307E9, 0.0, 2023-01-07 14:33:39.570
64.0, -32842.2004392386, -34992.01357269449, -34558.434433750444, -28927.67237754731, -32137.114660395942, -30919.525732937545, -38797.26395574379, -36638.46542101687, -29607.903016555672, -10384.709880913482, -36423.10636318998, -37711.72913452734, -20393.59753055543, -22468.57702357495, -35833.936731092545, -33938.7099669826, -0.138, 0.9440000000000001, -0.116, 192.0, 0.0, 0.0, 0.0, 0.0, 0.0, 0.0, 0.0, 0.0, 0.0, 1.673120019570037E9, 0.0, 2023-01-07 14:33:39.570
66.0, -32852.68340738814, -35000.127255931766, -34581.32262007268, -28920.832743743988, -32147.619980289935, -30900.236177472616, -38787.25037422781, -36613.02913582673, -29614.943816059094, -10418.77393946337, -36427.35319463649, -37752.386957691546, -20404.37107138289, -22495.64498611033, -35833.310882247795, -33973.31046739942, -0.15, 0.9400000000000001, -0.11800000000000001, 192.0, 125.5, 40.0, 14.5, 48.0, 126.0, 40.0, 0.0, 0.0, 0.0, 1.6731200195700428E9, 0.0, 2023-01-07 14:33:39.570
68.0, -32824.74372681901, -34976.38970332023, -34548.309093512195, -28913.7248890072, -32135.8853144509, -30899.096238505394, -38784.523461404264, -36625.97079586635, -29615.99434804849, -10388.353215259698, -36413.51746481865, -37705.94003271342, -20386.55673105201, -22477.45066612371, -35814.53541690534, -33925.902417409714, -0.15, 0.9400000000000001, -0.11800000000000001, 192.0, 0.0, 0.0, 0.0, 0.0, 0.0, 0.0, 0.0, 0.0, 0.0, 1.6731200195700517E9, 0.0, 2023-01-07 14:33:39.570
70.0, -32861.86997435927, -35009.135008947254, -34583.93777417395, -28936.523668351612, -32147.865849478945, -30907.768715354054, -38796.481644687854, -36624.83085689913, -29612.015737535447, -10427.669933756582, -36424.603930068486, -37760.18771650645, -20400.146591680837, -22503.49044841414, -35825.21955075497, -33976.998505234544, -0.15, 0.9400000000000001, -0.11800000000000001, 192.0, 0.0, 0.0, 0.0, 0.0, 0.0, 0.0, 0.0, 0.0, 0.0, 1.6731200195700576E9, 0.0, 2023-01-07 14:33:39.570
72.0, -32833.639721112224, -34978.26724985448, -34553.18177380345, -28924.274912390105, -32131.12439288192, -30898.22452047164, -38771.2018217089, -36609.81048462516, -29620.77762136193, -10387.414441992574, -36419.73124977723, -37711.147989171506, -20397.151457923825, -22474.008497477593, -35820.19040825253, -33932.250312835014, -0.15, 0.9400000000000001, -0.11800000000000001, 192.0, 0.0, 0.0, 0.0, 0.0, 0.0, 0.0, 0.0, 0.0, 0.0, 1.6731200195700634E9, 0.0, 2023-01-07 14:33:39.570
74.0, -32847.8554305858, -34994.5616715624, -34575.3100008142, -28940.301113164558, -32144.334273855005, -30907.433439187225, -38786.78098759425, -36612.447990470886, -29597.822379806326, -10413.789500449837, -36410.67879327283, -37752.67753036947, -20391.295300876536, -22487.151323217313, -35821.66562338658, -33975.43388312267, -0.15, 0.9400000000000001, -0.11800000000000001, 192.0, 0.0, 0.0, 0.0, 0.0, 0.0, 0.0, 0.0, 0.0, 0.0, 1.6731200195700693E9, 0.0, 2023-01-07 14:33:39.570
76.0, -32835.74078509102, -34985.19629063562, -34572.560736246196, -28941.128127709406, -32148.31288436805, -30904.93004380823, -38790.178452751454, -36610.72690614783, -29624.510362685964, -10380.127773300144, -36421.809962011575, -37716.445352607414, -20395.117449178393, -22482.41275339279, -35838.42943172806, -33954.93733345716, -0.168, 0.9420000000000001, -0.122, 192.0, 125.0, 96.0, 14.5, 56.0, 126.0, 24.0, 0.0, 0.0, 0.0, 1.6731200195700765E9, 0.0, 2023-01-07 14:33:39.570
78.0, -32846.64843638521, -35000.55193907642, -34586.93290793096, -28955.053264505063, -32162.908573497367, -30920.486857949123, -38796.50399643231, -36615.84545562809, -29601.398658919177, -10425.635925011149, -36419.93241547733, -37770.916553844996, -20393.932806722263, -22498.729526845163, -35844.352644008715, -34009.31912771692, -0.168, 0.9420000000000001, -0.122, 192.0, 0.0, 0.0, 0.0, 0.0, 0.0, 0.0, 0.0, 0.0, 0.0, 1.6731200195700824E9, 0.0, 2023-01-07 14:33:39.570
80.0, -32823.4473256406, -34975.093302141824, -34573.74537870233, -28932.76857528312, -32132.9348841828, -30912.328471222936, -38772.58762986513, -36595.170092006934, -29618.162467260656, -10385.536895458328, -36419.23951139922, -37722.21210267688, -20388.300167119523, -22475.371953889367, -35835.121373548674, -33973.33281914387, -0.168, 0.9420000000000001, -0.122, 192.0, 0.0, 0.0, 0.0, 0.0, 0.0, 0.0, 0.0, 0.0, 0.0, 1.673120019570088E9, 0.0, 2023-01-07 14:33:39.570
82.0, -32832.946817034106, -34983.38579933474, -34579.08744562715, -28937.082461962997, -32148.98343670171, -30923.12436379485, -38782.53415614774, -36606.90475784597, -29597.75532457296, -10417.723407473972, -36411.72932526223, -37760.791213606746, -20393.284606133057, -22483.507988871097, -35829.242864756925, -34012.87305508531, -0.168, 0.9420000000000001, -0.122, 192.0, 0.0, 0.0, 0.0, 0.0, 0.0, 0.0, 0.0, 0.0, 0.0, 1.673120019570094E9, 0.0, 2023-01-07 14:33:39.570
84.0, -32818.37347964924, -34968.41013054969, -34575.98055314786, -28909.00867092713, -32138.478116807717, -30897.21869197115, -38772.00648450929, -36581.04378951118, -29611.680461368618, -10371.142372029111, -36411.81873224005, -37710.07510543765, -20390.80356249852, -22458.898718225806, -35824.95132982151, -33958.84888873684, -0.168, 0.9420000000000001, -0.122, 192.0, 0.0, 0.0, 0.0, 0.0, 0.0, 0.0, 0.0, 0.0, 0.0, 1.6731200195701E9, 0.0, 2023-01-07 14:33:39.570
86.0, -32837.193648480614, -34993.82406399537, -34579.64623923853, -28920.966854210717, -32147.619980289935, -30913.848389845898, -38791.47485392986, -36607.01651656825, -29593.217920448533, -10411.286105070843, -36405.62729902593, -37746.35198668861, -20383.338079850448, -22465.894814240317, -35824.95132982151, -33985.670982083204, -0.17, 0.9450000000000001, -0.121, 192.0, 125.0, 80.0, 14.5, 80.0, 126.0, 32.0, 0.0, 0.0, 0.0, 1.6731200195701058E9, 0.0, 2023-01-07 14:33:39.570
88.0, -32814.77484879194, -34969.080682883345, -34573.387750791044, -28882.25363281413, -32121.937825910787, -30859.86892698633, -38744.49148708481, -36549.460774595835, -29624.28684524141, -10392.980026361945, -36428.850761514994, -37725.52016085627, -20396.83853350145, -22466.900642740806, -35831.6568531581, -33944.007330418506, -0.17, 0.9450000000000001, -0.121, 192.0, 0.0, 0.0, 0.0, 0.0, 0.0, 0.0, 0.0, 0.0, 0.0, 1.6731200195701115E9, 0.0, 2023-01-07 14:33:39.570
90.0, -32813.3443371468, -34971.98640966254, -34565.96697163188, -28907.131124392883, -32137.673454007323, -30884.031162742518, -38757.5002023578, -36581.04378951118, -29565.4794055795, -10382.228837278943, -36387.83531043951, -37727.44241087943, -20361.32161156197, -22451.992029189114, -35797.90571903059, -33935.37955705876, -0.17, 0.9450000000000001, -0.121, 192.0, 0.0, 0.0, 0.0, 0.0, 0.0, 0.0, 0.0, 0.0, 0.0, 1.6731200195701177E9, 0.0, 2023-01-07 14:33:39.570
92.0, -32832.34331993381, -34988.68316277065, -34598.10878015862, -28914.462496574226, -32142.143802898387, -30885.081694731918, -38778.39908342351, -36574.22650745231, -29610.42876367912, -10397.405671764098, -36428.33667139252, -37732.71742257088, -20391.831742743463, -22468.53232008604, -35824.81721935478, -33943.5602955294, -0.17, 0.9450000000000001, -0.121, 192.0, 0.0, 0.0, 0.0, 0.0, 0.0, 0.0, 0.0, 0.0, 0.0, 1.6731200195701237E9, 0.0, 2023-01-07 14:33:39.570
94.0, -32834.84671531281, -34996.61803205228, -34587.53640503126, -28943.944447510774, -32139.796869730577, -30921.604445171888, -38791.98894405233, -36617.99122309581, -29595.65426059416, -10419.623305752672, -36427.93433999233, -37766.98264682086, -20386.780248496565, -22478.612956835386, -35835.32253924877, -33985.98390650558, -0.17, 0.9450000000000001, -0.121, 192.0, 0.0, 0.0, 0.0, 0.0, 0.0, 0.0, 0.0, 0.0, 0.0, 1.6731200195701294E9, 0.0, 2023-01-07 14:33:39.570
96.0, -32821.5474273619, -34979.96598243308, -34592.74436148934, -28918.597569298458, -32135.482983050704, -30892.413066913257, -38765.99386525081, -36566.515155615234, -29611.635757879707, -10403.597104978217, -36431.68943306082, -37747.89425705603, -20391.56352181, -22470.655735809298, -35834.09319330373, -33975.21036567812, -0.161, 0.9415, -0.1175, 192.0, 125.5, 32.0, 14.5, 40.0, 126.0, 56.0, 0.0, 0.0, 0.0, 1.673120019570135E9, 0.0, 2023-01-07 14:33:39.570
98.0, -32819.669880827656, -34985.33040110236, -34578.0592653822, -28940.39052014238, -32138.142840640885, -30928.175858041748, -38776.409778166984, -36614.52670270523, -29576.588222573784, -10400.400805521109, -36404.30854610307, -37740.54053313023, -20369.99408841063, -22462.229128149644, -35820.41392569708, -33985.96155476112, -0.161, 0.9415, -0.1175, 192.0, 0.0, 0.0, 0.0, 0.0, 0.0, 0.0, 0.0, 0.0, 0.0, 1.6731200195701413E9, 0.0, 2023-01-07 14:33:39.570
100.0, -32822.41914539566, -34980.56947953338, -34594.376038834576, -28907.756973237632, -32138.6345790189, -30883.673534831232, -38762.81991753816, -36562.51419335773, -29611.255778223967, -10411.77784344886, -36433.9469592508, -37751.78346059126, -20397.486734090657, -22486.01138425009, -35845.00084459792, -33988.71081932912, -0.161, 0.9415, -0.1175, 192.0, 0.0, 0.0, 0.0, 0.0, 0.0, 0.0, 0.0, 0.0, 0.0, 1.6731200195701485E9, 0.0, 2023-01-07 14:33:39.570
102.0, -32820.76511630596, -34981.93293594515, -34575.220593836384, -28926.308921135536, -32123.815372445035, -30919.078698048437, -38769.637199597026, -36608.35762123557, -29574.263641150435, -10382.318244256765, -36399.12294138944, -37720.289852653725, -20371.02226865557, -22444.928877941238, -35812.94844304901, -33959.452385837125, -0.161, 0.9415, -0.1175, 192.0, 0.0, 0.0, 0.0, 0.0, 0.0, 0.0, 0.0, 0.0, 0.0, 1.6731200195701544E9, 0.0, 2023-01-07 14:33:39.570
104.0, -32837.43951766962, -34992.75118026152, -34605.75307676233, -28915.49067681917, -32148.446994834783, -30892.703639591175, -38768.318446674166, -36572.50542312925, -29613.848580580783, -10420.293858086332, -36440.83129654304, -37762.42289095198, -20409.60137958543, -22487.330137172954, -35855.05912960281, -33993.292926942464, -0.161, 0.9415, -0.1175, 192.0, 0.0, 0.0, 0.0, 0.0, 0.0, 0.0, 0.0, 0.0, 0.0, 1.6731200200503137E9, 0.0, 2023-01-07 14:33:40.050
106.0, -32817.21118893757, -34971.27115383997, -34555.41694824898, -28905.521798792102, -32118.56271249804, -30891.854273301873, -38741.675167283436, -36585.49178665779, -29581.416199376134, -10387.839125137225, -36402.5427582911, -37715.528931084744, -20368.98825991014, -22435.697607481197, -35807.98635577993, -33943.582647273855, -0.1535, 0.9397500000000001, -0.11574999999999999, 192.0, 125.5, 56.0, 14.5, 40.0, 126.0, 56.0, 0.0, 0.0, 0.0, 1.6731200200504284E9, 0.0, 2023-01-07 14:33:40.050
108.0, -32845.039110784426, -34996.12629367427, -34593.884300456564, -28903.420734813302, -32145.921247711332, -30889.753209323077, -38759.66832156996, -36575.00881850825, -29605.936063043602, -10406.413424779586, -36428.40372662589, -37750.30824545721, -20388.166056652793, -22457.267040880568, -35820.68214663055, -33972.97519123259, -0.1535, 0.9397500000000001, -0.11574999999999999, 192.0, 0.0, 0.0, 0.0, 0.0, 0.0, 0.0, 0.0, 0.0, 0.0, 1.6731200200504727E9, 0.0, 2023-01-07 14:33:40.050
110.0, -32802.77196201944, -34959.13415660073, -34541.514163197775, -28880.085513601964, -32107.945633881765, -30884.545252864988, -38734.90258871348, -36576.59579236458, -29593.32967917081, -10375.81388662027, -36411.08112467302, -37708.64459379251, -20372.251614600613, -22437.128119126337, -35800.96790802097, -33943.5602955294, -0.1535, 0.9397500000000001, -0.11574999999999999, 192.0, 0.0, 0.0, 0.0, 0.0, 0.0, 0.0, 0.0, 0.0, 0.0, 1.6731200200505009E9, 0.0, 2023-01-07 14:33:40.050
112.0, -32821.79329655091, -34975.83090970885, -34568.47036701088, -28871.077760586475, -32124.418869545327, -30869.234307913102, -38756.51672560176, -36554.825193265104, -29578.823397019318, -10381.692395412016, -36400.97813617923, -37722.815599777176, -20368.675335487766, -22442.2466686066, -35793.100093972695, -33944.074385651875, -0.1535, 0.9397500000000001, -0.11574999999999999, 192.0, 0.0, 0.0, 0.0, 0.0, 0.0, 0.0, 0.0, 0.0, 0.0, 1.673120020050523E9, 0.0, 2023-01-07 14:33:40.050
114.0, -32810.17038943415, -34968.76775846097, -34544.531648699245, -28880.063161857506, -32120.619072987924, -30892.346011679892, -38752.98514997782, -36585.62589712452, -29590.93804251409, -10368.504866183384, -36402.654517013376, -37694.562994785665, -20368.78709421004, -22433.350674313388, -35799.89502428711, -33920.739164440536, -0.1535, 0.9397500000000001, -0.11574999999999999, 192.0, 0.0, 0.0, 0.0, 0.0, 0.0, 0.0, 0.0, 0.0, 0.0, 1.6731200200505288E9, 0.0, 2023-01-07 14:33:40.050
116.0, -32830.130497232734, -34985.03982842444, -34567.68805595494, -28880.75606593562, -32131.12439288192, -30881.416008641245, -38767.133804218036, -36568.884440527494, -29587.85350177926, -10406.525183501863, -36403.01214492466, -37738.43946915144, -20375.17969312426, -22457.714075769672, -35811.69674535951, -33950.377577588275, -0.15275, 0.939875, -0.119875, 192.0, 125.5, 32.0, 14.5, 48.0, 126.0, 16.0, 0.0, 0.0, 0.0, 1.6731200200505347E9, 0.0, 2023-01-07 14:33:40.050
118.0, -32819.40165989419, -34975.2050608641, -34551.55009645821, -28893.451856786236, -32127.279892835606, -30889.328526178426, -38765.83740303962, -36585.469434913335, -29603.76794383144, -10378.920779099559, -36402.16277863536, -37698.78747448772, -20375.157341379803, -22448.460453565178, -35806.46643715697, -33912.200798058606, -0.15275, 0.939875, -0.119875, 192.0, 0.0, 0.0, 0.0, 0.0, 0.0, 0.0, 0.0, 0.0, 0.0, 1.6731200200505407E9, 0.0, 2023-01-07 14:33:40.050
