%OpenBCI Raw EEG Data
%Number of channels = 16
%Sample Rate = 125 Hz
%Board = OpenBCI_GUI$BoardCytonSerialDaisy
Sample Index, EXG Channel 0, EXG Channel 1, EXG Channel 2, EXG Channel 3, EXG Channel 4, EXG Channel 5, EXG Channel 6, EXG Channel 7, EXG Channel 8, EXG Channel 9, EXG Channel 10, EXG Channel 11, EXG Channel 12, EXG Channel 13, EXG Channel 14, EXG Channel 15, Accel Channel 0, Accel Channel 1, Accel Channel 2, Other, Other, Other, Other, Other, Other, Other, Analog Channel 0, Analog Channel 1, Analog Channel 2, Timestamp, Other, Timestamp (Formatted)
0.0, -1110.948754662127, 317.28301254308377, -25244.9095541131, -24990.99373710081, -11891.977416512658, 3913.4104744685264, 62311.27677098236, 27293.268119486347, 0.0, 0.0, 0.0, 0.0, 0.0, 0.0, 0.0, 0.0, 0.0, 0.0, 0.0, 192.0, 0.0, 0.0, 0.0, 0.0, 0.0, 0.0, 0.0, 0.0, 0.0, 1.6626783247824888E9, 0.0, 2022-09-08 19:05:24.782
126.0, -1111.3063825734118, 316.50070148714804, -25250.206917549007, -24997.542798226215, -11903.846192818428, 3904.2462592418506, 62301.35259644421, 27295.570349165246, -12713.113452567275, -2014.898003923655, -16340.823929408067, -20561.325020948057, 6876.804754353137, -8112.789167498251, -10177.44215457942, -7474.423345854681, 0.0, 0.0, 0.0, 192.0, 0.0, 0.0, 0.0, 0.0, 0.0, 0.0, 0.0, 0.0, 0.0, 1.6626783247824934E9, 0.0, 2022-09-08 19:05:24.782
128.0, -1117.4754640430765, 315.13724507537427, -25252.263278038896, -24994.77118191376, -11902.192163728734, 3896.557259149225, 62325.06779731128, 27302.78996262431, -12724.669304450668, -2015.3450388127612, -16349.563461490092, -20562.73318084874, 6869.853361827536, -8115.2925628772455, -10171.54129404322, -7466.3767178507715, 0.0, 0.0, 0.0, 192.0, 0.0, 0.0, 0.0, 0.0, 0.0, 0.0, 0.0, 0.0, 0.0, 1.6626783247824974E9, 0.0, 2022-09-08 19:05:24.782
130.0, -1107.2160133380908, 323.00505912364235, -25255.213708306994, -24996.067583092165, -11903.533268396053, 3893.4503666699375, 62285.035822991835, 27268.97177326343, -12722.188260816129, -2014.9427074125658, -16350.301069057115, -20566.197701239314, 6864.086611758067, -8113.191498898447, -10177.732727257338, -7478.021976711986, 0.192, 0.89, 0.368, 192.0, 3.0, 0.0, 13.5, 104.0, 5.5, 64.0, 0.0, 0.0, 0.0, 1.6626783247825015E9, 0.0, 2022-09-08 19:05:24.782
132.0, -1104.757321448007, 330.0011551381535, -25246.8094523918, -24986.61279518757, -11893.899666535815, 3911.4435209564595, 62312.506116927405, 27315.37399475265, -12716.622676446757, -2011.0535038773423, -16353.407961536404, -20561.36972443697, 6850.675565084883, -8117.192461155947, -10175.363442345077, -7467.471953329081, 0.192, 0.89, 0.368, 192.0, 0.0, 0.0, 0.0, 0.0, 0.0, 0.0, 0.0, 0.0, 0.0, 1.6626783247825055E9, 0.0, 2022-09-08 19:05:24.782
134.0, -1093.179117820158, 343.725126233712, -25229.7550713724, -24966.250355988785, -11886.009500743092, 3932.9458991224647, 62262.304098880784, 27367.833538989253, -12711.258257777485, -2005.1526433411414, -16345.875423654965, -20557.726390090753, 6845.758181304715, -8109.682275018964, -10166.936834685426, -7453.613871766791, 0.192, 0.89, 0.368, 192.0, 0.0, 0.0, 0.0, 0.0, 0.0, 0.0, 0.0, 0.0, 0.0, 1.662678324782509E9, 0.0, 2022-09-08 19:05:24.782
136.0, -1097.3141905443897, 341.22173085471763, -25230.805603361798, -24965.84802458859, -11894.704329336206, 3921.1441780500627, 62315.791823362335, 27387.011335731906, -12703.41279547367, -1994.4461577470493, -16341.8074061641, -20545.522337618153, 6863.147838490944, -8093.566667266688, -10159.471352037353, -7432.849101167811, 0.192, 0.89, 0.368, 192.0, 0.0, 0.0, 0.0, 0.0, 0.0, 0.0, 0.0, 0.0, 0.0, 1.6626783247825134E9, 0.0, 2022-09-08 19:05:24.782
138.0, -1097.425949266666, 338.2489488421618, -25223.51893466937, -24959.298963463185, -11907.176602742267, 3926.620355441613, 62231.615153743645, 27368.302925622815, -12708.687807165124, -2009.198309087552, -16343.304973042605, -20549.098616731004, 6857.001108765735, -8107.849431973628, -10169.954320186893, -7444.002621651009, 0.192, 0.89, 0.368, 192.0, 0.0, 0.0, 0.0, 0.0, 0.0, 0.0, 0.0, 0.0, 0.0, 1.6626783247825172E9, 0.0, 2022-09-08 19:05:24.782
140.0, -1099.9740481345711, 337.3325273194942, -25231.18558301754, -24958.7401698518, -11912.116338266891, 3920.3395152496714, 62225.669589718535, 27345.280628833847, -12709.380711243239, -2010.5617654993257, -16347.507101000203, -20545.611744595975, 6841.77957079167, -8103.379083082567, -10180.526695314253, -7450.5293310319585, 0.216, 0.914, 0.368, 192.0, 3.0, 96.0, 14.0, 72.0, 5.5, 64.0, 0.0, 0.0, 0.0, 1.6626783247825215E9, 0.0, 2022-09-08 19:05:24.782
142.0, -1109.428836039166, 323.29563180156134, -25232.14670802912, -24954.962725038855, -11901.253390461612, 3906.01204705382, 62318.026997807865, 27382.18335892956, -12709.000731587497, -2017.0437713913645, -16347.149473088917, -20544.337695162023, 6841.399591135931, -8104.273152860779, -10167.652090507996, -7451.423400810171, 0.216, 0.914, 0.368, 192.0, 0.0, 0.0, 0.0, 0.0, 0.0, 0.0, 0.0, 0.0, 0.0, 1.6626783247825253E9, 0.0, 2022-09-08 19:05:24.782
144.0, -1106.724274960074, 324.9273091467988, -25243.27787676786, -24961.400027441985, -11910.395253943832, 3894.098567259141, 62400.99667322596, 27364.88310872115, -12720.534231726437, -2028.7560854859455, -16356.403095293415, -20544.91884051786, 6834.671716054883, -8117.1701094114915, -10159.158427614979, -7455.111438645296, 0.216, 0.914, 0.368, 192.0, 0.0, 0.0, 0.0, 0.0, 0.0, 0.0, 0.0, 0.0, 0.0, 1.662678324782529E9, 0.0, 2022-09-08 19:05:24.782
146.0, -1116.559042520409, 319.2946695440614, -25265.026124122876, -24973.648783403492, -11925.080350050968, 3883.6603025985128, 62398.716795291526, 27337.055186874295, -12727.642086463224, -2032.7123442545349, -16359.532339517158, -20545.902317273896, 6832.391838120442, -8120.969905968894, -10165.886302696026, -7469.52831381897, 0.216, 0.914, 0.368, 192.0, 0.0, 0.0, 0.0, 0.0, 0.0, 0.0, 0.0, 0.0, 0.0, 1.6626783247825344E9, 0.0, 2022-09-08 19:05:24.782
148.0, -1118.6601064992078, 323.1391695903742, -25281.454656297527, -24981.047210818197, -11930.377713486876, 3881.7604043198116, 62475.62914796224, 27323.3982710121, -12739.063827879887, -2030.6112802757361, -16370.261176855705, -20544.2482881842, 6819.450178080819, -8132.905737508027, -10174.58113128914, -7473.506924332014, 0.216, 0.914, 0.368, 192.0, 0.0, 0.0, 0.0, 0.0, 0.0, 0.0, 0.0, 0.0, 0.0, 1.6626783247825382E9, 0.0, 2022-09-08 19:05:24.782
150.0, -1136.4073915967217, 303.71550365871235, -25291.15531339113, -24991.88780687902, -11941.352420014433, 3877.3124071732054, 62377.41558282562, 27318.190314554016, -12754.441828065137, -2038.9037774686549, -16383.493409573248, -20560.028619769648, 6812.051750666113, -8137.08551372117, -10194.96592223238, -7493.936418764165, 0.226, 0.894, 0.354, 192.0, 3.5, 8.0, 13.5, 120.0, 5.5, 8.0, 0.0, 0.0, 0.0, 1.662678324782542E9, 0.0, 2022-09-08 19:05:24.782
152.0, -1123.8233594683838, 325.3296405469943, -25271.37401954818, -24977.113303794064, -11931.651762920828, 3886.3425119331496, 62389.194952153564, 27317.385651753626, -12759.292156611938, -2028.6219750192138, -16377.369031592492, -20552.809006310585, 6809.235430864744, -8130.089417706659, -10188.752137273805, -7486.068604715897, 0.226, 0.894, 0.354, 192.0, 0.0, 0.0, 0.0, 0.0, 0.0, 0.0, 0.0, 0.0, 0.0, 1.662678324782546E9, 0.0, 2022-09-08 19:05:24.782
154.0, -1143.2246736555903, 310.64454443985755, -25259.95227813152, -24989.719687666857, -11941.955917114725, 3869.0199099802867, 62282.28655842383, 27303.125238791137, -12763.270767124983, -2041.675393781113, -16375.692650758345, -20559.894509302918, 6800.920581927369, -8151.457685405932, -10191.367291375076, -7502.497136890547, 0.226, 0.894, 0.354, 192.0, 0.0, 0.0, 0.0, 0.0, 0.0, 0.0, 0.0, 0.0, 0.0, 1.66267832478255E9, 0.0, 2022-09-08 19:05:24.782
156.0, -1144.9681097231044, 301.03329432407554, -25253.537327472848, -25010.216237332374, -11944.727533427184, 3874.6078460941135, 62314.09309078373, 27315.955140108486, -12768.881054983265, -2032.2206058765182, -16366.260214598205, -20550.082093487035, 6799.3783115599535, -8144.9309760249835, -10179.163238902478, -7491.634189085268, 0.226, 0.894, 0.354, 192.0, 0.0, 0.0, 0.0, 0.0, 0.0, 0.0, 0.0, 0.0, 0.0, 1.662678324782556E9, 0.0, 2022-09-08 19:05:24.782
158.0, -1154.5346563499756, 289.29862848503933, -25253.51497572839, -25009.366871043072, -11948.929661384782, 3848.679822525957, 62247.8425202182, 27265.21668019494, -12790.785764549466, -2052.4712863530262, -16381.749973505734, -20563.269622715667, 6776.3113112820765, -8150.697726094452, -10194.2059629209, -7519.506814421036, 0.226, 0.894, 0.354, 192.0, 0.0, 0.0, 0.0, 0.0, 0.0, 0.0, 0.0, 0.0, 0.0, 1.6626783247825599E9, 0.0, 2022-09-08 19:05:24.782
160.0, -1137.7931997529506, 297.1887942777627, -25254.8113769068, -25005.723536696856, -11948.3708677734, 3854.3795173620606, 62293.37302367366, 27314.614035441165, -12782.649729567735, -2045.2516728939622, -16377.190217636851, -20550.81970105406, 6784.112070096979, -8145.5791766141865, -10186.405204105999, -7515.908183563732, 0.262, 0.93, 0.368, 192.0, 4.0, 24.0, 14.5, 8.0, 5.5, 64.0, 0.0, 0.0, 0.0, 1.6626783247825637E9, 0.0, 2022-09-08 19:05:24.782
162.0, -1131.1547316497245, 301.99441933565373, -25260.15344383162, -24997.967481370866, -11932.277611765578, 3858.71575578639, 62247.66370626256, 27299.191331767004, -12779.073450454885, -2043.1729606596186, -16372.541054790147, -20543.130700961436, 6783.776793930148, -8140.393571900556, -10183.410070348988, -7508.53210789348, 0.262, 0.93, 0.368, 192.0, 0.0, 0.0, 0.0, 0.0, 0.0, 0.0, 0.0, 0.0, 0.0, 1.6626783247825685E9, 0.0, 2022-09-08 19:05:24.782
164.0, -1106.947792404627, 321.97687887869824, -25259.840519409245, -24989.51852196676, -11916.899611580326, 3869.891628014044, 62289.439116649526, 27311.194218539506, -12765.237720637051, -2032.6899925100795, -16361.767513962688, -20531.127814188938, 6805.323875585065, -8134.872691020095, -10183.901808727003, -7507.570982881902, 0.262, 0.93, 0.368, 192.0, 0.0, 0.0, 0.0, 0.0, 0.0, 0.0, 0.0, 0.0, 0.0, 1.6626783247825725E9, 0.0, 2022-09-08 19:05:24.782
166.0, -1112.558080262909, 320.14403583336303, -25264.33322004476, -24990.814923145168, -11912.69748362273, 3863.163752932996, 62271.35655538518, 27290.720020618443, -12754.419476320681, -2022.7658179719233, -16354.32438305907, -20516.889752970907, 6809.794224476126, -8117.326571622679, -10182.404241848499, -7502.541840379458, 0.262, 0.93, 0.368, 192.0, 0.0, 0.0, 0.0, 0.0, 0.0, 0.0, 0.0, 0.0, 0.0, 1.662678324782576E9, 0.0, 2022-09-08 19:05:24.782
168.0, -1105.070245870381, 326.2684138141172, -25252.88912688364, -24990.390240000517, -11938.066713579503, 3869.3998896360267, 62299.8550295657, 27311.171866795048, -12755.470008310082, -2026.3644488292277, -16353.072685369574, -20516.755642504173, 6812.208212877299, -8127.474263605388, -10175.54225630072, -7510.253192216539, 0.262, 0.93, 0.368, 192.0, 0.0, 0.0, 0.0, 0.0, 0.0, 0.0, 0.0, 0.0, 0.0, 1.66267832478258E9, 0.0, 2022-09-08 19:05:24.782
170.0, -1110.591126750842, 325.2849370580837, -25244.596629690725, -24987.08218182113, -11938.066713579503, 3868.595226835636, 62293.08245099574, 27294.36335496466, -12756.185264132651, -2021.2458993489624, -16345.160167832395, -20506.943226688294, 6809.34718958702, -8122.959211225416, -10164.34403232861, -7504.262924702517, 0.304, 0.9480000000000001, 0.372, 192.0, 4.5, 64.0, 14.5, 80.0, 5.5, 80.0, 0.0, 0.0, 0.0, 1.6626783247825956E9, 0.0, 2022-09-08 19:05:24.782
172.0, -1096.1295480882584, 333.5103790176367, -25232.236115006937, -24976.50980669377, -11920.967629071192, 3884.3085031877167, 62304.325378456764, 27318.21266629847, -12756.453485066115, -2008.0807218647865, -16333.403150248903, -20487.34074680099, 6817.907907713403, -8108.251763373824, -10155.112761868568, -7493.735253064067, 0.304, 0.9480000000000001, 0.372, 192.0, 0.0, 0.0, 0.0, 0.0, 0.0, 0.0, 0.0, 0.0, 0.0, 1.6626783247825997E9, 0.0, 2022-09-08 19:05:24.782
174.0, -1092.8438416533281, 335.38792555188246, -25226.22349574846, -24974.27463224824, -11913.993884801137, 3887.7953753227443, 62316.685893140544, 27299.772477122842, -12768.18815090515, -2012.126387611197, -16336.241821794729, -20474.62260420592, 6795.377349302453, -8105.860126717106, -10149.368363543554, -7486.135659949263, 0.304, 0.9480000000000001, 0.372, 192.0, 0.0, 0.0, 0.0, 0.0, 0.0, 0.0, 0.0, 0.0, 0.0, 1.6626783247826035E9, 0.0, 2022-09-08 19:05:24.782
176.0, -1095.011960865493, 330.4481900272596, -25234.113661541185, -24985.450504475895, -11918.59834415893, 3872.7302995598675, 62294.535314385335, 27263.20502319396, -12767.472895082581, -2006.6949137085576, -16328.23989727973, -20470.308717526044, 6799.713587726783, -8099.579286525165, -10152.408200789476, -7487.588523338858, 0.304, 0.9480000000000001, 0.372, 192.0, 0.0, 0.0, 0.0, 0.0, 0.0, 0.0, 0.0, 0.0, 0.0, 1.6626783247826073E9, 0.0, 2022-09-08 19:05:24.782
178.0, -1100.9575248906046, 323.25092831265073, -25241.84736512272, -24991.731344667834, -11930.131844297868, 3878.139421718052, 62326.699474656525, 27335.043529873317, -12775.944206231143, -2008.4383497760714, -16337.448815995314, -20467.447694235765, 6800.607657504995, -8111.403359342023, -10157.303232825188, -7486.001549482531, 0.304, 0.9480000000000001, 0.372, 192.0, 0.0, 0.0, 0.0, 0.0, 0.0, 0.0, 0.0, 0.0, 0.0, 1.6626783247826111E9, 0.0, 2022-09-08 19:05:24.782
180.0, -1079.1645740466804, 344.77565822311146, -25235.633580164147, -24981.22602477384, -11902.236867217645, 3905.2297359978843, 62302.783108089345, 27362.64793427562, -12772.837313751856, -2006.1137683527195, -16331.033865336642, -20463.692601167277, 6807.693160497327, -8115.896059977539, -10152.63171823403, -7471.316453375394, 0.342, 0.932, 0.378, 192.0, 5.0, 88.0, 14.5, 16.0, 5.5, 104.0, 0.0, 0.0, 0.0, 1.6626783247826152E9, 0.0, 2022-09-08 19:05:24.782
182.0, -1083.4784607265547, 339.52299827611427, -25254.878432140165, -24993.675946435447, -11908.383596942855, 3894.4785469148815, 62341.40692250812, 27324.82878265724, -12767.607005549313, -1997.3295327817839, -16330.586830447535, -20458.57405168701, 6809.280134353654, -8101.479184803866, -10141.075866350635, -7461.57109279288, 0.342, 0.932, 0.378, 192.0, 0.0, 0.0, 0.0, 0.0, 0.0, 0.0, 0.0, 0.0, 0.0, 1.6626783247826192E9, 0.0, 2022-09-08 19:05:24.782
184.0, -1076.3259025008563, 345.73678323468965, -25255.660743196102, -24990.881978378533, -11898.571181126974, 3888.0188927672975, 62291.29431143932, 27317.899741876096, -12766.087086926353, -1998.290657793362, -16330.27390602516, -20465.301926768057, 6813.772834989171, -8100.65217025902, -10142.52872974023, -7472.14346792024, 0.342, 0.932, 0.378, 192.0, 0.0, 0.0, 0.0, 0.0, 0.0, 0.0, 0.0, 0.0, 0.0, 1.6626783247826228E9, 0.0, 2022-09-08 19:05:24.782
186.0, -1087.2782572839567, 333.823303440011, -25278.48187428497, -25011.490286766326, -11910.842288832939, 3864.326043644672, 62356.762570948915, 27300.420677712045, -12769.95393871712, -2008.1701288426077, -16339.862804396487, -20466.464217479734, 6813.839890222537, -8114.443196587944, -10141.947584384392, -7479.318377890394, 0.342, 0.932, 0.378, 192.0, 0.0, 0.0, 0.0, 0.0, 0.0, 0.0, 0.0, 0.0, 0.0, 1.6626783247826269E9, 0.0, 2022-09-08 19:05:24.782
188.0, -1084.9313241161494, 331.52107376111434, -25276.425513795082, -25009.14335359852, -11913.636256889851, 3865.4436308674376, 62303.677177867554, 27290.161227007062, -12779.118153943797, -2023.2799080943953, -16348.065894611585, -20476.455447251254, 6804.027474406657, -8123.428597858978, -10158.06319213667, -7501.021921756497, 0.342, 0.932, 0.378, 192.0, 0.0, 0.0, 0.0, 0.0, 0.0, 0.0, 0.0, 0.0, 0.0, 1.6626783247826383E9, 0.0, 2022-09-08 19:05:24.782
190.0, -1079.7457194025183, 338.83009419799976, -25273.206862593517, -25011.24441757732, -11916.251410991123, 3861.9344069879544, 62373.92871069059, 27298.386668966614, -12772.792610262944, -2022.5646522718255, -16348.244708567228, -20471.180435559803, 6802.798128461615, -8122.89215599205, -10152.654069978485, -7495.813965298411, 0.34600000000000003, 0.912, 0.35000000000000003, 192.0, 5.0, 104.0, 14.0, 64.0, 5.0, 120.0, 0.0, 0.0, 0.0, 1.6626783247826421E9, 0.0, 2022-09-08 19:05:24.782
192.0, -1079.3433880023229, 336.01377439663105, -25265.71902820099, -25000.29206279422, -11907.333064953455, 3867.8129157797002, 62313.400186705614, 27295.145666020595, -12766.355307859816, -2030.7230389980125, -16342.52266198667, -20475.00258386166, 6807.8943261974255, -8113.772644254285, -10153.838712434615, -7501.446604901148, 0.34600000000000003, 0.912, 0.35000000000000003, 192.0, 0.0, 0.0, 0.0, 0.0, 0.0, 0.0, 0.0, 0.0, 0.0, 1.662678324782646E9, 0.0, 2022-09-08 19:05:24.782
194.0, -1082.5396874594317, 329.3753062934049, -25273.497435271434, -25001.029670361244, -11919.872393592883, 3861.777944776767, 62388.65851028664, 27309.20491328298, -12772.680851540668, -2035.3722018447165, -16352.960926647298, -20478.981194374705, 6802.596962761518, -8115.180804154969, -10152.67642172294, -7497.266828688005, 0.34600000000000003, 0.912, 0.35000000000000003, 192.0, 0.0, 0.0, 0.0, 0.0, 0.0, 0.0, 0.0, 0.0, 0.0, 1.66267832478265E9, 0.0, 2022-09-08 19:05:24.782
196.0, -1081.8244316368618, 333.30921331753893, -25266.456635768016, -24987.9986033438, -11899.398195671822, 3872.0597472262084, 62326.72182640098, 27313.339986007213, -12773.552569574425, -2035.0592774223421, -16351.373952790971, -20482.02103162063, 6805.592096518529, -8110.174013396981, -10152.587014745119, -7489.466069873103, 0.34600000000000003, 0.912, 0.35000000000000003, 192.0, 0.0, 0.0, 0.0, 0.0, 0.0, 0.0, 0.0, 0.0, 0.0, 1.6626783247826536E9, 0.0, 2022-09-08 19:05:24.782
198.0, -1072.9284373436496, 345.9603006792427, -25261.494548498937, -24977.94031833891, -11899.554657883009, 3891.751634091334, 62406.58460933979, 27348.298114335314, -12766.109438670808, -2030.54422504237, -16348.892909156431, -20472.745057671673, 6807.961381430791, -8115.918411721995, -10141.254680306278, -7469.148334163229, 0.34600000000000003, 0.912, 0.35000000000000003, 192.0, 0.0, 0.0, 0.0, 0.0, 0.0, 0.0, 0.0, 0.0, 0.0, 1.6626783247826576E9, 0.0, 2022-09-08 19:05:24.782
200.0, -1076.8399926233283, 345.11093438994106, -25258.67822869757, -24972.75471362528, -11892.200933957212, 3901.2734772292947, 62349.31944004529, 27313.608206940677, -12758.107514155809, -2026.386800573683, -16347.887080655943, -20465.212519790235, 6823.115864171489, -8084.447155528922, -10130.995229601293, -7452.8762641997655, 0.356, 0.913, 0.35000000000000003, 192.0, 5.5, 56.0, 14.0, 72.0, 5.0, 120.0, 0.0, 0.0, 0.0, 1.6626783247826617E9, 0.0, 2022-09-08 19:05:24.782
202.0, -1080.7738996474625, 335.790256952078, -25277.319583573295, -24999.196827315907, -11899.442899160731, 3870.919808258988, 62401.04137671488, 27223.86595295262, -12762.600214791324, -2036.6462512786688, -16367.176636120874, -20474.600252461463, 6811.336494843543, -8098.908734191506, -10145.926194897436, -7484.593389581846, 0.356, 0.913, 0.35000000000000003, 192.0, 0.0, 0.0, 0.0, 0.0, 0.0, 0.0, 0.0, 0.0, 0.0, 1.6626783247826653E9, 0.0, 2022-09-08 19:05:24.782
204.0, -1082.494983970521, 330.91757666082106, -25265.763731689898, -24984.377620742038, -11894.100832235914, 3911.5999831676468, 62359.08715237226, 27452.636057452688, -12765.640052037246, -2035.3274983558058, -16370.887025700455, -20475.896653639873, 6795.958494658291, -8094.818364956184, -10136.091427337102, -7465.236778883551, 0.356, 0.913, 0.35000000000000003, 192.0, 0.0, 0.0, 0.0, 0.0, 0.0, 0.0, 0.0, 0.0, 0.0, 1.6626783247826693E9, 0.0, 2022-09-08 19:05:24.782
206.0, -1078.0246350794596, 340.0594401430416, -25267.842443924244, -24993.631242946536, -11901.566314883985, 3898.1442330055515, 62433.36199919725, 27407.753754586432, -12764.321299114383, -2033.5393587993813, -16368.048354154631, -20470.442827992778, 6811.3588465879975, -8090.772699209774, -10134.213880802856, -7455.71493574559, 0.356, 0.913, 0.35000000000000003, 192.0, 0.0, 0.0, 0.0, 0.0, 0.0, 0.0, 0.0, 0.0, 0.0, 1.662678324782673E9, 0.0, 2022-09-08 19:05:24.782
208.0, -1068.7710128749625, 350.52005654812535, -25250.721007671476, -24975.146350281997, -11881.11446870738, 3898.211288238918, 62402.605998826744, 27359.049303418316, -12753.99479317603, -2029.1807686305963, -16359.085304628052, -20455.62362141891, 6816.767968746182, -8090.258609087302, -10126.167252798945, -7464.163895149696, 0.356, 0.913, 0.35000000000000003, 192.0, 0.0, 0.0, 0.0, 0.0, 0.0, 0.0, 0.0, 0.0, 0.0, 1.6626783247826767E9, 0.0, 2022-09-08 19:05:24.782
210.0, -1062.3560622162893, 356.73384150670074, -25256.912440885597, -24980.108437551076, -11887.01532924358, 3891.170488735496, 62458.194787287095, 27342.866640432676, -12746.9092901837, -2013.8251201898004, -16345.070760854574, -20436.311714209525, 6828.301468885121, -8079.462716515389, -10116.041912560691, -7456.676060757168, 0.358, 0.8915, 0.34900000000000003, 192.0, 5.5, 32.0, 13.5, 24.0, 5.0, 112.0, 0.0, 0.0, 0.0, 1.6626783247826807E9, 0.0, 2022-09-08 19:05:24.782
212.0, -1070.9614838315827, 351.10120190396333, -25256.86773739669, -24987.864492877066, -11889.54107636703, 3888.801203823233, 62444.0908365358, 27303.773439380344, -12759.403915334215, -2023.0787423942975, -16352.7597609472, -20444.4253974468, 6824.591079305539, -8093.901943433517, -10124.446168475886, -7472.232874898062, 0.358, 0.8915, 0.34900000000000003, 192.0, 0.0, 0.0, 0.0, 0.0, 0.0, 0.0, 0.0, 0.0, 0.0, 1.6626783247826853E9, 0.0, 2022-09-08 19:05:24.782
214.0, -1051.850742322295, 365.71924277773417, -25245.825975635766, -24980.488417206816, -11889.16109671129, 3900.871145829099, 62500.12665988525, 27312.40121274009, -12750.954955930109, -2010.293544565862, -16345.629554465957, -20437.585763643478, 6841.712515558304, -8085.810611940696, -10110.85630784706, -7470.7800115084665, 0.358, 0.8915, 0.34900000000000003, 192.0, 0.0, 0.0, 0.0, 0.0, 0.0, 0.0, 0.0, 0.0, 0.0, 1.662678324782689E9, 0.0, 2022-09-08 19:05:24.782
216.0, -1055.561131901876, 363.6181787989353, -25246.13890005814, -24979.57199568415, -11890.077518233958, 3886.9907125223535, 62493.82346794885, 27286.58494789421, -12749.770313473979, -2012.126387611197, -16348.736446945244, -20436.51287990962, 6832.68241079836, -8084.022472384271, -10115.438415460398, -7472.702261531623, 0.358, 0.8915, 0.34900000000000003, 192.0, 0.0, 0.0, 0.0, 0.0, 0.0, 0.0, 0.0, 0.0, 0.0, 1.662678324782693E9, 0.0, 2022-09-08 19:05:24.782
218.0, -1056.3210912133566, 366.0768706890191, -25253.202051306016, -24981.337783496117, -11903.756785840606, 3899.7982620952444, 62532.53668934545, 27304.51104694737, -12745.679944238656, -2008.8853846651775, -16345.741313188233, -20428.95799028373, 6836.281041655665, -8080.781469438251, -10116.176023027423, -7463.985081194053, 0.358, 0.8915, 0.34900000000000003, 192.0, 0.0, 0.0, 0.0, 0.0, 0.0, 0.0, 0.0, 0.0, 0.0, 1.6626783247826967E9, 0.0, 2022-09-08 19:05:24.782
220.0, -1061.30553022689, 361.22654214221745, -25251.03393209385, -24977.537986938714, -11886.411832143287, 3905.9896953093644, 62551.98270702156, 27303.058183557772, -12753.614813520291, -2013.936878912077, -16355.66548772639, -20434.054188019538, 6827.250936895721, -8074.947664135417, -10117.897107350482, -7460.43115382566, 0.363, 0.86975, 0.3425, 192.0, 5.5, 64.0, 13.0, 64.0, 5.0, 64.0, 0.0, 0.0, 0.0, 1.6626783247827015E9, 0.0, 2022-09-08 19:05:24.782
222.0, -1050.4202306771554, 366.03216720010846, -25249.62577219317, -24982.008335829778, -11896.604227614907, 3913.008143068331, 62549.94869827613, 27270.268174441837, -12751.692563497134, -2008.3042393093397, -16348.781150434155, -20434.836499075474, 6823.048808938123, -8072.466620500877, -10124.155595797969, -7461.19111313714, 0.363, 0.86975, 0.3425, 192.0, 0.0, 0.0, 0.0, 0.0, 0.0, 0.0, 0.0, 0.0, 0.0, 1.6626783247827055E9, 0.0, 2022-09-08 19:05:24.782
224.0, -1052.275425466946, 362.3888328538934, -25236.46059470899, -24976.487454949314, -11885.718928065173, 3897.071349271697, 62586.58320743838, 27226.794031476264, -12750.373810574272, -2020.3518295707502, -16350.211662079295, -20434.970609542204, 6825.261631639199, -8083.754251450808, -10118.120624795036, -7465.840275983844, 0.363, 0.86975, 0.3425, 192.0, 0.0, 0.0, 0.0, 0.0, 0.0, 0.0, 0.0, 0.0, 0.0, 1.6626783247827094E9, 0.0, 2022-09-08 19:05:24.782
226.0, -1036.986832259516, 379.1302894509184, -25232.102004540207, -24961.444730930893, -11894.59257061393, 3916.6291256700906, 62478.98190963053, 27305.24865451439, -12742.014258147987, -2014.450969034549, -16342.656772453402, -20425.89580129335, 6834.671716054883, -8071.88547514504, -10115.28195324921, -7467.6060637958135, 0.363, 0.86975, 0.3425, 192.0, 0.0, 0.0, 0.0, 0.0, 0.0, 0.0, 0.0, 0.0, 0.0, 1.662678324782725E9, 0.0, 2022-09-08 19:05:24.782
228.0, -1028.0237827329377, 386.26049593216135, -25226.37995795965, -24946.60317261257, -11877.15820993879, 3932.4094572555373, 62580.70469864663, 27467.790540193386, -12738.66149647969, -2000.8834601501776, -16343.752007931711, -20413.401176142834, 6837.35392538952, -8070.656129199998, -10111.213935758346, -7423.595478963313, 0.363, 0.86975, 0.3425, 192.0, 0.0, 0.0, 0.0, 0.0, 0.0, 0.0, 0.0, 0.0, 0.0, 1.6626783247827291E9, 0.0, 2022-09-08 19:05:24.782
230.0, -1028.0014309884825, 384.67352207583457, -25246.31771401378, -24957.019085528744, -11872.73256453664, 3921.6359164280793, 62642.70843776566, 27373.242661147437, -12739.33204881335, -2000.8611084057222, -16342.18738581984, -20417.156269211326, 6850.943786018346, -8067.884512887539, -10070.80198178315, -7427.462330754081, 0.3685, 0.839875, 0.36225, 192.0, 5.5, 88.0, 12.5, 40.0, 5.5, 120.0, 0.0, 0.0, 0.0, 1.662678324782733E9, 0.0, 2022-09-08 19:05:24.782
232.0, -1023.8663582642506, 380.78431854061114, -25257.270068796883, -24962.45055943138, -11854.87352071685, 3916.3832564810823, 62681.98045277363, 27338.999788641908, -12745.098798882818, -2001.1516810836413, -16351.820987680077, -20421.872487291395, 6844.685297570861, -8066.923387875961, -10077.127525464002, -7431.5079965004925, 0.3685, 0.839875, 0.36225, 192.0, 0.0, 0.0, 0.0, 0.0, 0.0, 0.0, 0.0, 0.0, 0.0, 1.6626783247827368E9, 0.0, 2022-09-08 19:05:24.782
234.0, -1016.5796895718205, 396.69876059278977, -25248.19526054803, -24958.002562284775, -11879.21457042868, 3913.3657709796157, 62624.04473114547, 27313.854076129686, -12749.613851262791, -2004.9291258965882, -16345.450740510314, -20431.19316472926, 6840.952556246824, -8069.896169888517, -10084.838877301083, -7442.035668138942, 0.3685, 0.839875, 0.36225, 192.0, 0.0, 0.0, 0.0, 0.0, 0.0, 0.0, 0.0, 0.0, 0.0, 1.6626783247827408E9, 0.0, 2022-09-08 19:05:24.782
236.0, -1010.3882563577005, 407.3605426979712, -25246.027141335864, -24955.90149830598, -11887.440012388231, 3919.132521049085, 62690.34000519991, 27311.753012150886, -12755.693525754634, -1984.9466663535436, -16332.576135704057, -20418.966760512205, 6844.998221993234, -8065.850504142107, -10062.733002034784, -7431.7985691784115, 0.3685, 0.839875, 0.36225, 192.0, 0.0, 0.0, 0.0, 0.0, 0.0, 0.0, 0.0, 0.0, 0.0, 1.6626783247827451E9, 0.0, 2022-09-08 19:05:24.782
238.0, -1012.9587069700608, 409.0816270210299, -25234.8065656193, -24946.245544701284, -11867.144628422813, 3933.2364718003837, 62627.665713747236, 27300.867712601153, -12765.640052037246, -1988.5005937219375, -16327.52464145716, -20414.56346685451, 6836.705724800316, -8064.97878610835, -10065.214045669323, -7440.046362882419, 0.3685, 0.839875, 0.36225, 192.0, 0.0, 0.0, 0.0, 0.0, 0.0, 0.0, 0.0, 0.0, 0.0, 1.6626783247827492E9, 0.0, 2022-09-08 19:05:24.782
240.0, -1003.3027533653682, 406.0864932640187, -25227.832821349242, -24943.049245244176, -11866.071744688958, 3946.200483584462, 62713.40700547779, 27303.236997513413, -12773.217293407595, -1984.9466663535436, -16321.646132665413, -20398.492562591146, 6830.626050308472, -8076.333472291645, -10068.812676526628, -7431.932679645143, 0.35625, 0.8269375000000001, 0.38512500000000005, 192.0, 5.0, 96.0, 12.5, 56.0, 6.0, 96.0, 0.0, 0.0, 0.0, 1.6626783247827537E9, 0.0, 2022-09-08 19:05:24.782
242.0, -995.1667183836364, 411.62972588893484, -25207.04569900581, -24927.201858425364, -11854.046506172002, 3936.231605557395, 62649.2351471466, 27305.91920684805, -12781.107459200319, -1995.4072827586274, -16320.126214042451, -20398.425507357777, 6843.21008243681, -8079.127440348559, -10063.269443901712, -7432.938508145632, 0.35625, 0.8269375000000001, 0.38512500000000005, 192.0, 0.0, 0.0, 0.0, 0.0, 0.0, 0.0, 0.0, 0.0, 0.0, 1.6626783247827575E9, 0.0, 2022-09-08 19:05:24.782
244.0, -988.5506020248655, 413.50727242318067, -25225.687053881535, -24939.65178008697, -11788.645301895775, 3972.508486808358, 62738.038627867536, 27316.268064530857, -12767.629357293768, -1985.617218687203, -16313.33128372804, -20381.169960638283, 6833.889404998948, -8077.853390914606, -10073.75241205125, -7423.081388840841, 0.35625, 0.8269375000000001, 0.38512500000000005, 192.0, 0.0, 0.0, 0.0, 0.0, 0.0, 0.0, 0.0, 0.0, 0.0, 1.6626783247827613E9, 0.0, 2022-09-08 19:05:24.782
0.0, -624.3289261256368, 165.40290896927226, -12546.414142419595, -12387.180314919988, -5906.090844403607, 1932.0177354833766, 31432.252398997833, 14070.378431126885, -6396.97985613106, -989.8693549477285, -8159.0796302651925, -10195.2564949103, 3428.0423436215337, -4033.2158247489724, -5043.134694473111, -3726.885166988989, 0.326125, 0.8444687500000001, 0.3595625, 192.0, 4.5, 32.0, 13.0, 120.0, 5.0, 56.0, 0.0, 0.0, 0.0, 1.6626783252938445E9, 0.0, 2022-09-08 19:05:25.293
2.0, -1261.6889192687177, 323.2062248237401, -25090.660165627025, -24771.52195829415, -11808.940685861193, 3855.8994359850212, 62842.60008842946, 28102.021289112723, -12609.714282717025, -2045.676356038613, -15998.462259586127, -18859.84317777672, 6886.326597491097, -8148.2166824599135, -10155.693907224406, -7405.4458624656045, 0.326125, 0.8444687500000001, 0.3595625, 192.0, 0.0, 0.0, 0.0, 0.0, 0.0, 0.0, 0.0, 0.0, 0.0, 1.662678325293927E9, 0.0, 2022-09-08 19:05:25.293
4.0, -1247.6296720063297, 338.11483837542994, -25083.708773101425, -24756.09925461999, -11810.170031806236, 3876.0160059947975, 62833.54763192507, 28087.85028312806, -12603.20992508053, -2037.2497483789623, -15989.409803081728, -18850.097817194204, 6894.395577239464, -8133.330420652679, -10149.636584477019, -7401.914286841666, 0.326125, 0.8444687500000001, 0.3595625, 192.0, 0.0, 0.0, 0.0, 0.0, 0.0, 0.0, 0.0, 0.0, 0.0, 1.6626783252939916E9, 0.0, 2022-09-08 19:05:25.293
6.0, -1258.8949512118045, 324.1002946019524, -25090.39194469356, -24764.65997274637, -11810.929991117715, 3855.9888429628427, 62849.86440537744, 28105.88814090349, -12608.239067582974, -2049.1408764291855, -15999.69160553117, -18857.92092775356, 6879.755184621237, -8149.021345260304, -10166.48979979632, -7404.060054309375, 0.326125, 0.8444687500000001, 0.3595625, 192.0, 0.0, 0.0, 0.0, 0.0, 0.0, 0.0, 0.0, 0.0, 0.0, 1.6626783252940052E9, 0.0, 2022-09-08 19:05:25.294
8.0, -1249.194294118201, 337.3772308084048, -25087.665031870012, -24761.508376778173, -11810.035921339504, 3860.794468020734, 62859.09567583748, 28099.674355944917, -12596.772622677401, -2044.7822862604007, -15990.795611237958, -18855.30577365229, 6883.890257345469, -8139.879481778084, -10162.466485794364, -7402.473080453048, 0.27, 0.884, 0.302, 192.0, 4.0, 56.0, 13.5, 80.0, 4.5, 56.0, 0.0, 0.0, 0.0, 1.6626783252940092E9, 0.0, 2022-09-08 19:05:25.294
10.0, -1253.910512198271, 331.6998877167568, -25089.766095848812, -24766.224594858242, -11814.685084186207, 3848.5457120592255, 62855.51939672463, 28069.790073608172, -12606.763852448923, -2044.3352513712946, -15994.751870006547, -18857.49624460891, 6884.851382357047, -8146.406191159033, -10165.036936406725, -7404.194164776107, 0.27, 0.884, 0.302, 192.0, 0.0, 0.0, 0.0, 0.0, 0.0, 0.0, 0.0, 0.0, 0.0, 1.6626783252940135E9, 0.0, 2022-09-08 19:05:25.294
12.0, -1244.8804074383268, 336.9972511526646, -25086.882720814076, -24760.41314129986, -11811.175860306725, 3857.1511336745184, 62829.256096989644, 28076.31678298912, -12604.193401836563, -2043.5976438042694, -15983.68775650117, -18855.037552718826, 6900.31878952012, -8149.6248423605975, -10163.248796850301, -7411.816109635367, 0.27, 0.884, 0.302, 192.0, 0.0, 0.0, 0.0, 0.0, 0.0, 0.0, 0.0, 0.0, 0.0, 1.6626783252940176E9, 0.0, 2022-09-08 19:05:25.294
14.0, -1253.0611459089691, 331.3646115499272, -25097.566854663713, -24763.65414424588, -11807.688988171696, 3851.786715005245, 62853.39598100138, 28065.99027705077, -12609.423710039106, -2047.1739229171185, -15989.834486226378, -18851.327163139245, 6880.962178821824, -8145.713287080919, -10167.92031144146, -7407.569278188858, 0.27, 0.884, 0.302, 192.0, 0.0, 0.0, 0.0, 0.0, 0.0, 0.0, 0.0, 0.0, 0.0, 1.662678325294022E9, 0.0, 2022-09-08 19:05:25.294
16.0, -1242.3993638037878, 345.11093438994106, -25086.05570626923, -24759.787292455112, -11806.4372904822, 3861.9567587324095, 62829.61372490093, 28053.763872833715, -12604.551029747849, -2052.0018997194647, -15984.224198368098, -18851.237756161423, 6887.3100742471315, -8158.945519798461, -10164.321680584155, -7407.9716095890535, 0.27, 0.884, 0.302, 192.0, 0.0, 0.0, 0.0, 0.0, 0.0, 0.0, 0.0, 0.0, 0.0, 1.6626783252940264E9, 0.0, 2022-09-08 19:05:25.294
18.0, -1244.299262082489, 337.6230999974132, -25095.91282557402, -24777.221653130255, -11819.401302266277, 3848.232787636851, 62846.332829753504, 28015.318872370586, -12599.63364596768, -2042.2341873924956, -15983.01720416751, -18846.029799703338, 6895.4684609733185, -8151.435333661478, -10158.24200609231, -7403.724778142546, 0.258, 0.904, 0.28200000000000003, 192.0, 4.0, 8.0, 14.0, 32.0, 4.0, 104.0, 0.0, 0.0, 0.0, 1.6626783252940304E9, 0.0, 2022-09-08 19:05:25.294
20.0, -1240.6559277362737, 347.12259139091867, -25092.850636583644, -24765.934022180325, -11808.828927138917, 3854.2230551508733, 62781.42336385529, 28049.897021042947, -12603.679311714091, -2046.4139636056382, -15990.773259493502, -18857.295078908814, 6892.249809771754, -8159.459609920933, -10169.909616697982, -7421.89674638471, 0.258, 0.904, 0.28200000000000003, 192.0, 0.0, 0.0, 0.0, 0.0, 0.0, 0.0, 0.0, 0.0, 0.0, 1.6626783252940347E9, 0.0, 2022-09-08 19:05:25.294
22.0, -1251.6976894971956, 333.75624820664507, -25102.797162866256, -24775.969955440756, -11802.771604391528, 3847.6963457699235, 62864.10246659547, 28054.769701334204, -12603.567552991815, -2052.6948037975794, -15995.333015362385, -18851.39421837261, 6907.337237279086, -8162.633557633586, -10170.244892864812, -7409.647990423202, 0.258, 0.904, 0.28200000000000003, 192.0, 0.0, 0.0, 0.0, 0.0, 0.0, 0.0, 0.0, 0.0, 0.0, 1.6626783252940388E9, 0.0, 2022-09-08 19:05:25.294
24.0, -1245.6850702387178, 342.4957802886701, -25098.505627930837, -24771.633717016426, -11795.373176976822, 3853.1501714170186, 62821.76826259712, 28049.74055883176, -12607.903791416144, -2051.8230857638223, -15996.16002990723, -18854.456407362988, 6896.139013306977, -8160.063107021226, -10165.148695129, -7416.487624226525, 0.258, 0.904, 0.28200000000000003, 192.0, 0.0, 0.0, 0.0, 0.0, 0.0, 0.0, 0.0, 0.0, 0.0, 1.6626783252940433E9, 0.0, 2022-09-08 19:05:25.294
26.0, -1242.4217155482431, 346.02735591260864, -25094.325851717695, -24766.314001836065, -11801.631665424307, 3858.1569621750073, 62862.20256831677, 28079.13310279049, -12596.392643021662, -2028.8007889748562, -15991.98025369409, -18844.912212480573, 6896.966027851824, -8148.194330715458, -10163.472314294853, -7406.518746199459, 0.258, 0.904, 0.28200000000000003, 192.0, 0.0, 0.0, 0.0, 0.0, 0.0, 0.0, 0.0, 0.0, 0.0, 1.662678325294047E9, 0.0, 2022-09-08 19:05:25.294
28.0, -1255.8998174547933, 337.19841685276236, -25102.193665765964, -24767.99038267021, -11816.406168509266, 3855.7876772627446, 62785.17845692378, 28058.480090913785, -12614.743425219469, -2048.8279520068113, -16006.464184101127, -18855.886919008128, 6878.83876309857, -8149.960118527427, -10177.509209812786, -7422.276726040451, 0.244, 0.906, 0.276, 192.0, 3.5, 80.0, 14.0, 40.0, 4.0, 80.0, 0.0, 0.0, 0.0, 1.662678325294053E9, 0.0, 2022-09-08 19:05:25.294
30.0, -1254.715174998662, 336.9301959192987, -25108.988596080377, -24771.365496082963, -11818.48488074361, 3851.8537702386107, 62872.70788821077, 28047.572439619595, -12611.59182925127, -2043.195312404074, -16004.139602677777, -18846.610945059176, 6883.756146878737, -8149.446028404955, -10168.099125397102, -7412.531365457937, 0.244, 0.906, 0.276, 192.0, 0.0, 0.0, 0.0, 0.0, 0.0, 0.0, 0.0, 0.0, 0.0, 1.6626783252940583E9, 0.0, 2022-09-08 19:05:25.294
32.0, -1254.4469540651983, 335.8349604409886, -25104.451191955948, -24770.002039671188, -11808.918334116737, 3851.4067353495047, 62830.12781502341, 28055.93199204588, -12617.000951409455, -2059.020347478431, -16009.347559135862, -18856.937450997528, 6897.256600529743, -8161.225397732902, -10174.044689422213, -7421.047380095409, 0.244, 0.906, 0.276, 192.0, 0.0, 0.0, 0.0, 0.0, 0.0, 0.0, 0.0, 0.0, 0.0, 1.6626783252940629E9, 0.0, 2022-09-08 19:05:25.294
34.0, -1243.7404684711062, 338.0254313976087, -25105.814648367723, -24776.86402521897, -11806.593752693387, 3854.5359795732475, 62874.20545508927, 28054.92616354539, -12607.099128615753, -2054.5723503318254, -16000.69743403166, -18850.276631149845, 6905.370283767019, -8152.485865650877, -10168.63556726403, -7409.625638678746, 0.244, 0.906, 0.276, 192.0, 0.0, 0.0, 0.0, 0.0, 0.0, 0.0, 0.0, 0.0, 0.0, 1.662678325294067E9, 0.0, 2022-09-08 19:05:25.294
36.0, -1250.4459918076984, 340.95350992125395, -25101.03137505429, -24772.393676327905, -11796.848392110873, 3866.4941628568367, 62805.56324786702, 28049.718207087306, -12609.758986205934, -2052.3818793752052, -16003.536105577483, -18851.483625350433, 6899.692940675372, -8160.398383188056, -10168.43440156393, -7419.974496361554, 0.244, 0.906, 0.276, 192.0, 0.0, 0.0, 0.0, 0.0, 0.0, 0.0, 0.0, 0.0, 0.0, 1.662678325294071E9, 0.0, 2022-09-08 19:05:25.294
38.0, -1258.9843581896257, 330.7834661940892, -25110.955549592443, -24784.754191011692, -11797.742461889084, 3862.2249796658734, 62866.09177185199, 28058.74831184725, -12609.088433872275, -2049.6549665516577, -16004.988968967078, -18850.83542476123, 6898.977684852802, -8163.818200089718, -10165.975709673847, -7411.749054402001, 0.244, 0.898, 0.266, 192.0, 3.5, 80.0, 14.0, 8.0, 4.0, 40.0, 0.0, 0.0, 0.0, 1.6626783252940764E9, 0.0, 2022-09-08 19:05:25.294
40.0, -1255.67630001024, 329.28589931558366, -25103.892398344567, -24773.57831878404, -11812.271095785034, 3855.0277179512645, 62812.492288648165, 28011.183799646355, -12612.329436818294, -2057.2322079220066, -16010.129870191799, -18860.26786092137, 6888.584123681084, -8141.689973078964, -10171.72010799886, -7422.500243485003, 0.244, 0.898, 0.266, 192.0, 0.0, 0.0, 0.0, 0.0, 0.0, 0.0, 0.0, 0.0, 0.0, 1.6626783252940805E9, 0.0, 2022-09-08 19:05:25.294
42.0, -1248.5907970179078, 336.52786451910316, -25103.221846010907, -24777.75809499718, -11819.20013656618, 3853.99953770632, 62862.06845785004, 28030.45100336683, -12604.729843703491, -2055.354661387761, -15999.803364253446, -18852.62356431765, 6895.60257144005, -8151.748258083851, -10162.846465450104, -7417.225231793551, 0.244, 0.898, 0.266, 192.0, 0.0, 0.0, 0.0, 0.0, 0.0, 0.0, 0.0, 0.0, 0.0, 1.6626783252940845E9, 0.0, 2022-09-08 19:05:25.294
44.0, -1257.0397564220139, 328.1906638372736, -25100.763154120825, -24777.91455720837, -11816.249706298078, 3851.2502731383174, 62826.95386731075, 28077.590832423073, -12610.20602109504, -2062.2389986799953, -16002.664387543726, -18855.797512030305, 6900.207030797843, -8157.4926564088655, -10169.037898664224, -7414.475967225549, 0.244, 0.898, 0.266, 192.0, 0.0, 0.0, 0.0, 0.0, 0.0, 0.0, 0.0, 0.0, 0.0, 1.6626783252940888E9, 0.0, 2022-09-08 19:05:25.294
46.0, -1237.8619596793603, 345.02152741211984, -25081.87593005609, -24763.69884773479, -11800.447022968177, 3866.9635494903982, 62851.361972255945, 28103.295338546675, -12607.59086699377, -2057.1428009441856, -15992.270826372007, -18849.069636949258, 6902.062225587634, -8147.590833615164, -10164.321680584155, -7405.758786887978, 0.244, 0.898, 0.266, 192.0, 0.0, 0.0, 0.0, 0.0, 0.0, 0.0, 0.0, 0.0, 0.0, 1.6626783252940931E9, 0.0, 2022-09-08 19:05:25.294
48.0, -1239.0913056244024, 341.95933842174276, -25074.00811600782, -24766.09048439151, -11790.545200174476, 3868.7293373023676, 62828.80906210054, 28076.361486478032, -12598.560762233827, -2046.2798531389062, -15978.30098608744, -18837.6478955326, 6905.571449467117, -8144.752162069341, -10152.050572878192, -7398.270952495451, 0.24, 0.904, 0.266, 192.0, 3.5, 64.0, 14.0, 32.0, 4.0, 40.0, 0.0, 0.0, 0.0, 1.6626783252940972E9, 0.0, 2022-09-08 19:05:25.294
50.0, -1231.7375816986064, 350.9670914372315, -25072.801121807235, -24762.022466900646, -11805.274999770523, 3868.0811367131637, 62830.19487025677, 28076.920280089413, -12596.25853255493, -2043.351774615261, -15977.473971542595, -18843.057017690782, 6903.448033743863, -8147.300260937245, -10150.418895532954, -7404.082406053831, 0.24, 0.904, 0.266, 192.0, 0.0, 0.0, 0.0, 0.0, 0.0, 0.0, 0.0, 0.0, 0.0, 1.6626783252941015E9, 0.0, 2022-09-08 19:05:25.294
52.0, -1234.9338811557152, 353.40343158286, -25074.85748229712, -24744.051664358576, -11802.503383458064, 3862.5379040882476, 62815.28625670508, 28063.59864039405, -12589.240084795963, -2027.25851860744, -15975.708183730625, -18833.803395486284, 6905.303228533653, -8127.317801394201, -10155.91742466896, -7391.856001836777, 0.24, 0.904, 0.266, 192.0, 0.0, 0.0, 0.0, 0.0, 0.0, 0.0, 0.0, 0.0, 0.0, 1.6626783252941055E9, 0.0, 2022-09-08 19:05:25.294
54.0, -1234.553901499975, 347.7931437245779, -25079.14901723254, -24740.72125443474, -11807.376063749321, 3867.030604723764, 62855.36293451345, 28072.539338176175, -12597.197305822052, -2044.1787891601075, -15983.01720416751, -18836.172680398548, 6914.959182138346, -8135.453836375933, -10156.140942113512, -7392.101871025786, 0.24, 0.904, 0.266, 192.0, 0.0, 0.0, 0.0, 0.0, 0.0, 0.0, 0.0, 0.0, 0.0, 1.6626783252941096E9, 0.0, 2022-09-08 19:05:25.294
56.0, -1245.1486283717904, 344.41803031182656, -25080.043087010752, -24736.00503635467, -11805.833793381906, 3875.1889914499516, 62841.214280273234, 28057.138986246468, -12600.103032601242, -2037.8308937348002, -15983.575997778893, -18832.998732685894, 6910.421778013919, -8128.301278150235, -10152.117628111557, -7381.194219731596, 0.24, 0.904, 0.266, 192.0, 0.0, 0.0, 0.0, 0.0, 0.0, 0.0, 0.0, 0.0, 0.0, 1.6626783252941139E9, 0.0, 2022-09-08 19:05:25.294
58.0, -1248.0767068954358, 340.61823375442435, -25086.323927202695, -24754.22170808574, -11809.857107383861, 3868.4387646244486, 62822.349407952956, 28057.54131764666, -12603.746366947456, -2039.6190332912247, -15985.78882047997, -18839.25722113338, 6899.22355404181, -8127.0272287162825, -10159.2478345928, -7391.297208225395, 0.241, 0.906, 0.262, 192.0, 3.5, 72.0, 14.0, 48.0, 4.0, 8.0, 0.0, 0.0, 0.0, 1.662678325294118E9, 0.0, 2022-09-08 19:05:25.294
60.0, -1244.969814416148, 345.42385881231536, -25081.04891551124, -24763.9447169238, -11813.969828363637, 3874.227866438373, 62818.504907906645, 28094.868730887025, -12609.513117016926, -2041.0048414474538, -15987.30873910293, -18841.82767174574, 6896.742510407271, -8149.893063294061, -10170.021375420258, -7400.081443796331, 0.241, 0.906, 0.262, 192.0, 0.0, 0.0, 0.0, 0.0, 0.0, 0.0, 0.0, 0.0, 0.0, 1.6626783252941222E9, 0.0, 2022-09-08 19:05:25.294
62.0, -1223.3109740389555, 366.72507127822297, -25063.972182747388, -24751.47244351774, -11801.162278790747, 3869.981034991865, 62833.65939064734, 28079.021344068213, -12590.670596441103, -2038.836722235289, -15974.836465696868, -18834.093968164205, 6908.454824501851, -8135.900871265039, -10159.851331693093, -7406.406987477182, 0.241, 0.906, 0.262, 192.0, 0.0, 0.0, 0.0, 0.0, 0.0, 0.0, 0.0, 0.0, 0.0, 1.6626783252941265E9, 0.0, 2022-09-08 19:05:25.294
64.0, -1224.428561261721, 365.4957253331811, -25071.348258417638, -24749.08080686102, -11808.225430038623, 3867.7905640352446, 62854.06653333504, 28083.13406504799, -12587.429593495082, -2027.8620157077332, -15968.756791205025, -18819.52063077934, 6905.169118066921, -8132.950440996939, -10144.652145463484, -7392.548905914892, 0.241, 0.906, 0.262, 192.0, 0.0, 0.0, 0.0, 0.0, 0.0, 0.0, 0.0, 0.0, 0.0, 1.6626783252941303E9, 0.0, 2022-09-08 19:05:25.294
66.0, -1220.2711367930337, 375.28578940460557, -25068.084903727166, -24744.901030647878, -11797.76481363354, 3870.3833663920605, 62820.58362014099, 28077.769646378714, -12588.748346417946, -2021.871748193711, -15962.297137057441, -18820.3923488131, 6922.067036875133, -8127.921298494494, -10150.597709488597, -7396.616923405758, 0.241, 0.906, 0.262, 192.0, 0.0, 0.0, 0.0, 0.0, 0.0, 0.0, 0.0, 0.0, 0.0, 1.6626783252941349E9, 0.0, 2022-09-08 19:05:25.294
68.0, -1224.1156368393465, 367.1497544228738, -25072.599956107137, -24748.834937672014, -11802.61514218034, 3869.0199099802867, 62860.74970492718, 28096.723925676815, -12588.524828973394, -2020.6200505042139, -15965.605195236827, -18816.72666272243, 6913.171042581921, -8138.873653277595, -10147.66963096495, -7387.609170390269, 0.2395, 0.909, 0.253, 192.0, 3.5, 56.0, 14.0, 64.0, 3.5, 80.0, 0.0, 0.0, 0.0, 1.662678325294139E9, 0.0, 2022-09-08 19:05:25.294
70.0, -1222.4839594941093, 368.9155422348431, -25070.14126421705, -24750.645428972894, -11793.227409509112, 3865.1307064450634, 62808.20075371275, 28089.169036050924, -12593.665730198114, -2033.6064140327471, -15969.583805749871, -18822.314598836256, 6903.805661655148, -8142.002897501337, -10163.114686383567, -7402.271914752951, 0.2395, 0.909, 0.253, 192.0, 0.0, 0.0, 0.0, 0.0, 0.0, 0.0, 0.0, 0.0, 0.0, 1.662678325294145E9, 0.0, 2022-09-08 19:05:25.294
72.0, -1230.91056715376, 354.5210188056253, -25078.21024396542, -24760.457844788772, -11803.66567416974, 3855.4076976070046, 62856.54757696958, 28092.812370397136, -12586.356709761229, -2030.16424538663, -15968.153294104732, -18818.0901191342, 6916.099121105567, -8145.936804525471, -10158.398468303498, -7394.56056291587, 0.2395, 0.909, 0.253, 192.0, 0.0, 0.0, 0.0, 0.0, 0.0, 0.0, 0.0, 0.0, 0.0, 1.6626783252941492E9, 0.0, 2022-09-08 19:05:25.294
74.0, -1237.1243521123354, 350.7435739926784, -25077.96437477641, -24759.921402921846, -11809.410072494755, 3851.652604538513, 62790.3193581485, 28075.735637633283, -12600.505364001438, -2048.380917117705, -15982.190189622665, -18836.485604820922, 6898.50829821924, -8154.922205796505, -10176.72689875685, -7413.51484221397, 0.2395, 0.909, 0.253, 192.0, 0.0, 0.0, 0.0, 0.0, 0.0, 0.0, 0.0, 0.0, 0.0, 1.6626783252941532E9, 0.0, 2022-09-08 19:05:25.294
76.0, -1235.7161922116509, 353.64930077186835, -25086.7709620918, -24764.57056576855, -11813.76866266354, 3851.5408458162365, 62847.517472209634, 28067.152567762445, -12598.046672111353, -2047.9562339730544, -15981.139657633265, -18827.902534950084, 6908.298362290664, -8157.045621519759, -10167.62973876354, -7405.155289787685, 0.2395, 0.909, 0.253, 192.0, 0.0, 0.0, 0.0, 0.0, 0.0, 0.0, 0.0, 0.0, 0.0, 1.662678325294158E9, 0.0, 2022-09-08 19:05:25.294
78.0, -1241.035907392014, 349.46952455872594, -25092.805933094733, -24765.062304146566, -11807.867802127339, 3850.043278937731, 62784.887884245865, 28075.757989377737, -12611.278904828896, -2050.638443307691, -15990.885018215778, -18835.479776320433, 6894.395577239464, -8155.413944174522, -10187.16516341748, -7420.913269628677, 0.24075, 0.9165000000000001, 0.2435, 192.0, 3.5, 72.0, 14.0, 112.0, 3.5, 40.0, 0.0, 0.0, 0.0, 1.6626783252941625E9, 0.0, 2022-09-08 19:05:25.294
80.0, -1233.0563346214694, 355.5268473061141, -25086.614499880612, -24762.693019234302, -11808.113671316347, 3864.013119222298, 62847.74098965419, 28108.235074071297, -12606.897962915655, -2044.2458443934734, -15990.92972170469, -18832.037607674316, 6890.908705104435, -8157.179731986491, -10181.085488925635, -7403.165984531162, 0.24075, 0.9165000000000001, 0.2435, 192.0, 0.0, 0.0, 0.0, 0.0, 0.0, 0.0, 0.0, 0.0, 0.0, 1.6626783252941663E9, 0.0, 2022-09-08 19:05:25.294
82.0, -1232.229320076623, 357.9631874517426, -25075.617441608603, -24759.18379535482, -11810.86293588435, 3852.9937092058312, 62758.26695659959, 28087.067972072124, -12593.419861009104, -2051.9571962305545, -15984.000680923544, -18832.417587330056, 6904.878545389002, -8145.333307425179, -10180.616102292073, -7402.584839175325, 0.24075, 0.9165000000000001, 0.2435, 192.0, 0.0, 0.0, 0.0, 0.0, 0.0, 0.0, 0.0, 0.0, 0.0, 1.6626783252941709E9, 0.0, 2022-09-08 19:05:25.294
84.0, -1218.0583140919584, 373.3411876369939, -25064.665086825502, -24750.310152806065, -11792.780374620006, 3860.839171509644, 62850.244385033184, 28095.829855898603, -12586.244951038952, -2041.742449014479, -15973.562416262916, -18818.24658134539, 6914.981533882801, -8146.003859758838, -10165.416916062464, -7396.192240261107, 0.24075, 0.9165000000000001, 0.2435, 192.0, 0.0, 0.0, 0.0, 0.0, 0.0, 0.0, 0.0, 0.0, 0.0, 1.662678325294175E9, 0.0, 2022-09-08 19:05:25.294
86.0, -1231.2905468095003, 363.6852340323012, -25073.00228750733, -24749.416083027852, -11795.753156632562, 3850.043278937731, 62807.01611125662, 28062.995143293756, -12594.805669165335, -2043.552940315359, -15974.814113952412, -18820.5935145132, 6906.89020238998, -8146.830874303684, -10156.140942113512, -7396.862792594767, 0.24075, 0.9165000000000001, 0.2435, 192.0, 0.0, 0.0, 0.0, 0.0, 0.0, 0.0, 0.0, 0.0, 0.0, 1.66267832529418E9, 0.0, 2022-09-08 19:05:25.294
88.0, -1212.71624716714, 379.4432138732927, -25069.671877583492, -24735.490946232196, -11795.641397910285, 3869.6681105694906, 62835.849861603965, 28126.85407720257, -12595.185648821074, -2039.4402193355822, -15970.902558672735, -18814.178563854526, 6913.685132704393, -8141.4664556344105, -10157.81732294766, -7384.36816744425, 0.242375, 0.92225, 0.23575000000000002, 192.0, 3.5, 80.0, 14.5, 0.0, 3.5, 16.0, 0.0, 0.0, 0.0, 1.662678325294184E9, 0.0, 2022-09-08 19:05:25.294
90.0, -1229.323593297433, 370.48016434671456, -25075.86331079761, -24743.045835858087, -11792.020415308525, 3866.784735534756, 62793.51565760561, 28107.676280459917, -12591.899942386144, -2039.8201989913225, -15969.919081916702, -18812.077499875726, 6915.093292605078, -8134.850339275639, -10165.908654440482, -7386.491583167503, 0.242375, 0.92225, 0.23575000000000002, 192.0, 0.0, 0.0, 0.0, 0.0, 0.0, 0.0, 0.0, 0.0, 0.0, 1.6626783252941883E9, 0.0, 2022-09-08 19:05:25.294
92.0, -1236.4761515231314, 361.20419039776215, -25090.90603481603, -24762.178929111833, -11797.72011014463, 3868.103488457619, 62843.896489607876, 28123.1883911119, -12598.471355256004, -2044.7152310270349, -15984.157143134731, -18820.5935145132, 6902.375150010008, -8155.570406385709, -10171.407183576488, -7394.269990237951, 0.242375, 0.92225, 0.23575000000000002, 192.0, 0.0, 0.0, 0.0, 0.0, 0.0, 0.0, 0.0, 0.0, 0.0, 1.6626783252941923E9, 0.0, 2022-09-08 19:05:25.294
94.0, -1245.1933318607012, 358.07494617401915, -25095.26462498482, -24767.163368125366, -11809.767700406039, 3851.6079010496023, 62802.09872747645, 28078.194329523365, -12601.622951224203, -2048.73854502899, -15991.846143227356, -18826.20380237148, 6906.554926223151, -8135.140911953558, -10181.174895903456, -7402.540135686414, 0.242375, 0.92225, 0.23575000000000002, 192.0, 0.0, 0.0, 0.0, 0.0, 0.0, 0.0, 0.0, 0.0, 0.0, 1.662678325294197E9, 0.0, 2022-09-08 19:05:25.294
96.0, -1231.3799537873215, 362.81351599854423, -25103.31125298873, -24770.449074560296, -11812.38285450731, 3838.4203718209715, 62817.72259685071, 28045.180802962877, -12602.785241935879, -2050.9737194745207, -15995.802401995947, -18829.109529150668, 6899.044740086168, -8148.596662115653, -10191.568457075175, -7415.168871303663, 0.242375, 0.92225, 0.23575000000000002, 192.0, 0.0, 0.0, 0.0, 0.0, 0.0, 0.0, 0.0, 0.0, 0.0, 1.6626783252942011E9, 0.0, 2022-09-08 19:05:25.294
98.0, -1242.3770120593324, 355.1021641614633, -25113.7271659049, -24782.407257843883, -11815.66856094224, 3826.5068920262925, 62767.85585497092, 28020.884456739957, -12604.193401836563, -2051.778382274912, -15997.83641074138, -18827.991941927903, 6899.156498808444, -8158.18556048698, -10199.659788567995, -7427.998772621009, 0.2431875, 0.921125, 0.228875, 192.0, 3.5, 80.0, 14.0, 96.0, 3.0, 120.0, 0.0, 0.0, 0.0, 1.6626783252942052E9, 0.0, 2022-09-08 19:05:25.294
100.0, -1228.4295235192208, 372.3353591365051, -25108.899189102554, -24775.99230718521, -11808.985389350104, 3857.5087615858033, 62769.55458754952, 28138.476984319328, -12606.987369893477, -2054.9523299875655, -15998.685777030681, -18828.52838379483, 6891.780423138192, -8157.939691297972, -10203.68310256995, -7415.727664915045, 0.2431875, 0.921125, 0.228875, 192.0, 0.0, 0.0, 0.0, 0.0, 0.0, 0.0, 0.0, 0.0, 0.0, 1.6626783252942095E9, 0.0, 2022-09-08 19:05:25.294
102.0, -1216.940726869193, 382.19247844129546, -25089.073191770698, -24764.391751812906, -11785.13607801629, 3866.985901234854, 62843.91884135233, 28109.710289205348, -12594.470392998504, -2042.5247600704147, -15987.800477480947, -18816.72666272243, 6903.55979246614, -8153.961080784927, -10175.363442345077, -7397.332179228328, 0.2431875, 0.921125, 0.228875, 192.0, 0.0, 0.0, 0.0, 0.0, 0.0, 0.0, 0.0, 0.0, 0.0, 1.6626783252942154E9, 0.0, 2022-09-08 19:05:25.294
104.0, -1210.168148299235, 383.6229900864351, -25086.59214813616, -24766.269298347153, -11787.304197228455, 3867.075308212675, 62853.23951879019, 28145.450728589385, -12581.372270747695, -2038.7920187463785, -15975.462314541617, -18810.91520916405, 6918.647219973472, -8132.838682274662, -10159.717221226361, -7393.89001058221, 0.2431875, 0.921125, 0.228875, 192.0, 0.0, 0.0, 0.0, 0.0, 0.0, 0.0, 0.0, 0.0, 0.0, 1.6626783252942195E9, 0.0, 2022-09-08 19:05:25.294
106.0, -1230.1953113311902, 370.0331294576084, -25095.19756975145, -24775.85819671848, -11803.464508469642, 3862.8955319995325, 62821.05300677455, 28118.539228265196, -12590.424727252093, -2038.2332251349958, -15985.185323379676, -18815.653778988573, 6910.354722780553, -8141.712324823418, -10165.327509084644, -7393.487679182015, 0.2431875, 0.921125, 0.228875, 192.0, 0.0, 0.0, 0.0, 0.0, 0.0, 0.0, 0.0, 0.0, 0.0, 1.6626783252942235E9, 0.0, 2022-09-08 19:05:25.294
108.0, -1220.4275990042208, 380.04671097358596, -25089.7213923599, -24768.348010581496, -11801.09522355738, 3873.9372937604544, 62824.67398937631, 28115.52174276373, -12596.146773832652, -2040.7366205139901, -15988.180457136687, -18817.956008667472, 6908.052493101656, -8139.186577699969, -10174.961110944882, -7403.456557209081, 0.24259375, 0.9225625, 0.22743750000000001, 192.0, 3.5, 72.0, 14.0, 112.0, 3.5, 8.0, 0.0, 0.0, 0.0, 1.662678325294228E9, 0.0, 2022-09-08 19:05:25.294
110.0, -1227.2448810630897, 369.8990189908766, -25088.022659781298, -24767.05160940309, -11810.102976572869, 3857.039374952242, 62848.52330071012, 28089.683126173393, -12600.862991912723, -2032.0417919208758, -15991.712032760624, -18811.362244053154, 6901.235211042787, -8137.4207898879995, -10168.769677730761, -7399.187374018118, 0.24259375, 0.9225625, 0.22743750000000001, 192.0, 0.0, 0.0, 0.0, 0.0, 0.0, 0.0, 0.0, 0.0, 0.0, 1.6626783252942321E9, 0.0, 2022-09-08 19:05:25.294
112.0, -1222.0816280939137, 372.24595215868385, -25084.245214968352, -24762.558908767573, -11799.999988079071, 3865.2201134228844, 62790.967558737706, 28084.89985285996, -12600.214791323519, -2034.2993181108618, -15985.654710013237, -18813.709177220964, 6906.17494656741, -8135.297374164746, -10177.352747601599, -7407.144595044208, 0.24259375, 0.9225625, 0.22743750000000001, 192.0, 0.0, 0.0, 0.0, 0.0, 0.0, 0.0, 0.0, 0.0, 0.0, 1.6626783252942364E9, 0.0, 2022-09-08 19:05:25.294
114.0, -1227.6025089743746, 372.4694696032369, -25082.032392267276, -24761.173100611344, -11806.280828271012, 3865.9577209899094, 62847.04808557607, 28068.94070731887, -12603.276980313896, -2044.0223269489202, -15993.455468828139, -18817.598380756186, 6898.865926130525, -8152.105885995136, -10172.927102199448, -7405.982304332531, 0.24259375, 0.9225625, 0.22743750000000001, 192.0, 0.0, 0.0, 0.0, 0.0, 0.0, 0.0, 0.0, 0.0, 0.0, 1.6626783252942407E9, 0.0, 2022-09-08 19:05:25.294
116.0, -1228.943613641693, 376.0681004605413, -25083.44055216796, -24760.971934911246, -11806.929028860215, 3874.6749013274793, 62809.4748031467, 28077.635535911984, -12607.032073382386, -2042.256539136951, -15991.086183915877, -18812.233962086913, 6914.847423416069, -8138.426618388488, -10170.379003331544, -7408.999789833998, 0.24259375, 0.9225625, 0.22743750000000001, 192.0, 0.0, 0.0, 0.0, 0.0, 0.0, 0.0, 0.0, 0.0, 0.0, 1.6626783252942448E9, 0.0, 2022-09-08 19:05:25.294
118.0, -1227.4683985076426, 377.1856876833067, -25080.512473644314, -24756.23336508672, -11794.009720565047, 3870.6962908144346, 62859.63211770441, 28111.163152594945, -12609.423710039106, -2036.7803617454008, -15995.377718851296, -18810.646988230586, 6904.655027944449, -8141.689973078964, -10170.53546554273, -7402.22721126404, 0.246296875, 0.92328125, 0.23971875, 192.0, 3.5, 104.0, 14.0, 112.0, 3.5, 112.0, 0.0, 0.0, 0.0, 1.662678325294249E9, 0.0, 2022-09-08 19:05:25.294
120.0, -1225.389686273299, 377.208039427762, -25081.33948818916, -24752.880603418424, -11797.876572355815, 3876.775965306278, 62775.3660411079, 28095.718097176326, -12605.847430926256, -2033.5617105438366, -15991.64497752726, -18807.00365388437, 6909.103025091055, -8127.183690927469, -10172.301253354699, -7405.803490376889, 0.246296875, 0.92328125, 0.23971875, 192.0, 0.0, 0.0, 0.0, 0.0, 0.0, 0.0, 0.0, 0.0, 0.0, 1.6626783257739422E9, 0.0, 2022-09-08 19:05:25.773
122.0, -1225.1438170842907, 369.9437224797872, -25078.545520132247, -24757.12743486493, -11804.76090964805, 3875.725433316879, 62881.559179015065, 28114.94059740789, -12611.770643206912, -2034.8357599777892, -16000.362157864829, -18813.77623245433, 6906.778443667704, -8135.207967186924, -10166.780372474239, -7399.880278096232, 0.246296875, 0.92328125, 0.23971875, 192.0, 0.0, 0.0, 0.0, 0.0, 0.0, 0.0, 0.0, 0.0, 0.0, 1.662678325774013E9, 0.0, 2022-09-08 19:05:25.774
124.0, -1226.6637357072516, 372.84944925897713, -25074.85748229712, -24748.365551038452, -11795.797860121473, 3880.1957822079403, 62828.071454533514, 28074.79686436616, -12615.324570575307, -2043.1059054262528, -15998.73048051959, -18814.916171421548, 6915.249754816265, -8142.651098090541, -10158.331413070133, -7401.8472316083, 0.246296875, 0.92328125, 0.23971875, 192.0, 0.0, 0.0, 0.0, 0.0, 0.0, 0.0, 0.0, 0.0, 0.0, 1.6626783257740648E9, 0.0, 2022-09-08 19:05:25.774
126.0, -1232.4528375211762, 368.80378351256655, -25081.54065388926, -24758.51324302116, -11797.451889211165, 3872.976168748876, 62847.96450709874, 28058.88242231398, -12607.009721637933, -2036.1098094117415, -15998.73048051959, -18808.501220762875, 6904.744434922271, -8129.5529758397315, -10161.192436360412, -7398.181545517629, 0.246296875, 0.92328125, 0.23971875, 192.0, 0.0, 0.0, 0.0, 0.0, 0.0, 0.0, 0.0, 0.0, 0.0, 1.6626783257740912E9, 0.0, 2022-09-08 19:05:25.774
128.0, -1233.7045352106734, 365.2275043997174, -25071.839996795654, -24752.120644106944, -11798.167145033734, 3871.836229781655, 62805.58559961148, 28060.491747914763, -12618.610277010237, -2043.6199955487248, -16002.686739288181, -18821.979322669427, 6910.242964058276, -8144.439237646966, -10171.29542485421, -7413.827766636345, 0.246296875, 0.92328125, 0.23971875, 192.0, 0.0, 0.0, 0.0, 0.0, 0.0, 0.0, 0.0, 0.0, 0.0, 1.6626783257740972E9, 0.0, 2022-09-08 19:05:25.774
130.0, -1231.067029364947, 367.3956236118822, -25072.599956107137, -24755.205184841776, -11809.208906794656, 3865.5106861008035, 62892.01979542015, 28033.960227246313, -12616.844489198267, -2046.1457426721745, -16005.16778292272, -18818.53715402331, 6913.439263515385, -8143.299298679745, -10163.673479994952, -7405.647028165702, 0.25, 0.916, 0.262, 192.0, 3.5, 104.0, 14.0, 80.0, 4.0, 24.0, 0.0, 0.0, 0.0, 1.662678325774103E9, 0.0, 2022-09-08 19:05:25.774
132.0, -1234.3974392887878, 364.66871078833475, -25065.58150834817, -24752.388865040408, -11805.81144163745, 3866.5165146012923, 62813.45341365974, 28022.002043962726, -12618.92320143261, -2041.5412833143812, -16005.950093978656, -18818.179526112024, 6916.389693783485, -8144.819217302706, -10175.877532467548, -7414.341856758816, 0.25, 0.916, 0.262, 192.0, 0.0, 0.0, 0.0, 0.0, 0.0, 0.0, 0.0, 0.0, 0.0, 1.662678325774109E9, 0.0, 2022-09-08 19:05:25.774
134.0, -1226.5966804738857, 377.2303911722173, -25054.20447042042, -24747.024446371135, -11804.38092999231, 3879.972264763387, 62870.56212074305, 28070.527681175197, -12619.68316074409, -2036.221568134018, -16009.727538791603, -18813.552715009777, 6913.059283859645, -8139.186577699969, -10170.513113798275, -7401.824879863844, 0.25, 0.916, 0.262, 192.0, 0.0, 0.0, 0.0, 0.0, 0.0, 0.0, 0.0, 0.0, 0.0, 1.6626783257741215E9, 0.0, 2022-09-08 19:05:25.774
136.0, -1228.161302585757, 376.5598388385581, -25038.58060104616, -24733.90397237587, -11795.57434267692, 3891.729282346879, 62825.8809835769, 28061.40816943743, -12617.939724676577, -2035.0816291667975, -16001.792669509969, -18806.489563761897, 6912.791062926181, -8134.336249153167, -10166.623910263052, -7400.126147285241, 0.25, 0.916, 0.262, 192.0, 0.0, 0.0, 0.0, 0.0, 0.0, 0.0, 0.0, 0.0, 0.0, 1.662678325774129E9, 0.0, 2022-09-08 19:05:25.774
138.0, -1219.4217705037322, 381.6336848299128, -25032.76914748778, -24721.65521641436, -11799.86587761234, 3890.8352125686665, 62864.81772241804, 28072.27111724271, -12613.581134507793, -2035.0369256778868, -15995.64593978476, -18797.34770027968, 6917.574336239617, -8127.653077561031, -10157.906729925482, -7393.13005127073, 0.25, 0.916, 0.262, 192.0, 0.0, 0.0, 0.0, 0.0, 0.0, 0.0, 0.0, 0.0, 0.0, 1.662678325774135E9, 0.0, 2022-09-08 19:05:25.774
140.0, -1216.1807675577127, 383.3547691529714, -25029.28227535275, -24704.3326144615, -11789.248798996068, 3897.853660327633, 62823.332884708994, 28122.964873667348, -12615.324570575307, -2043.1059054262528, -16003.536105577483, -18804.880238161117, 6911.360551281042, -8135.1856154424695, -10166.668613751963, -7391.207801247573, 0.272, 0.9480000000000001, 0.28400000000000003, 192.0, 4.0, 64.0, 14.5, 80.0, 4.0, 112.0, 0.0, 0.0, 0.0, 1.6626783257741408E9, 0.0, 2022-09-08 19:05:25.774
142.0, -1208.648229676274, 394.57534486953557, -25050.091749440642, -24711.060489542546, -11785.828982094406, 3894.880878315077, 62875.68067022332, 28123.99305391229, -12602.002930879944, -2023.391666816672, -15991.01912868251, -18803.226209071425, 6913.953353637857, -8121.953382724927, -10153.257567078777, -7372.767612071945, 0.272, 0.9480000000000001, 0.28400000000000003, 192.0, 0.0, 0.0, 0.0, 0.0, 0.0, 0.0, 0.0, 0.0, 0.0, 1.6626783257741468E9, 0.0, 2022-09-08 19:05:25.774
144.0, -1225.3226310399332, 379.01853072864185, -25066.073246726188, -24723.711576904247, -11787.818287350929, 3889.6729218569903, 62877.580568502024, 28110.649062472472, -12614.765776963923, -2039.4625710800376, -15999.535143319983, -18821.77815696933, 6909.013618113234, -8137.08551372117, -10154.889244424015, -7386.715100612057, 0.272, 0.9480000000000001, 0.28400000000000003, 192.0, 0.0, 0.0, 0.0, 0.0, 0.0, 0.0, 0.0, 0.0, 0.0, 1.6626783257741528E9, 0.0, 2022-09-08 19:05:25.774
146.0, -1226.0825903514137, 376.0233969716307, -25076.220938708895, -24736.161498565853, -11799.62000842333, 3890.2093637239177, 62909.36474911747, 28121.243789344288, -12619.236125854984, -2049.520856084926, -16003.513753833027, -18830.517689051354, 6902.598667454561, -8158.722002353908, -10160.074849137647, -7391.27485648094, 0.272, 0.9480000000000001, 0.28400000000000003, 192.0, 0.0, 0.0, 0.0, 0.0, 0.0, 0.0, 0.0, 0.0, 0.0, 1.6626783257741587E9, 0.0, 2022-09-08 19:05:25.774
148.0, -1237.906663168271, 362.3664811094381, -25092.62711913909, -24747.382074282417, -11810.617066695342, 3875.5019158723258, 62887.21417036226, 28099.584948967095, -12617.269172342918, -2054.460591609549, -16005.883038745289, -18839.50309032239, 6911.695827447871, -8137.107865465626, -10159.069020637158, -7391.7665948589565, 0.272, 0.9480000000000001, 0.28400000000000003, 192.0, 0.0, 0.0, 0.0, 0.0, 0.0, 0.0, 0.0, 0.0, 0.0, 1.662678325774165E9, 0.0, 2022-09-08 19:05:25.774
150.0, -1217.231299547112, 389.5462023670915, -25079.953680032933, -24731.80290839707, -11798.368310733833, 3896.95959054942, 62898.32298735654, 28120.372071310532, -12620.018436910921, -2050.8843124966997, -15998.819887497413, -18838.273744377344, 6904.006827355245, -8146.406191159033, -10160.00779390428, -7394.694673382602, 0.252, 0.918, 0.296, 192.0, 3.5, 112.0, 14.0, 88.0, 4.5, 32.0, 0.0, 0.0, 0.0, 1.6626783257741704E9, 0.0, 2022-09-08 19:05:25.774
152.0, -1216.583098957908, 392.85426054647695, -25076.265642197806, -24728.114870561945, -11799.374139234322, 3887.549506133736, 62897.25010362269, 28098.445009999876, -12609.49076527247, -2030.4548180645488, -15980.647919255249, -18816.570200511243, 6907.940734379379, -8133.106903208126, -10144.62979371903, -7384.971664544543, 0.252, 0.918, 0.296, 192.0, 0.0, 0.0, 0.0, 0.0, 0.0, 0.0, 0.0, 0.0, 0.0, 1.6626783257741764E9, 0.0, 2022-09-08 19:05:25.774
154.0, -1224.2720990505338, 384.5170598646474, -25078.746685832346, -24735.51329797665, -11809.365369005844, 3874.451383882926, 62897.04893792259, 28092.74531516377, -12613.961114163532, -2036.3109751118393, -15987.889884458767, -18826.472023304945, 6892.987417338779, -8142.13700796807, -10154.196340345901, -7398.382711217727, 0.252, 0.918, 0.296, 192.0, 0.0, 0.0, 0.0, 0.0, 0.0, 0.0, 0.0, 0.0, 0.0, 1.662678325774182E9, 0.0, 2022-09-08 19:05:25.774
156.0, -1220.6734681932294, 383.6229900864351, -25059.881813512067, -24721.677568158815, -11804.425633481222, 3878.2064769514177, 62903.240371136715, 28096.098076832066, -12616.151585120153, -2039.6637367801354, -15988.269864114507, -18829.40010182859, 6891.467498715819, -8142.449932390444, -10150.888282166516, -7398.539173428914, 0.252, 0.918, 0.296, 192.0, 0.0, 0.0, 0.0, 0.0, 0.0, 0.0, 0.0, 0.0, 0.0, 1.6626783257741883E9, 0.0, 2022-09-08 19:05:25.774
158.0, -1222.1263315828244, 382.9971412416865, -25051.142281430042, -24726.393786238885, -11805.252648026068, 3892.9586282919204, 62901.273417624645, 28101.686012945895, -12616.084529886786, -2044.1787891601075, -15987.196980380653, -18832.23877337441, 6895.98255109579, -8141.935842267972, -10138.997154116292, -7392.325388470339, 0.252, 0.918, 0.296, 192.0, 0.0, 0.0, 0.0, 0.0, 0.0, 0.0, 0.0, 0.0, 0.0, 1.6626783257741945E9, 0.0, 2022-09-08 19:05:25.774
160.0, -1227.4683985076426, 377.38685338340446, -25047.94598197293, -24732.361702008453, -11804.470336970131, 3890.72345384639, 62916.18203117634, 28090.66660292943, -12612.977637407499, -2050.0572979518533, -15987.085221658377, -18829.6459710176, 6900.609362198039, -8149.8036563162395, -10125.653162676474, -7382.401213932182, 0.262, 0.9380000000000001, 0.32, 192.0, 4.0, 24.0, 14.5, 40.0, 5.0, 0.0, 0.0, 0.0, 0.0, 1.6626783257742E9, 0.0, 2022-09-08 19:05:25.774
162.0, -1224.0485816059806, 379.28675166210553, -25056.48434835486, -24733.613399697948, -11797.161316533246, 3886.00723576632, 62873.26668182215, 28082.687030158882, -12608.59669549426, -2048.7608967734454, -15983.68775650117, -18830.160061140068, 6901.570487209617, -8124.255612403824, -10127.664819677451, -7384.658740122169, 0.262, 0.9380000000000001, 0.32, 192.0, 0.0, 0.0, 0.0, 0.0, 0.0, 0.0, 0.0, 0.0, 0.0, 1.6626783257742293E9, 0.0, 2022-09-08 19:05:25.774
164.0, -1234.553901499975, 368.02147245663076, -25076.91384278701, -24744.74456843669, -11807.286656771501, 3876.91007577301, 62912.337531130026, 28065.967925306315, -12623.125329390208, -2060.7637835459454, -16005.21248641163, -18843.369942113157, 6893.121527805511, -8139.99124050036, -10143.065171607157, -7392.995940803999, 0.262, 0.9380000000000001, 0.32, 192.0, 0.0, 0.0, 0.0, 0.0, 0.0, 0.0, 0.0, 0.0, 0.0, 1.6626783257742364E9, 0.0, 2022-09-08 19:05:25.774
166.0, -1222.5063112385644, 379.5549725955692, -25067.950793260432, -24731.758204908157, -11794.210886265146, 3885.716663088401, 62864.929481140316, 28058.144814746956, -12617.73855897648, -2048.1126961842415, -15995.243608384564, -18839.190165900014, 6896.675455173905, -8131.296411907246, -10138.706581438373, -7394.046472793398, 0.262, 0.9380000000000001, 0.32, 192.0, 0.0, 0.0, 0.0, 0.0, 0.0, 0.0, 0.0, 0.0, 0.0, 1.6626783257742443E9, 0.0, 2022-09-08 19:05:25.774
168.0, -1223.6238984613299, 379.2420481731949, -25070.7671130618, -24738.128452077923, -11794.613217665341, 3876.708910072912, 62896.62425477794, 28042.208020950322, -12611.301256573352, -2046.771591516923, -15991.73438450508, -18836.932639710027, 6893.926190605902, -8135.61029858712, -10129.72118016734, -7389.8890483247105, 0.262, 0.9380000000000001, 0.32, 192.0, 0.0, 0.0, 0.0, 0.0, 0.0, 0.0, 0.0, 0.0, 0.0, 1.6626783257742505E9, 0.0, 2022-09-08 19:05:25.774
170.0, -1213.6997239231735, 382.5724580970357, -25061.312325157207, -24733.546344464583, -11807.353712004866, 3879.9275612744764, 62850.020867588624, 28030.540410344653, -12614.743425219469, -2049.8561322517553, -15986.884055958279, -18841.045360689805, 6905.683208189394, -8133.397475886045, -10135.510281981264, -7401.0425688079085, 0.27, 0.928, 0.316, 192.0, 4.0, 56.0, 14.5, 0.0, 4.5, 112.0, 0.0, 0.0, 0.0, 1.6626783257742565E9, 0.0, 2022-09-08 19:05:25.774
172.0, -1208.8940988652826, 389.1885744558066, -25060.57471759018, -24727.958408350758, -11810.95234286217, 3884.1520409765294, 62908.58243806153, 28049.137061731468, -12609.043730383364, -2045.5645973163364, -15977.943358176157, -18833.982209441925, 6914.221574571321, -8125.730827537875, -10122.1886422859, -7384.189353488608, 0.27, 0.928, 0.316, 192.0, 0.0, 0.0, 0.0, 0.0, 0.0, 0.0, 0.0, 0.0, 0.0, 1.6626783257742624E9, 0.0, 2022-09-08 19:05:25.774
174.0, -1212.7609506560507, 389.5462023670915, -25055.43381636546, -24719.95648383576, -11815.24387779759, 3890.231715468373, 62849.260908277145, 28049.427634409385, -12613.849355441256, -2043.709402526546, -15978.837427954368, -18836.709122265474, 6897.055434829645, -8138.314859666212, -10129.564717956153, -7390.336083213817, 0.27, 0.928, 0.316, 192.0, 0.0, 0.0, 0.0, 0.0, 0.0, 0.0, 0.0, 0.0, 0.0, 1.6626783257742684E9, 0.0, 2022-09-08 19:05:25.774
176.0, -1220.2711367930337, 382.88538251941, -25062.541671102248, -24727.578428695015, -11812.047578340482, 3889.494107901348, 62913.388063119426, 28067.130216017988, -12607.9261431606, -2033.7181727550237, -15977.697488987147, -18832.73051175243, 6905.571449467117, -8131.654039818531, -10120.355799240566, -7369.5266091259255, 0.27, 0.928, 0.316, 192.0, 0.0, 0.0, 0.0, 0.0, 0.0, 0.0, 0.0, 0.0, 0.0, 1.6626783257742753E9, 0.0, 2022-09-08 19:05:25.774
178.0, -1219.9805641151147, 382.3265889080273, -25064.15099670303, -24734.32865552052, -11806.504345715564, 3882.229790953373, 62857.82162640353, 28049.36057917602, -12616.106881631242, -2045.2293211495069, -15986.615835024815, -18848.264974148868, 6895.535516206684, -8131.005839229327, -10134.52680522523, -7388.413833190661, 0.27, 0.928, 0.316, 192.0, 0.0, 0.0, 0.0, 0.0, 0.0, 0.0, 0.0, 0.0, 0.0, 1.6626783257742853E9, 0.0, 2022-09-08 19:05:25.774
180.0, -1221.2546135490672, 383.19830694178427, -25072.421142151492, -24749.70665570577, -11810.639418439796, 3882.1403839755517, 62922.462871368276, 28059.821195581102, -12611.16714610662, -2036.6462512786688, -15982.860741956323, -18842.78879675732, 6903.850365144059, -8133.598641586143, -10133.744494169296, -7386.670397123146, 0.256, 0.916, 0.28400000000000003, 192.0, 4.0, 0.0, 14.0, 80.0, 4.0, 112.0, 0.0, 0.0, 0.0, 1.6626783257742991E9, 0.0, 2022-09-08 19:05:25.774
182.0, -1212.3139157669445, 387.0651587325524, -25073.359915418616, -24751.047760373087, -11812.047578340482, 3867.231770423862, 62852.39015250089, 28023.656073052418, -12616.196288609062, -2046.4139636056382, -15987.621663525304, -18850.008410216382, 6910.332371036097, -8135.699705564941, -10149.927157154938, -7405.982304332531, 0.256, 0.916, 0.28400000000000003, 192.0, 0.0, 0.0, 0.0, 0.0, 0.0, 0.0, 0.0, 0.0, 0.0, 1.662678325774305E9, 0.0, 2022-09-08 19:05:25.774
184.0, -1210.4363692326988, 389.5014988781809, -25076.39975266454, -24748.924344649833, -11825.190404080202, 3876.19481995044, 62900.98284494673, 28054.68029435638, -12604.7745471924, -2042.7929810038784, -15984.313605345918, -18841.805320001284, 6908.432472757397, -8142.1146562236145, -10151.000040888792, -7399.187374018118, 0.256, 0.916, 0.28400000000000003, 192.0, 0.0, 0.0, 0.0, 0.0, 0.0, 0.0, 0.0, 0.0, 0.0, 1.6626783257743108E9, 0.0, 2022-09-08 19:05:25.774
186.0, -1211.710418666651, 385.58994359850215, -25079.43958991046, -24751.293629562097, -11824.743369191096, 3861.5767790766695, 62845.10348380846, 28022.717299785294, -12600.594770979258, -2055.734641043501, -15984.671233257204, -18850.187224172023, 6903.470385488318, -8146.786170814774, -10157.3479363141, -7408.150423544696, 0.256, 0.916, 0.28400000000000003, 192.0, 0.0, 0.0, 0.0, 0.0, 0.0, 0.0, 0.0, 0.0, 0.0, 1.6626783257743163E9, 0.0, 2022-09-08 19:05:25.774
188.0, -1200.9145260947378, 385.0758534760301, -25076.064476497708, -24751.47244351774, -11809.186555050203, 3867.7682122907895, 62903.30742637008, 28049.047654753645, -12592.548142975349, -2056.6510625661685, -15981.385526822272, -18851.953011983995, 6896.451937729352, -8147.769647570807, -10154.755133957284, -7405.937600843621, 0.256, 0.916, 0.28400000000000003, 192.0, 0.0, 0.0, 0.0, 0.0, 0.0, 0.0, 0.0, 0.0, 0.0, 1.6626783257743223E9, 0.0, 2022-09-08 19:05:25.774
190.0, -1208.5364709539977, 383.82415578653286, -25074.43279915247, -24749.237269072208, -11803.889191614295, 3867.1200117015856, 62881.849751692986, 28073.187538765378, -12585.105012071732, -2055.2429026654845, -15978.658613998727, -18852.332991639734, 6903.760958166237, -8140.125350967092, -10143.132226840524, -7398.136842028719, 0.256, 0.918, 0.252, 192.0, 4.0, 0.0, 14.0, 88.0, 3.5, 112.0, 0.0, 0.0, 0.0, 1.6626783257743285E9, 0.0, 2022-09-08 19:05:25.774
192.0, -1212.71624716714, 382.50540286366976, -25091.934215060977, -24765.33052508003, -11833.974639651136, 3861.554427332214, 62932.63291509544, 28068.27015498521, -12582.623968437192, -2059.1991614340736, -15982.011375667022, -18854.67992480754, 6900.676417431405, -8148.775476071296, -10146.417933275454, -7403.970647331554, 0.256, 0.918, 0.252, 192.0, 0.0, 0.0, 0.0, 0.0, 0.0, 0.0, 0.0, 0.0, 0.0, 1.662678325774334E9, 0.0, 2022-09-08 19:05:25.774
194.0, -1201.8756511063161, 396.0058565146752, -25081.384191678073, -24750.220745828243, -11815.735616175607, 3859.6992325424235, 62903.530943814636, 28058.88242231398, -12583.786259148868, -2056.6287108217134, -15985.699413502147, -18857.384485886632, 6908.723045435316, -8142.5840428571755, -10150.687116466417, -7406.451690966093, 0.256, 0.918, 0.252, 192.0, 0.0, 0.0, 0.0, 0.0, 0.0, 0.0, 0.0, 0.0, 0.0, 1.6626783257743397E9, 0.0, 2022-09-08 19:05:25.774
196.0, -1203.1497005402687, 392.6307431019239, -25097.74566861936, -24761.41896980035, -11820.63064821132, 3851.8314184941555, 62908.67184503935, 28036.575381347586, -12582.109878314719, -2050.8843124966997, -15980.245587855052, -18850.030761960836, 6913.707484448849, -8140.617089345109, -10145.00977337477, -7399.656760651679, 0.256, 0.918, 0.252, 192.0, 0.0, 0.0, 0.0, 0.0, 0.0, 0.0, 0.0, 0.0, 0.0, 1.6626783257743456E9, 0.0, 2022-09-08 19:05:25.774
198.0, -1206.5471656974753, 391.04376924559705, -25093.655299384034, -24757.686228476316, -11820.138909833302, 3856.9946714633315, 62912.22577240775, 28049.74055883176, -12598.739576189468, -2057.5004288554705, -15994.684814773182, -18860.02199173236, 6899.55883020864, -8150.295394694257, -10168.143828886012, -7417.739321916023, 0.256, 0.918, 0.252, 192.0, 0.0, 0.0, 0.0, 0.0, 0.0, 0.0, 0.0, 0.0, 0.0, 1.662678325774353E9, 0.0, 2022-09-08 19:05:25.774
200.0, -1185.5588776539419, 410.64624913290135, -25077.070304998197, -24744.00696086967, -11814.170994063736, 3876.9547792619205, 62911.57757181855, 28102.289510046186, -12580.187628291564, -2040.0213646914203, -15978.904483187735, -18839.234869388925, 6913.394560026474, -8129.418865373, -10149.211901332368, -7392.995940803999, 0.259, 0.915, 0.23299999999999998, 192.0, 4.0, 24.0, 14.0, 64.0, 3.0, 88.0, 0.0, 0.0, 0.0, 1.6626783257743711E9, 0.0, 2022-09-08 19:05:25.774
202.0, -1200.623953416819, 392.4295774018261, -25090.503703415838, -24758.289725576607, -11810.505307973064, 3862.0908691991413, 62928.02845573765, 28056.893117057458, -12576.141962545153, -2040.960137958543, -15984.559474534926, -18841.179471156534, 6909.393597768974, -8132.0787229631815, -10150.329488555133, -7395.767557116456, 0.259, 0.915, 0.23299999999999998, 192.0, 0.0, 0.0, 0.0, 0.0, 0.0, 0.0, 0.0, 0.0, 0.0, 1.662678325774377E9, 0.0, 2022-09-08 19:05:25.774
204.0, -1197.9864475710926, 398.26338270466124, -25088.380287692584, -24761.24015584471, -11808.851278883372, 3865.5777413341693, 62935.00220000771, 28077.50142544525, -12580.321738758295, -2036.288623367384, -15989.968596693112, -18849.002581715893, 6913.79689142667, -8141.555862612232, -10156.878549680538, -7410.117377056763, 0.259, 0.915, 0.23299999999999998, 192.0, 0.0, 0.0, 0.0, 0.0, 0.0, 0.0, 0.0, 0.0, 0.0, 1.662678325774383E9, 0.0, 2022-09-08 19:05:25.774
206.0, -1211.0622180774474, 387.89217327739874, -25086.39098243606, -24765.598746013493, -11817.456700498666, 3874.9654740053984, 62977.47051447279, 28145.33896986711, -12587.139020817163, -2042.5918153037805, -15995.422422340205, -18851.43892186152, 6911.584068725595, -8134.872691020095, -10148.451942020887, -7396.102833283286, 0.259, 0.915, 0.23299999999999998, 192.0, 0.0, 0.0, 0.0, 0.0, 0.0, 0.0, 0.0, 0.0, 0.0, 1.662678325774389E9, 0.0, 2022-09-08 19:05:25.774
208.0, -1197.2711917485228, 403.69485660730084, -25074.142226474552, -24758.93792616581, -11802.168107291236, 3887.0577677557194, 62949.32966820356, 28121.735527722303, -12585.663805683114, -2035.26044312244, -15990.169762393209, -18846.58859331472, 6918.960144395846, -8139.030115488782, -10142.193453573402, -7397.4662896950595, 0.259, 0.915, 0.23299999999999998, 192.0, 0.0, 0.0, 0.0, 0.0, 0.0, 0.0, 0.0, 0.0, 0.0, 1.6626783257744043E9, 0.0, 2022-09-08 19:05:25.774
210.0, -1196.5335841814976, 407.4499496757924, -25068.95662176092, -24758.446187787795, -11806.169069548736, 3889.2258869678844, 62998.101174605035, 28105.50816124775, -12581.998119592443, -2023.2799080943953, -15985.453544313139, -18839.63720078912, 6932.348839324575, -8143.0534294907375, -10136.270241292745, -7391.967760559054, 0.2515, 0.9125000000000001, 0.2195, 192.0, 3.5, 80.0, 14.0, 56.0, 3.0, 56.0, 0.0, 0.0, 0.0, 1.6626783257744217E9, 0.0, 2022-09-08 19:05:25.774
212.0, -1193.3149329799335, 409.66277237686785, -25065.357990903616, -24757.1944900983, -11812.181688807214, 3886.4095671665154, 62971.36848823649, 28103.138876335488, -12585.842619638755, -2022.0282104048981, -15982.68192800068, -18838.698427521995, 6921.910574663946, -8126.759007782818, -10139.86887215005, -7390.447841936093, 0.2515, 0.9125000000000001, 0.2195, 192.0, 0.0, 0.0, 0.0, 0.0, 0.0, 0.0, 0.0, 0.0, 0.0, 1.6626783257744272E9, 0.0, 2022-09-08 19:05:25.774
214.0, -1205.720151152629, 402.13023449542936, -25066.609688593115, -24762.80477795658, -11825.503328502577, 3877.5806281066693, 63021.54815453866, 28096.768629165726, -12594.358634276228, -2028.130236641197, -15995.891808973767, -18845.87333749215, 6907.337237279086, -8142.069952734703, -10145.702677452884, -7394.515859426959, 0.2515, 0.9125000000000001, 0.2195, 192.0, 0.0, 0.0, 0.0, 0.0, 0.0, 0.0, 0.0, 0.0, 0.0, 1.6626783257744331E9, 0.0, 2022-09-08 19:05:25.774
216.0, -1211.196328544179, 390.99906575668643, -25065.134473459064, -24767.409237314372, -11826.129177347324, 3862.694366299435, 62967.188712023344, 28090.979527351803, -12599.276018056396, -2034.7016495110572, -15999.26692238652, -18853.472930606953, 6913.46161525984, -8140.862958534117, -10151.804703689182, -7406.027007821443, 0.2515, 0.9125000000000001, 0.2195, 192.0, 0.0, 0.0, 0.0, 0.0, 0.0, 0.0, 0.0, 0.0, 0.0, 1.662678325774439E9, 0.0, 2022-09-08 19:05:25.774
218.0, -1211.3527907553662, 393.0107227576641, -25064.82154903669, -24765.419932057852, -11814.215697552645, 3872.0597472262084, 63032.52286106621, 28083.581099937095, -12607.747329204956, -2032.6005855322583, -16002.060890443432, -18854.00937247388, 6907.516051234728, -8147.4567231484325, -10141.612308217564, -7402.473080453048, 0.2515, 0.9125000000000001, 0.2195, 192.0, 0.0, 0.0, 0.0, 0.0, 0.0, 0.0, 0.0, 0.0, 0.0, 1.6626783257744446E9, 0.0, 2022-09-08 19:05:25.774
220.0, -1206.8600901198495, 398.33043793802716, -25061.58054609067, -24757.015676142655, -11808.71716841664, 3879.10054672963, 62936.94680177532, 28103.89883564697, -12612.7764717074, -2031.4606465650377, -16005.771280023013, -18858.39031438712, 6893.702673161349, -8143.165188213014, -10151.715296711362, -7407.368112488761, 0.24675, 0.9212500000000001, 0.22175, 192.0, 3.5, 72.0, 14.5, 8.0, 3.5, 0.0, 0.0, 0.0, 0.0, 1.6626783257744503E9, 0.0, 2022-09-08 19:05:25.774
222.0, -1213.6997239231735, 389.70266457827864, -25063.86042402511, -24757.216841842754, -11817.277886543023, 3879.4134711520046, 63013.836802701575, 28099.51789373373, -12601.667654713114, -2033.1370273991856, -15999.892771231267, -18850.746017783407, 6913.193394326377, -8136.146740454047, -10135.510281981264, -7392.973589059543, 0.24675, 0.9212500000000001, 0.22175, 192.0, 0.0, 0.0, 0.0, 0.0, 0.0, 0.0, 0.0, 0.0, 0.0, 1.6626783257744563E9, 0.0, 2022-09-08 19:05:25.774
224.0, -1212.2692122780338, 395.2906006921054, -25056.305534399216, -24747.694998704792, -11811.779357407017, 3883.325026431683, 62883.63789124941, 28088.677297672904, -12606.987369893477, -2046.9057019836548, -16001.680910787692, -18856.691581808518, 6902.352798265553, -8141.80173180124, -10149.256604821278, -7396.974551317043, 0.24675, 0.9212500000000001, 0.22175, 192.0, 0.0, 0.0, 0.0, 0.0, 0.0, 0.0, 0.0, 0.0, 0.0, 1.6626783257744617E9, 0.0, 2022-09-08 19:05:25.774
226.0, -1188.7998805999614, 414.2001765012952, -25036.8595167231, -24721.252885014164, -11767.746420830063, 3915.86916635861, 63085.38473670301, 28157.85594676208, -12593.978654620489, -2019.8824429371887, -15986.30291060244, -18835.01038968687, 6915.629734472005, -8110.308123863712, -10105.313075222144, -7361.032946232909, 0.24675, 0.9212500000000001, 0.22175, 192.0, 0.0, 0.0, 0.0, 0.0, 0.0, 0.0, 0.0, 0.0, 0.0, 1.6626783257744677E9, 0.0, 2022-09-08 19:05:25.774
228.0, -1190.588020156386, 413.5966794010019, -25045.464938338395, -24724.85151587147, -11788.622950151319, 3900.871145829099, 63022.53163129469, 28122.651949244973, -12580.366442247207, -2006.449044519549, -15974.434134296673, -18819.96766566845, 6941.982441184812, -8100.383949325556, -10089.3315779366, -7353.031021717909, 0.24675, 0.9212500000000001, 0.22175, 192.0, 0.0, 0.0, 0.0, 0.0, 0.0, 0.0, 0.0, 0.0, 0.0, 1.6626783257744737E9, 0.0, 2022-09-08 19:05:25.774
230.0, -1193.7396161245842, 403.1807664848288, -25063.793368791747, -24742.352931779973, -11810.550011461975, 3890.9693230353982, 63089.117478027045, 28106.89396940398, -12592.34697727525, -2016.552033013348, -15985.610006524326, -18823.275723847833, 6922.89405141998, -8113.660885532008, -10106.117738022534, -7366.889103280199, 0.243375, 0.9156250000000001, 0.223875, 192.0, 3.5, 64.0, 14.0, 56.0, 3.5, 8.0, 0.0, 0.0, 0.0, 1.6626783257744815E9, 0.0, 2022-09-08 19:05:25.774
232.0, -1205.0495988189696, 402.5996211289908, -25068.241365938353, -24743.626981213925, -11815.154470819769, 3889.6282183680796, 63000.98454963977, 28064.448006683353, -12607.009721637933, -2015.3450388127612, -15991.287349615974, -18827.96959018345, 6915.585030983095, -8118.265344889802, -10122.166290541445, -7378.7355278415125, 0.243375, 0.9156250000000001, 0.223875, 192.0, 0.0, 0.0, 0.0, 0.0, 0.0, 0.0, 0.0, 0.0, 0.0, 1.662678325774488E9, 0.0, 2022-09-08 19:05:25.774
234.0, -1193.493746935576, 414.6025079014907, -25059.92651700098, -24738.59783871148, -11798.792993878484, 3904.3803697085823, 63039.697771036364, 28080.496559202264, -12602.360558791228, -2015.546204512859, -15991.26499787152, -18826.628485516132, 6913.595725726572, -8118.287696634257, -10123.596802186585, -7377.617940618747, 0.243375, 0.9156250000000001, 0.223875, 192.0, 0.0, 0.0, 0.0, 0.0, 0.0, 0.0, 0.0, 0.0, 0.0, 1.662678325774494E9, 0.0, 2022-09-08 19:05:25.774
236.0, -1199.841642360883, 408.7463508542003, -25057.937211744455, -24740.31892303454, -11800.424671223722, 3908.269573243806, 62971.949633592325, 28057.69777985785, -12598.069023855809, -2005.0632363633201, -15979.820904710401, -18820.43705230201, 6923.855176431558, -8118.354751867623, -10113.113834037047, -7369.303091681372, 0.243375, 0.9156250000000001, 0.223875, 192.0, 0.0, 0.0, 0.0, 0.0, 0.0, 0.0, 0.0, 0.0, 0.0, 1.6626783257745E9, 0.0, 2022-09-08 19:05:25.774
238.0, -1202.881479606805, 412.47909217823656, -25066.654392082026, -24748.745530694192, -11806.727863160118, 3901.3852359515713, 63011.46751778931, 28060.93878280387, -12606.965018149021, -2014.0262858898982, -15990.013300182021, -18827.611962272164, 6918.17783333991, -8115.1137489216035, -10119.819357373639, -7374.578103372825, 0.243375, 0.9156250000000001, 0.223875, 192.0, 0.0, 0.0, 0.0, 0.0, 0.0, 0.0, 0.0, 0.0, 0.0, 1.662678325774506E9, 0.0, 2022-09-08 19:05:25.774
240.0, -1201.2274505171122, 416.1000747799963, -25060.28414491226, -24738.307266033564, -11791.483973441598, 3906.1908610094624, 62955.14112176194, 28047.32657043059, -12606.652093726647, -2008.6395154761692, -15988.962768192623, -18831.05413091828, 6927.811435200148, -8122.668638547497, -10118.657066661963, -7377.170905729641, 0.2366875, 0.8998125000000001, 0.2259375, 192.0, 3.5, 24.0, 13.5, 80.0, 3.5, 16.0, 0.0, 0.0, 0.0, 1.6626783262548656E9, 0.0, 2022-09-08 19:05:26.254
242.0, -1191.683255634696, 422.35856322748225, -25062.921650757988, -24737.27908578862, -11793.249761253568, 3910.7729686228004, 62965.19940676683, 28063.330419460588, -12594.984483120978, -1993.552087968837, -15978.435096554173, -18815.743185966396, 6934.204034114366, -8104.720187749886, -10112.063302047647, -7363.513989867448, 0.2366875, 0.8998125000000001, 0.2259375, 192.0, 0.0, 0.0, 0.0, 0.0, 0.0, 0.0, 0.0, 0.0, 0.0, 1.6626783262549293E9, 0.0, 2022-09-08 19:05:26.254
244.0, -1206.5024622085646, 406.80174908658853, -25070.9682787619, -24739.067225345043, -11786.231313494602, 3902.39106445206, 62925.65917082538, 28057.206041479832, -12600.460660512526, -1995.7649106699123, -15982.525465789495, -18813.977398154428, 6930.203071856866, -8104.764891238796, -10115.505470693764, -7365.637405590703, 0.2366875, 0.8998125000000001, 0.2259375, 192.0, 0.0, 0.0, 0.0, 0.0, 0.0, 0.0, 0.0, 0.0, 0.0, 1.662678326254934E9, 0.0, 2022-09-08 19:05:26.254
246.0, -1194.9242585807156, 415.9659643132644, -25070.38713340606, -24740.073053845532, -11787.281845484, 3911.1082447896297, 62926.82146153706, 28066.258497984232, -12600.63947446817, -2010.293544565862, -15988.538085047972, -18828.930715195027, 6916.792025183681, -8122.355714125123, -10126.837805132605, -7373.08053649432, 0.2366875, 0.8998125000000001, 0.2259375, 192.0, 0.0, 0.0, 0.0, 0.0, 0.0, 0.0, 0.0, 0.0, 0.0, 1.6626783262549386E9, 0.0, 2022-09-08 19:05:26.254
248.0, -1193.3819882132993, 419.7657608706666, -25058.38424663356, -24725.432661227307, -11773.982557533092, 3925.033381585286, 62896.803068733585, 28068.918355574413, -12584.993253349454, -2000.8834601501776, -15980.916140188712, -18821.15230812458, 6928.526691022717, -8090.12449862057, -10112.353874725566, -7358.037812475898, 0.2366875, 0.8998125000000001, 0.2259375, 192.0, 0.0, 0.0, 0.0, 0.0, 0.0, 0.0, 0.0, 0.0, 0.0, 1.6626783262549431E9, 0.0, 2022-09-08 19:05:26.254
250.0, -1190.230392245101, 422.5820806720353, -25053.33275238666, -24720.090594302488, -11775.10014475586, 3920.9653640944202, 62875.9935946457, 28087.22443428331, -12582.713375415013, -1988.7911663998566, -15969.583805749871, -18814.893819677094, 6930.806568957159, -8080.781469438251, -10100.798022842173, -7348.717135038035, 0.24434375, 0.8979062500000001, 0.22096875, 192.0, 3.5, 112.0, 14.0, 0.0, 3.0, 96.0, 0.0, 0.0, 0.0, 1.6626783262549477E9, 0.0, 2022-09-08 19:05:26.254
252.0, -1203.0155900735367, 409.66277237686785, -25052.997476219833, -24724.538591449094, -11774.608406377842, 3910.236526755873, 62853.2842222791, 28066.347904962055, -12587.9213318731, -1990.9816373564765, -15977.96570992061, -18822.471061047443, 6938.6743830054265, -8084.245989828824, -10106.967104311838, -7347.085457692798, 0.24434375, 0.8979062500000001, 0.22096875, 192.0, 0.0, 0.0, 0.0, 0.0, 0.0, 0.0, 0.0, 0.0, 0.0, 1.662678326254952E9, 0.0, 2022-09-08 19:05:26.254
254.0, -1201.138043539291, 411.71913286675607, -25058.42895012247, -24733.926324120323, -11772.686156354684, 3904.067445286208, 62817.14145149487, 28077.94846033436, -12589.038919095865, -2002.9398206400658, -15980.11147738832, -18830.87531696264, 6938.696734749882, -8092.963170166394, -10114.209069515357, -7359.714193310046, 0.24434375, 0.8979062500000001, 0.22096875, 192.0, 0.0, 0.0, 0.0, 0.0, 0.0, 0.0, 0.0, 0.0, 0.0, 1.6626783262549565E9, 0.0, 2022-09-08 19:05:26.254
0.0, -1210.682238421707, 403.8736705629433, -25062.944002502445, -24738.866059644948, -11778.47525816861, 3902.4134161965153, 62827.35619871095, 28079.066047557124, -12597.219657566508, -2007.5442799978591, -15995.601236295848, -18844.979267713938, 6933.377019569519, -8106.933010450961, -10126.52488071023, -7371.31474868235, 0.24434375, 0.8979062500000001, 0.22096875, 192.0, 0.0, 0.0, 0.0, 0.0, 0.0, 0.0, 0.0, 0.0, 0.0, 1.6626783262549613E9, 0.0, 2022-09-08 19:05:26.254
2.0, -1197.6064679153524, 422.1797492718398, -25048.169499417487, -24720.69409140278, -11760.28093818199, 3918.3725617376044, 62775.94718646374, 28077.546128934162, -12594.693910443058, -2006.739617197468, -15983.106611145331, -18834.96568619796, 6937.243871360287, -8090.79505095423, -10117.695941650385, -7363.290472422895, 0.24434375, 0.8979062500000001, 0.22096875, 192.0, 0.0, 0.0, 0.0, 0.0, 0.0, 0.0, 0.0, 0.0, 0.0, 1.6626783262549655E9, 0.0, 2022-09-08 19:05:26.254
4.0, -1203.0602935624474, 415.04954279059683, -25062.698133313435, -24731.244114785688, -11777.603540134853, 3910.2812302447833, 62775.05311668553, 28113.51008576275, -12590.961169119022, -2004.616201474214, -15984.53712279047, -18827.52255529434, 6928.32552532262, -8086.324702063168, -10112.443281703387, -7354.9085682521545, 0.250171875, 0.898953125, 0.213484375, 192.0, 4.0, 0.0, 14.0, 16.0, 3.0, 56.0, 0.0, 0.0, 0.0, 1.6626783262549703E9, 0.0, 2022-09-08 19:05:26.254
6.0, -1198.4558342046541, 415.6306881464348, -25070.67770608398, -24736.295609032586, -11778.542313401977, 3904.0897970306632, 62678.605339360874, 28109.397364782973, -12596.124422088198, -2006.0467131193536, -15988.962768192623, -18838.2960961218, 6930.113664879044, -8089.006911397805, -10137.47723549333, -7366.978510258021, 0.250171875, 0.898953125, 0.213484375, 192.0, 0.0, 0.0, 0.0, 0.0, 0.0, 0.0, 0.0, 0.0, 0.0, 1.6626783262549808E9, 0.0, 2022-09-08 19:05:26.254
8.0, -1190.9232963232157, 418.3799527144376, -25068.688400827457, -24733.546344464583, -11776.932987801194, 3898.814785339211, 62753.81895945298, 28054.92616354539, -12583.562741704314, -2003.96800088501, -15988.247512370053, -18836.418549587554, 6934.584013770105, -8096.919428934983, -10126.569584199142, -7362.150533455674, 0.250171875, 0.898953125, 0.213484375, 192.0, 0.0, 0.0, 0.0, 0.0, 0.0, 0.0, 0.0, 0.0, 0.0, 1.6626783262549853E9, 0.0, 2022-09-08 19:05:26.254
10.0, -1197.2488400040675, 413.9766590567421, -25071.839996795654, -24740.833013157015, -11770.830961564894, 3903.553355163736, 62757.64110775485, 28079.289565001676, -12586.691985928057, -2008.6395154761692, -15986.280558857985, -18840.195994400503, 6943.815284230147, -8098.84167895814, -10126.1896045434, -7379.093155752797, 0.250171875, 0.898953125, 0.213484375, 192.0, 0.0, 0.0, 0.0, 0.0, 0.0, 0.0, 0.0, 0.0, 0.0, 1.6626783262549899E9, 0.0, 2022-09-08 19:05:26.254
12.0, -1188.554011410953, 419.7657608706666, -25067.123778715584, -24736.899106132878, -11765.377135917799, 3916.20444252544, 62848.76916989913, 28151.95508622588, -12581.573436447792, -2010.3382480547725, -15989.275692614996, -18834.183375142024, 6938.763789983248, -8094.863068445095, -10108.33056072361, -7357.121390953231, 0.250171875, 0.898953125, 0.213484375, 192.0, 0.0, 0.0, 0.0, 0.0, 0.0, 0.0, 0.0, 0.0, 0.0, 1.6626783262549942E9, 0.0, 2022-09-08 19:05:26.254
14.0, -1188.554011410953, 424.3925719729152, -25064.106293214118, -24733.367530508942, -11749.842673521362, 3919.6242594271016, 62782.07156444449, 28131.167963882443, -12569.771715375391, -2009.2653643209178, -15988.247512370053, -18835.569183298252, 6943.412952829952, -8078.389832781534, -10112.063302047647, -7361.591739844292, 0.250171875, 0.898953125, 0.213484375, 192.0, 0.0, 0.0, 0.0, 0.0, 0.0, 0.0, 0.0, 0.0, 0.0, 1.6626783262549987E9, 0.0, 2022-09-08 19:05:26.254
16.0, -1180.3732729403107, 428.4382377193258, -25066.609688593115, -24739.581315467516, -11773.222598221613, 3907.8895935880655, 62862.001402616675, 28124.976530668322, -12573.549160188337, -1994.5355647248705, -15985.654710013237, -18827.29903784979, 6944.150560396977, -8076.936969391939, -10113.538517181698, -7360.518856110437, 0.254, 0.888, 0.19, 192.0, 3.5, 120.0, 13.5, 96.0, 2.5, 120.0, 0.0, 0.0, 0.0, 1.6626783262550032E9, 0.0, 2022-09-08 19:05:26.255
18.0, -1188.9786945556039, 421.6209556604571, -25064.374514147585, -24742.196469568786, -11786.410127450245, 3894.813823081711, 62810.547686880556, 28103.720021691326, -12582.378099248184, -2004.996181129954, -15982.547817533949, -18832.395235585598, 6939.233176616809, -8099.758100480807, -10132.805720902172, -7384.971664544543, 0.254, 0.888, 0.19, 192.0, 0.0, 0.0, 0.0, 0.0, 0.0, 0.0, 0.0, 0.0, 0.0, 1.662678326255008E9, 0.0, 2022-09-08 19:05:26.255
20.0, -1182.9884270415816, 428.61705167496825, -25052.23751690835, -24733.613399697948, -11785.069022782925, 3915.0868553026744, 62898.23358037873, 28123.70248123437, -12576.097259056241, -2002.6045444732363, -15978.770372721003, -18830.517689051354, 6930.784217212703, -8107.469452317889, -10124.155595797969, -7370.443030648593, 0.254, 0.888, 0.19, 192.0, 0.0, 0.0, 0.0, 0.0, 0.0, 0.0, 0.0, 0.0, 0.0, 1.6626783262550125E9, 0.0, 2022-09-08 19:05:26.255
22.0, -1186.4529474321541, 422.8279498610437, -25037.463013823395, -24719.50944894665, -11770.272167953512, 3894.4114916815156, 62855.36293451345, 28111.789001439694, -12581.908712614622, -2004.258573562929, -15975.350555819341, -18832.506994307878, 6935.299269592675, -8103.043806915737, -10124.647334175985, -7365.816219546345, 0.254, 0.888, 0.19, 192.0, 0.0, 0.0, 0.0, 0.0, 0.0, 0.0, 0.0, 0.0, 0.0, 1.662678326255018E9, 0.0, 2022-09-08 19:05:26.255
24.0, -1163.497705876554, 442.8551128929988, -25023.426118305462, -24705.1819807508, -11778.296444212967, 3905.095625531152, 62943.227641967256, 28149.2952286357, -12574.8679131112, -1996.7036839370353, -15963.526483002483, -18819.498279034888, 6934.829882959114, -8102.50736504881, -10111.884488092004, -7347.487789092993, 0.254, 0.888, 0.19, 192.0, 0.0, 0.0, 0.0, 0.0, 0.0, 0.0, 0.0, 0.0, 0.0, 1.6626783262550223E9, 0.0, 2022-09-08 19:05:26.255
26.0, -1174.1818397261907, 436.9766041012531, -25016.56413275768, -24695.950710290756, -11779.346976202367, 3904.9168115755097, 62901.38517634692, 28136.934713951912, -12575.49376195595, -1996.9048496371329, -15957.9161951442, -18805.95312189497, 6939.791970228192, -8092.762004466296, -10103.81550834364, -7339.597623300269, 0.278, 0.9460000000000001, 0.192, 192.0, 4.0, 88.0, 14.5, 72.0, 3.0, 0.0, 0.0, 0.0, 0.0, 1.6626783262550273E9, 0.0, 2022-09-08 19:05:26.255
28.0, -1168.9962350125593, 444.48679023823627, -25018.66519673648, -24695.25780621264, -11771.412106920732, 3911.1529482785404, 62969.289776002144, 28158.72766479584, -12573.43740146606, -1995.2731722918957, -15959.77138993399, -18804.075575360726, 6936.841539960092, -8094.460737044899, -10093.287836705189, -7337.0048209434535, 0.278, 0.9460000000000001, 0.192, 192.0, 0.0, 0.0, 0.0, 0.0, 0.0, 0.0, 0.0, 0.0, 0.0, 1.6626783262550316E9, 0.0, 2022-09-08 19:05:26.255
30.0, -1179.523906651009, 432.79682788811067, -25029.304627097205, -24699.61639638143, -11761.08560098238, 3909.230698255384, 62941.59596462202, 28139.125184908535, -12594.984483120978, -2005.8902509081663, -15974.098858129842, -18822.985151169916, 6920.636525229994, -8102.775585982274, -10100.172173997424, -7346.973698970521, 0.278, 0.9460000000000001, 0.192, 192.0, 0.0, 0.0, 0.0, 0.0, 0.0, 0.0, 0.0, 0.0, 0.0, 1.6626783262550364E9, 0.0, 2022-09-08 19:05:26.255
32.0, -1159.94377850816, 454.70153745431156, -25026.354196829107, -24693.000280022658, -11782.453868681654, 3919.5572041937357, 62994.92722689238, 28154.9949234718, -12580.38879399166, -1981.683311663069, -15961.693639957148, -18807.897723662583, 6932.929984680412, -8092.180859110458, -10090.695034348373, -7337.7647802549345, 0.278, 0.9460000000000001, 0.192, 192.0, 0.0, 0.0, 0.0, 0.0, 0.0, 0.0, 0.0, 0.0, 0.0, 1.6626783262550411E9, 0.0, 2022-09-08 19:05:26.255
34.0, -1168.8174210569168, 442.29631928161615, -25040.793423747233, -24709.071184286022, -11791.305159485955, 3901.6758086294903, 62964.43944745535, 28132.33025459412, -12583.49568647095, -1986.2430675319515, -15963.213558580108, -18806.981302139917, 6938.160292882954, -8096.517097534788, -10102.317941465133, -7348.068934448831, 0.278, 0.9460000000000001, 0.192, 192.0, 0.0, 0.0, 0.0, 0.0, 0.0, 0.0, 0.0, 0.0, 0.0, 1.662678326255046E9, 0.0, 2022-09-08 19:05:26.255
36.0, -1156.2780924174897, 452.913397897887, -25037.932400456953, -24714.212085510742, -11781.246874481069, 3915.0421518137637, 63004.33731130807, 28144.489603577807, -12578.15361954613, -1982.1526982966302, -15965.314622558908, -18810.132898108113, 6924.033990387201, -8109.07877791867, -10113.292647992688, -7357.747239797979, 0.262, 0.9540000000000001, 0.20400000000000001, 192.0, 4.0, 24.0, 14.5, 104.0, 3.0, 48.0, 0.0, 0.0, 0.0, 1.6626783262550502E9, 0.0, 2022-09-08 19:05:26.255
38.0, -1156.881589517783, 455.3944415324261, -25030.377510831062, -24709.808791853047, -11786.946569317171, 3920.786550138778, 62995.173096081395, 28139.1922401419, -12575.002023577932, -1988.4111867441163, -15964.375849291784, -18808.031834129313, 6938.808493472158, -8101.859164459606, -10106.073034533625, -7355.310899652351, 0.262, 0.9540000000000001, 0.20400000000000001, 192.0, 0.0, 0.0, 0.0, 0.0, 0.0, 0.0, 0.0, 0.0, 0.0, 1.6626783262550564E9, 0.0, 2022-09-08 19:05:26.255
40.0, -1157.5297901069869, 454.03098512065236, -25035.361949844595, -24716.51431518964, -11786.47718268361, 3914.3492477356494, 63014.35089282405, 28152.916211237458, -12577.304253256829, -1978.6434744171472, -15964.152331847232, -18804.90258990557, 6947.123342409533, -8095.868896945584, -10108.352912468066, -7355.400306630172, 0.262, 0.9540000000000001, 0.20400000000000001, 192.0, 0.0, 0.0, 0.0, 0.0, 0.0, 0.0, 0.0, 0.0, 0.0, 1.662678326255061E9, 0.0, 2022-09-08 19:05:26.255
42.0, -1161.0166622420147, 453.96392988728644, -25028.701129996913, -24712.93803607679, -11774.720165100118, 3910.4153407115155, 63009.27704683269, 28146.9929989568, -12581.05934632532, -1980.7221866514906, -15978.949186676646, -18813.239790587402, 6936.7968364711805, -8106.061292417204, -10116.108967794058, -7364.07278347883, 0.262, 0.9540000000000001, 0.20400000000000001, 192.0, 0.0, 0.0, 0.0, 0.0, 0.0, 0.0, 0.0, 0.0, 0.0, 1.6626783262550652E9, 0.0, 2022-09-08 19:05:26.255
44.0, -1161.8436767868611, 455.5509037436132, -25032.366816087582, -24718.548323935072, -11801.341092746388, 3907.397855210049, 63008.98647415477, 28156.738359539315, -12579.293558513351, -1977.4141284721052, -15971.68486972867, -18810.95991265296, 6946.18456914241, -8099.3781208250675, -10118.3888457285, -7365.771516057434, 0.262, 0.9540000000000001, 0.20400000000000001, 192.0, 0.0, 0.0, 0.0, 0.0, 0.0, 0.0, 0.0, 0.0, 0.0, 1.6626783262550695E9, 0.0, 2022-09-08 19:05:26.255
46.0, -1160.7931447974618, 457.0261188776635, -25029.03640616374, -24711.46282094274, -11791.685139141697, 3906.660247643024, 63041.41885535942, 28174.664458592473, -12588.681291184581, -1984.0749483197867, -15974.903520930235, -18818.045415645294, 6939.367287083542, -8106.105995906115, -10126.748398154783, -7367.872580036233, 0.24, 0.976, 0.17200000000000001, 192.0, 3.5, 64.0, 15.0, 64.0, 2.5, 48.0, 0.0, 0.0, 0.0, 1.6626783262550743E9, 0.0, 2022-09-08 19:05:26.255
48.0, -1150.4219353701992, 468.51491552769136, -25029.304627097205, -24703.393841194375, -11786.834810594895, 3919.847776871655, 63019.290628348666, 28196.636223392037, -12581.752250403435, -1982.8232506302895, -15967.505093515527, -18818.447747045488, 6936.461560304351, -8106.217754628391, -10128.536537711208, -7364.586873601303, 0.24, 0.976, 0.17200000000000001, 192.0, 0.0, 0.0, 0.0, 0.0, 0.0, 0.0, 0.0, 0.0, 0.0, 1.6626783262550786E9, 0.0, 2022-09-08 19:05:26.255
50.0, -1161.2178279421125, 450.54411298562445, -25054.249173909328, -24722.906914103856, -11796.557819432954, 3884.7331863323675, 63042.20116641536, 28183.269880207765, -12571.090468298253, -1976.9000383496332, -15971.371945306295, -18820.459404046465, 6933.46642654734, -8103.2002691269245, -10143.378096029532, -7366.397364902183, 0.24, 0.976, 0.17200000000000001, 192.0, 0.0, 0.0, 0.0, 0.0, 0.0, 0.0, 0.0, 0.0, 0.0, 1.6626783262550833E9, 0.0, 2022-09-08 19:05:26.255
52.0, -1155.5851883393752, 457.80842993359926, -25072.555252618225, -24747.985571382713, -11804.626799181318, 3874.5631426052028, 63002.12448860699, 28187.159083742987, -12576.432535223072, -1999.7882246718675, -15986.749945491547, -18843.01231420187, 6927.409103799952, -8111.381007597567, -10164.67930849544, -7398.382711217727, 0.24, 0.976, 0.17200000000000001, 192.0, 0.0, 0.0, 0.0, 0.0, 0.0, 0.0, 0.0, 0.0, 0.0, 1.662678326255088E9, 0.0, 2022-09-08 19:05:26.255
54.0, -1141.0342026989701, 472.7617469741997, -25080.937156788965, -24764.816434957556, -11798.882400856304, 3881.939218275454, 63049.62194557452, 28212.684775910948, -12550.213938976996, -1991.7863001568676, -15989.208637381631, -18838.63137228863, 6944.999926686279, -8102.328551093167, -10157.951433414393, -7389.240847735507, 0.24, 0.976, 0.17200000000000001, 192.0, 0.0, 0.0, 0.0, 0.0, 0.0, 0.0, 0.0, 0.0, 0.0, 1.6626783262550924E9, 0.0, 2022-09-08 19:05:26.255
56.0, -1145.2586824010232, 469.3419300725377, -25088.134418503574, -24794.678365549848, -11790.209924007646, 3878.586456607158, 62999.66579671691, 28207.18624677494, -12545.207148219008, -1988.7688146554012, -15994.237779884075, -18843.705218279985, 6941.066019662145, -8102.574420282176, -10166.601558518596, -7398.673283895646, 0.222, 0.9380000000000001, 0.114, 192.0, 3.0, 120.0, 14.5, 40.0, 1.5, 72.0, 0.0, 0.0, 0.0, 1.662678326255097E9, 0.0, 2022-09-08 19:05:26.255
58.0, -1141.682403288174, 477.76853773218846, -25084.75930509082, -24813.342072170028, -11797.898924100271, 3872.7302995598675, 63057.22153868932, 28227.481630740363, -12531.729046312457, -1987.807689643823, -15998.059928185932, -18848.91317473807, 6935.366324826041, -8094.103109133614, -10159.113724126068, -7395.253466993984, 0.222, 0.9380000000000001, 0.114, 192.0, 0.0, 0.0, 0.0, 0.0, 0.0, 0.0, 0.0, 0.0, 0.0, 1.6626783262551014E9, 0.0, 2022-09-08 19:05:26.255
60.0, -1140.7883335099618, 481.90361045642027, -25074.656316597026, -24801.428592375352, -11785.493705927576, 3894.4338434259707, 63013.94856142385, 28242.881982670067, -12509.600819301704, -1969.8592388462114, -15984.090087901366, -18847.169738670556, 6954.164141912955, -8106.441272072944, -10151.089447866612, -7394.962894316065, 0.222, 0.9380000000000001, 0.114, 192.0, 0.0, 0.0, 0.0, 0.0, 0.0, 0.0, 0.0, 0.0, 0.0, 1.6626783262551057E9, 0.0, 2022-09-08 19:05:26.255
62.0, -1163.9223890212047, 466.70442422681145, -25093.63294763958, -24812.336243669542, -11790.52284843002, 3873.132630960063, 63088.51398092676, 28243.865459426102, -12499.788403485823, -1969.166334768097, -15998.21639039712, -18855.819863774763, 6952.040726189701, -8086.83879218564, -10148.183721087424, -7399.455594951582, 0.222, 0.9380000000000001, 0.114, 192.0, 0.0, 0.0, 0.0, 0.0, 0.0, 0.0, 0.0, 0.0, 0.0, 1.6626783262551105E9, 0.0, 2022-09-08 19:05:26.255
64.0, -1160.6590343307298, 450.9687961302753, -25088.715563859412, -24809.76579305718, -11795.507287443554, 3873.758479804812, 63031.449977332355, 28238.523392501284, -12510.76311001338, -1979.5598959398146, -16007.224143412608, -18866.861625535683, 6938.964955683346, -8097.947609179928, -10157.72791596984, -7414.207746292084, 0.222, 0.9380000000000001, 0.114, 192.0, 0.0, 0.0, 0.0, 0.0, 0.0, 0.0, 0.0, 0.0, 0.0, 1.6626783262551148E9, 0.0, 2022-09-08 19:05:26.255
66.0, -1188.911639322238, 413.75314161218904, -25104.07121230021, -24827.02133977668, -11815.802671408972, 3854.1783516619626, 63120.789899920215, 28254.72840723138, -12499.207258129985, -1975.804802871323, -16008.542896335472, -18870.54966337081, 6938.607327772061, -8089.208077097903, -10149.368363543554, -7406.518746199459, 0.22, 0.898, 0.034, 192.0, 3.0, 112.0, 14.0, 8.0, 0.5, 8.0, 0.0, 0.0, 0.0, 1.6626783262551193E9, 0.0, 2022-09-08 19:05:26.255
68.0, -1204.6919709076847, 435.9931273452196, -25088.179121992485, -24814.347900670517, -11803.978598592115, 3868.0587849687086, 63066.966899271836, 28248.939305417458, -12508.371473356661, -1994.066178091309, -16010.196925425163, -18870.192035459524, 6931.946507924379, -8092.091452132637, -10164.366384073066, -7426.702371442601, 0.22, 0.898, 0.034, 192.0, 0.0, 0.0, 0.0, 0.0, 0.0, 0.0, 0.0, 0.0, 0.0, 1.662678326255124E9, 0.0, 2022-09-08 19:05:26.255
70.0, -1207.2847732645005, 408.99222004320865, -25103.378308222094, -24829.72590085577, -11807.465470727144, 3852.971357461376, 63137.93368791744, 28237.763433189804, -12498.268484862863, -1996.9048496371329, -15997.009396196532, -18847.996753215404, 6940.596633028583, -8089.02926314226, -10159.29253808171, -7417.359342260283, 0.22, 0.898, 0.034, 192.0, 0.0, 0.0, 0.0, 0.0, 0.0, 0.0, 0.0, 0.0, 0.0, 1.6626783262551303E9, 0.0, 2022-09-08 19:05:26.255
72.0, -1208.9164506097377, 405.81827233055503, -25095.26462498482, -24818.281807694653, -11783.012662293037, 3853.99953770632, 63089.58686466061, 28193.596386146117, -12504.705787265992, -1977.2129627720074, -16004.16195442223, -18845.649820047598, 6915.786196683192, -8092.583190510654, -10172.860046966081, -7426.344743531316, 0.22, 0.898, 0.034, 192.0, 0.0, 0.0, 0.0, 0.0, 0.0, 0.0, 0.0, 0.0, 0.0, 1.662678326255135E9, 0.0, 2022-09-08 19:05:26.255
74.0, -1215.7113809241512, 402.6666763623567, -25121.080889830697, -24853.284639511665, -11808.359540505355, 3840.074400910664, 63131.071702369656, 28138.365225597052, -12500.481307563938, -1974.1731255260856, -15992.561399049926, -18839.033703688827, 6927.409103799952, -8088.4034142975115, -10174.894055711515, -7436.335973302838, 0.22, 0.898, 0.034, 192.0, 0.0, 0.0, 0.0, 0.0, 0.0, 0.0, 0.0, 0.0, 0.0, 1.6626783262551396E9, 0.0, 2022-09-08 19:05:26.255
76.0, -1234.777418944528, 402.5325658956249, -25118.30927351824, -24858.11261631401, -11833.259383828567, 3845.7293922578565, 63037.79787275766, 28286.73610529138, -12488.14314462461, -1955.643529372636, -16012.11917544832, -18870.63907034863, 6919.742455451782, -8101.74740573733, -10212.802614307717, -7450.775200220967, 0.20400000000000001, 0.86, -0.046, 192.0, 3.0, 48.0, 13.0, 112.0, 127.0, 72.0, 0.0, 0.0, 0.0, 1.662678326255144E9, 0.0, 2022-09-08 19:05:26.255
78.0, -1247.4955615395977, 373.3635393814492, -25119.73978516338, -24866.49452048475, -11833.259383828567, 3840.7896567332336, 63237.264840276825, 28283.226881411898, -12497.530877295838, -1971.2003435135298, -15988.158105392231, -18841.693561279008, 6918.401350784463, -8072.0866408451375, -10186.047576194713, -7421.829691151344, 0.20400000000000001, 0.86, -0.046, 192.0, 0.0, 0.0, 0.0, 0.0, 0.0, 0.0, 0.0, 0.0, 0.0, 1.6626783262551486E9, 0.0, 2022-09-08 19:05:26.255
80.0, -1250.8483232078938, 385.7911092985999, -25124.299541032262, -24877.15630258993, -11832.834700683916, 3802.6352289480246, 63217.86352608962, 28074.975678321804, -12499.564886041271, -2001.933992139577, -16000.295102631462, -18844.3981223581, 6911.896993147969, -8108.676446518475, -10217.004742265313, -7484.973369237587, 0.20400000000000001, 0.86, -0.046, 192.0, 0.0, 0.0, 0.0, 0.0, 0.0, 0.0, 0.0, 0.0, 0.0, 1.662678326255153E9, 0.0, 2022-09-08 19:05:26.255
82.0, -1222.6404217052964, 410.62389738844604, -25092.604767394634, -24840.320627727586, -11824.408093024265, 3874.0937559716413, 63378.63962395664, 28442.170136233588, -12477.794286941802, -1969.7698318683902, -15966.812189437413, -18801.750993937374, 6936.595670771083, -8090.325664320668, -10183.387718604532, -7429.272822054962, 0.20400000000000001, 0.86, -0.046, 192.0, 0.0, 0.0, 0.0, 0.0, 0.0, 0.0, 0.0, 0.0, 0.0, 1.662678326255159E9, 0.0, 2022-09-08 19:05:26.255
84.0, -1245.2827388385224, 390.41792040084846, -25107.334566990685, -24855.58686919056, -11843.138854877812, 3855.720622029379, 63316.70294007099, 28297.107314718643, -12482.04111838831, -1956.5599508953037, -15963.906462658224, -18793.950235122473, 6948.352688354575, -8080.826172927163, -10207.371140405075, -7433.340839545827, 0.20400000000000001, 0.86, -0.046, 192.0, 0.0, 0.0, 0.0, 0.0, 0.0, 0.0, 0.0, 0.0, 0.0, 1.6626783262551641E9, 0.0, 2022-09-08 19:05:26.255
86.0, -1240.9912039031035, 388.6521325888792, -25096.06928778521, -24853.865784867503, -11838.176767608735, 3820.0025343897983, 63396.990406154444, 28242.032616380766, -12469.926472893534, -1939.2597006868962, -15955.25633755402, -18785.411868740543, 6939.791970228192, -8073.695966445919, -10232.472149428386, -7448.09299088633, 0.189, 0.8320000000000001, -0.097, 192.0, 2.5, 56.0, 12.5, 16.0, 125.5, 48.0, 0.0, 0.0, 0.0, 1.662678326255169E9, 0.0, 2022-09-08 19:05:26.255
88.0, -1259.2525791230894, 367.8650102454436, -25097.835075597177, -24868.68499144137, -11843.071799644447, 3804.401016759994, 63402.77950796837, 28182.599327874104, -12461.455161744972, -1949.8991310476222, -15968.689735971659, -18804.567313738742, 6932.594708513583, -8089.5210015202765, -10240.116446032102, -7467.516656817992, 0.189, 0.8320000000000001, -0.097, 192.0, 0.0, 0.0, 0.0, 0.0, 0.0, 0.0, 0.0, 0.0, 0.0, 1.6626783262551732E9, 0.0, 2022-09-08 19:05:26.255
90.0, -1258.6937855117067, 378.1691644393402, -25081.67476435599, -24860.12427331499, -11844.3458490784, 3789.6041619305806, 63425.06419719031, 28129.2904173482, -12468.652423459582, -1969.2780934903735, -15985.16297163522, -18829.02012217285, 6923.60930724255, -8093.678425988964, -10265.083344588678, -7499.881982789277, 0.189, 0.8320000000000001, -0.097, 192.0, 0.0, 0.0, 0.0, 0.0, 0.0, 0.0, 0.0, 0.0, 0.0, 1.6626783262551775E9, 0.0, 2022-09-08 19:05:26.255
92.0, -1246.3332708279218, 394.44123440280373, -25065.156825203518, -24831.849316579024, -11822.441139512199, 3811.9335546414322, 63420.54914481034, 28174.128016725543, -12451.955670351466, -1935.8398837852342, -15987.64401526976, -18825.28738084881, 6935.075752148123, -8105.949533694928, -10265.820952155704, -7494.29404667545, 0.189, 0.8320000000000001, -0.097, 192.0, 0.0, 0.0, 0.0, 0.0, 0.0, 0.0, 0.0, 0.0, 0.0, 1.662678326255182E9, 0.0, 2022-09-08 19:05:26.255
94.0, -1244.8804074383268, 396.1623187258624, -25054.897374498534, -24829.368272944484, -11790.388737963289, 3789.3359409971167, 63465.81142733234, 28113.823010185126, -12441.025667312822, -1920.7301045334466, -15979.172704121198, -18829.042473917303, 6932.214728857843, -8088.98455965335, -10277.667376717018, -7497.423290899193, 0.189, 0.8320000000000001, -0.097, 192.0, 0.0, 0.0, 0.0, 0.0, 0.0, 0.0, 0.0, 0.0, 0.0, 1.6626783262551863E9, 0.0, 2022-09-08 19:05:26.255
96.0, -1251.4741720526424, 379.9349522513094, -25051.164633174496, -24828.831831077558, -11844.837587456417, 3796.8908306230105, 63490.80067763337, 28261.143357890054, -12431.8838038306, -1947.485142646449, -15995.757698507035, -18847.840291004217, 6946.56454879815, -8102.820289471185, -10238.59652740914, -7473.082241187363, 0.1795, 0.8400000000000001, -0.14950000000000002, 192.0, 2.5, 40.0, 13.0, 64.0, 124.5, 88.0, 0.0, 0.0, 0.0, 1.662678326255191E9, 0.0, 2022-09-08 19:05:26.255
98.0, -1245.4839045386202, 376.64924581637933, -25054.58445007616, -24835.470299180783, -11854.582948038931, 3792.3087230096726, 63436.284772906874, 28272.36393360662, -12426.385274694596, -1965.3665382106947, -15999.26692238652, -18857.049209719804, 6952.800685501181, -8116.432501844467, -10247.894853102547, -7473.5963313098355, 0.1795, 0.8400000000000001, -0.14950000000000002, 192.0, 0.0, 0.0, 0.0, 0.0, 0.0, 0.0, 0.0, 0.0, 0.0, 1.6626783262551954E9, 0.0, 2022-09-08 19:05:26.255
100.0, -1293.741320817628, 333.6221377399132, -25091.308366216228, -24863.521738472195, -11877.11350644988, 3758.468181904338, 63407.24985685943, 28158.839423518115, -12447.12769354912, -1958.3704421961836, -16020.568134852427, -18866.369887157667, 6943.3682493410415, -8127.586022327665, -10275.722774949405, -7500.7760525674885, 0.1795, 0.8400000000000001, -0.14950000000000002, 192.0, 0.0, 0.0, 0.0, 0.0, 0.0, 0.0, 0.0, 0.0, 0.0, 1.6626783262552E9, 0.0, 2022-09-08 19:05:26.255
102.0, -1288.1086812148908, 334.5385592625808, -25122.176125309008, -24873.0212298657, -11826.687970958707, 3780.976388570832, 63295.31232062726, 28248.11229087261, -12433.850757342669, -1982.1750500410856, -16057.716734137148, -18907.519448699888, 6892.518030705218, -8151.860016806128, -10348.1424269846, -7533.901337850254, 0.1795, 0.8400000000000001, -0.14950000000000002, 192.0, 0.0, 0.0, 0.0, 0.0, 0.0, 0.0, 0.0, 0.0, 0.0, 1.6626783262552073E9, 0.0, 2022-09-08 19:05:26.255
104.0, -1283.4818701126421, 339.45594304274834, -25104.808819867234, -24865.287526284163, -11872.330233136445, 3763.8326005736117, 63412.77073773989, 28193.68579312394, -12456.716591920447, -1984.8796111201777, -16074.681708178725, -18919.544687216843, 6902.665722687927, -8153.402287173544, -10324.404874373064, -7519.797387098955, 0.1795, 0.8400000000000001, -0.14950000000000002, 192.0, 0.0, 0.0, 0.0, 0.0, 0.0, 0.0, 0.0, 0.0, 0.0, 1.66267832673533E9, 0.0, 2022-09-08 19:05:26.735
106.0, -1335.1814550377674, 270.45610790921546, -25111.715508903922, -24874.272927555197, -11881.87442801886, 3790.207659030874, 63447.57240385681, 28276.67782028649, -12453.721458163436, -1987.1818407990745, -16063.215263273152, -18911.632169679662, 6909.751225680259, -8161.493618666365, -10317.162909169545, -7528.469863947615, 0.18375, 0.863, -0.18775000000000003, 192.0, 2.5, 112.0, 13.5, 88.0, 124.0, 120.0, 0.0, 0.0, 0.0, 1.66267832673541E9, 0.0, 2022-09-08 19:05:26.735
108.0, -1293.6295620953515, 347.5025710466589, -25142.605619741156, -24876.01636362271, -11827.425578525732, 3759.6528243604694, 63492.499410211974, 28263.892622458057, -12470.395859527096, -1961.38792769765, -16070.904263365777, -18955.352181834245, 6899.134147063988, -8145.489769636366, -10312.178470156012, -7521.898451077754, 0.18375, 0.863, -0.18775000000000003, 192.0, 0.0, 0.0, 0.0, 0.0, 0.0, 0.0, 0.0, 0.0, 0.0, 1.6626783267354147E9, 0.0, 2022-09-08 19:05:26.735
110.0, -1336.45550447172, 280.1344132583634, -25158.16243388205, -24893.383669064486, -11869.066878445969, 3745.6159288425365, 63457.72009583952, 28264.630230025083, -12467.08780134771, -1999.7882246718675, -16106.689406238725, -18966.03631568388, 6881.140992777467, -8151.658851106031, -10328.361133141654, -7539.757494897544, 0.18375, 0.863, -0.18775000000000003, 192.0, 0.0, 0.0, 0.0, 0.0, 0.0, 0.0, 0.0, 0.0, 0.0, 1.6626783267354193E9, 0.0, 2022-09-08 19:05:26.735
112.0, -1327.939489834248, 278.68154986876846, -25154.07206464673, -24879.480884013283, -11881.203875685202, 3759.943397038388, 63534.23011711003, 28259.310514844718, -12510.941923969021, -1997.485994992971, -16083.465943749661, -18946.635001496674, 6892.875658616503, -8160.085458765681, -10325.969496484935, -7545.390134500281, 0.18375, 0.863, -0.18775000000000003, 192.0, 0.0, 0.0, 0.0, 0.0, 0.0, 0.0, 0.0, 0.0, 0.0, 1.6626783267354236E9, 0.0, 2022-09-08 19:05:26.735
114.0, -1317.031838540058, 270.2549422091177, -25151.300448334274, -24886.901663172444, -11862.87544523185, 3785.0220543172427, 63479.11071528325, 28245.564192004706, -12506.493926822415, -1989.1040908222308, -16096.720528211657, -18945.584469507274, 6887.645350413961, -8179.866752608628, -10325.634220318107, -7556.722468939122, 0.18375, 0.863, -0.18775000000000003, 192.0, 0.0, 0.0, 0.0, 0.0, 0.0, 0.0, 0.0, 0.0, 0.0, 1.662678326735428E9, 0.0, 2022-09-08 19:05:26.735
116.0, -1316.517748417586, 249.22195067667374, -25167.080779919717, -24905.140686647974, -11815.400340008777, 3765.620740130036, 63526.272896083945, 28252.604991508128, -12503.208220387485, -1981.705663407524, -16119.47460406716, -18970.506664574943, 6871.797963595148, -8165.04754603476, -10340.498130380885, -7557.236559061595, 0.18787500000000001, 0.8865000000000001, -0.21187500000000004, 192.0, 3.0, 0.0, 14.0, 56.0, 124.0, 80.0, 0.0, 0.0, 0.0, 1.6626783267354324E9, 0.0, 2022-09-08 19:05:26.735
118.0, -1290.4109108937873, 257.73796531414575, -25193.88052152163, -24938.64595158648, -11842.848282199893, 3747.8958067769777, 63436.910621751624, 28204.571092673672, -12535.059456236299, -1957.6775381180692, -16152.465778883194, -18965.388115094676, 6836.63866956695, -8179.263255508335, -10369.823619106248, -7589.423071077236, 0.18787500000000001, 0.8865000000000001, -0.21187500000000004, 192.0, 0.0, 0.0, 0.0, 0.0, 0.0, 0.0, 0.0, 0.0, 0.0, 1.662678326735437E9, 0.0, 2022-09-08 19:05:26.735
120.0, -1231.938747398704, 247.36675588688325, -25206.26338794987, -24939.718835320335, -11921.638181404851, 3760.2786732052177, 63433.781377527885, 28189.170740743964, -12536.758188814902, -2010.0476753768535, -16213.597799968458, -18993.90894101965, 6836.169282933389, -8223.475006040931, -10376.909122098581, -7627.756312818088, 0.18787500000000001, 0.8865000000000001, -0.21187500000000004, 192.0, 0.0, 0.0, 0.0, 0.0, 0.0, 0.0, 0.0, 0.0, 0.0, 1.6626783267354412E9, 0.0, 2022-09-08 19:05:26.735
122.0, -1194.3878167137882, 265.8740002958775, -25211.98543453043, -24926.151326435964, -11894.257294447101, 3708.1991086243524, 63354.29857424481, 28175.938508026426, -12558.148808258631, -1998.3130095378174, -16214.648331957858, -18999.072193988824, 6828.368524118487, -8201.123261585624, -10383.905218113092, -7623.241260438116, 0.18787500000000001, 0.8865000000000001, -0.21187500000000004, 192.0, 0.0, 0.0, 0.0, 0.0, 0.0, 0.0, 0.0, 0.0, 0.0, 1.6626783267354455E9, 0.0, 2022-09-08 19:05:26.735
124.0, -1052.0742597668482, 315.5842799644804, -25205.548132127304, -24929.906419504456, -11876.711175049684, 3722.727742520302, 63359.99826908091, 28173.658630091984, -12577.483067212472, -1987.807689643823, -16212.63667495688, -18993.61836834173, 6820.1654339033885, -8213.86375592515, -10358.558339900774, -7634.08185649894, 0.18787500000000001, 0.8865000000000001, -0.21187500000000004, 192.0, 0.0, 0.0, 0.0, 0.0, 0.0, 0.0, 0.0, 0.0, 0.0, 1.6626783267354503E9, 0.0, 2022-09-08 19:05:26.735
126.0, -904.7092085730087, 329.19649233776244, -25194.148742455094, -24925.614884569037, -11861.891968475815, 3752.1873417123966, 63294.28414038231, 28143.70729252187, -12578.600654435237, -1964.6959858770356, -16181.098363530442, -18982.397792625165, 6834.2470329102325, -8205.124223843124, -10370.248302250899, -7646.04003978253, 0.17993750000000003, 0.89825, -0.24493750000000003, 192.0, 2.5, 48.0, 14.0, 56.0, 123.5, 40.0, 0.0, 0.0, 0.0, 1.6626783267354546E9, 0.0, 2022-09-08 19:05:26.735
128.0, -737.093476902661, 339.52299827611427, -25189.566634841758, -24931.247524171773, -11875.884160504838, 3728.338030378584, 63304.20831492047, 28160.94048749691, -12583.875666126689, -1935.7951802963235, -16141.021685722077, -18975.89343498867, 6829.419056107886, -8166.388650702078, -10367.81196210527, -7645.637708382334, 0.17993750000000003, 0.89825, -0.24493750000000003, 192.0, 0.0, 0.0, 0.0, 0.0, 0.0, 0.0, 0.0, 0.0, 0.0, 1.662678326735459E9, 0.0, 2022-09-08 19:05:26.735
130.0, -585.3474837955814, 357.73967000718955, -25190.37129764215, -24924.89962874647, -11855.901700961793, 3747.2476061877737, 63261.53883475529, 28166.640182333016, -12570.889302598156, -1922.004153967399, -16086.461077506672, -18984.320042648324, 6829.754332274715, -8170.501371681854, -10359.452409678986, -7650.398629951314, 0.17993750000000003, 0.89825, -0.24493750000000003, 192.0, 0.0, 0.0, 0.0, 0.0, 0.0, 0.0, 0.0, 0.0, 0.0, 1.6626783267354634E9, 0.0, 2022-09-08 19:05:26.735
132.0, -519.231023696783, 409.7745310991444, -25208.967949028964, -24921.79273626718, -11855.007631183582, 3747.3593649100503, 63291.154896158565, 28166.170795699454, -12587.161372561619, -1915.0080579528878, -16032.101634991364, -19006.023586514424, 6825.932183972858, -8158.342022698167, -10367.968424316457, -7658.244092255127, 0.17993750000000003, 0.89825, -0.24493750000000003, 192.0, 0.0, 0.0, 0.0, 0.0, 0.0, 0.0, 0.0, 0.0, 0.0, 1.6626783267354677E9, 0.0, 2022-09-08 19:05:26.735
