%OpenBCI Raw EEG Data
%Number of channels = 16
%Sample Rate = 125 Hz
%Board = OpenBCI_GUI$BoardCytonSerialDaisy
Sample Index, EXG Channel 0, EXG Channel 1, EXG Channel 2, EXG Channel 3, EXG Channel 4, EXG Channel 5, EXG Channel 6, EXG Channel 7, EXG Channel 8, EXG Channel 9, EXG Channel 10, EXG Channel 11, EXG Channel 12, EXG Channel 13, EXG Channel 14, EXG Channel 15, Accel Channel 0, Accel Channel 1, Accel Channel 2, Other, Other, Other, Other, Other, Other, Other, Analog Channel 0, Analog Channel 1, Analog Channel 2, Timestamp, Other, Timestamp (Formatted)
0.0, -6087.698768102976, -7905.18616499736, -29600.99632751898, -27246.66473229703, -16347.75297018921, 5774.461421306303, 22050.21942260497, 16833.56813592531, 0.0, 0.0, 0.0, 0.0, 0.0, 0.0, 0.0, 0.0, 0.0, 0.0, 0.0, 192.0, 0.0, 0.0, 0.0, 0.0, 0.0, 0.0, 0.0, 0.0, 0.0, 1.6626778100095608E9, 0.0, 2022-09-08 18:56:50.009
62.0, -6094.15842225056, -7906.303752220125, -29609.71350785655, -27249.14577593157, -16338.208775306795, 5773.075613150074, 22056.544966285823, 16843.84993837475, -17190.145515220825, -9178.050956493731, -19944.416873981583, -29011.178494832337, 5293.273066672453, -11700.26650431949, -10050.41719083991, -10806.688464485225, 0.0, 0.0, 0.0, 192.0, 0.0, 0.0, 0.0, 0.0, 0.0, 0.0, 0.0, 0.0, 0.0, 1.6626778100095656E9, 0.0, 2022-09-08 18:56:50.009
64.0, -6096.237134484903, -7910.796452855641, -29609.959377045558, -27245.167165418527, -16355.66548772639, 5768.068822392085, 22013.249637275894, 16824.76154860992, -17207.3116549625, -9178.833267549666, -19959.012563110897, -29020.722689714756, 5283.8406305123135, -11712.716425981096, -10064.901121246949, -10812.008179665587, 0.0, 0.0, 0.0, 192.0, 0.0, 0.0, 0.0, 0.0, 0.0, 0.0, 0.0, 0.0, 0.0, 1.66267781000957E9, 0.0, 2022-09-08 18:56:50.009
66.0, -6095.432471684512, -7902.883935318463, -29612.842752080294, -27238.68515952649, -16347.015362622185, 5804.591572832057, 22039.17766084405, 16859.518511237922, -17205.88114331736, -9166.785677288255, -19952.88818513014, -29015.78295419013, 5299.196278953109, -11709.967161413093, -10053.546435063654, -10794.03737712352, 0.0, 0.0, 0.0, 192.0, 0.0, 0.0, 0.0, 0.0, 0.0, 0.0, 0.0, 0.0, 0.0, 1.662677810009574E9, 0.0, 2022-09-08 18:56:50.009
68.0, -6100.148689764583, -7915.0656360466055, -29620.509400428466, -27248.452871853457, -16368.137761132451, 5781.032834176163, 21967.473264631422, 16806.969560023495, -17204.204762483212, -9161.912996997, -19960.174853822573, -29023.382547304936, 5296.849345785302, -11696.846687417828, -10070.578464338598, -10792.003368378088, 0.0, 0.0, 0.0, 192.0, 0.0, 0.0, 0.0, 0.0, 0.0, 0.0, 0.0, 0.0, 0.0, 1.662677810009578E9, 0.0, 2022-09-08 18:56:50.009
70.0, -6100.416910698046, -7913.143386023448, -29621.96226381806, -27253.30320040026, -16368.584796021558, 5781.569276043091, 22080.640146808644, 16889.894531952683, -17206.909323562304, -9166.360994143604, -19968.892034160144, -29029.953960174797, 5295.083557973333, -11700.89235316424, -10066.622205570007, -10796.406662035783, 0.256, 0.918, 0.176, 192.0, 4.0, 0.0, 14.0, 88.0, 2.5, 64.0, 0.0, 0.0, 0.0, 1.662677810009582E9, 0.0, 2022-09-08 18:56:50.009
72.0, -6110.408140469568, -7924.408665228923, -29625.739708631005, -27263.853223783164, -16350.23401382375, 5755.909473408398, 22093.581806848266, 16843.6264209302, -17204.98707353915, -9178.945026271944, -19967.90855740411, -29030.825678208552, 5299.486851631028, -11710.213030602103, -10058.03913569917, -10800.765252204568, 0.256, 0.918, 0.176, 192.0, 0.0, 0.0, 0.0, 0.0, 0.0, 0.0, 0.0, 0.0, 0.0, 1.662677810009586E9, 0.0, 2022-09-08 18:56:50.009
74.0, -6100.193393253493, -7919.737150637764, -29626.1420400312, -27260.902793515063, -16338.141720073429, 5767.510028780703, 22090.050231224326, 16846.219223287015, -17200.561428136996, -9186.164639731007, -19968.981441137963, -29037.285332356136, 5299.844479542313, -11715.51039403801, -10065.169342180412, -10819.384255335839, 0.256, 0.918, 0.176, 192.0, 0.0, 0.0, 0.0, 0.0, 0.0, 0.0, 0.0, 0.0, 0.0, 1.6626778100095901E9, 0.0, 2022-09-08 18:56:50.009
76.0, -6111.570431181244, -7926.800301885642, -29633.160487790166, -27265.35079066167, -16350.435179523849, 5764.716060723789, 22069.061943180794, 16844.989877341974, -17203.891838060837, -9187.43868916496, -19972.311851061804, -29033.798460221107, 5301.565563865372, -11716.896202194239, -10072.813638784128, -10818.154909390798, 0.256, 0.918, 0.176, 192.0, 0.0, 0.0, 0.0, 0.0, 0.0, 0.0, 0.0, 0.0, 0.0, 1.6626778100095944E9, 0.0, 2022-09-08 18:56:50.009
78.0, -6104.619038655644, -7914.842118602052, -29636.714415158563, -27264.00968599435, -16370.708211744812, 5759.955139154808, 22068.860777480695, 16840.027790072894, -17217.593457411942, -9185.695253097445, -19977.20688309752, -29036.100689900006, 5290.970836993556, -11722.282972607967, -10073.640653328974, -10820.591249536426, 0.256, 0.918, 0.176, 192.0, 0.0, 0.0, 0.0, 0.0, 0.0, 0.0, 0.0, 0.0, 0.0, 1.6626778100095985E9, 0.0, 2022-09-08 18:56:50.009
80.0, -6098.651122886076, -7908.56127841011, -29632.19936277859, -27265.306087172758, -16369.970604177786, 5757.049412375619, 22047.44780629251, 16815.552629894333, -17210.2620852306, -9156.392116116538, -19971.328374305773, -29029.529277030146, 5287.171040436154, -11712.582315514364, -10078.267464431223, -10819.607772780391, 0.254, 0.918, 0.17200000000000001, 192.0, 3.5, 120.0, 14.0, 88.0, 2.5, 48.0, 0.0, 0.0, 0.0, 1.6626778100096023E9, 0.0, 2022-09-08 18:56:50.009
82.0, -6104.7978526112865, -7919.781854126675, -29635.239200024513, -27274.91733728854, -16355.509025515203, 5754.94834839682, 22053.885108695642, 16853.57294721281, -17217.97343706768, -9186.34345368665, -19976.75984820841, -29038.715844001275, 5279.303226387886, -11721.165385385202, -10085.934112779392, -10829.733113018647, 0.254, 0.918, 0.17200000000000001, 192.0, 0.0, 0.0, 0.0, 0.0, 0.0, 0.0, 0.0, 0.0, 0.0, 1.6626778100096064E9, 0.0, 2022-09-08 18:56:50.009
84.0, -6100.953352564973, -7917.859604103519, -29625.449135953088, -27265.35079066167, -16365.120275630985, 5772.874447449976, 22084.03761196585, 16827.13083352218, -17210.75382360862, -9183.415375163004, -19972.87064467319, -29036.681835255844, 5283.460650856573, -11735.381094858778, -10079.988548754282, -10818.311371601983, 0.254, 0.918, 0.17200000000000001, 192.0, 0.0, 0.0, 0.0, 0.0, 0.0, 0.0, 0.0, 0.0, 0.0, 1.6626778100096107E9, 0.0, 2022-09-08 18:56:50.009
86.0, -6093.242000727892, -7909.27653423268, -29631.26058951147, -27268.390627907593, -16376.899644958932, 5776.227209118272, 22070.492454825933, 16848.052066332348, -17204.383576438853, -9175.569912859191, -19968.981441137963, -29038.157050389895, 5286.791060780413, -11718.79610047294, -10078.692147575874, -10819.496014058115, 0.254, 0.918, 0.17200000000000001, 192.0, 0.0, 0.0, 0.0, 0.0, 0.0, 0.0, 0.0, 0.0, 0.0, 1.6626778100096147E9, 0.0, 2022-09-08 18:56:50.009
88.0, -6101.802718854275, -7915.691484891354, -29630.3441679888, -27263.16031970505, -16367.37780182097, 5762.1232583669735, 22058.98130643145, 16863.854749662252, -17204.1600589943, -9173.58060760267, -19968.93673764905, -29035.40778582189, 5287.439261369617, -11730.016676189503, -10078.893313275972, -10809.9518191757, 0.254, 0.918, 0.17200000000000001, 192.0, 0.0, 0.0, 0.0, 0.0, 0.0, 0.0, 0.0, 0.0, 0.0, 1.6626778100096188E9, 0.0, 2022-09-08 18:56:50.009
90.0, -6109.312904991259, -7926.241508274259, -29629.092470299303, -27263.383837149602, -16357.297165071628, 5761.586816500047, 22016.73650941092, 16858.266813548424, -17209.636236385853, -9188.846849065643, -19969.830807427265, -29037.59825677851, 5293.250714927997, -11719.55605978442, -10076.032289985693, -10807.738996474623, 0.254, 0.922, 0.166, 192.0, 3.5, 120.0, 14.0, 104.0, 2.5, 24.0, 0.0, 0.0, 0.0, 1.6626778100096228E9, 0.0, 2022-09-08 18:56:50.009
92.0, -6120.153501052082, -7946.134560839482, -29637.67554017014, -27279.454741412967, -16353.787941192144, 5750.7909239281325, 22014.30016926529, 16874.67299397862, -17214.307750977012, -9203.509593428325, -19980.827865699277, -29048.55061156161, 5289.987360237523, -11730.307248867422, -10084.771822067718, -10821.172394892263, 0.254, 0.922, 0.166, 192.0, 0.0, 0.0, 0.0, 0.0, 0.0, 0.0, 0.0, 0.0, 0.0, 1.6626778100096421E9, 0.0, 2022-09-08 18:56:50.009
94.0, -6110.7881201253085, -7939.965479369817, -29624.2421417525, -27277.599546623176, -16347.842377167033, 5741.872577890465, 22063.83163497825, 16854.355258268744, -17205.612922383898, -9219.736959902879, -19978.682098231566, -29057.89364074393, 5300.0009417535, -11746.534615341976, -10074.154743451447, -10834.024647954066, 0.254, 0.922, 0.166, 192.0, 0.0, 0.0, 0.0, 0.0, 0.0, 0.0, 0.0, 0.0, 0.0, 1.6626778100096476E9, 0.0, 2022-09-08 18:56:50.009
96.0, -6106.697750889987, -7936.456255490334, -29628.354862732278, -27289.155398506573, -16354.458493525803, 5721.9124700918765, 22052.231079605946, 16820.402958441133, -17193.990015267136, -9202.928448072487, -19971.060153372306, -29047.88005922795, 5306.505299389994, -11740.74551352805, -10070.198484682856, -10841.579537579959, 0.254, 0.922, 0.166, 192.0, 0.0, 0.0, 0.0, 0.0, 0.0, 0.0, 0.0, 0.0, 0.0, 1.6626778100096524E9, 0.0, 2022-09-08 18:56:50.009
98.0, -6098.293494974791, -7929.728380409287, -29622.878685340725, -27285.82498858273, -16336.7559119172, 5726.114598049474, 21991.322575965238, 16816.781975839374, -17195.55463737901, -9214.126672044596, -19971.57424349478, -29051.858669740996, 5300.425624898151, -11754.84946427935, -10086.001168012759, -10861.271424445084, 0.254, 0.922, 0.166, 192.0, 0.0, 0.0, 0.0, 0.0, 0.0, 0.0, 0.0, 0.0, 0.0, 1.6626778100096576E9, 0.0, 2022-09-08 18:56:50.009
100.0, -6094.069015272738, -7922.821691372596, -29616.217865493047, -27277.91247104555, -16361.298127329128, 5746.298223292616, 22046.017294647372, 16842.352371496247, -17181.026003483057, -9215.49012845637, -19963.639374213144, -29046.963637705285, 5303.644276099715, -11742.690115295663, -10084.23538020079, -10856.845779042933, 0.252, 0.924, 0.166, 192.0, 3.5, 112.0, 14.0, 112.0, 2.5, 24.0, 0.0, 0.0, 0.0, 1.6626778100096672E9, 0.0, 2022-09-08 18:56:50.009
102.0, -6094.091367017194, -7922.262897761214, -29609.512342156453, -27265.06021798375, -16373.77040073519, 5748.37693552696, 21972.077723989216, 16808.467126902, -17175.750991791607, -9206.415320207516, -19948.75311240591, -29035.899524199907, 5314.171947738165, -11737.79508325995, -10074.869999274017, -10846.631031826859, 0.252, 0.924, 0.166, 192.0, 0.0, 0.0, 0.0, 0.0, 0.0, 0.0, 0.0, 0.0, 0.0, 1.6626778100096724E9, 0.0, 2022-09-08 18:56:50.009
104.0, -6090.760957093354, -7918.5301564371775, -29607.277167710923, -27254.666656812034, -16352.223319080273, 5760.0668978770855, 22054.689771496032, 16857.43979900358, -17182.031831983546, -9213.456119710938, -19943.09812105872, -29024.544838016613, 5318.374075695762, -11724.60755403132, -10062.08480144558, -10823.116996659875, 0.252, 0.924, 0.166, 192.0, 0.0, 0.0, 0.0, 0.0, 0.0, 0.0, 0.0, 0.0, 0.0, 1.6626778100096772E9, 0.0, 2022-09-08 18:56:50.009
106.0, -6084.390709923591, -7909.544755166145, -29599.34229842929, -27244.38485436259, -16346.993010877732, 5763.486714778747, 22038.618867232664, 16843.581717441288, -17181.942425005727, -9208.8740120976, -19941.7570163914, -29024.45543103879, 5315.445997172117, -11706.815565444895, -10050.886577473471, -10807.962513919178, 0.252, 0.924, 0.166, 192.0, 0.0, 0.0, 0.0, 0.0, 0.0, 0.0, 0.0, 0.0, 0.0, 1.6626778100096812E9, 0.0, 2022-09-08 18:56:50.009
108.0, -6081.350872677669, -7902.503955662723, -29606.673670610628, -27247.648209053066, -16337.649981695413, 5750.18742682784, 22066.066809423784, 16819.66535087411, -17173.247596412613, -9196.804070091734, -19930.782309863844, -29012.02786112164, 5329.1029130343095, -11708.447242790133, -10038.973097678792, -10796.540772502514, 0.252, 0.924, 0.166, 192.0, 0.0, 0.0, 0.0, 0.0, 0.0, 0.0, 0.0, 0.0, 0.0, 1.6626778100096853E9, 0.0, 2022-09-08 18:56:50.009
110.0, -6076.4558406419565, -7898.346531194035, -29603.90205429817, -27245.770662518822, -16328.977504846753, 5751.819104173077, 22024.425509503548, 16786.85299001372, -17172.666451056775, -9186.946950786943, -19933.531574431847, -29017.481686768733, 5330.667535146182, -11714.102234137325, -10049.366658850511, -10816.813804723479, 0.256, 0.914, 0.17200000000000001, 192.0, 4.0, 0.0, 14.0, 72.0, 2.5, 48.0, 0.0, 0.0, 0.0, 1.6626778100096893E9, 0.0, 2022-09-08 18:56:50.009
112.0, -6083.563695378744, -7906.773138853686, -29608.886493311704, -27258.600563836168, -16345.450740510314, 5754.411906529893, 22045.950239414007, 16817.76545259541, -17158.29427937201, -9193.29484621225, -19935.94556283302, -29016.20763733478, 5339.988212584044, -11699.797117685928, -10044.471626814799, -10813.304580843995, 0.256, 0.914, 0.17200000000000001, 192.0, 0.0, 0.0, 0.0, 0.0, 0.0, 0.0, 0.0, 0.0, 0.0, 1.6626778100096934E9, 0.0, 2022-09-08 18:56:50.009
114.0, -6088.995169281384, -7924.788644884664, -29611.14401950169, -27270.558747119758, -16347.775321933666, 5726.271060260661, 22032.6509514631, 16769.440981083033, -17167.860825998883, -9208.96341907542, -19941.712312902488, -29031.4515270533, 5331.025163057467, -11720.785405729463, -10049.41136233942, -10832.840005497934, 0.256, 0.914, 0.17200000000000001, 192.0, 0.0, 0.0, 0.0, 0.0, 0.0, 0.0, 0.0, 0.0, 0.0, 1.6626778100096974E9, 0.0, 2022-09-08 18:56:50.009
116.0, -6097.667646130043, -7935.226909545292, -29628.265455754456, -27280.326459446725, -16369.94825243333, 5718.358542723482, 22038.50710851039, 16733.544079487812, -17168.64313705482, -9223.894384371566, -19949.22249903947, -29042.11330915848, 5327.068904288877, -11729.770807000496, -10052.652365285441, -10835.410456110294, 0.256, 0.914, 0.17200000000000001, 192.0, 0.0, 0.0, 0.0, 0.0, 0.0, 0.0, 0.0, 0.0, 0.0, 1.6626778100097015E9, 0.0, 2022-09-08 18:56:50.009
118.0, -6108.999980568884, -7935.361020012024, -29632.355824989776, -27269.10588373016, -16371.982261178764, 5725.935784093832, 21988.148628252584, 16738.662628968075, -17185.384593651845, -9243.608622981146, -19967.685039959557, -29057.156033176903, 5314.350761693807, -11734.17410065819, -10072.56776959512, -10841.266613157584, 0.256, 0.914, 0.17200000000000001, 192.0, 0.0, 0.0, 0.0, 0.0, 0.0, 0.0, 0.0, 0.0, 0.0, 1.6626778100097055E9, 0.0, 2022-09-08 18:56:50.009
120.0, -6097.868811830141, -7924.833348373574, -29638.033168081423, -27269.664677341545, -16354.212624336795, 5733.89300511992, 22018.16702105606, 16736.69567545601, -17184.22230294017, -9230.555204219247, -19961.203034067516, -29047.477727827758, 5309.053398257899, -11725.41221683171, -10067.449220114853, -10826.425054839261, 0.262, 0.918, 0.17, 192.0, 4.0, 24.0, 14.0, 88.0, 2.5, 40.0, 0.0, 0.0, 0.0, 1.6626778100097096E9, 0.0, 2022-09-08 18:56:50.009
122.0, -6109.044684057794, -7943.072371849105, -29644.38106350673, -27282.69574435899, -16338.09701658452, 5728.7521038952, 21973.77645656782, 16708.554829186778, -17196.5604658795, -9218.686427913479, -19973.921176662585, -29056.88781224344, 5293.541287605916, -11725.546327298443, -10095.523011150719, -10848.821502783478, 0.262, 0.918, 0.17, 192.0, 0.0, 0.0, 0.0, 0.0, 0.0, 0.0, 0.0, 0.0, 0.0, 1.6626778100097136E9, 0.0, 2022-09-08 18:56:50.009
124.0, -6092.392634438591, -7928.9237176088955, -29619.369461461243, -27263.652058083066, -16384.63334854047, 5733.311859764083, 22021.229210046436, 16762.534292046344, -17188.98322450915, -9227.582422206691, -19960.95716487851, -29048.5059080727, 5310.238040714031, -11711.755300969518, -10069.125600949003, -10836.751560777613, 0.262, 0.918, 0.17, 192.0, 0.0, 0.0, 0.0, 0.0, 0.0, 0.0, 0.0, 0.0, 0.0, 1.6626778100097218E9, 0.0, 2022-09-08 18:56:50.009
126.0, -6076.925227275518, -7913.791586612652, -29604.32673744282, -27249.302238142758, -16376.407906580915, 5741.023211601164, 22007.460535461967, 16754.59942276471, -17176.935634247737, -9228.320029773717, -19940.348856490717, -29030.915085186374, 5315.177776238654, -11713.297571336934, -10060.296661889155, -10824.18988039373, 0.262, 0.918, 0.17, 192.0, 0.0, 0.0, 0.0, 0.0, 0.0, 0.0, 0.0, 0.0, 0.0, 1.662677810009726E9, 0.0, 2022-09-08 18:56:50.009
128.0, -6087.989340780895, -7919.334819237569, -29615.05557478137, -27251.49270909938, -16370.95408093382, 5739.123313322462, 22003.191352271006, 16744.74230345992, -17171.07947720045, -9219.736959902879, -19941.62290592467, -29027.495268284714, 5320.206918741098, -11716.024484160482, -10054.3734496085, -10824.346342604917, 0.262, 0.918, 0.17, 192.0, 0.0, 0.0, 0.0, 0.0, 0.0, 0.0, 0.0, 0.0, 0.0, 1.66267781000973E9, 0.0, 2022-09-08 18:56:50.009
130.0, -6098.807585097264, -7929.415455986912, -29623.459830696564, -27256.92418300202, -16357.252461582717, 5740.799694156611, 22025.140765326116, 16765.55177754781, -17194.191180967235, -9218.641724424568, -19954.13988281964, -29035.60895152199, 5301.967895265567, -11712.314094580901, -10054.596967053052, -10818.780758235545, 0.26, 0.916, 0.176, 192.0, 4.0, 16.0, 14.0, 80.0, 2.5, 64.0, 0.0, 0.0, 0.0, 1.6626778100097342E9, 0.0, 2022-09-08 18:56:50.009
132.0, -6093.957256550462, -7928.566089697611, -29628.37721447673, -27261.93097376001, -16362.214548851794, 5742.6325372019455, 22040.83168993374, 16771.564396806287, -17191.911303032794, -9218.932297102487, -19958.319659032783, -29042.98502719224, 5302.236116199031, -11711.822356202883, -10057.815618254617, -10821.105339658898, 0.26, 0.916, 0.176, 192.0, 0.0, 0.0, 0.0, 0.0, 0.0, 0.0, 0.0, 0.0, 0.0, 1.6626778100097384E9, 0.0, 2022-09-08 18:56:50.009
134.0, -6092.258523971859, -7930.197767042848, -29628.868952854747, -27269.06118024125, -16362.6615837409, 5757.630557731457, 21980.906663049063, 16751.35841981869, -17180.154285449302, -9206.750596374344, -19957.112664832195, -29036.883000955942, 5307.309962190386, -11724.182870886669, -10052.719420518806, -10819.071330913464, 0.26, 0.916, 0.176, 192.0, 0.0, 0.0, 0.0, 0.0, 0.0, 0.0, 0.0, 0.0, 0.0, 1.6626778100097425E9, 0.0, 2022-09-08 18:56:50.009
136.0, -6103.188527010504, -7940.747790425753, -29634.948627346592, -27276.6384216116, -16367.578967521069, 5740.598528456513, 22013.2943407648, 16739.668457468564, -17186.792753552527, -9225.63782043908, -19962.09710384573, -29047.008341194196, 5308.561659879882, -11710.36949281329, -10072.23249342829, -10835.298697388018, 0.26, 0.916, 0.176, 192.0, 0.0, 0.0, 0.0, 0.0, 0.0, 0.0, 0.0, 0.0, 0.0, 1.6626778100097463E9, 0.0, 2022-09-08 18:56:50.009
138.0, -6117.270126017347, -7946.358078284035, -29644.40341525119, -27275.87846230012, -16375.603243780524, 5722.784188125634, 22040.31759981127, 16744.898765671107, -17200.69553860373, -9255.097419631174, -19980.716106977, -29053.780919764155, 5293.921267261657, -11734.330562869378, -10066.443391614364, -10833.421150853772, 0.26, 0.916, 0.176, 192.0, 0.0, 0.0, 0.0, 0.0, 0.0, 0.0, 0.0, 0.0, 0.0, 1.6626778100097504E9, 0.0, 2022-09-08 18:56:50.009
140.0, -6107.390654968101, -7937.573842713099, -29633.786336634916, -27268.25651744086, -16360.895795928933, 5731.546071952113, 22017.65293093359, 16751.425475052056, -17192.82772455546, -9236.836044411188, -19972.84829292873, -29046.203678393806, 5303.0407789994215, -11727.066245921404, -10074.132391706991, -10828.615525795882, 0.264, 0.917, 0.177, 192.0, 4.0, 48.0, 14.0, 88.0, 2.5, 72.0, 0.0, 0.0, 0.0, 1.6626778100097547E9, 0.0, 2022-09-08 18:56:50.009
142.0, -6114.990248082906, -7944.033496860683, -29642.659979183674, -27286.20496823847, -16365.120275630985, 5716.145720022407, 22046.03964639183, 16736.60626847819, -17189.810239053993, -9237.01485836683, -19974.390563296147, -29049.645847039923, 5301.878488287746, -11727.625039532786, -10068.186827681879, -10828.23554614014, 0.264, 0.917, 0.177, 192.0, 0.0, 0.0, 0.0, 0.0, 0.0, 0.0, 0.0, 0.0, 0.0, 1.6626778100097587E9, 0.0, 2022-09-08 18:56:50.009
144.0, -6109.044684057794, -7947.140389339971, -29639.307217515376, -27291.770552607843, -16372.250482112227, 5722.828891614544, 21998.475134190936, 16744.854062182196, -17192.06776524398, -9224.028494838298, -19973.742362706944, -29058.117158188485, 5293.965970750567, -11745.685249052674, -10071.51723760572, -10840.529005590559, 0.264, 0.917, 0.177, 192.0, 0.0, 0.0, 0.0, 0.0, 0.0, 0.0, 0.0, 0.0, 0.0, 1.6626778100097625E9, 0.0, 2022-09-08 18:56:50.009
146.0, -6100.439262442501, -7938.289098535669, -29631.305293000376, -27285.35560194917, -16376.206740880818, 5722.292449747616, 22014.07665182074, 16759.829730967253, -17185.719869818673, -9226.934221617488, -19967.506226003912, -29055.144376175926, 5305.007732511489, -11729.390827344756, -10069.639691071474, -10838.204424167208, 0.264, 0.917, 0.177, 192.0, 0.0, 0.0, 0.0, 0.0, 0.0, 0.0, 0.0, 0.0, 0.0, 1.66267781000977E9, 0.0, 2022-09-08 18:56:50.009
148.0, -6097.712349618954, -7935.09279907856, -29628.466621454554, -27274.91733728854, -16355.03963888164, 5734.094170820019, 21993.73656436641, 16743.401198792602, -17186.278663430057, -9240.367620035127, -19955.99507760943, -29044.393187092926, 5310.193337225121, -11722.908821452716, -10073.126563206502, -10841.28896490204, 0.264, 0.917, 0.177, 192.0, 0.0, 0.0, 0.0, 0.0, 0.0, 0.0, 0.0, 0.0, 0.0, 1.662677810009774E9, 0.0, 2022-09-08 18:56:50.009
150.0, -6109.44701545799, -7943.072371849105, -29638.524906459443, -27276.236090211405, -16369.52356928868, 5735.65879293189, 22030.102852595195, 16773.017260195884, -17186.479829130152, -9232.365695520128, -19966.790970181344, -29046.583658049545, 5301.543212120916, -11741.058437950425, -10079.47445863181, -10838.070313700475, 0.261, 0.9215, 0.1775, 192.0, 4.0, 8.0, 14.0, 120.0, 2.5, 72.0, 0.0, 0.0, 0.0, 1.6626778100097783E9, 0.0, 2022-09-08 18:56:50.009
152.0, -6095.119547262138, -7925.2803832626805, -29618.542446916395, -27261.416883637536, -16375.782057736167, 5725.824025371555, 21986.695764862987, 16758.443922811024, -17175.505122602597, -9227.247146039861, -19963.728781190966, -29041.152184146904, 5313.657857615693, -11727.669743021697, -10075.674662074407, -10832.258860142096, 0.261, 0.9215, 0.1775, 192.0, 0.0, 0.0, 0.0, 0.0, 0.0, 0.0, 0.0, 0.0, 0.0, 1.6626778100097823E9, 0.0, 2022-09-08 18:56:50.009
154.0, -6090.135108248604, -7923.894575106451, -29620.48704868401, -27268.97177326343, -16376.117333902996, 5733.557728953091, 21974.648174601578, 16769.03864968284, -17167.749067276607, -9208.58343941968, -19957.04560959883, -29029.97631191925, 5323.403218198207, -11708.827222445872, -10069.416173626922, -10824.055769926998, 0.261, 0.9215, 0.1775, 192.0, 0.0, 0.0, 0.0, 0.0, 0.0, 0.0, 0.0, 0.0, 0.0, 1.6626778100097864E9, 0.0, 2022-09-08 18:56:50.009
156.0, -6103.97083806644, -7934.981040356284, -29628.310159243367, -27279.432389668513, -16373.412772823904, 5712.524737420647, 21994.474171933434, 16728.403178263092, -17180.243692427124, -9218.149986046552, -19960.33131603376, -29042.895620214418, 5311.065055258877, -11732.98945820206, -10070.980795738793, -10833.398799109316, 0.261, 0.9215, 0.1775, 192.0, 0.0, 0.0, 0.0, 0.0, 0.0, 0.0, 0.0, 0.0, 0.0, 1.6626778100097916E9, 0.0, 2022-09-08 18:56:50.009
158.0, -6105.222535755937, -7939.272575291703, -29635.35095874679, -27276.951346033973, -16361.074609884574, 5727.165130038873, 22002.856076104174, 16755.158216376094, -17190.950178021216, -9219.066407569218, -19968.623813226677, -29047.053044683107, 5297.743415563514, -11726.753321499029, -10074.08768821808, -10837.243299155629, 0.261, 0.9215, 0.1775, 192.0, 0.0, 0.0, 0.0, 0.0, 0.0, 0.0, 0.0, 0.0, 0.0, 1.662677810009796E9, 0.0, 2022-09-08 18:56:50.009
160.0, -6094.448994928479, -7926.800301885642, -29618.788316105405, -27260.232241181406, -16348.200005078317, 5740.978508112253, 22008.041680817805, 16804.309702433315, -17194.995843767625, -9239.719419445923, -19970.14373184964, -29040.45928006879, 5298.279857430442, -11721.053626662926, -10073.819467284617, -10826.04507518352, 0.2555, 0.9237500000000001, 0.18075, 192.0, 3.5, 104.0, 14.0, 120.0, 2.5, 96.0, 0.0, 0.0, 0.0, 1.6626778100098E9, 0.0, 2022-09-08 18:56:50.009
162.0, -6091.118585004639, -7923.246374517247, -29620.040013794904, -27259.092302214183, -16357.118351115985, 5748.868673904976, 22015.864791377164, 16788.283501658858, -17176.06391621398, -9222.10624481514, -19962.477083501468, -29031.876210197952, 5303.398406910706, -11708.916629423695, -10059.335536877577, -10810.018874409065, 0.2555, 0.9237500000000001, 0.18075, 192.0, 0.0, 0.0, 0.0, 0.0, 0.0, 0.0, 0.0, 0.0, 0.0, 1.662677810009804E9, 0.0, 2022-09-08 18:56:50.009
164.0, -6098.5393641638, -7931.047133332149, -29616.128458515224, -27262.579174349212, -16366.617842509491, 5743.638365702434, 21957.459683115445, 16764.434190325046, -17179.081401715448, -9219.558145947236, -19962.477083501468, -29033.016149165174, 5307.198203468109, -11715.443338804644, -10067.560978837131, -10821.127691403353, 0.2555, 0.9237500000000001, 0.18075, 192.0, 0.0, 0.0, 0.0, 0.0, 0.0, 0.0, 0.0, 0.0, 0.0, 1.662677810009808E9, 0.0, 2022-09-08 18:56:50.009
166.0, -6096.6394658850995, -7936.657421190432, -29627.036109809414, -27278.426561168024, -16374.798580980132, 5729.355600995494, 22027.778271171843, 16780.214521910493, -17193.07359374447, -9214.238430766873, -19968.13207484866, -29038.917009701374, 5308.941639535623, -11717.924382439183, -10064.454086357842, -10827.162662406286, 0.2555, 0.9237500000000001, 0.18075, 192.0, 0.0, 0.0, 0.0, 0.0, 0.0, 0.0, 0.0, 0.0, 0.0, 1.662677810009812E9, 0.0, 2022-09-08 18:56:50.009
168.0, -6109.715236391454, -7952.325994053602, -29637.42967098113, -27296.419715454547, -16381.414697338903, 5716.592754911513, 22007.482887206424, 16770.156236905605, -17189.944349520727, -9227.314201273228, -19971.37307779468, -29047.09774817202, 5302.549040621405, -11734.844652991851, -10074.46766787382, -10841.154854435308, 0.2555, 0.9237500000000001, 0.18075, 192.0, 0.0, 0.0, 0.0, 0.0, 0.0, 0.0, 0.0, 0.0, 0.0, 1.662677810009816E9, 0.0, 2022-09-08 18:56:50.009
170.0, -6100.998056053884, -7944.3017177941465, -29628.310159243367, -27284.282718215316, -16373.166903634896, 5736.306993521094, 21988.729773608422, 16774.783048007852, -17189.49731463162, -9249.889463173087, -19975.485798774458, -29057.7595302772, 5296.245848685008, -11734.196452402646, -10079.966197009826, -10848.843854527933, 0.25275000000000003, 0.9248750000000001, 0.181375, 192.0, 3.5, 104.0, 14.0, 120.0, 2.5, 88.0, 0.0, 0.0, 0.0, 1.6626778100098202E9, 0.0, 2022-09-08 18:56:50.009
172.0, -6095.8795065736185, -7930.845967632052, -29613.602711391773, -27262.847395282675, -16358.52651101667, 5735.189406298328, 21983.186540983505, 16758.17570187756, -17181.651852327806, -9246.179073593506, -19968.869682415687, -29044.03555918164, 5310.439206414128, -11723.98170518657, -10071.047850972158, -10833.711723531691, 0.25275000000000003, 0.9248750000000001, 0.181375, 192.0, 0.0, 0.0, 0.0, 0.0, 0.0, 0.0, 0.0, 0.0, 0.0, 1.6626778100098243E9, 0.0, 2022-09-08 18:56:50.009
174.0, -6092.8843728166075, -7936.411552001424, -29615.502609670475, -27259.29346791428, -16364.695592486334, 5740.173845311862, 22000.30797723627, 16768.278690371357, -17171.92884348975, -9226.800111150755, -19958.02908635486, -29032.055024153597, 5314.395465182718, -11711.621190502787, -10056.653327542941, -10822.446444326217, 0.25275000000000003, 0.9248750000000001, 0.181375, 192.0, 0.0, 0.0, 0.0, 0.0, 0.0, 0.0, 0.0, 0.0, 0.0, 1.6626778100098283E9, 0.0, 2022-09-08 18:56:50.009
176.0, -6107.413006712557, -7941.083066592582, -29617.156638760167, -27260.947497003974, -16380.207703138318, 5732.171920796862, 22004.39834647159, 16763.294251357824, -17178.12027670387, -9225.928393117, -19963.61702246869, -29032.144431131415, 5299.442148142118, -11724.853423220327, -10061.190731667368, -10817.417301823773, 0.25275000000000003, 0.9248750000000001, 0.181375, 192.0, 0.0, 0.0, 0.0, 0.0, 0.0, 0.0, 0.0, 0.0, 0.0, 1.6626778100098324E9, 0.0, 2022-09-08 18:56:50.009
178.0, -6103.948486321984, -7937.529139224189, -29607.724202600028, -27250.688046298987, -16376.989051936753, 5733.3565632529935, 21975.944575779984, 16780.12511493267, -17191.553675121508, -9224.855509383144, -19969.71904870499, -29036.45831781129, 5294.211839939576, -11715.97978067157, -10064.56584508012, -10823.340514104428, 0.25275000000000003, 0.9248750000000001, 0.181375, 192.0, 0.0, 0.0, 0.0, 0.0, 0.0, 0.0, 0.0, 0.0, 0.0, 1.6626778100098364E9, 0.0, 2022-09-08 18:56:50.009
180.0, -6114.118530049149, -7946.33572653958, -29614.273263725434, -27258.712322558444, -16338.141720073429, 5734.049467331108, 21982.02425027183, 16781.063888199795, -17182.59062559493, -9225.011971594331, -19963.393505024138, -29027.11528862897, 5303.845441799813, -11719.80192897343, -10053.457028085832, -10806.42024355176, 0.251375, 0.9254375000000001, 0.1836875, 192.0, 3.5, 104.0, 14.0, 120.0, 2.5, 104.0, 0.0, 0.0, 0.0, 1.6626778100098405E9, 0.0, 2022-09-08 18:56:50.009
182.0, -6125.249698787892, -7958.584482501088, -29617.46956318254, -27274.291488443792, -16350.591641735035, 5724.237051515228, 22035.020236375363, 16787.27767315837, -17193.49827688912, -9233.01389610933, -19982.593653511245, -29053.26682964168, 5292.535459105427, -11737.325696626389, -10068.812676526628, -10824.636915282836, 0.251375, 0.9254375000000001, 0.1836875, 192.0, 0.0, 0.0, 0.0, 0.0, 0.0, 0.0, 0.0, 0.0, 0.0, 1.6626778100098445E9, 0.0, 2022-09-08 18:56:50.009
182.0, -3055.1928943625567, -3957.7339837234003, -14780.269835027437, -13618.470861729487, -8177.229246762901, 2887.085424314192, 10948.040896420587, 8338.139455096658, -17193.49827688912, -9233.01389610933, -19982.593653511245, -29053.26682964168, 5292.535459105427, -11737.325696626389, -10068.812676526628, -10824.636915282836, 0.251375, 0.9254375000000001, 0.1836875, 192.0, 0.0, 0.0, 0.0, 0.0, 0.0, 0.0, 0.0, 0.0, 0.0, 1.662677810592441E9, 0.0, 2022-09-08 18:56:50.592
2.0, -6129.250661045392, -7934.444598489356, -29578.19754817457, -27257.97471499142, -16379.29128161565, 5763.196142100828, 21807.814753987164, 16645.29939237826, -17346.18304326332, -9183.951817029932, -19980.22436859898, -28989.31848875505, 5249.0389643954, -11722.774710985985, -10056.452161842843, -10780.536923472515, 0.251375, 0.9254375000000001, 0.1836875, 192.0, 0.0, 0.0, 0.0, 0.0, 0.0, 0.0, 0.0, 0.0, 0.0, 1.662677810592502E9, 0.0, 2022-09-08 18:56:50.592
4.0, -6123.394503998102, -7932.14236881046, -29566.976972458004, -27256.14187194608, -16372.473999556782, 5765.788944457644, 21823.50567859479, 16614.968075152407, -17389.925407162358, -9197.34051195866, -20004.163086910616, -29006.015241863162, 5229.347077530275, -11746.556967086432, -10064.096458446558, -10794.439708523716, 0.251375, 0.9254375000000001, 0.1836875, 192.0, 0.0, 0.0, 0.0, 0.0, 0.0, 0.0, 0.0, 0.0, 0.0, 1.662677810592514E9, 0.0, 2022-09-08 18:56:50.592
6.0, -6120.600535941188, -7927.850833875041, -29548.17915537109, -27241.72499677241, -16353.452665025314, 5776.875409707476, 21789.21810260035, 16606.832040170677, -17417.418052842386, -9187.595151376147, -19999.24570313045, -28992.917119612353, 5231.515196742439, -11724.920478453694, -10046.975022193792, -10793.411528278772, 0.251375, 0.9254375000000001, 0.1836875, 192.0, 0.0, 0.0, 0.0, 0.0, 0.0, 0.0, 0.0, 0.0, 0.0, 1.6626778105925198E9, 0.0, 2022-09-08 18:56:50.592
8.0, -6114.4314544715235, -7913.3669034680015, -29534.924570909094, -27235.980598447397, -16353.51972025868, 5781.412813831904, 21824.98089372884, 16619.661941488022, -17435.41120712891, -9164.23757842035, -19991.37788908218, -28974.92396532583, 5247.809618450358, -11702.613437487298, -10024.93620216086, -10785.208438063675, 0.26, 0.906, 0.396, 192.0, 4.0, 16.0, 14.0, 40.0, 6.0, 48.0, 0.0, 0.0, 0.0, 1.6626778105925255E9, 0.0, 2022-09-08 18:56:50.592
10.0, -6135.6209082151545, -7930.510691465222, -29548.55913502683, -27256.454796368456, -16369.031830910664, 5756.71413620879, 21797.01886141525, 16604.775679680788, -17460.132236496476, -9165.9139592545, -19997.837543229765, -28990.12315155544, 5245.753257960469, -11706.726158467074, -10023.706856215818, -10795.311426557473, 0.26, 0.906, 0.396, 192.0, 0.0, 0.0, 0.0, 0.0, 0.0, 0.0, 0.0, 0.0, 0.0, 1.662677810592532E9, 0.0, 2022-09-08 18:56:50.592
12.0, -6123.148634809093, -7921.480586705278, -29553.007132173436, -27270.40228490857, -16362.303955829617, 5757.608205987001, 21796.974157926343, 16610.788298939264, -17474.63851864797, -9187.706910098423, -20010.801555013844, -29028.83637295203, 5242.467551525539, -11725.971010443094, -10041.565900035608, -10810.443557553715, 0.26, 0.906, 0.396, 192.0, 0.0, 0.0, 0.0, 0.0, 0.0, 0.0, 0.0, 0.0, 0.0, 1.6626778105925455E9, 0.0, 2022-09-08 18:56:50.592
14.0, -6135.330335537235, -7927.068522819105, -29561.165518899623, -27291.07764852973, -16370.48469430026, 5752.579063484557, 21733.763424606732, 16598.338377277658, -17465.630765632483, -9181.537828628758, -20005.14656366665, -29044.16966964837, 5257.733792988514, -11733.838824491362, -10047.80203673864, -10821.462967570182, 0.26, 0.906, 0.396, 192.0, 0.0, 0.0, 0.0, 0.0, 0.0, 0.0, 0.0, 0.0, 0.0, 1.6626778105925527E9, 0.0, 2022-09-08 18:56:50.592
16.0, -6124.176815054037, -7918.194880270348, -29563.154824156147, -27301.806485868274, -16363.063915141096, 5756.04358387513, 21731.528250161202, 16616.063310630718, -17465.675469121394, -9173.737069813857, -20007.113517178717, -29057.066626199085, 5268.105002415777, -11743.897109496249, -10058.910853732927, -10827.028551939555, 0.26, 0.906, 0.396, 192.0, 0.0, 0.0, 0.0, 0.0, 0.0, 0.0, 0.0, 0.0, 0.0, 1.6626778105925589E9, 0.0, 2022-09-08 18:56:50.592
18.0, -6131.2176145574595, -7928.163758297415, -29585.19364418908, -27327.421585014057, -16366.751952976223, 5740.307955778594, 21702.694499813857, 16611.347092550648, -17448.509329379718, -9180.777869317279, -20007.471145090003, -29057.625419810465, 5271.8153919953575, -11741.326658883889, -10060.60958631153, -10824.927487960755, 0.228, 0.928, 0.372, 192.0, 3.5, 16.0, 14.5, 0.0, 5.5, 80.0, 0.0, 0.0, 0.0, 1.6626778105925646E9, 0.0, 2022-09-08 18:56:50.592
20.0, -6116.756035894876, -7911.914040078407, -29595.14017047169, -27335.624675229155, -16379.00070893773, 5736.798731899111, 21701.24163642426, 16622.165336867016, -17452.376181170486, -9189.383290932572, -20025.464299376526, -29067.102559459516, 5263.433487824618, -11751.608461333331, -10083.006034255748, -10838.316182889484, 0.228, 0.928, 0.372, 192.0, 0.0, 0.0, 0.0, 0.0, 0.0, 0.0, 0.0, 0.0, 0.0, 1.6626778105925703E9, 0.0, 2022-09-08 18:56:50.592
22.0, -6120.332315007725, -7915.155043024426, -29604.617310120742, -27344.006579399895, -16395.317482390106, 5722.985353825731, 21649.117368354484, 16623.618200256613, -17428.437462858852, -9178.877971038577, -20014.95897948253, -29058.899469244418, 5266.316862859352, -11749.306231654435, -10087.722252335818, -10826.71562751718, 0.228, 0.928, 0.372, 192.0, 0.0, 0.0, 0.0, 0.0, 0.0, 0.0, 0.0, 0.0, 0.0, 1.6626778105925765E9, 0.0, 2022-09-08 18:56:50.592
24.0, -6104.574335166733, -7902.436900429357, -29593.977879760016, -27337.681035719044, -16378.397211837437, 5735.524682465159, 21675.62653727848, 16625.249877601847, -17422.715416278294, -9182.409546662515, -20020.502212107447, -29070.500024616722, 5259.499580800483, -11731.022504689992, -10095.545362895175, -10833.398799109316, 0.228, 0.928, 0.372, 192.0, 0.0, 0.0, 0.0, 0.0, 0.0, 0.0, 0.0, 0.0, 0.0, 1.662677810592582E9, 0.0, 2022-09-08 18:56:50.592
26.0, -6110.229326513926, -7907.42133944289, -29597.95649027306, -27343.783061955342, -16383.426354339881, 5722.113635791974, 21638.18736531584, 16618.96903740991, -17407.00213992621, -9181.314311184206, -20018.334092895282, -29069.740065305243, 5269.5802175498275, -11736.65514429273, -10074.154743451447, -10834.650496798813, 0.228, 0.928, 0.372, 192.0, 0.0, 0.0, 0.0, 0.0, 0.0, 0.0, 0.0, 0.0, 0.0, 1.662677810592588E9, 0.0, 2022-09-08 18:56:50.592
28.0, -6109.245849757892, -7907.488394676256, -29596.078943738812, -27349.25923934689, -16377.167865892396, 5732.954231852798, 21681.39328734795, 16674.222549703427, -17394.77573570916, -9185.807011819723, -20016.143621938663, -29072.93636476235, 5273.46942108505, -11735.60461230333, -10073.797115540161, -10824.592211793926, 0.21, 0.9500000000000001, 0.308, 192.0, 3.0, 72.0, 14.5, 88.0, 4.5, 80.0, 0.0, 0.0, 0.0, 1.662677810592594E9, 0.0, 2022-09-08 18:56:50.592
30.0, -6115.079655060727, -7915.378560468979, -29598.425876906622, -27358.110530151193, -16383.046374684141, 5722.493615447715, 21679.09105766905, 16672.6355758471, -17385.87974141595, -9205.454195195936, -20026.693645321568, -29085.542748635144, 5276.866886242257, -11746.936946742171, -10063.738830535272, -10828.101435673409, 0.21, 0.9500000000000001, 0.308, 192.0, 0.0, 0.0, 0.0, 0.0, 0.0, 0.0, 0.0, 0.0, 0.0, 1.6626778105926E9, 0.0, 2022-09-08 18:56:50.592
32.0, -6109.536422435811, -7913.635124401466, -29600.61634786324, -27360.36805634118, -16377.43608682586, 5716.480996189237, 21674.553653544626, 16677.083572993706, -17377.20726456729, -9205.007160306832, -20030.24757268996, -29091.80123708263, 5282.052490955888, -11755.072981723903, -10067.315109648122, -10838.651459056313, 0.21, 0.9500000000000001, 0.308, 192.0, 0.0, 0.0, 0.0, 0.0, 0.0, 0.0, 0.0, 0.0, 0.0, 1.662677810592606E9, 0.0, 2022-09-08 18:56:50.592
34.0, -6118.901803362585, -7923.559298939622, -29615.86023758176, -27365.821881988275, -16386.73441251927, 5701.348865192994, 21683.00261294873, 16672.277947935814, -17363.595052194007, -9225.011971594331, -20036.371950670713, -29092.7176586053, 5280.644331055204, -11757.75519105854, -10076.2781591747, -10842.183034680253, 0.21, 0.9500000000000001, 0.308, 192.0, 0.0, 0.0, 0.0, 0.0, 0.0, 0.0, 0.0, 0.0, 0.0, 1.662677810592612E9, 0.0, 2022-09-08 18:56:50.592
36.0, -6111.391617225602, -7914.462138946312, -29619.660034139164, -27358.535213295843, -16395.29513064565, 5702.645266371402, 21656.448740535827, 16690.226398733426, -17350.362819476464, -9230.7787216638, -20036.461357648535, -29096.830379585073, 5274.85522924128, -11755.94469975766, -10098.13816525199, -10856.19757845373, 0.21, 0.9500000000000001, 0.308, 192.0, 0.0, 0.0, 0.0, 0.0, 0.0, 0.0, 0.0, 0.0, 0.0, 1.6626778105926197E9, 0.0, 2022-09-08 18:56:50.592
38.0, -6095.20895423996, -7902.66041787391, -29611.635757879707, -27342.039625887828, -16383.851037484532, 5712.032999042631, 21679.89572046944, 16681.084535251204, -17316.61168534895, -9220.608677936636, -20024.63728483168, -29086.727391091277, 5284.600589823794, -11743.60653681833, -10095.768880339729, -10846.563976593492, 0.194, 0.9580000000000001, 0.226, 192.0, 3.0, 8.0, 14.5, 120.0, 3.5, 8.0, 0.0, 0.0, 0.0, 1.6626778105926266E9, 0.0, 2022-09-08 18:56:50.592
40.0, -6100.4616141869565, -7911.467005189301, -29619.078888783326, -27337.591628741222, -16398.714947547312, 5719.319667735061, 21623.524620953158, 16762.578995535256, -17297.52329558412, -9233.259765298339, -20018.848183017755, -29088.47082715879, 5286.433432869128, -11739.091484438359, -10098.384034440998, -10849.380296394862, 0.194, 0.9580000000000001, 0.226, 192.0, 0.0, 0.0, 0.0, 0.0, 0.0, 0.0, 0.0, 0.0, 0.0, 1.6626778105926323E9, 0.0, 2022-09-08 18:56:50.592
42.0, -6093.912553061552, -7915.400912213435, -29619.615330650253, -27341.65964623209, -16402.58179933808, 5716.168071766862, 21592.902731049388, 16783.32141438978, -17267.594309758464, -9238.35596303415, -20015.20484867154, -29086.816798069096, 5286.433432869128, -11739.426760605189, -10108.643485145985, -10833.309392131496, 0.194, 0.9580000000000001, 0.226, 192.0, 0.0, 0.0, 0.0, 0.0, 0.0, 0.0, 0.0, 0.0, 0.0, 1.6626778105926385E9, 0.0, 2022-09-08 18:56:50.592
44.0, -6099.3440269641915, -7923.246374517247, -29616.933121315615, -27352.455538804003, -16397.284435902173, 5692.7434435777, 21689.708136285324, 16752.096027385716, -17252.395123528855, -9255.946785920476, -20021.798613285853, -29109.861446602517, 5287.930999747634, -11754.067153223414, -10093.62311287202, -10844.95465099271, 0.194, 0.9580000000000001, 0.226, 192.0, 0.0, 0.0, 0.0, 0.0, 0.0, 0.0, 0.0, 0.0, 0.0, 1.662677810592644E9, 0.0, 2022-09-08 18:56:50.592
46.0, -6083.407233167557, -7913.94804882384, -29615.256740481465, -27348.6557422466, -16389.371918364992, 5708.635533885424, 21703.67797656989, 16787.12121094718, -17233.284382019567, -9263.032288912807, -20018.334092895282, -29108.497990190746, 5295.262371928975, -11753.038972978471, -10084.861229045538, -10843.635898069848, 0.194, 0.9580000000000001, 0.226, 192.0, 0.0, 0.0, 0.0, 0.0, 0.0, 0.0, 0.0, 0.0, 0.0, 1.66267781059265E9, 0.0, 2022-09-08 18:56:50.592
48.0, -6085.038910512795, -7917.949011081339, -29619.414164950154, -27356.41179757259, -16401.73243304878, 5704.969847794753, 21641.696589195322, 16778.51578933189, -17221.4156057138, -9268.26259711535, -20017.037691716872, -29108.229769257283, 5296.424662640651, -11759.833903292883, -10083.609531356042, -10840.417246868283, 0.196, 0.924, 0.158, 192.0, 3.0, 16.0, 14.0, 112.0, 2.0, 120.0, 0.0, 0.0, 0.0, 1.662677810592656E9, 0.0, 2022-09-08 18:56:50.592
50.0, -6081.663797100044, -7915.42326395789, -29622.789278362907, -27357.26116386189, -16410.24844768625, 5707.517946662659, 21657.52162426968, 16780.594501566233, -17214.97830331067, -9265.334518591704, -20022.357406897238, -29106.888664589962, 5297.676360330148, -11752.681345067185, -10085.509429634742, -10839.992563723632, 0.196, 0.924, 0.158, 192.0, 0.0, 0.0, 0.0, 0.0, 0.0, 0.0, 0.0, 0.0, 0.0, 1.662677810592662E9, 0.0, 2022-09-08 18:56:50.592
52.0, -6096.706521118465, -7921.502938449734, -29627.90782784317, -27360.99390518593, -16416.842212300566, 5686.909638274866, 21611.678196391847, 16768.524559560366, -17212.631370142863, -9275.526914063325, -20020.569267340812, -29107.313347734613, 5296.268200429464, -11757.464618380622, -10095.56771463963, -10841.825406768967, 0.196, 0.924, 0.158, 192.0, 0.0, 0.0, 0.0, 0.0, 0.0, 0.0, 0.0, 0.0, 0.0, 1.662677810592668E9, 0.0, 2022-09-08 18:56:50.592
54.0, -6090.649198371077, -7915.646781402444, -29628.064290054357, -27358.848137718218, -16411.902476775944, 5698.51019364717, 21650.614935232992, 16770.60327179471, -17199.935579292247, -9264.440448813493, -20020.189287685072, -29103.960586066318, 5299.151575464199, -11754.313022412423, -10091.052662259659, -10839.500825345616, 0.196, 0.924, 0.158, 192.0, 0.0, 0.0, 0.0, 0.0, 0.0, 0.0, 0.0, 0.0, 0.0, 1.6626778105926738E9, 0.0, 2022-09-08 18:56:50.592
56.0, -6102.406215954568, -7926.532080952178, -29635.060386068868, -27365.106626165703, -16417.825689056597, 5681.1205364609405, 21601.731670109235, 16744.384675548634, -17203.377747938364, -9282.925341478032, -20034.91908728112, -29117.259874017225, 5297.654008585693, -11747.94277524266, -10100.082767019603, -10854.320031919484, 0.196, 0.924, 0.158, 192.0, 0.0, 0.0, 0.0, 0.0, 0.0, 0.0, 0.0, 0.0, 0.0, 1.6626778105926795E9, 0.0, 2022-09-08 18:56:50.592
58.0, -6088.056396014261, -7911.690522633854, -29637.094394814303, -27361.17271914157, -16427.68280836139, 5682.707510317267, 21632.510022224193, 16726.793852662307, -17209.524477663574, -9275.057527429763, -20033.510927380434, -29119.070365318104, 5311.936773292634, -11736.163405914713, -10092.214952971335, -10858.119828476885, 0.226, 0.914, 0.124, 192.0, 3.5, 8.0, 14.0, 72.0, 1.5, 112.0, 0.0, 0.0, 0.0, 1.6626778105926857E9, 0.0, 2022-09-08 18:56:50.592
60.0, -6080.30034068827, -7905.789662097653, -29628.466621454554, -27346.197050356514, -16414.987017510775, 5686.797879552589, 21597.41778342936, 16752.721876230466, -17199.957931036704, -9252.281099829806, -20024.324360409304, -29119.740917651765, 5313.277877959952, -11719.51135629551, -10086.403499412954, -10853.425962141271, 0.226, 0.914, 0.124, 192.0, 0.0, 0.0, 0.0, 0.0, 0.0, 0.0, 0.0, 0.0, 0.0, 1.6626778105926917E9, 0.0, 2022-09-08 18:56:50.592
62.0, -6085.3741866796245, -7910.170604010893, -29638.748423903995, -27357.574088284266, -16418.78681406818, 5674.996158480187, 21617.333187739037, 16657.43638961749, -17191.196047210222, -9252.057582385252, -20015.473069605003, -29120.85850487453, 5319.201090240609, -11714.45986204861, -10078.781554553694, -10847.078066715965, 0.226, 0.914, 0.124, 192.0, 0.0, 0.0, 0.0, 0.0, 0.0, 0.0, 0.0, 0.0, 0.0, 1.6626778105926976E9, 0.0, 2022-09-08 18:56:50.592
64.0, -6090.269218715337, -7916.227926758281, -29636.066214569357, -27348.946314924517, -16420.217325713318, 5711.250687986695, 21552.423721840827, 16827.220240500003, -17191.866599543882, -9266.340347092193, -20029.509965122936, -29140.550391739656, 5309.679247102648, -11735.828129747884, -10091.611455871041, -10861.897273289833, 0.226, 0.914, 0.124, 192.0, 0.0, 0.0, 0.0, 0.0, 0.0, 0.0, 0.0, 0.0, 0.0, 1.662677810592703E9, 0.0, 2022-09-08 18:56:50.592
66.0, -6073.795983051776, -7901.811051584608, -29632.06525231186, -27356.143576639126, -16406.49335461776, 5710.423673441848, 21660.941441171344, 16837.993781327463, -17180.243692427124, -9253.778666708311, -20019.89871500715, -29143.076138863104, 5319.245793729519, -11713.141109125747, -10088.035176758192, -10822.424092581761, 0.226, 0.914, 0.124, 192.0, 0.0, 0.0, 0.0, 0.0, 0.0, 0.0, 0.0, 0.0, 0.0, 1.6626778105927093E9, 0.0, 2022-09-08 18:56:50.592
68.0, -6075.427660397013, -7906.102586520027, -29644.112842573268, -27363.45259707601, -16424.30769494864, 5689.301274931583, 21639.595525216526, 16777.331146875757, -17176.1533231918, -9246.223777082418, -20020.457508618536, -29155.548412269167, 5316.205956483598, -11738.80091176044, -10087.342272680078, -10848.374467894373, 0.21700000000000003, 0.892, 0.109, 192.0, 3.0, 64.0, 13.5, 24.0, 1.0, 120.0, 0.0, 0.0, 0.0, 1.6626778105927165E9, 0.0, 2022-09-08 18:56:50.592
70.0, -6054.349965375658, -7886.567161866089, -29636.53560120292, -27348.722797479964, -16423.145404236962, 5697.41495816886, 21631.638304190434, 16770.826789239265, -17164.239843397125, -9237.64070721158, -20005.660653789124, -29153.179127356903, 5324.498453676517, -11732.497719824043, -10086.33644417959, -10856.175226709274, 0.21700000000000003, 0.892, 0.109, 192.0, 0.0, 0.0, 0.0, 0.0, 0.0, 0.0, 0.0, 0.0, 0.0, 1.662677810592723E9, 0.0, 2022-09-08 18:56:50.592
72.0, -6059.803791022753, -7893.071519502583, -29637.027339580934, -27346.04058814533, -16415.970494266807, 5695.60446686798, 21620.216562773774, 16755.806416965297, -17159.34481136141, -9242.7816084363, -20005.928874722587, -29156.598944258567, 5318.329372206852, -11735.51520532551, -10086.492906390775, -10864.780648324568, 0.21700000000000003, 0.892, 0.109, 192.0, 0.0, 0.0, 0.0, 0.0, 0.0, 0.0, 0.0, 0.0, 0.0, 1.6626778105927289E9, 0.0, 2022-09-08 18:56:50.592
74.0, -6046.705668771943, -7881.716833319287, -29628.064290054357, -27334.03770137283, -16410.315502919617, 5702.578211138036, 21630.476013478758, 16765.3059083588, -17144.436197809722, -9236.277250799805, -19994.99887168394, -29148.686426721386, 5324.587860654337, -11716.583277771864, -10073.506542862242, -10859.304470933017, 0.21700000000000003, 0.892, 0.109, 192.0, 0.0, 0.0, 0.0, 0.0, 0.0, 0.0, 0.0, 0.0, 0.0, 1.6626778105927346E9, 0.0, 2022-09-08 18:56:50.592
76.0, -6034.881595955086, -7868.819876768574, -29615.882589326215, -27318.704404676486, -16390.780078265678, 5709.395493196905, 21646.122234597475, 16772.413763095592, -17131.986276148116, -9226.531890217291, -19982.168970366594, -29132.01202535773, 5331.7404188800365, -11702.345216553835, -10054.954594964338, -10847.703915560713, 0.21700000000000003, 0.892, 0.109, 192.0, 0.0, 0.0, 0.0, 0.0, 0.0, 0.0, 0.0, 0.0, 0.0, 1.6626778105927405E9, 0.0, 2022-09-08 18:56:50.592
78.0, -6037.34028784517, -7871.591493081033, -29623.370423718745, -27326.438108258022, -16399.229037669782, 5696.945571535298, 21623.256400019694, 16765.17179789207, -17121.078624853926, -9214.39489297806, -19966.813321925798, -29120.5232287077, 5339.429418972662, -11686.341367523833, -10052.004164696236, -10846.474569615671, 0.22450000000000003, 0.875, 0.0815, 192.0, 3.5, 32.0, 13.0, 104.0, 0.5, 88.0, 0.0, 0.0, 0.0, 1.6626778105927465E9, 0.0, 2022-09-08 18:56:50.592
80.0, -6040.313069857725, -7874.340757649035, -29620.867028339748, -27319.352605265693, -16390.981243965776, 5703.449929171793, 21642.009513617697, 16773.665460785087, -17121.212735320656, -9224.833157638688, -19977.922138920087, -29126.647606688453, 5330.3322589793515, -11688.375376269267, -10067.09159220357, -10851.77193305158, 0.22450000000000003, 0.875, 0.0815, 192.0, 0.0, 0.0, 0.0, 0.0, 0.0, 0.0, 0.0, 0.0, 0.0, 1.6626778105927527E9, 0.0, 2022-09-08 18:56:50.592
82.0, -6043.397610592558, -7876.687690816843, -29631.506458700474, -27331.064919360273, -16399.653720814433, 5700.521850648147, 21628.15143205541, 16775.18537940805, -17116.094185840393, -9231.002239108353, -19981.27490058838, -29133.755461425244, 5328.72293337857, -11682.809791899896, -10077.529856864197, -10857.382220909862, 0.22450000000000003, 0.875, 0.0815, 192.0, 0.0, 0.0, 0.0, 0.0, 0.0, 0.0, 0.0, 0.0, 0.0, 1.6626778105927584E9, 0.0, 2022-09-08 18:56:50.592
84.0, -6040.536587302278, -7873.93842624884, -29631.68527265612, -27337.569276996768, -16397.44089811336, 5710.043693786108, 21657.94630741433, 16796.061908729305, -17106.214714791146, -9224.363771005126, -19991.15437163763, -29137.309388793637, 5331.002811313011, -11688.040100102437, -10074.80294404065, -10851.883691773855, 0.22450000000000003, 0.875, 0.0815, 192.0, 0.0, 0.0, 0.0, 0.0, 0.0, 0.0, 0.0, 0.0, 0.0, 1.6626778105927644E9, 0.0, 2022-09-08 18:56:50.592
86.0, -6043.19644489246, -7879.459307129301, -29641.989426850014, -27355.964762683485, -16391.271816643693, 5700.566554137058, 21661.030848149163, 16800.107574475715, -17112.808479405463, -9239.07121885672, -20004.96774971101, -29162.052769905662, 5324.744322865525, -11679.88171337625, -10075.473496374309, -10861.383183167361, 0.22450000000000003, 0.875, 0.0815, 192.0, 0.0, 0.0, 0.0, 0.0, 0.0, 0.0, 0.0, 0.0, 0.0, 1.66267781059277E9, 0.0, 2022-09-08 18:56:50.592
88.0, -6029.6065842636335, -7866.718812789776, -29640.91654311616, -27349.41570155808, -16397.262084157715, 5692.31876043305, 21718.139555232472, 16817.296065961847, -17095.754098386064, -9244.569747992724, -20011.896790492152, -29176.737866012798, 5328.365305467285, -11684.396765756223, -10064.096458446558, -10862.34430817894, 0.23825000000000002, 0.8725, 0.04975, 192.0, 3.5, 112.0, 13.5, 24.0, 0.0, 72.0, 0.0, 0.0, 0.0, 1.6626778105927763E9, 0.0, 2022-09-08 18:56:50.592
90.0, -6016.307296312725, -7861.689670287332, -29642.95055186159, -27345.817070700774, -16392.769383522198, 5679.958245749265, 21715.747918575755, 16813.362158937714, -17080.510208667543, -9248.54835850577, -20014.75781378243, -29189.47836035232, 5336.546043937927, -11686.296664034924, -10058.620281055008, -10869.943901293744, 0.23825000000000002, 0.8725, 0.04975, 192.0, 0.0, 0.0, 0.0, 0.0, 0.0, 0.0, 0.0, 0.0, 0.0, 1.662677810592782E9, 0.0, 2022-09-08 18:56:50.592
92.0, -6015.659095723521, -7866.741164534232, -29661.994238137515, -27355.428320816558, -16393.23877015576, 5670.391699122393, 21759.467930730338, 16814.099766504736, -17068.015583517026, -9248.615413739135, -20021.977427241498, -29195.4909796108, 5332.05334330241, -11698.388957785244, -10052.071219929603, -10872.983738539666, 0.23825000000000002, 0.8725, 0.04975, 192.0, 0.0, 0.0, 0.0, 0.0, 0.0, 0.0, 0.0, 0.0, 0.0, 1.662677810592788E9, 0.0, 2022-09-08 18:56:50.592
94.0, -6004.036188606762, -7856.1911411513265, -29661.3013340594, -27347.448748046012, -16390.288339887662, 5681.902847516876, 21769.30269829067, 16825.253286987936, -17051.18471994218, -9248.168378850029, -20019.58579058478, -29204.476380881835, 5335.629622415259, -11698.813640929895, -10045.544510548652, -10876.917645563799, 0.23825000000000002, 0.8725, 0.04975, 192.0, 0.0, 0.0, 0.0, 0.0, 0.0, 0.0, 0.0, 0.0, 0.0, 1.662677810592794E9, 0.0, 2022-09-08 18:56:50.592
96.0, -6002.04688335024, -7855.36412660648, -29681.77553198046, -27361.55269879731, -16406.06867147311, 5675.845524769488, 21842.37055091507, 16835.579792926288, -17027.313056863914, -9248.704820716956, -20023.027959230898, -29208.20912220587, 5329.304078734408, -11703.105175865314, -10038.503711045232, -10868.334575692961, 0.23825000000000002, 0.8725, 0.04975, 192.0, 0.0, 0.0, 0.0, 0.0, 0.0, 0.0, 0.0, 0.0, 0.0, 1.6626778105928E9, 0.0, 2022-09-08 18:56:50.592
98.0, -6023.884537683075, -7875.950083249818, -29703.45672410211, -27388.643013077144, -16427.794567083667, 5648.598748278469, 21849.299591696214, 16814.815022327308, -17032.968048211103, -9259.947748177976, -20042.429273418104, -29230.516163172266, 5310.282744202941, -11720.517184796, -10050.84187398456, -10883.980796811677, 0.239125, 0.8632500000000001, 0.007875, 192.0, 3.5, 64.0, 13.0, 88.0, 127.0, 120.0, 0.0, 0.0, 0.0, 1.662677810592806E9, 0.0, 2022-09-08 18:56:50.592
100.0, -6050.840741496175, -7900.961685295307, -29733.855096561325, -27430.597237419755, -16451.174491783917, 5612.478329238693, 21932.381025836592, 16790.250455170924, -17037.70661803563, -9306.17115571155, -20076.02394533443, -29257.092387329627, 5284.399424123696, -11745.528786841487, -10067.404516625944, -10906.86898313391, 0.239125, 0.8632500000000001, 0.007875, 192.0, 0.0, 0.0, 0.0, 0.0, 0.0, 0.0, 0.0, 0.0, 0.0, 1.6626778105928133E9, 0.0, 2022-09-08 18:56:50.592
102.0, -6070.733794061398, -7921.458234960823, -29755.089253793867, -27453.172499319615, -16462.93150936741, 5590.461860950215, 21970.11077047715, 16770.26799562788, -17052.168196698214, -9349.019449832374, -20107.674015483146, -29290.150617379026, 5260.3042436008745, -11766.740592329574, -10089.219819214322, -10936.842672448478, 0.239125, 0.8632500000000001, 0.007875, 192.0, 0.0, 0.0, 0.0, 0.0, 0.0, 0.0, 0.0, 0.0, 0.0, 1.6626778105928195E9, 0.0, 2022-09-08 18:56:50.592
104.0, -6061.39076487908, -7913.61277265701, -29770.757826657038, -27460.23565056749, -16502.091765653106, 5574.703881109224, 22056.232041863448, 16770.17858865006, -17039.18183316968, -9355.210883046495, -20116.212381865073, -29296.207940126413, 5247.139066116699, -11774.943682544672, -10105.71540662234, -10944.017582418632, 0.239125, 0.8632500000000001, 0.007875, 192.0, 0.0, 0.0, 0.0, 0.0, 0.0, 0.0, 0.0, 0.0, 0.0, 1.6626778105928252E9, 0.0, 2022-09-08 18:56:50.592
106.0, -6080.121526732627, -7926.800301885642, -29805.604196262862, -27479.77107522143, -16526.23164966484, 5540.617470814881, 22080.550739830822, 16737.209765578482, -17032.14103366626, -9386.928008428575, -20134.496108829513, -29314.42461185749, 5225.949612373068, -11783.727918115606, -10134.638563947507, -10970.057364709064, 0.239125, 0.8632500000000001, 0.007875, 192.0, 0.0, 0.0, 0.0, 0.0, 0.0, 0.0, 0.0, 0.0, 0.0, 1.662677810592831E9, 0.0, 2022-09-08 18:56:50.592
108.0, -6090.380977437613, -7932.388237999468, -29837.701301300684, -27503.62038655524, -16547.577565619657, 5515.583517024937, 22179.14428462318, 16712.824012377743, -17018.75233873753, -9399.57909579028, -20143.816786267376, -29319.36434738211, 5213.343228500275, -11795.23906651009, -10144.249814063289, -10984.809516049567, 0.2325625, 0.8296250000000001, -0.0510625, 192.0, 3.5, 8.0, 12.0, 112.0, 126.0, 72.0, 0.0, 0.0, 0.0, 1.6626778105928369E9, 0.0, 2022-09-08 18:56:50.592
110.0, -6135.017411114862, -7964.462991292834, -29878.202662253698, -27544.568782397364, -16602.96518837991, 5460.933501831711, 22195.61752028674, 16662.77845654231, -17051.631754831287, -9443.29910794486, -20191.76127812401, -29359.3292664682, 5173.333605925275, -11843.183558366723, -10187.768660517771, -11034.765664907178, 0.2325625, 0.8296250000000001, -0.0510625, 192.0, 0.0, 0.0, 0.0, 0.0, 0.0, 0.0, 0.0, 0.0, 0.0, 1.6626778105928428E9, 0.0, 2022-09-08 18:56:50.592
112.0, -6140.135960595127, -7974.253055364258, -29903.72835442166, -27573.916622867182, -16637.23041262989, 5438.0453155094765, 22264.68441065364, 16645.209985400437, -17064.126379981804, -9473.116335048238, -20221.354987782837, -29383.15622605756, 5145.326870122775, -11866.675241789251, -10210.567439862185, -11059.978432652764, 0.2325625, 0.8296250000000001, -0.0510625, 192.0, 0.0, 0.0, 0.0, 0.0, 0.0, 0.0, 0.0, 0.0, 0.0, 1.6626778105928485E9, 0.0, 2022-09-08 18:56:50.592
114.0, -6180.503211081411, -8014.977933761827, -29946.219020631197, -27622.17403914619, -16665.974755999418, 5395.442890577661, 22272.46281772409, 16592.504571974823, -17068.932005039693, -9505.504012763979, -20244.19847061616, -29404.77036294584, 5124.137416379144, -11892.335044423944, -10233.343867462143, -11086.152325409928, 0.2325625, 0.8296250000000001, -0.0510625, 192.0, 0.0, 0.0, 0.0, 0.0, 0.0, 0.0, 0.0, 0.0, 0.0, 1.6626778105928545E9, 0.0, 2022-09-08 18:56:50.592
116.0, -6205.112481726705, -8034.4463031824, -29986.765085073126, -27654.628772095297, -16694.361471457658, 5349.15242781072, 22307.42094605219, 16560.407466937002, -17108.025206092025, -9550.006335974496, -20276.273223909524, -29435.01227319387, 5091.570924707762, -11928.813091375005, -10265.351565522144, -11125.290229951172, 0.2325625, 0.8296250000000001, -0.0510625, 192.0, 0.0, 0.0, 0.0, 0.0, 0.0, 0.0, 0.0, 0.0, 0.0, 1.6626778105928612E9, 0.0, 2022-09-08 18:56:50.592
118.0, -6244.272738012402, -8073.517152490277, -30025.791230892093, -27690.883301601807, -16743.51295751488, 5285.472307857551, 22310.46078329811, 16508.864344223064, -17128.67821796873, -9574.190923475138, -20299.317872442945, -29463.287229929836, 5049.99668002089, -11954.383487031877, -10303.640103774083, -11162.997622847275, 0.21528125, 0.7768125, -0.13953125, 192.0, 3.0, 24.0, 11.0, 80.0, 124.0, 112.0, 0.0, 0.0, 0.0, 1.662677810592867E9, 0.0, 2022-09-08 18:56:50.592
120.0, -6276.258084327947, -8106.55303079522, -30061.151690620387, -27730.691758476707, -16781.443867855534, 5235.247938066475, 22314.66291125571, 16465.479608235313, -17149.755912990084, -9635.211185838127, -20317.60159940739, -29492.188035510546, 5020.626487806617, -11994.862496240437, -10344.588499616206, -11214.116062416562, 0.21528125, 0.7768125, -0.13953125, 192.0, 0.0, 0.0, 0.0, 0.0, 0.0, 0.0, 0.0, 0.0, 0.0, 1.6626778110732152E9, 0.0, 2022-09-08 18:56:51.073
122.0, -6310.210384155558, -8131.98931598536, -30088.219653155764, -27754.362255854878, -16800.353443664724, 5176.194629215554, 22292.42292552268, 16425.000599026753, -17180.266044171578, -9672.650357800765, -20344.781320665043, -29517.17728581158, 4988.9987694023575, -12034.223918226233, -10387.034462336835, -11259.51245540529, 0.21528125, 0.7768125, -0.13953125, 192.0, 0.0, 0.0, 0.0, 0.0, 0.0, 0.0, 0.0, 0.0, 0.0, 1.6626778110732827E9, 0.0, 2022-09-08 18:56:51.073
124.0, -6324.448445373589, -8155.302185452246, -30117.925121536868, -27785.49823588112, -16830.885926590672, 5129.792407726337, 22245.819538333362, 16383.515761317703, -17190.79371581003, -9698.041939501994, -20361.142797606328, -29524.821582415294, 4975.4983157513525, -12040.258889229166, -10423.333695332252, -11296.124612823083, 0.21528125, 0.7768125, -0.13953125, 192.0, 0.0, 0.0, 0.0, 0.0, 0.0, 0.0, 0.0, 0.0, 0.0, 1.6626778110732884E9, 0.0, 2022-09-08 18:56:51.073
126.0, -6332.7856460554185, -8171.238979248879, -30131.224409487775, -27811.314500727, -16848.43204598809, 5089.223991539954, 22204.513514579954, 16353.43031328086, -17208.07161427398, -9733.447102719201, -20393.508123577612, -29543.75350996894, 4947.826856115682, -12074.233540801233, -10466.003175497435, -11324.824252703698, 0.21528125, 0.7768125, -0.13953125, 192.0, 0.0, 0.0, 0.0, 0.0, 0.0, 0.0, 0.0, 0.0, 0.0, 1.6626778110732927E9, 0.0, 2022-09-08 18:56:51.073
128.0, -6360.367698713267, -8195.960008616448, -30152.458566720317, -27854.408664036833, -16888.419316818632, 5051.091915499201, 22254.6037739043, 16332.062045581586, -17214.21834399919, -9749.920338382763, -20411.210705186215, -29566.015847446426, 4928.984335539858, -12093.210171843788, -10482.968149539012, -11341.29748836726, 0.20364062500000002, 0.77640625, -0.227765625, 192.0, 3.0, 0.0, 12.0, 32.0, 123.0, 16.0, 0.0, 0.0, 0.0, 1.6626778110732973E9, 0.0, 2022-09-08 18:56:51.073
130.0, -6397.31513229789, -8234.15913989057, -30192.892872439967, -27903.582501838508, -16938.15194823169, 5009.361208601143, 22399.2866157635, 16303.250646978695, -17257.60307998694, -9821.065940984005, -20473.415610005333, -29615.703775370574, 4870.1992476224, -12162.969966288802, -10528.543356483384, -11386.559770889256, 0.20364062500000002, 0.77640625, -0.227765625, 192.0, 0.0, 0.0, 0.0, 0.0, 0.0, 0.0, 0.0, 0.0, 0.0, 1.6626778110733016E9, 0.0, 2022-09-08 18:56:51.073
132.0, -6430.9321559586715, -8283.467088158975, -30248.816937067146, -27959.081883321036, -16996.3111873044, 4951.31372825071, 22499.243616967633, 16267.331393639017, -17276.26678660712, -9868.831618884995, -20513.91697095835, -29654.037017111426, 4829.317907013644, -12215.831841925603, -10560.059316165367, -11424.200108551993, 0.20364062500000002, 0.77640625, -0.227765625, 192.0, 0.0, 0.0, 0.0, 0.0, 0.0, 0.0, 0.0, 0.0, 0.0, 1.6626778110733151E9, 0.0, 2022-09-08 18:56:51.073
134.0, -6483.5258106620095, -8346.99074590096, -30311.737097708836, -28020.16920091739, -17066.205092216147, 4885.599599552107, 22652.53188044213, 16230.920401921321, -17322.892525540894, -9942.234747676224, -20589.242349772736, -29730.658797104217, 4759.848685246549, -12298.220371987865, -10612.027122023956, -11469.708260262998, 0.20364062500000002, 0.77640625, -0.227765625, 192.0, 0.0, 0.0, 0.0, 0.0, 0.0, 0.0, 0.0, 0.0, 0.0, 1.6626778110733197E9, 0.0, 2022-09-08 18:56:51.073
136.0, -6530.732694951617, -8409.173298975624, -30360.95563899942, -28067.97958230729, -17114.216639306145, 4828.490892468798, 22571.305641091545, 16177.29856697304, -17365.740819661718, -10003.724396672773, -20643.870013221505, -29794.67419322422, 4698.40373973891, -12367.376669332585, -10660.932738892167, -11510.388435171657, 0.20364062500000002, 0.77640625, -0.227765625, 192.0, 0.0, 0.0, 0.0, 0.0, 0.0, 0.0, 0.0, 0.0, 0.0, 1.6626778110733244E9, 0.0, 2022-09-08 18:56:51.073
138.0, -6554.067916162958, -8435.324839988332, -30378.14413048555, -28086.129198805, -17138.669447740253, 4788.883601293994, 22325.727024761087, 16122.76031050209, -17409.751404494215, -10052.786475752173, -20695.18961849089, -29849.883002028826, 4648.3134804145675, -12391.516553344316, -10713.146413939765, -11558.444685750566, 0.20364062500000002, 0.77640625, -0.227765625, 192.0, 0.0, 0.0, 0.0, 0.0, 0.0, 0.0, 0.0, 0.0, 0.0, 1.6626778110733287E9, 0.0, 2022-09-08 18:56:51.073
140.0, -6536.5888519989085, -8417.421092679631, -30346.203487658917, -28058.100111258045, -17104.158354301257, 4806.899107324971, 22051.046437149816, 16109.61748476237, -17408.745575993726, -10064.23056891329, -20698.81060109265, -29863.495214402108, 4645.743029802207, -12394.042300467767, -10729.17261471422, -11569.665261467131, 0.176, 0.8240000000000001, -0.366, 192.0, 2.5, 64.0, 12.5, 96.0, 122.0, 72.0, 0.0, 0.0, 0.0, 1.6626778110733333E9, 0.0, 2022-09-08 18:56:51.073
142.0, -6499.037921313992, -8392.14126970068, -30313.882865176543, -28027.50057309873, -17059.879548535293, 4839.912633885459, 21872.008964062807, 16113.126708641854, -17373.273357543156, -10020.711722458807, -20663.76306578673, -29838.327150145433, 4685.193858765824, -12364.940329186957, -10707.893753992767, -11538.261060507424, 0.176, 0.8240000000000001, -0.366, 192.0, 0.0, 0.0, 0.0, 0.0, 0.0, 0.0, 0.0, 0.0, 0.0, 1.6626778110733376E9, 0.0, 2022-09-08 18:56:51.073
144.0, -6449.439400367666, -8355.08207739378, -30264.55256516368, -27974.68340095084, -17012.27033284549, 4879.542276804719, 21730.835346083088, 16135.724322286169, -17344.3949037069, -9983.339605729534, -20637.388007329468, -29820.110478414357, 4709.601963711019, -12332.39618926003, -10690.705262506635, -11519.195022487047, 0.176, 0.8240000000000001, -0.366, 192.0, 0.0, 0.0, 0.0, 0.0, 0.0, 0.0, 0.0, 0.0, 0.0, 1.662677811073342E9, 0.0, 2022-09-08 18:56:51.073
146.0, -6365.843876104817, -8289.435003928544, -30191.507064283738, -27900.72147854823, -16976.01580333898, 4942.350678724132, 21666.082342396065, 16183.892331587354, -17271.75173422715, -9914.563288040554, -20571.472712930765, -29754.016370060013, 4775.025519731703, -12257.42843835693, -10630.57906992186, -11453.615004255176, 0.176, 0.8240000000000001, -0.366, 192.0, 0.0, 0.0, 0.0, 0.0, 0.0, 0.0, 0.0, 0.0, 0.0, 1.6626778110733464E9, 0.0, 2022-09-08 18:56:51.073
148.0, -6294.206535125558, -8239.121227159647, -30118.483915148252, -27823.719718899694, -16911.6427793077, 5004.890859710081, 21612.684024892336, 16228.394654797872, -17212.765480609596, -9853.453618699745, -20515.816869237053, -29706.563616581396, 4833.117703571046, -12207.785213921692, -10574.56559831686, -11399.836707095708, 0.176, 0.8240000000000001, -0.366, 192.0, 0.0, 0.0, 0.0, 0.0, 0.0, 0.0, 0.0, 0.0, 0.0, 1.662677811073351E9, 0.0, 2022-09-08 18:56:51.073
150.0, -6215.304877198324, -8182.951293343461, -30056.010789395667, -27752.954095954192, -16839.938383095072, 5076.662311156072, 21634.365217013983, 16289.7948968166, -17154.360372347877, -9780.69869049772, -20452.874356850905, -29651.44421475461, 4894.428538611954, -12151.905852783424, -10507.420957973118, -11327.886441694074, 0.184, 0.888, -0.362, 192.0, 2.5, 96.0, 13.5, 96.0, 122.0, 88.0, 0.0, 0.0, 0.0, 1.6626778110733552E9, 0.0, 2022-09-08 18:56:51.073
152.0, -6146.752076953898, -8131.631688074075, -29989.73786708568, -27674.879452571804, -16773.55370206281, 5142.7340677659595, 21665.456493551315, 16368.942423932842, -17093.42951696271, -9727.680352649732, -20392.32348112148, -29590.066324480336, 4948.229187515877, -12069.96435761027, -10442.578547308272, -11254.729182091854, 0.184, 0.888, -0.362, 192.0, 0.0, 0.0, 0.0, 0.0, 0.0, 0.0, 0.0, 0.0, 0.0, 1.6626778110733595E9, 0.0, 2022-09-08 18:56:51.073
154.0, -6081.283817444303, -8088.2916555752345, -29943.2685903631, -27618.12837339978, -16729.029027107837, 5180.955550784534, 21708.505953372234, 16406.783927295677, -17039.025370958494, -9690.86702953184, -20339.618067695865, -29532.465879019008, 4998.185336373489, -12022.355141920465, -10392.108308328188, -11196.145259874495, 0.184, 0.888, -0.362, 192.0, 0.0, 0.0, 0.0, 0.0, 0.0, 0.0, 0.0, 0.0, 0.0, 1.662677811073364E9, 0.0, 2022-09-08 18:56:51.073
156.0, -6030.344191830658, -8048.036163811227, -29894.51943570607, -27559.142119782227, -16673.4849421364, 5218.573536702816, 21712.14928771845, 16441.16091026794, -17008.09055663235, -9641.044991140961, -20295.92040728574, -29482.800302839318, 5028.8519297661705, -11991.465031083231, -10351.38342993062, -11154.816884376633, 0.184, 0.888, -0.362, 192.0, 0.0, 0.0, 0.0, 0.0, 0.0, 0.0, 0.0, 0.0, 0.0, 1.6626778110733683E9, 0.0, 2022-09-08 18:56:51.073
158.0, -5957.790429328732, -7980.19861938937, -29835.354368132877, -27488.354145092268, -16602.004063368327, 5292.71427306107, 21727.14730824796, 16504.662216265468, -16941.147081988704, -9578.169533988183, -20235.615400745322, -29414.113392128158, 5086.161802549577, -11915.804376102016, -10289.89378093407, -11096.14355518145, 0.184, 0.888, -0.362, 192.0, 0.0, 0.0, 0.0, 0.0, 0.0, 0.0, 0.0, 0.0, 0.0, 1.6626778110733728E9, 0.0, 2022-09-08 18:56:51.073
160.0, -5882.979140636819, -7922.084083805572, -29773.775312158505, -27418.66140588062, -16535.93230675844, 5352.77341041248, 21766.709895933855, 16573.594996165633, -16889.358090085756, -9502.933562151618, -20180.361888451804, -29358.23403098989, 5140.342431109242, -11859.723849263652, -10231.242803483345, -11033.692781173324, 0.184, 0.906, -0.336, 192.0, 2.5, 96.0, 14.0, 40.0, 122.5, 64.0, 0.0, 0.0, 0.0, 1.6626778110733774E9, 0.0, 2022-09-08 18:56:51.073
162.0, -5851.887864099487, -7890.791641568142, -29751.490622936562, -27403.37281267319, -16507.97027444485, 5375.751003712536, 21759.110302819052, 16583.18389453696, -16833.210508014025, -9441.242747454971, -20126.15890814768, -29304.254568130324, 5197.518193425917, -11804.783261392506, -10177.553913301697, -10990.688024841313, 0.184, 0.906, -0.336, 192.0, 0.0, 0.0, 0.0, 0.0, 0.0, 0.0, 0.0, 0.0, 0.0, 1.662677811073382E9, 0.0, 2022-09-08 18:56:51.073
164.0, -5793.750976771233, -7835.336963574525, -29690.78328499595, -27341.21261134298, -16478.935358397408, 5427.383533404295, 21760.183186552906, 16618.745519965356, -16813.160993237616, -9403.334188858771, -20102.868390425254, -29276.337239305645, 5229.458836252551, -11795.32847348791, -10157.77261945875, -10982.730803815222, 0.184, 0.906, -0.336, 192.0, 0.0, 0.0, 0.0, 0.0, 0.0, 0.0, 0.0, 0.0, 0.0, 1.6626778110733886E9, 0.0, 2022-09-08 18:56:51.073
166.0, -5748.1534180824065, -7801.384663746913, -29664.229412583045, -27302.20881726847, -16464.317317523637, 5453.378612205817, 21759.177358052417, 16652.094322692672, -16750.285536084837, -9355.166179557584, -20035.254363447948, -29215.518142642755, 5289.585028837327, -11730.262545378513, -10102.630865887508, -10909.752358168646, 0.184, 0.906, -0.336, 192.0, 0.0, 0.0, 0.0, 0.0, 0.0, 0.0, 0.0, 0.0, 0.0, 1.662677811073393E9, 0.0, 2022-09-08 18:56:51.073
168.0, -5766.124220624473, -7837.281565342137, -29679.070970901368, -27334.50708800639, -16451.286250506193, 5410.172690173708, 21712.618674352012, 16622.7241304784, -16766.848178726217, -9377.80849669081, -20051.16880550013, -29237.22168650886, 5279.079708943333, -11753.75422880104, -10125.854328376572, -10928.527823511104, 0.184, 0.906, -0.336, 192.0, 0.0, 0.0, 0.0, 0.0, 0.0, 0.0, 0.0, 0.0, 0.0, 1.6626778110733974E9, 0.0, 2022-09-08 18:56:51.073
170.0, -5702.17587973784, -7785.000835061173, -29636.736766903017, -27302.767610879855, -16418.54094487917, 5458.094830285887, 21715.591456364567, 16662.621994331123, -16746.351629060704, -9363.101048839218, -20031.074587234805, -29217.149819987993, 5298.592781852816, -11743.383019373778, -10108.129395023512, -10912.546326225558, 0.17200000000000001, 0.96, -0.364, 192.0, 2.5, 48.0, 15.0, 0.0, 122.0, 80.0, 0.0, 0.0, 0.0, 1.6626778110734017E9, 0.0, 2022-09-08 18:56:51.073
172.0, -5671.21871366724, -7769.265206964637, -29600.37047867423, -27276.05727625576, -16396.703290546335, 5484.603999209881, 21695.76545903271, 16702.050471550283, -16711.63936992161, -9325.08073152074, -19994.082450161273, -29170.76995024323, 5328.566471167383, -11700.55707699741, -10076.61343534153, -10868.312223948506, 0.17200000000000001, 0.96, -0.364, 192.0, 0.0, 0.0, 0.0, 0.0, 0.0, 0.0, 0.0, 0.0, 0.0, 1.6626778110734062E9, 0.0, 2022-09-08 18:56:51.073
174.0, -5676.829001525522, -7783.883247838408, -29602.516246141942, -27284.93091880452, -16415.657569844436, 5494.975208637144, 21657.186348102852, 16718.747224658397, -16708.197201275492, -9313.27901044834, -19982.90657793362, -29142.316179551624, 5334.9143665926895, -11680.239341287535, -10067.158647436936, -10828.906098473799, 0.17200000000000001, 0.96, -0.364, 192.0, 0.0, 0.0, 0.0, 0.0, 0.0, 0.0, 0.0, 0.0, 0.0, 1.6626778110734105E9, 0.0, 2022-09-08 18:56:51.073
176.0, -5694.598638367491, -7784.9337798278075, -29611.926330557628, -27288.909529317563, -16422.139575736473, 5472.13172580382, 21590.153466481384, 16723.3963875051, -16719.954218858984, -9316.430606416538, -19986.929891935575, -29135.789470170675, 5322.86677633128, -11687.727175680064, -10093.846630316571, -10817.752577990601, 0.17200000000000001, 0.96, -0.364, 192.0, 0.0, 0.0, 0.0, 0.0, 0.0, 0.0, 0.0, 0.0, 0.0, 1.662677811073415E9, 0.0, 2022-09-08 18:56:51.073
178.0, -5699.1360424919185, -7797.584867189511, -29624.800935363884, -27291.189407252004, -16426.00642752724, 5478.5466764624925, 21559.8892044889, 16741.724817958453, -16710.387672232115, -9319.537498895825, -19973.384734795658, -29129.62038870101, 5327.359476966796, -11682.07218433287, -10099.076938519114, -10784.403775263283, 0.17200000000000001, 0.96, -0.364, 192.0, 0.0, 0.0, 0.0, 0.0, 0.0, 0.0, 0.0, 0.0, 0.0, 1.6626778110734193E9, 0.0, 2022-09-08 18:56:51.073
180.0, -5731.769589396667, -7848.859768969985, -29667.96215390708, -27322.235980300426, -16425.738206593778, 5434.044353251977, 21534.40821580985, 16716.199125790492, -16742.283611569837, -9345.733743397444, -20002.10672642073, -29148.82053718812, 5298.503374874995, -11724.808719731418, -10140.092389594602, -10805.079138884443, 0.19, 1.002, -0.45, 192.0, 2.5, 120.0, 15.5, 40.0, 120.5, 120.0, 0.0, 0.0, 0.0, 1.6626778110734239E9, 0.0, 2022-09-08 18:56:51.073
182.0, -5771.7121567383, -7916.496147691745, -29720.153477210224, -27371.789797757843, -16463.57970995661, 5375.01339614551, 21484.899101841344, 16665.795942043776, -16763.674231013567, -9372.734650699455, -20028.750005811457, -29149.781662199697, 5262.561769790861, -11753.79893228995, -10179.118535413569, -10835.544566577026, 0.19, 1.002, -0.45, 192.0, 0.0, 0.0, 0.0, 0.0, 0.0, 0.0, 0.0, 0.0, 0.0, 1.6626778110734282E9, 0.0, 2022-09-08 18:56:51.073
184.0, -5788.252447635227, -7929.99660134275, -29732.066957004903, -27378.875300750173, -16499.208390618373, 5386.055157906432, 21491.91754960031, 16679.743430583887, -16803.460336144013, -9416.67818029859, -20081.54482621489, -29163.43857806189, 5216.316010512831, -11805.610275937352, -10236.562518663708, -10869.385107682361, 0.19, 1.002, -0.45, 192.0, 0.0, 0.0, 0.0, 0.0, 0.0, 0.0, 0.0, 0.0, 0.0, 1.6626778110734327E9, 0.0, 2022-09-08 18:56:51.073
186.0, -5845.539968674179, -7986.837087492596, -29774.110588325333, -27434.95582758854, -16551.46676915488, 5335.24964275952, 21526.853326183955, 16660.811503030243, -16796.531295362867, -9424.166014691116, -20084.852884394277, -29154.944915168875, 5204.938972585079, -11794.769679876528, -10240.764646621305, -10852.889520274344, 0.19, 1.002, -0.45, 192.0, 0.0, 0.0, 0.0, 0.0, 0.0, 0.0, 0.0, 0.0, 0.0, 1.662677811073437E9, 0.0, 2022-09-08 18:56:51.073
188.0, -5888.254152328272, -8047.119742288559, -29816.66830976824, -27503.709793533064, -16596.349072021138, 5267.143877404199, 21570.908614505366, 16590.85054288513, -16851.114255322726, -9476.603207183267, -20150.946992748617, -29216.278101954234, 5126.082018146756, -11862.92014872076, -10309.093929421178, -10932.081750879497, 0.19, 1.002, -0.45, 192.0, 0.0, 0.0, 0.0, 0.0, 0.0, 0.0, 0.0, 0.0, 0.0, 1.6626778110734415E9, 0.0, 2022-09-08 18:56:51.073
190.0, -5920.88769923302, -8094.79601321173, -29849.32420841744, -27547.40745394319, -16606.340301792658, 5238.399534034674, 21687.316499628603, 16544.582431862644, -16839.37958948369, -9507.135690109217, -20171.37648718077, -29182.437560848903, 5082.250247269899, -11900.851059061415, -10343.247394948889, -10983.446059637792, 0.136, 0.9560000000000001, -0.618, 192.0, 2.0, 32.0, 14.5, 112.0, 118.0, 88.0, 0.0, 0.0, 0.0, 1.6626778110734458E9, 0.0, 2022-09-08 18:56:51.073
192.0, -5974.509534181301, -8150.943595283461, -29892.73129614965, -27585.047791605928, -16655.29062214978, 5172.64070184716, 21870.533748928756, 16481.349346798583, -16806.27665594538, -9563.104458225305, -20190.733097879067, -29156.15190936946, 5032.070580967735, -11931.182376287268, -10390.566037960773, -11056.312746562095, 0.136, 0.9560000000000001, -0.618, 192.0, 0.0, 0.0, 0.0, 0.0, 0.0, 0.0, 0.0, 0.0, 0.0, 1.6626778110734503E9, 0.0, 2022-09-08 18:56:51.073
194.0, -6029.114845885617, -8186.281703267301, -29910.366822524888, -27591.261576564502, -16675.340136926192, 5111.732198206449, 22089.044402723837, 16423.97241878181, -16801.582789609765, -9596.90029584173, -20209.307397521425, -29221.754279345787, 4985.355435056143, -11941.911213625815, -10440.20926239601, -11122.406854916437, 0.136, 0.9560000000000001, -0.618, 192.0, 0.0, 0.0, 0.0, 0.0, 0.0, 0.0, 0.0, 0.0, 0.0, 1.6626778110734549E9, 0.0, 2022-09-08 18:56:51.073
196.0, -6076.589951108689, -8220.636334495108, -29910.813857413992, -27593.094419609835, -16714.433337978524, 5055.919892301547, 22367.122455492314, 16374.038621668653, -16773.441943340535, -9589.077185282373, -20221.600856971843, -29231.7008056284, 4950.307899750221, -11946.023934605591, -10472.373422667197, -11168.585558961102, 0.136, 0.9560000000000001, -0.618, 192.0, 0.0, 0.0, 0.0, 0.0, 0.0, 0.0, 0.0, 0.0, 0.0, 1.6626778110734603E9, 0.0, 2022-09-08 18:56:51.073
198.0, -6114.096178304694, -8251.928776732539, -29889.19972052571, -27577.135274068747, -16714.433337978524, 5037.814979292748, 22683.287880812633, 16345.696609699324, -16768.323393860268, -9606.779766890975, -20237.00120890155, -29268.60353572411, 4924.4916349043415, -11979.842123966471, -10512.137176053187, -11207.097614657596, 0.136, 0.9560000000000001, -0.618, 192.0, 0.0, 0.0, 0.0, 0.0, 0.0, 0.0, 0.0, 0.0, 0.0, 1.6626778110734649E9, 0.0, 2022-09-08 18:56:51.073
200.0, -6116.890146361608, -8257.472009357454, -29882.404790211298, -27569.40157048721, -16721.96587585996, 5022.369923874131, 22962.72938999288, 16323.233106521739, -16732.35943703168, -9582.595179390333, -20216.504659236034, -29274.61615498259, 4926.16801573849, -11958.026821378091, -10515.333475510297, -11198.201620364383, 0.134, 0.9590000000000001, -0.692, 192.0, 2.0, 16.0, 15.0, 8.0, 116.0, 8.0, 0.0, 0.0, 0.0, 1.6626778110734692E9, 0.0, 2022-09-08 18:56:51.073
202.0, -6106.362474723158, -8264.915140261071, -29864.2998772025, -27560.639686660732, -16701.335215727715, 5022.794607018782, 23196.7745061844, 16324.596562933513, -16719.373073503146, -9588.60779864881, -20204.769993397, -29312.345899623146, 4919.887175546548, -11979.171571632813, -10516.60752494425, -11193.820678451142, 0.134, 0.9590000000000001, -0.692, 192.0, 0.0, 0.0, 0.0, 0.0, 0.0, 0.0, 0.0, 0.0, 0.0, 1.6626778110734737E9, 0.0, 2022-09-08 18:56:51.073
204.0, -6069.303282416258, -8247.525483074842, -29838.61772282335, -27549.374407455256, -16663.270194920326, 5068.90625583008, 23361.842138986845, 16364.71794423079, -16670.892139779586, -9559.259958178993, -20163.508673132503, -29297.191416882448, 4947.580986926673, -11963.257129580634, -10477.35786168073, -11139.707105124844, 0.134, 0.9590000000000001, -0.692, 192.0, 0.0, 0.0, 0.0, 0.0, 0.0, 0.0, 0.0, 0.0, 0.0, 1.662677811073478E9, 0.0, 2022-09-08 18:56:51.073
206.0, -6026.43263655098, -8237.556605047776, -29810.499228298573, -27538.15383173869, -16624.176993867994, 5068.503924429885, 23444.901221382766, 16401.799488282144, -16636.738674251876, -9536.304716623392, -20136.530117574945, -29300.790047739752, 4964.635367946073, -11951.567167230507, -10454.02264046939, -11097.238790659761, 0.134, 0.9590000000000001, -0.692, 192.0, 0.0, 0.0, 0.0, 0.0, 0.0, 0.0, 0.0, 0.0, 0.0, 1.6626778110734825E9, 0.0, 2022-09-08 18:56:51.073
208.0, -5948.805028057698, -8191.959046358949, -29764.02995157599, -27505.408526111667, -16594.53858072026, 5112.782730195848, 23471.522149029035, 16464.920814623933, -16582.468638714392, -9507.470966276047, -20077.186236046105, -29284.428570798467, 5006.209612632944, -11921.92875408277, -10415.1082533727, -11042.074685344063, 0.134, 0.9590000000000001, -0.692, 192.0, 0.0, 0.0, 0.0, 0.0, 0.0, 0.0, 0.0, 0.0, 0.0, 1.6626778110734868E9, 0.0, 2022-09-08 18:56:51.073
210.0, -5856.939358346386, -8137.018458487804, -29699.63457580025, -27450.400883007158, -16559.245176225326, 5175.591132115261, 23504.37921337834, 16559.60280413661, -16512.93236171393, -9471.149381536172, -20008.409918357127, -29260.22163155337, 5055.718726601449, -11867.904587734294, -10364.168627759056, -10961.496646582682, 0.15200000000000002, 1.0195, -0.739, 192.0, 2.5, 40.0, 16.5, 96.0, 115.5, 56.0, 0.0, 0.0, 0.0, 1.662677811073491E9, 0.0, 2022-09-08 18:56:51.073
212.0, -5771.600398016024, -8087.308178819201, -29642.97290360605, -27403.08223999527, -16495.22978010533, 5235.8290834223135, 23553.106016290905, 16552.36083893309, -16448.425227215914, -9407.692779027555, -19930.93877207503, -29230.314997472167, 5115.375532552664, -11818.641342954797, -10296.08521414819, -10865.182979724763, 0.15200000000000002, 1.0195, -0.739, 192.0, 0.0, 0.0, 0.0, 0.0, 0.0, 0.0, 0.0, 0.0, 0.0, 1.6626778110734956E9, 0.0, 2022-09-08 18:56:51.073
214.0, -5681.388757394405, -8046.78446612173, -29571.492024837975, -27340.6538177316, -16445.363038225536, 5282.6112845672715, 23514.83982978342, 16616.599752497645, -16405.688691817366, -9357.155484814106, -19862.74359974189, -29190.17126443044, 5152.054745203823, -11773.602577877353, -10237.07660878618, -10809.884763942333, 0.15200000000000002, 1.0195, -0.739, 192.0, 0.0, 0.0, 0.0, 0.0, 0.0, 0.0, 0.0, 0.0, 0.0, 1.6626778110735E9, 0.0, 2022-09-08 18:56:51.073
216.0, -5570.747622340635, -7973.962482686339, -29481.97328829447, -27251.850337010663, -16351.731580702255, 5401.611972047326, 23357.99763894053, 16799.392318653147, -16362.974508163275, -9280.667815288045, -19750.649601298526, -29087.71086784731, 5218.238260535987, -11690.051757103414, -10140.38296227252, -10648.952203864123, 0.15200000000000002, 1.0195, -0.739, 192.0, 0.0, 0.0, 0.0, 0.0, 0.0, 0.0, 0.0, 0.0, 0.0, 1.6626778110735044E9, 0.0, 2022-09-08 18:56:51.073
218.0, -5505.838156442423, -7912.606944156521, -29389.34765927168, -27137.074129232664, -16239.279954347607, 5518.735112993135, 23391.413496901216, 17139.652924496284, -16330.922106614365, -9204.314256228716, -19644.881146536012, -28999.063849337563, 5287.372206136251, -11612.4912038435, -9993.844925623527, -10446.668916543595, 0.15200000000000002, 1.0195, -0.739, 192.0, 0.0, 0.0, 0.0, 0.0, 0.0, 0.0, 0.0, 0.0, 0.0, 1.6626778110735087E9, 0.0, 2022-09-08 18:56:51.073
220.0, -5433.127931729309, -7825.390437291913, -29294.37509708108, -27026.991787790274, -16146.855491024911, 5641.803817964055, 23341.747920721522, 17270.924719682305, -16299.897885310398, -9128.720656480868, -19543.24776449773, -28941.48575562069, 5367.614968730804, -11541.367952986713, -9882.510886491644, -10266.402097511542, 0.19, 1.1247500000000001, -0.6695, 192.0, 3.5, 16.0, 19.0, 56.0, 118.5, 32.0, 0.0, 0.0, 0.0, 1.6626778110735133E9, 0.0, 2022-09-08 18:56:51.073
222.0, -5363.837523917857, -7738.643317060866, -29204.856360537575, -26938.344769280528, -16047.278469476518, 5719.230260757239, 23603.844476204453, 17310.934342257304, -16224.684265218291, -9037.74905654777, -19428.1362805529, -28843.473356184168, 5465.269740256041, -11440.673344215555, -9769.567521758976, -10118.299438750677, 0.19, 1.1247500000000001, -0.6695, 192.0, 0.0, 0.0, 0.0, 0.0, 0.0, 0.0, 0.0, 0.0, 0.0, 1.6626778110735176E9, 0.0, 2022-09-08 18:56:51.073
224.0, -5304.851270300302, -7664.480228958158, -29144.10431910805, -26879.42557089634, -15992.15906764973, 5788.207744146317, 24047.504251897844, 17354.25202301169, -16182.797096109045, -8960.68024166587, -19357.907099474323, -28803.821361520455, 5524.546566551515, -11388.392613934591, -9719.857242090375, -10043.599908781041, 0.19, 1.1247500000000001, -0.6695, 192.0, 0.0, 0.0, 0.0, 0.0, 0.0, 0.0, 0.0, 0.0, 0.0, 1.662677811073522E9, 0.0, 2022-09-08 18:56:51.073
226.0, -5258.404345322174, -7610.813690520966, -29102.463019187813, -26820.439317278782, -15962.565357990905, 5834.25233772425, 24608.53303772605, 17396.094488632025, -16145.447331124227, -8890.786336754125, -19321.63021822336, -28773.8923756948, 5579.420099189294, -11333.00499117434, -9667.397697853768, -9993.844925623527, 0.19, 1.1247500000000001, -0.6695, 192.0, 0.0, 0.0, 0.0, 0.0, 0.0, 0.0, 0.0, 0.0, 0.0, 1.6626778110735264E9, 0.0, 2022-09-08 18:56:51.073
228.0, -5229.414132763641, -7570.8040679459655, -29084.22399571228, -26778.39568595835, -15893.923150768656, 5862.460239226847, 25278.6159847517, 17433.0642739611, -16131.90217398431, -8845.591109465493, -19299.323177256963, -28745.863288147844, 5608.834994892478, -11297.264551790304, -9649.762171478531, -9974.845942836517, 0.19, 1.1247500000000001, -0.6695, 192.0, 0.0, 0.0, 0.0, 0.0, 0.0, 0.0, 0.0, 0.0, 0.0, 1.662677811073532E9, 0.0, 2022-09-08 18:56:51.073
230.0, -5221.121635570721, -7552.632099703801, -29094.885777817464, -26766.10222650793, -15919.62765689226, 5902.626324013034, 25998.14099051249, 17450.23041370278, -16112.880839452844, -8792.572771617504, -19264.38740067332, -28729.233590273096, 5650.9456814462765, -11256.696135603921, -9619.117929830305, -9968.408640433388, 0.199, 1.1103750000000001, -0.57475, 192.0, 3.0, 64.0, 17.0, 32.0, 120.5, 0.0, 0.0, 0.0, 0.0, 1.6626778110735364E9, 0.0, 2022-09-08 18:56:51.073
232.0, -5211.689199410582, -7535.801236128955, -29112.029565814682, -26753.741711824146, -15908.876467809258, 5908.5718880381455, 26681.299708044495, 17456.80182657264, -16122.559144801993, -8787.051890737044, -19254.306763923974, -28754.7369306966, 5680.31587366055, -11247.196644210417, -9609.506679714523, -9974.778887603152, 0.199, 1.1103750000000001, -0.57475, 192.0, 0.0, 0.0, 0.0, 0.0, 0.0, 0.0, 0.0, 0.0, 0.0, 1.6626778110735407E9, 0.0, 2022-09-08 18:56:51.073
234.0, -5216.226603535009, -7536.449436718159, -29145.847755175564, -26768.672677120292, -15898.326444426351, 5905.107367647573, 27215.260531337328, 17448.55403286863, -16130.963400717188, -8764.811905004013, -19257.9948017591, -28784.93413745572, 5688.921295275843, -11236.266641171771, -9615.631057695276, -9994.537829701643, 0.199, 1.1103750000000001, -0.57475, 192.0, 0.0, 0.0, 0.0, 0.0, 0.0, 0.0, 0.0, 0.0, 0.0, 1.6626778110735452E9, 0.0, 2022-09-08 18:56:51.073
236.0, -5264.2381506250085, -7567.540713255491, -29193.233453420813, -26808.21291306173, -15934.603325677315, 5876.854762656065, 27449.350351017758, 17395.71450897628, -16174.996337294144, -8806.609667135437, -19283.498142182605, -28861.511213959602, 5672.7386322902, -11258.12664724906, -9645.358877820836, -10036.2685365997, 0.199, 1.1103750000000001, -0.57475, 192.0, 0.0, 0.0, 0.0, 0.0, 0.0, 0.0, 0.0, 0.0, 0.0, 1.6626778110735495E9, 0.0, 2022-09-08 18:56:51.073
238.0, -5332.0086398135, -7622.07896972644, -29249.001055836805, -26862.952335232778, -15992.539047305472, 5821.511843384725, 27484.30847934586, 17345.311325229566, -16226.114776863431, -8857.526941004628, -19334.795395707537, -28935.160211939838, 5630.426780036304, -11313.380159542581, -9688.318930663936, -10081.642577843973, 0.199, 1.1103750000000001, -0.57475, 192.0, 0.0, 0.0, 0.0, 0.0, 0.0, 0.0, 0.0, 0.0, 0.0, 1.662677811073554E9, 0.0, 2022-09-08 18:56:51.073
240.0, -5393.006550432033, -7685.781441424066, -29306.377983853577, -26913.020242812665, -16037.801329827469, 5776.42837481837, 27462.24730756847, 17311.22491493522, -16270.035954718109, -8910.500575363705, -19408.39969019886, -29019.73921295872, 5569.093593250942, -11380.748317330876, -9739.16914929976, -10137.678401193429, 0.2195, 1.1111875000000002, -0.431375, 192.0, 3.5, 64.0, 17.0, 96.0, 123.5, 0.0, 0.0, 0.0, 0.0, 1.6626778115526526E9, 0.0, 2022-09-08 18:56:51.552
242.0, -5447.254234225063, -7750.579148600001, -29393.77330467383, -26985.462246592313, -16122.894420968822, 5710.133100763929, 27413.319338955804, 17246.918946137303, -16315.521754684658, -8981.512067498215, -19490.028260949643, -29096.450399929334, 5501.166641851264, -11455.760771722886, -9798.55773431751, -10189.042709951724, 0.2195, 1.1111875000000002, -0.431375, 192.0, 0.0, 0.0, 0.0, 0.0, 0.0, 0.0, 0.0, 0.0, 0.0, 1.6626778115527167E9, 0.0, 2022-09-08 18:56:51.552
244.0, -5496.495127260105, -7806.21264054926, -29467.109378231693, -27051.06461656864, -16140.261726410596, 5682.394585894894, 27545.865183575774, 17239.587573955963, -16377.458438570315, -9062.961824293354, -19567.320593276097, -29162.20923211685, 5439.74404808808, -11520.647885876642, -9860.628528669899, -10258.243710785355, 0.2195, 1.1111875000000002, -0.431375, 192.0, 0.0, 0.0, 0.0, 0.0, 0.0, 0.0, 0.0, 0.0, 0.0, 1.6626778115527222E9, 0.0, 2022-09-08 18:56:51.552
246.0, -5557.940072767744, -7852.592510294022, -29549.2743908494, -27131.888524519032, -16231.032160643597, 5628.97391664671, 27621.950521701638, 17215.89472483334, -16429.49329966227, -9119.936420909933, -19627.893820749978, -29206.331575671626, 5389.698492252647, -11578.76242146044, -9903.923857679827, -10310.546792810774, 0.2195, 1.1111875000000002, -0.431375, 192.0, 0.0, 0.0, 0.0, 0.0, 0.0, 0.0, 0.0, 0.0, 0.0, 1.6626778115527267E9, 0.0, 2022-09-08 18:56:51.552
248.0, -5622.626021221402, -7915.80324361363, -29615.346147459288, -27226.078775653696, -16276.808533288067, 5573.809811331012, 27614.507390798022, 17133.997933149094, -16499.007224918274, -9163.924653997976, -19688.08706856812, -29252.242058782824, 5326.890090333234, -11638.106302989281, -9991.386233733445, -10398.635017709139, 0.2195, 1.1111875000000002, -0.431375, 192.0, 0.0, 0.0, 0.0, 0.0, 0.0, 0.0, 0.0, 0.0, 0.0, 1.6626778115527315E9, 0.0, 2022-09-08 18:56:51.552
250.0, -5655.393678592883, -7951.074296364105, -29663.514156760473, -27279.298279201783, -16340.287487541138, 5537.28706089104, 27632.858172995828, 17073.983499286594, -16544.18010046245, -9206.705892885435, -19726.643827753524, -29302.689946018454, 5291.775499793947, -11672.148009794713, -10039.062504656615, -10485.002158284446, 0.23075, 1.03859375, -0.3166875, 192.0, 3.5, 72.0, 15.0, 24.0, 124.5, 88.0, 0.0, 0.0, 0.0, 1.662677811552736E9, 0.0, 2022-09-08 18:56:51.552
252.0, -5687.535487119614, -7988.491116582289, -29714.610244585307, -27330.997864126908, -16365.232034353261, 5499.289095317018, 27657.04276049647, 17014.974893924584, -16582.960377092408, -9248.078971872208, -19769.089790474154, -29358.166975756525, 5257.242054610498, -11719.824280717885, -10105.38013045551, -10585.920284500156, 0.23075, 1.03859375, -0.3166875, 192.0, 0.0, 0.0, 0.0, 0.0, 0.0, 0.0, 0.0, 0.0, 0.0, 1.6626778115527403E9, 0.0, 2022-09-08 18:56:51.552
254.0, -5713.262344987673, -8012.340427916101, -29755.759806127528, -27385.17849268657, -16366.081400642563, 5461.1123157873535, 27768.73442753964, 16967.03040206795, -16617.560877509222, -9267.592044781692, -19802.10331703464, -29393.10275234017, 5225.569632717327, -11752.793103789461, -10154.285747323722, -10678.232989100576, 0.23075, 1.03859375, -0.3166875, 192.0, 0.0, 0.0, 0.0, 0.0, 0.0, 0.0, 0.0, 0.0, 0.0, 1.662677811552745E9, 0.0, 2022-09-08 18:56:51.552
0.0, -5747.2146448152835, -8042.5599864196765, -29774.22234704761, -27412.894655811153, -16424.7770815822, 5424.634268836292, 27848.954838389738, 16925.992599248006, -16650.172072669517, -9318.688132606523, -19834.625105217114, -29424.68576725552, 5193.383120701686, -11787.013624550536, -10191.903733242003, -10756.397039460784, 0.23075, 1.03859375, -0.3166875, 192.0, 0.0, 0.0, 0.0, 0.0, 0.0, 0.0, 0.0, 0.0, 0.0, 1.6626778115527513E9, 0.0, 2022-09-08 18:56:51.552
2.0, -5742.654888946401, -8031.384114192023, -29783.52067274102, -27424.29404548336, -16418.25037220125, 5425.88596652579, 27942.2957232351, 16910.88281999622, -16662.554939097758, -9331.830958346243, -19844.25870707735, -29432.039491181316, 5190.365635200219, -11811.824060895928, -10208.578134605663, -10802.195763849708, 0.23075, 1.03859375, -0.3166875, 192.0, 0.0, 0.0, 0.0, 0.0, 0.0, 0.0, 0.0, 0.0, 0.0, 1.6626778115527608E9, 0.0, 2022-09-08 18:56:51.552
4.0, -5751.796752428621, -8038.581375906632, -29793.60130949036, -27437.57098168981, -16433.851889831054, 5429.484597383094, 28004.768848987682, 16894.700157010575, -16664.365430398637, -9333.484987435935, -19855.054599649266, -29433.604113293186, 5195.752405613948, -11825.615087224853, -10221.519794645286, -10834.203461909707, 0.216375, 0.9572968749999999, -0.24734375, 192.0, 3.0, 40.0, 13.5, 48.0, 125.0, 56.0, 0.0, 0.0, 0.0, 1.662677811552774E9, 0.0, 2022-09-08 18:56:51.552
6.0, -5769.387575314949, -8053.199416780403, -29813.76258298905, -27452.077263841304, -16478.331861297116, 5415.872385009812, 28019.699814283827, 16861.95485138355, -16672.277947935814, -9350.114685310684, -19875.59585280369, -29444.35530237619, 5189.113937510721, -11847.385686324322, -10236.07078028569, -10875.889465318854, 0.216375, 0.9572968749999999, -0.24734375, 192.0, 0.0, 0.0, 0.0, 0.0, 0.0, 0.0, 0.0, 0.0, 0.0, 1.6626778115527785E9, 0.0, 2022-09-08 18:56:51.552
8.0, -5783.156249899417, -8062.78831515173, -29814.030803922513, -27441.57194394731, -16471.089896093596, 5388.871477707801, 27969.542499726118, 16847.605031443243, -16697.758936614864, -9371.929987899064, -19899.579274604235, -29461.946125262515, 5181.335530440275, -11840.076665887436, -10241.323440232687, -10888.317035236007, 0.216375, 0.9572968749999999, -0.24734375, 192.0, 0.0, 0.0, 0.0, 0.0, 0.0, 0.0, 0.0, 0.0, 0.0, 1.6626778115527828E9, 0.0, 2022-09-08 18:56:51.552
10.0, -5777.635369018957, -8056.5298267042435, -29816.310681856954, -27443.00245559245, -16480.231759575818, 5380.154297370231, 27860.22011759521, 16830.260077745927, -16701.64814015009, -9375.6627292231, -19899.51221937087, -29470.5068433889, 5187.661074121127, -11833.907584417771, -10239.535300676263, -10886.43948870176, 0.216375, 0.9572968749999999, -0.24734375, 192.0, 0.0, 0.0, 0.0, 0.0, 0.0, 0.0, 0.0, 0.0, 0.0, 1.6626778115527873E9, 0.0, 2022-09-08 18:56:51.552
12.0, -5774.796697473133, -8050.1372277900255, -29812.689699255196, -27437.839202623276, -16471.313413538148, 5385.094032894854, 27729.30595032048, 16795.592522095743, -16710.58883793221, -9378.076717624273, -19904.519010128857, -29477.54764289232, 5175.345262926253, -11846.29045084601, -10243.960946078414, -10890.462802703716, 0.216375, 0.9572968749999999, -0.24734375, 192.0, 0.0, 0.0, 0.0, 0.0, 0.0, 0.0, 0.0, 0.0, 0.0, 1.6626778115527918E9, 0.0, 2022-09-08 18:56:51.552
14.0, -5755.395383285926, -8033.842806082107, -29806.878245696815, -27433.3241502433, -16459.176416298917, 5418.532242599994, 27600.559902257908, 16851.069551833814, -16707.504297197378, -9378.568456002291, -19895.42185013555, -29481.302735960813, 5187.4599084210295, -11829.459587271165, -10231.287506972254, -10882.080898532975, 0.216375, 0.9572968749999999, -0.24734375, 192.0, 0.0, 0.0, 0.0, 0.0, 0.0, 0.0, 0.0, 0.0, 0.0, 1.6626778115527964E9, 0.0, 2022-09-08 18:56:51.552
16.0, -5735.837606887532, -8025.68441935592, -29796.574091502916, -27422.41649894911, -16418.183316967883, 5437.8665015538345, 27613.32274834189, 16902.724433270032, -16700.77642211633, -9363.145752328128, -19883.08368719622, -29470.12686373316, 5190.186821244576, -11819.62481971083, -10226.079550514169, -10862.14314247884, 0.202, 0.852, -0.168, 192.0, 3.0, 40.0, 13.0, 80.0, 125.0, 96.0, 0.0, 0.0, 0.0, 1.662677811552801E9, 0.0, 2022-09-08 18:56:51.552
18.0, -5709.194327496806, -7996.560096330655, -29770.914288868225, -27396.309661425315, -16418.675055345902, 5470.8576763698675, 27572.55316645541, 16899.617540790743, -16697.222494747937, -9348.32654575426, -19874.36650685865, -29464.91890727507, 5223.692086183082, -11797.3848339778, -10209.87453578407, -10864.512427391104, 0.202, 0.852, -0.168, 192.0, 0.0, 0.0, 0.0, 0.0, 0.0, 0.0, 0.0, 0.0, 0.0, 1.6626778115528052E9, 0.0, 2022-09-08 18:56:51.552
20.0, -5680.070004471541, -7963.2559970922475, -29739.97947454208, -27362.580879042256, -16377.972528692786, 5505.905211675788, 27619.55888504492, 16906.68069203862, -16675.11661948164, -9327.517071666369, -19855.345172327183, -29450.479680356944, 5246.13323761621, -11772.596749376864, -10193.222486164866, -10861.696107589736, 0.202, 0.852, -0.168, 192.0, 0.0, 0.0, 0.0, 0.0, 0.0, 0.0, 0.0, 0.0, 0.0, 1.6626778115528097E9, 0.0, 2022-09-08 18:56:51.552
22.0, -5640.574472019014, -7919.357170982024, -29700.12631417827, -27313.138820307115, -16338.588754962535, 5520.500900805104, 27624.878600225282, 16955.899233329204, -16639.71145626443, -9276.8903704751, -19824.54446846777, -29433.715872015462, 5286.187563680121, -11714.817489959894, -10168.210884119379, -10844.082932958954, 0.202, 0.852, -0.168, 192.0, 0.0, 0.0, 0.0, 0.0, 0.0, 0.0, 0.0, 0.0, 0.0, 1.6626778115528145E9, 0.0, 2022-09-08 18:56:51.552
24.0, -5612.411274005327, -7894.412624169901, -29665.21288933908, -27280.281755957814, -16303.205943489784, 5542.673831304769, 27646.559792346932, 16938.464872654065, -16596.661996443512, -9240.412323524037, -19785.652433115534, -29389.77234241633, 5335.808436370902, -11669.421096971166, -10137.678401193429, -10827.654400784302, 0.202, 0.852, -0.168, 192.0, 0.0, 0.0, 0.0, 0.0, 0.0, 0.0, 0.0, 0.0, 0.0, 1.6626778115528188E9, 0.0, 2022-09-08 18:56:51.552
26.0, -5567.059584505509, -7844.232957867737, -29607.85831306676, -27223.642435508067, -16247.25952711815, 5579.867134078399, 27609.52295178449, 16973.26653877098, -16569.79519960823, -9201.25206723834, -19750.47078734288, -29361.56444091373, 5369.783087942968, -11646.041172270916, -10113.292647992688, -10826.894441472823, 0.186, 0.76, -0.194, 192.0, 2.5, 104.0, 11.5, 96.0, 124.5, 120.0, 0.0, 0.0, 0.0, 1.6626778115528233E9, 0.0, 2022-09-08 18:56:51.552
28.0, -5522.959592695188, -7793.069814809539, -29547.150975126147, -27162.21984174488, -16200.700843417746, 5641.2003208637625, 27599.84464643534, 16945.192747735113, -16517.201544904896, -9148.211377645895, -19684.153161543985, -29288.474236544876, 5425.975373503611, -11578.494200526977, -10041.029458168681, -10769.98690008961, 0.186, 0.76, -0.194, 192.0, 0.0, 0.0, 0.0, 0.0, 0.0, 0.0, 0.0, 0.0, 0.0, 1.6626778115528278E9, 0.0, 2022-09-08 18:56:51.552
30.0, -5465.157981533764, -7734.620003058912, -29458.77217754986, -27072.87991915702, -16144.016819479088, 5720.906641591388, 27519.26660767396, 17089.026223305016, -16471.872207149532, -9081.714937891358, -19622.082367191597, -29215.227569964838, 5468.398984479783, -11527.956906313528, -9985.440669708332, -10704.049253946454, 0.186, 0.76, -0.194, 192.0, 0.0, 0.0, 0.0, 0.0, 0.0, 0.0, 0.0, 0.0, 0.0, 1.6626778115528321E9, 0.0, 2022-09-08 18:56:51.552
32.0, -5425.684800825692, -7685.312054790504, -29403.47396176743, -27019.7274708423, -16097.771060201057, 5763.576121756569, 27472.462054784544, 17081.985423801594, -16430.409721184937, -9030.708257044347, -19563.87842462998, -29144.461947019336, 5519.316258348973, -11464.768524738374, -9924.263945134157, -10630.757883877503, 0.186, 0.76, -0.194, 192.0, 0.0, 0.0, 0.0, 0.0, 0.0, 0.0, 0.0, 0.0, 0.0, 1.662677811552837E9, 0.0, 2022-09-08 18:56:51.552
34.0, -5398.035692934477, -7654.131371275351, -29355.261248977335, -26975.649830776434, -16068.289109264508, 5798.534250084669, 27348.096948635215, 17135.987238405614, -16396.859752757522, -8991.190372847364, -19521.208944464797, -29095.981013295772, 5565.830238560467, -11419.21566953846, -9881.862685902439, -10596.0009212495, 0.186, 0.76, -0.194, 192.0, 0.0, 0.0, 0.0, 0.0, 0.0, 0.0, 0.0, 0.0, 0.0, 1.6626778115528424E9, 0.0, 2022-09-08 18:56:51.552
36.0, -5364.329262295873, -7617.0498272239965, -29324.14762069555, -26938.18830706934, -16029.441777401184, 5840.689640127378, 27261.573345848723, 17149.711209501173, -16363.645060496934, -8937.792055343634, -19480.774638745148, -29044.929628959853, 5608.678532681291, -11379.943654530485, -9843.3729819504, -10554.605490518272, 0.194, 0.758, -0.184, 192.0, 3.0, 8.0, 11.5, 88.0, 125.0, 32.0, 0.0, 0.0, 0.0, 1.66267781155285E9, 0.0, 2022-09-08 18:56:51.552
38.0, -5331.718067135581, -7581.376443073326, -29281.008753896804, -26895.42941992634, -15987.956939692134, 5857.855779869054, 27097.69035550241, 17137.57421226194, -16341.159205574895, -8929.499558150716, -19447.962277884755, -29010.06090760957, 5638.048724895564, -11347.645383792566, -9823.457577640722, -10532.544318740884, 0.194, 0.758, -0.184, 192.0, 0.0, 0.0, 0.0, 0.0, 0.0, 0.0, 0.0, 0.0, 0.0, 1.662677811552856E9, 0.0, 2022-09-08 18:56:51.552
40.0, -5292.311941660874, -7540.182178042195, -29245.82710812415, -26859.08548344201, -15967.549797004438, 5897.016036154751, 26965.636249260457, 17149.890023456817, -16297.640359120413, -8884.773717495647, -19403.974044796712, -28958.24956396217, 5691.134117976919, -11293.777679655275, -9788.544152801533, -10493.652283388648, 0.194, 0.758, -0.184, 192.0, 0.0, 0.0, 0.0, 0.0, 0.0, 0.0, 0.0, 0.0, 0.0, 1.662677811552862E9, 0.0, 2022-09-08 18:56:51.552
42.0, -5262.740583746503, -7498.987913011064, -29210.2431309513, -26820.64048297888, -15872.644290047205, 5933.829359272642, 26736.866144760388, 17135.651962238786, -16261.497588336182, -8833.029429081611, -19364.187939666266, -28913.836647729477, 5730.920223107365, -11258.774847838265, -9768.181713602748, -10467.523094120395, 0.194, 0.758, -0.184, 192.0, 0.0, 0.0, 0.0, 0.0, 0.0, 0.0, 0.0, 0.0, 0.0, 1.6626778115528677E9, 0.0, 2022-09-08 18:56:51.552
44.0, -5227.290717040386, -7460.833485225855, -29158.141214625983, -26771.48899692166, -15827.583173225305, 5994.983732102362, 26471.059199697876, 17159.814197994972, -16226.338294307983, -8792.483364639684, -19324.02185488008, -28868.99904835213, 5766.817124702588, -11230.835167269131, -9741.82900688994, -10442.422085097085, 0.194, 0.758, -0.184, 192.0, 0.0, 0.0, 0.0, 0.0, 0.0, 0.0, 0.0, 0.0, 0.0, 1.6626778115528731E9, 0.0, 2022-09-08 18:56:51.552
46.0, -5162.649472075638, -7393.89001058221, -29055.971390720773, -26682.998440623098, -15798.816478111325, 6048.560863561734, 26003.170133014934, 17166.430314353744, -16168.849607568933, -8736.045209890033, -19252.831548789927, -28802.636719064325, 5846.188169263383, -11144.378619716004, -9675.86900900233, -10381.468877967463, 0.182, 0.782, -0.19, 192.0, 2.5, 88.0, 12.0, 56.0, 125.0, 8.0, 0.0, 0.0, 0.0, 1.6626778115528789E9, 0.0, 2022-09-08 18:56:51.552
48.0, -5090.922724118558, -7312.306143320339, -28960.015351774142, -26580.53804403997, -15697.138392584133, 6120.7122946634645, 25426.22690513455, 17181.137762205337, -16099.313330568473, -8651.533264104517, -19169.41483848272, -28721.410479713737, 5918.585469554123, -11062.23595884275, -9625.599935722345, -10322.460272605453, 0.182, 0.782, -0.19, 192.0, 0.0, 0.0, 0.0, 0.0, 0.0, 0.0, 0.0, 0.0, 0.0, 1.662677811552884E9, 0.0, 2022-09-08 18:56:51.552
50.0, -5009.1823946455, -7223.994400977422, -28818.148829716305, -26437.66569348165, -15562.804408407737, 6210.968638773995, 24430.143765228244, 17130.376950547332, -16004.229009655597, -8535.17008247019, -19056.985563872524, -28616.625501707258, 6015.390874790058, -10952.153617400363, -9555.907196510696, -10241.815178610705, 0.182, 0.782, -0.19, 192.0, 0.0, 0.0, 0.0, 0.0, 0.0, 0.0, 0.0, 0.0, 0.0, 1.6626778115528896E9, 0.0, 2022-09-08 18:56:51.552
52.0, -4878.11176515958, -7078.082213173177, -28623.643949466223, -26222.753670543872, -15358.777685019695, 6422.326734343378, 22983.74002978087, 17414.244105129732, -15897.857057792791, -8407.966304775036, -18901.417422463586, -28479.7210669185, 6161.16895212757, -10792.115127100364, -9447.434180669092, -10116.980685827815, 0.182, 0.782, -0.19, 192.0, 0.0, 0.0, 0.0, 0.0, 0.0, 0.0, 0.0, 0.0, 0.0, 1.6626778115528953E9, 0.0, 2022-09-08 18:56:51.552
54.0, -4745.901196706438, -6968.290444408709, -28580.683896623123, -26179.011306644836, -15307.033396605659, 6516.181709311213, 23451.807910419455, 17572.069772728657, -15731.82829997877, -8241.982250449926, -18743.122368231103, -28305.153942722554, 6313.63020105722, -10622.48773842904, -9290.03319621482, -9919.704189265274, 0.182, 0.782, -0.19, 192.0, 0.0, 0.0, 0.0, 0.0, 0.0, 0.0, 0.0, 0.0, 0.0, 1.6626778115529013E9, 0.0, 2022-09-08 18:56:51.552
56.0, -4806.697941624873, -7041.090076099644, -28700.71276434812, -26319.24615135743, -15433.410159755966, 6411.88846968275, 25690.625690296376, 17645.1152736086, -15740.97016346099, -8304.388320969143, -18818.268933089847, -28330.523172679328, 6268.814953424329, -10714.934553496189, -9227.090683828674, -9912.372817083933, 0.18, 0.8160000000000001, -0.154, 192.0, 2.5, 80.0, 12.5, 64.0, 125.5, 24.0, 0.0, 0.0, 0.0, 1.662677811552907E9, 0.0, 2022-09-08 18:56:51.552
58.0, -4932.605318141618, -7160.470743235439, -28838.623027637368, -26456.99995243549, -15540.877347097081, 6295.078253159315, 26875.804588294577, 17548.175757905934, -15850.896042692191, -8443.259709269967, -18955.62040276771, -28452.407235194118, 6146.7744286983525, -10871.933206550266, -9296.336388151216, -10005.043149595636, 0.18, 0.8160000000000001, -0.154, 192.0, 0.0, 0.0, 0.0, 0.0, 0.0, 0.0, 0.0, 0.0, 0.0, 1.6626778115529127E9, 0.0, 2022-09-08 18:56:51.552
60.0, -4992.262124092833, -7206.604743791193, -28886.835740427465, -26495.19908370961, -15579.478809771397, 6255.470961984511, 26804.435468248783, 17411.427785328364, -15954.071695097888, -8516.148747938723, -19043.753331154985, -28551.0901869643, 6060.273177656314, -10954.008812190154, -9418.600430321745, -10117.852403861572, 0.18, 0.8160000000000001, -0.154, 192.0, 0.0, 0.0, 0.0, 0.0, 0.0, 0.0, 0.0, 0.0, 0.0, 1.662677811552919E9, 0.0, 2022-09-08 18:56:51.552
62.0, -4984.506068766841, -7189.215086604963, -28848.256629497606, -26456.57526929084, -15556.925899615992, 6262.6458719546645, 26173.289260064277, 17370.05470634159, -15973.942395918655, -8514.673532804673, -19039.126520052734, -28551.537221853403, 6059.267349155825, -10927.991381644177, -9459.191198252583, -10145.210939074866, 0.18, 0.8160000000000001, -0.154, 192.0, 0.0, 0.0, 0.0, 0.0, 0.0, 0.0, 0.0, 0.0, 0.0, 1.662677811552924E9, 0.0, 2022-09-08 18:56:51.552
64.0, -4959.561521954718, -7161.431868247017, -28826.821306564965, -26438.157431859665, -15536.764626117305, 6296.9781514380165, 25991.927205553915, 17383.130476847946, -15938.090197812344, -8476.273235830455, -19001.307368434354, -28509.940625422078, 6094.918381562041, -10898.978817341187, -9443.34381143377, -10119.171156784434, 0.18, 0.8160000000000001, -0.154, 192.0, 0.0, 0.0, 0.0, 0.0, 0.0, 0.0, 0.0, 0.0, 0.0, 1.662677811552937E9, 0.0, 2022-09-08 18:56:51.552
66.0, -4968.770440670305, -7172.4736300079385, -28834.979693291152, -26441.845469694792, -15562.2232630519, 6292.910133947151, 26440.414958049652, 17496.051489836158, -15939.96774434659, -8477.994320153513, -19009.91279004965, -28494.16029383663, 6088.995169281384, -10898.867058618911, -9409.100938928239, -10083.251903444756, 0.186, 0.84, -0.128, 192.0, 2.5, 104.0, 13.0, 32.0, 126.0, 0.0, 0.0, 0.0, 0.0, 1.6626778115529425E9, 0.0, 2022-09-08 18:56:51.552
68.0, -5007.5507173002625, -7215.590145062226, -28904.515970291613, -26504.385650680742, -15607.262028129344, 6217.89767955514, 26837.784270976103, 17323.51837438564, -15978.144523876254, -8519.277992162466, -19048.380142257232, -28524.581018040302, 6043.732886759387, -10934.92042242532, -9452.195102238073, -10135.86790989255, 0.186, 0.84, -0.128, 192.0, 0.0, 0.0, 0.0, 0.0, 0.0, 0.0, 0.0, 0.0, 0.0, 1.66267781155295E9, 0.0, 2022-09-08 18:56:51.552
70.0, -5069.353290719187, -7283.96413135101, -28977.181491515817, -26584.2260818751, -15634.754673809372, 6196.328246155768, 27869.56314677753, 17517.41975753543, -16038.963620539143, -8590.46829825262, -19131.12630023078, -28578.582832644326, 5952.671879848466, -11021.712246145278, -9482.72758516402, -10153.123456612046, 0.186, 0.84, -0.128, 192.0, 0.0, 0.0, 0.0, 0.0, 0.0, 0.0, 0.0, 0.0, 0.0, 1.6626778115529566E9, 0.0, 2022-09-08 18:56:51.552
72.0, -5138.6213467861835, -7363.871617778733, -29066.32024840358, -26676.985821364622, -15820.765891166437, 6107.569468923744, 28479.385790751672, 17391.557084507596, -16115.026606920554, -8687.228999999643, -19235.084263692414, -28666.648705798234, 5888.88000117302, -11131.280497465194, -9527.051094418895, -10228.158262748511, 0.186, 0.84, -0.128, 192.0, 0.0, 0.0, 0.0, 0.0, 0.0, 0.0, 0.0, 0.0, 0.0, 1.6626778115529623E9, 0.0, 2022-09-08 18:56:51.552
74.0, -5202.50263243945, -7438.302926814906, -29145.53483075319, -26741.62706632937, -15873.493656336506, 6022.208156848927, 29101.837170343064, 17399.693119489326, -16192.073070057997, -8767.985852716667, -19345.859509212914, -28744.45512824716, 5798.333084384571, -11192.278408083726, -9589.367757960292, -10276.952120894448, 0.186, 0.84, -0.128, 192.0, 0.0, 0.0, 0.0, 0.0, 0.0, 0.0, 0.0, 0.0, 0.0, 1.6626778115529683E9, 0.0, 2022-09-08 18:56:51.552
76.0, -5285.628770068738, -7507.906259048732, -29225.73288985883, -26823.70267196926, -15936.279706511463, 5951.5989961146115, 29265.854271156106, 17288.56024605754, -16278.641376333402, -8843.937080375801, -19448.364609284952, -28849.865955098387, 5719.297315990605, -11288.56972319719, -9663.217921640626, -10357.15018000009, 0.218, 0.87, -0.042, 192.0, 3.0, 104.0, 13.5, 24.0, 127.0, 88.0, 0.0, 0.0, 0.0, 1.6626778115529735E9, 0.0, 2022-09-08 18:56:51.552
78.0, -5332.8580061028015, -7556.968338128131, -29287.826035955673, -26884.49941688769, -15984.559474534926, 5904.54857403619, 29401.171732088536, 17170.051296955502, -16345.89777539942, -8903.079796204544, -19515.509249628692, -28921.592703055467, 5658.992309450186, -11349.858206493642, -9728.417960216757, -10406.72634920196, 0.218, 0.87, -0.042, 192.0, 0.0, 0.0, 0.0, 0.0, 0.0, 0.0, 0.0, 0.0, 0.0, 1.6626778115529792E9, 0.0, 2022-09-08 18:56:51.552
80.0, -5382.568285771405, -7606.45510035218, -29335.65876909003, -26935.841373901534, -16026.044312243977, 5866.550608462168, 29303.56166405221, 17132.25449708158, -16414.696444832854, -8967.095192324543, -19567.812331654113, -28960.90942155235, 5596.4744802086925, -11412.577201435233, -9795.026158693572, -10469.802972054837, 0.218, 0.87, -0.042, 192.0, 0.0, 0.0, 0.0, 0.0, 0.0, 0.0, 0.0, 0.0, 0.0, 1.6626778115529845E9, 0.0, 2022-09-08 18:56:51.552
82.0, -5417.638172821781, -7636.831121066943, -29377.031848076804, -26986.825703004088, -16071.574815699438, 5839.572052904613, 29235.83587835263, 17107.95815085866, -16471.40282051597, -8990.475117024795, -19595.662605245427, -28966.050322777075, 5560.287005935551, -11444.808416939786, -9815.768577548097, -10453.195625924543, 0.218, 0.87, -0.042, 192.0, 0.0, 0.0, 0.0, 0.0, 0.0, 0.0, 0.0, 0.0, 0.0, 1.6626778115529895E9, 0.0, 2022-09-08 18:56:51.552
84.0, -5430.490425883583, -7643.715458359177, -29376.696571909975, -26991.474865850792, -16081.163714070764, 5842.813055850632, 28996.44869523629, 17115.62479920683, -16512.574733802645, -9016.44784408186, -19604.893875705468, -28993.65472717938, 5524.457159573693, -11473.619815542677, -9835.348705690945, -10452.167445679599, 0.218, 0.87, -0.042, 192.0, 0.0, 0.0, 0.0, 0.0, 0.0, 0.0, 0.0, 0.0, 0.0, 1.6626778115529957E9, 0.0, 2022-09-08 18:56:51.552
86.0, -5463.325138488429, -7670.336386005448, -29397.30488029777, -27018.34166268607, -16129.890516983334, 5827.7256283433, 28998.572110959543, 17124.364331288856, -16544.425969651456, -9042.688792072391, -19608.40309958495, -29006.037593607616, 5523.339572350928, -11516.222240474492, -9797.328388372469, -10421.657314498105, 0.237, 0.933, -0.0020000000000000018, 192.0, 4.0, 0.0, 15.5, 16.0, 0.5, 24.0, 0.0, 0.0, 0.0, 1.6626778115530014E9, 0.0, 2022-09-08 18:56:51.553
88.0, -5487.576781222437, -7690.385900781858, -29419.09783114169, -27037.362997217537, -16113.573743530958, 5823.858776552532, 28800.066268451963, 17099.129211798812, -16597.399604010538, -9070.181437752419, -19638.82382378862, -29040.36987309097, 5492.918848147256, -11530.66146739262, -9811.566449590498, -10427.20054712302, 0.237, 0.933, -0.0020000000000000018, 192.0, 0.0, 0.0, 0.0, 0.0, 0.0, 0.0, 0.0, 0.0, 0.0, 1.662677811553007E9, 0.0, 2022-09-08 18:56:51.553
90.0, -5509.861470444378, -7716.29157260556, -29444.57881982074, -27065.41443650895, -16166.502674401127, 5799.115395440507, 28734.01686358653, 17026.664856274707, -16627.99914216985, -9072.148391264485, -19659.61094613206, -29051.679855785354, 5480.312464274462, -11563.943214886573, -9850.614947153921, -10456.54838759284, 0.237, 0.933, -0.0020000000000000018, 192.0, 0.0, 0.0, 0.0, 0.0, 0.0, 0.0, 0.0, 0.0, 0.0, 1.6626778115530117E9, 0.0, 2022-09-08 18:56:51.553
92.0, -5532.973174211165, -7734.798817014554, -29463.622506096664, -27084.413419295957, -16197.348081749451, 5761.09507812203, 28621.721699443067, 16930.35118941679, -16659.850378018666, -9109.94519113841, -19680.576882431138, -29060.46409135629, 5457.55838841896, -11601.427090338122, -9885.126040592915, -10495.17220201161, 0.237, 0.933, -0.0020000000000000018, 192.0, 0.0, 0.0, 0.0, 0.0, 0.0, 0.0, 0.0, 0.0, 0.0, 1.662677811553017E9, 0.0, 2022-09-08 18:56:51.553
94.0, -5544.0596394609975, -7742.890148507375, -29500.83816061475, -27108.17332365195, -16196.16343929332, 5748.7569151827, 28624.22509482206, 16886.899398195674, -16688.080631265715, -9119.645848232014, -19699.575865218147, -29070.030637983164, 5440.504007399561, -11604.556334561865, -9912.14929963938, -10523.335400025297, 0.237, 0.933, -0.0020000000000000018, 192.0, 0.0, 0.0, 0.0, 0.0, 0.0, 0.0, 0.0, 0.0, 0.0, 1.6626778115530217E9, 0.0, 2022-09-08 18:56:51.553
96.0, -5579.934189311765, -7781.44690769278, -29554.392940329664, -27148.47351890487, -16190.508447946126, 5732.194272541317, 28554.8899835217, 16854.53407222439, -16728.850213152196, -9138.376610085561, -19742.71473201689, -29102.95475756583, 5415.693571054169, -11636.87695704424, -9940.49131160871, -10568.485923825017, 0.23049999999999998, 0.9185000000000001, 0.046, 192.0, 3.5, 0.0, 14.0, 32.0, 1.0, 120.0, 0.0, 0.0, 0.0, 1.6626778115530262E9, 0.0, 2022-09-08 18:56:51.553
98.0, -5570.322939195984, -7762.492628394679, -29567.75928351394, -27164.343257468136, -16192.855381113934, 5760.37982229946, 28564.054198748378, 16849.102598321748, -16746.150463360605, -9139.516549052782, -19765.178235194475, -29117.684557161876, 5403.467166837117, -11649.550396150398, -9964.988823531727, -10584.37801413274, 0.23049999999999998, 0.9185000000000001, 0.046, 192.0, 0.0, 0.0, 0.0, 0.0, 0.0, 0.0, 0.0, 0.0, 0.0, 1.6626778115530317E9, 0.0, 2022-09-08 18:56:51.553
100.0, -5596.809756375523, -7773.467334922235, -29584.031353477403, -27192.551158970735, -16251.97574519822, 5729.8026358846, 28503.950357908056, 16795.436059884556, -16765.12709440316, -9152.838188748145, -19770.38619165256, -29147.926467409907, 5409.055102950943, -11642.330782691335, -9962.552483386098, -10603.645217853214, 0.23049999999999998, 0.9185000000000001, 0.046, 192.0, 0.0, 0.0, 0.0, 0.0, 0.0, 0.0, 0.0, 0.0, 0.0, 1.6626778115530388E9, 0.0, 2022-09-08 18:56:51.553
102.0, -5597.659122664824, -7765.957148785252, -29582.04204822088, -27190.80772290322, -16256.043762689087, 5728.729752150745, 28455.759996862413, 16824.247458487447, -16783.723745789976, -9146.266775878285, -19779.796276068246, -29189.97009873034, 5393.945323699156, -11643.984811781027, -9997.465908225287, -10627.405122209206, 0.23049999999999998, 0.9185000000000001, 0.046, 192.0, 0.0, 0.0, 0.0, 0.0, 0.0, 0.0, 0.0, 0.0, 0.0, 1.6626778115530443E9, 0.0, 2022-09-08 18:56:51.553
104.0, -5610.176099559796, -7778.541180913589, -29562.774844500407, -27186.158560056516, -16230.428663543305, 5711.630667642435, 28449.121528759188, 16716.60145719069, -16786.428306869067, -9149.083095679653, -19774.700078332437, -29185.075066694626, 5396.873402222801, -11643.202500725092, -9986.558256931097, -10634.91530834619, 0.23049999999999998, 0.9185000000000001, 0.046, 192.0, 0.0, 0.0, 0.0, 0.0, 0.0, 0.0, 0.0, 0.0, 0.0, 1.6626778120328493E9, 0.0, 2022-09-08 18:56:52.032
106.0, -5600.497794210648, -7759.899826037864, -29518.02665210088, -27145.724254336867, -16216.503526747649, 5742.252557546206, 28432.313016928794, 16841.167729040113, -16789.13286794816, -9156.280357394262, -19768.016906740297, -29175.553223556668, 5392.917143454211, -11640.006201267983, -9980.143306272425, -10625.39346520823, 0.23425, 0.91225, 0.1, 192.0, 3.5, 56.0, 14.0, 40.0, 2.0, 104.0, 0.0, 0.0, 0.0, 1.6626778120329986E9, 0.0, 2022-09-08 18:56:52.032
108.0, -5625.487044511681, -7774.741384356187, -29515.165628810602, -27144.405501414003, -16238.140015380386, 5746.99112737073, 28493.087410102777, 16871.275528821414, -16803.259170443915, -9162.315328397195, -19768.978031751878, -29185.075066694626, 5394.9735039441, -11642.710762347075, -9948.87321577945, -10589.18363919063, 0.23425, 0.91225, 0.1, 192.0, 0.0, 0.0, 0.0, 0.0, 0.0, 0.0, 0.0, 0.0, 0.0, 1.6626778120330045E9, 0.0, 2022-09-08 18:56:52.033
110.0, -5626.470521267715, -7772.752079099665, -29530.186001084567, -27155.961353297396, -16240.799872970567, 5731.747237652211, 28472.076770314787, 16823.95688580953, -16811.104632747727, -9172.775944802279, -19782.165560980506, -29204.811657048664, 5390.056120163932, -11655.741829364519, -9961.233730463235, -10604.33812193133, 0.23425, 0.91225, 0.1, 192.0, 0.0, 0.0, 0.0, 0.0, 0.0, 0.0, 0.0, 0.0, 0.0, 1.6626778120330105E9, 0.0, 2022-09-08 18:56:52.033
112.0, -5640.954451674754, -7783.615026904944, -29566.015847446426, -27172.367533727593, -16237.536518280092, 5738.497464477714, 28458.15163351913, 16809.115327491203, -16828.024903300393, -9193.96539854591, -19792.313252963217, -29214.266444953257, 5385.764585228513, -11659.87690208875, -9969.928559056349, -10608.942581289122, 0.23425, 0.91225, 0.1, 192.0, 0.0, 0.0, 0.0, 0.0, 0.0, 0.0, 0.0, 0.0, 0.0, 1.662677812033016E9, 0.0, 2022-09-08 18:56:52.033
114.0, -5655.281919870606, -7793.025111320629, -29596.034240249905, -27196.216845061404, -16224.192526840274, 5729.892042862421, 28473.999020337942, 16783.813152767798, -16847.314458765326, -9193.451308423437, -19801.343357723163, -29224.30237821369, 5374.9463409121445, -11665.174265524658, -9983.317253985078, -10618.889107571735, 0.23425, 0.91225, 0.1, 192.0, 0.0, 0.0, 0.0, 0.0, 0.0, 0.0, 0.0, 0.0, 0.0, 1.6626778120330217E9, 0.0, 2022-09-08 18:56:52.033
116.0, -5661.853332740466, -7791.505192697668, -29598.224711206523, -27212.6230254916, -16227.388826297383, 5730.160263795885, 28488.035915855875, 16768.859835727195, -16860.569043227322, -9193.473660167892, -19816.184916041486, -29237.556962675688, 5364.843352418346, -11675.992509841028, -9990.805088377607, -10629.662648399193, 0.22812500000000002, 0.886125, 0.155, 192.0, 3.0, 120.0, 13.0, 112.0, 3.0, 72.0, 0.0, 0.0, 0.0, 1.6626778120330284E9, 0.0, 2022-09-08 18:56:52.033
118.0, -5663.194437407785, -7785.581980417011, -29601.957452530558, -27224.983540175384, -16259.038896446098, 5730.942574851821, 28431.553057617315, 16732.046512609304, -16863.474770006513, -9200.670921882502, -19810.708738649933, -29238.294570242713, 5373.806401944924, -11669.30933824889, -9984.993634819226, -10635.474101957572, 0.22812500000000002, 0.886125, 0.155, 192.0, 0.0, 0.0, 0.0, 0.0, 0.0, 0.0, 0.0, 0.0, 0.0, 1.6626778120330343E9, 0.0, 2022-09-08 18:56:52.033
120.0, -5663.730879274712, -7783.793840860587, -29609.62410087873, -27231.95728444544, -16259.664745290846, 5725.086417804529, 28558.354503912273, 16708.890105353606, -16867.699249708563, -9209.432805708982, -19820.051767832254, -29229.622093394053, 5378.567323513905, -11674.78551564044, -9988.815783121085, -10636.234061269053, 0.22812500000000002, 0.886125, 0.155, 192.0, 0.0, 0.0, 0.0, 0.0, 0.0, 0.0, 0.0, 0.0, 0.0, 1.66267781203304E9, 0.0, 2022-09-08 18:56:52.033
122.0, -5686.462603385759, -7805.966771360251, -29626.5443714314, -27246.418863108025, -16257.764847012146, 5714.245821743706, 28548.095053207286, 16641.656058032044, -16890.989767430994, -9226.084855328185, -19842.649381476567, -29240.172116776957, 5369.760736198514, -11708.022559645482, -9996.996521591725, -10661.491532503549, 0.22812500000000002, 0.886125, 0.155, 192.0, 0.0, 0.0, 0.0, 0.0, 0.0, 0.0, 0.0, 0.0, 0.0, 1.6626778120330455E9, 0.0, 2022-09-08 18:56:52.033
124.0, -5711.921240320354, -7829.570213505056, -29649.47726124254, -27258.309991158247, -16223.432567528793, 5706.892097817909, 28553.772396298933, 16709.493602453902, -16917.96832298855, -9252.348155063171, -19872.98069870242, -29251.817375638173, 5344.927948108667, -11716.113891138302, -10033.36280982051, -10676.176628610687, 0.22812500000000002, 0.886125, 0.155, 192.0, 0.0, 0.0, 0.0, 0.0, 0.0, 0.0, 0.0, 0.0, 0.0, 1.6626778120330513E9, 0.0, 2022-09-08 18:56:52.033
126.0, -5701.237106470717, -7814.393379019903, -29615.904941070672, -27240.652113038555, -16328.083435068542, 5708.255554229683, 28502.54219800737, 16729.40900676358, -16928.630105093733, -9253.577501008212, -19879.55211157228, -29251.392692493522, 5355.008584858011, -11721.567716785397, -10032.312277831112, -10671.929797164179, 0.2260625, 0.8590625000000001, 0.1935, 192.0, 3.5, 0.0, 13.0, 0.0, 3.5, 32.0, 0.0, 0.0, 0.0, 1.662677812033066E9, 0.0, 2022-09-08 18:56:52.033
128.0, -5706.467414673259, -7819.668390711355, -29614.943816059094, -27245.167165418527, -16326.876440867954, 5717.553879923092, 28586.60710890378, 16733.141748087615, -16916.671921810143, -9229.63878269658, -19866.02930617682, -29225.531724158733, 5380.869553192801, -11704.111004365803, -10007.479489741265, -10664.933701149666, 0.2260625, 0.8590625000000001, 0.1935, 192.0, 0.0, 0.0, 0.0, 0.0, 0.0, 0.0, 0.0, 0.0, 0.0, 1.6626778120330713E9, 0.0, 2022-09-08 18:56:52.033
130.0, -5723.7900166261215, -7833.1241408734495, -29616.374327704234, -27254.376084134114, -16306.268132480162, 5711.027170542142, 28532.761756510947, 16684.660814364055, -16934.083930740828, -9248.63776548359, -19876.579329559725, -29230.136183516526, 5366.564436741404, -11722.08180690787, -10023.595097493542, -10681.026957157488, 0.2260625, 0.8590625000000001, 0.1935, 192.0, 0.0, 0.0, 0.0, 0.0, 0.0, 0.0, 0.0, 0.0, 0.0, 1.6626778120330768E9, 0.0, 2022-09-08 18:56:52.033
132.0, -5742.967813368776, -7849.753838748198, -29637.273208769944, -27262.936802260498, -16219.029273871098, 5696.498536646192, 28606.209588791084, 16697.35660521467, -16947.02559078045, -9267.636748270601, -19892.13614370062, -29234.137145774028, 5341.798703884924, -11736.364571614811, -10049.70193501734, -10696.941399209667, 0.2260625, 0.8590625000000001, 0.1935, 192.0, 0.0, 0.0, 0.0, 0.0, 0.0, 0.0, 0.0, 0.0, 0.0, 1.662677812033088E9, 0.0, 2022-09-08 18:56:52.033
