%OpenBCI Raw EEG Data
%Number of channels = 16
%Sample Rate = 125 Hz
%Board = OpenBCI_GUI$BoardCytonSerialDaisy
Sample Index, EXG Channel 0, EXG Channel 1, EXG Channel 2, EXG Channel 3, EXG Channel 4, EXG Channel 5, EXG Channel 6, EXG Channel 7, EXG Channel 8, EXG Channel 9, EXG Channel 10, EXG Channel 11, EXG Channel 12, EXG Channel 13, EXG Channel 14, EXG Channel 15, Accel Channel 0, Accel Channel 1, Accel Channel 2, Other, Other, Other, Other, Other, Other, Other, Analog Channel 0, Analog Channel 1, Analog Channel 2, Timestamp, Other, Timestamp (Formatted)
0.0, -32688.93452750856, -34493.74848529679, -34645.405071426045, -28726.551380938457, -32073.009857298122, -30660.916049589643, -38186.36842803579, -35823.878446087656, 0.0, 0.0, 0.0, 0.0, 0.0, 0.0, 0.0, 0.0, 0.0, 0.0, 0.0, 192.0, 0.0, 0.0, 0.0, 0.0, 0.0, 0.0, 0.0, 0.0, 0.0, 1.67312005794391E9, 0.0, 2023-01-07 14:34:17.943
150.0, -32679.546794837333, -34484.83013925912, -34627.76954505081, -28741.16942181223, -32057.207173968218, -30681.390247510702, -38210.150684136235, -35838.6082456837, -29235.254732996793, -10329.925755253525, -36160.428662351216, -37526.030841592656, -20125.823631980853, -22157.887775646184, -35449.30791250562, -33574.398884105554, 0.0, 0.0, 0.0, 192.0, 0.0, 0.0, 0.0, 0.0, 0.0, 0.0, 0.0, 0.0, 0.0, 1.6731200579439156E9, 0.0, 2023-01-07 14:34:17.943
152.0, -32714.48257142098, -34517.30722395268, -34668.04738855927, -28764.147015112285, -32079.961249823722, -30696.276509317937, -38232.457725102635, -35848.822992899775, -29248.419910480967, -10391.14718331661, -36187.02723825303, -37594.76245579272, -20147.862452013786, -22207.575703570332, -35482.232032088286, -33645.209210539964, 0.0, 0.0, 0.0, 192.0, 0.0, 0.0, 0.0, 0.0, 0.0, 0.0, 0.0, 0.0, 0.0, 1.6731200579439204E9, 0.0, 2023-01-07 14:34:17.943
154.0, -32674.718818034988, -34479.935107223406, -34618.784143779776, -28738.017825844032, -32047.64062734135, -30671.466072972547, -38181.22752681107, -35832.19329502503, -29245.31301800168, -10347.561281628763, -36180.187604449704, -37549.611931993, -20139.815824009875, -22185.58158702631, -35471.324380794096, -33603.187930963984, -0.066, 0.47100000000000003, -0.081, 192.0, 125.5, 112.0, 14.5, 56.0, 125.0, 120.0, 0.0, 0.0, 0.0, 1.673120057943925E9, 0.0, 2023-01-07 14:34:17.943
156.0, -32688.912175764108, -34491.15568293997, -34629.736498562874, -28743.628113702314, -32049.808746553514, -30669.543822949392, -38189.85530017082, -35822.06795478678, -29214.624072864543, -10362.000508546891, -36157.031197194, -37574.332961360575, -20123.02966392394, -22195.975148198027, -35451.7666043957, -33625.629082397114, -0.066, 0.47100000000000003, -0.081, 192.0, 0.0, 0.0, 0.0, 0.0, 0.0, 0.0, 0.0, 0.0, 0.0, 1.6731200579439297E9, 0.0, 2023-01-07 14:34:17.943
158.0, -32673.08714068975, -34476.24706938828, -34608.52469307479, -28734.64271243128, -32035.458926613206, -30668.985029338008, -38169.71637841659, -35824.81721935478, -29231.142012017015, -10323.488452850397, -36158.8863919838, -37525.38264100345, -20114.22307660855, -22172.036429886393, -35447.273903760186, -33583.339581887674, -0.066, 0.47100000000000003, -0.081, 192.0, 0.0, 0.0, 0.0, 0.0, 0.0, 0.0, 0.0, 0.0, 0.0, 1.673120057943934E9, 0.0, 2023-01-07 14:34:17.943
160.0, -32716.024841788396, -34516.9495960414, -34648.24374297187, -28765.46576803515, -32065.9690577947, -30700.769209953454, -38215.17982663868, -35861.02704537237, -29231.052605039193, -10376.707956398483, -36167.71533104364, -37576.03169393918, -20128.66230352668, -22189.04610741688, -35450.894886361944, -33627.61838765364, -0.066, 0.47100000000000003, -0.081, 192.0, 0.0, 0.0, 0.0, 0.0, 0.0, 0.0, 0.0, 0.0, 0.0, 1.6731200579439387E9, 0.0, 2023-01-07 14:34:17.943
162.0, -32688.398085641635, -34490.08279920612, -34623.746231048855, -28734.977988598108, -32041.29273191604, -30673.991820096, -38190.50350076002, -35833.69086190353, -29263.619096710576, -10353.439790420509, -36186.982534764116, -37543.219333078785, -20142.766254277976, -22183.458171303057, -35468.44100575936, -33598.13643671709, -0.066, 0.47100000000000003, -0.081, 192.0, 0.0, 0.0, 0.0, 0.0, 0.0, 0.0, 0.0, 0.0, 0.0, 1.6731200579439447E9, 0.0, 2023-01-07 14:34:17.943
164.0, -32686.073504218282, -34485.67950554842, -34614.13498093307, -28726.864305360832, -32037.470583614184, -30654.478747186513, -38157.93700908864, -35812.680222115545, -29215.987529276317, -10363.878055081137, -36157.411176849746, -37563.33590308856, -20122.22500112355, -22184.195778870082, -35438.82494435608, -33608.17236997752, -0.096, 0.7065, -0.1205, 192.0, 126.0, 8.0, 14.5, 56.0, 125.5, 0.0, 0.0, 0.0, 0.0, 1.673120057943953E9, 0.0, 2023-01-07 14:34:17.943
166.0, -32701.451504403536, -34499.47053187735, -34639.41480391202, -28744.611590458346, -32070.171185752297, -30669.5885264383, -38205.00978291152, -35835.6578154156, -29244.620113923564, -10319.845118504181, -36167.80473802146, -37520.5546642011, -20134.719626274065, -22157.306630290346, -35441.12717403498, -33559.66908450951, -0.096, 0.7065, -0.1205, 192.0, 0.0, 0.0, 0.0, 0.0, 0.0, 0.0, 0.0, 0.0, 0.0, 1.6731200579439588E9, 0.0, 2023-01-07 14:34:17.943
168.0, -32714.974309798996, -34516.32374719665, -34641.15823997954, -28770.338448326405, -32040.286903415552, -30698.288166318915, -38226.020422699505, -35868.269010575896, -29249.515145959278, -10391.080128083246, -36192.97280227814, -37595.991801737764, -20144.152062434205, -22206.011081458462, -35468.30689529263, -33641.23060002692, -0.096, 0.7065, -0.1205, 192.0, 0.0, 0.0, 0.0, 0.0, 0.0, 0.0, 0.0, 0.0, 0.0, 1.6731200579439652E9, 0.0, 2023-01-07 14:34:17.943
170.0, -32692.4661031325, -34490.66394456195, -34631.68110033048, -28746.10915733685, -32032.82142076748, -30666.682799659113, -38185.98844838005, -35833.82497237027, -29262.70267518791, -10349.505883396374, -36187.36251441986, -37545.8121354356, -20138.13944317573, -22177.66906948913, -35446.78216538217, -33590.35802964664, -0.096, 0.7065, -0.1205, 192.0, 0.0, 0.0, 0.0, 0.0, 0.0, 0.0, 0.0, 0.0, 0.0, 1.6731200579439712E9, 0.0, 2023-01-07 14:34:17.943
172.0, -32684.710047806508, -34481.455025846364, -34622.15925719253, -28763.20824184516, -32040.264551671095, -30686.017058612953, -38186.32372454688, -35850.34291152274, -29223.65417762449, -10377.646729665605, -36164.049644952975, -37567.73919674625, -20128.908172715684, -22181.312403835345, -35431.06888903009, -33618.588282893696, -0.096, 0.7065, -0.1205, 192.0, 0.0, 0.0, 0.0, 0.0, 0.0, 0.0, 0.0, 0.0, 0.0, 1.6731200579439774E9, 0.0, 2023-01-07 14:34:17.943
174.0, -32684.285364661857, -34475.42005484344, -34638.967769022915, -28751.585334728403, -32055.463737900704, -30664.134700791205, -38170.31987551688, -35812.23318722644, -29255.88539312904, -10343.716781582449, -36185.32850567443, -37544.71689995729, -20153.338629405338, -22186.073325404326, -35456.66163643142, -33601.7797710633, -0.096, 0.7065, -0.1205, 192.0, 0.0, 0.0, 0.0, 0.0, 0.0, 0.0, 0.0, 0.0, 0.0, 1.6731200579439833E9, 0.0, 2023-01-07 14:34:17.943
176.0, -32669.242640643435, -34466.38995008349, -34607.11653317411, -28751.965314384142, -32048.333531419463, -30676.964602108554, -38182.83685241185, -35841.357510251706, -29211.4948286408, -10336.85479603467, -36144.760089488045, -37542.101745856016, -20123.54375404641, -22156.926650634607, -35433.59463615354, -33601.869178041125, -0.12, 0.9400000000000001, -0.166, 192.0, 126.0, 32.0, 14.5, 48.0, 125.0, 104.0, 0.0, 0.0, 0.0, 1.67312005794399E9, 0.0, 2023-01-07 14:34:17.943
178.0, -32679.926774493073, -34473.74367400929, -34639.10187948965, -28750.959485883654, -32057.47539490168, -30664.671142658135, -38188.67065771468, -35818.22345474046, -29254.03019833925, -10342.643897848595, -36179.092368971396, -37544.98512089076, -20145.64962931271, -22180.418334057133, -35471.7714156832, -33609.51347464484, -0.12, 0.9400000000000001, -0.166, 192.0, 0.0, 0.0, 0.0, 0.0, 0.0, 0.0, 0.0, 0.0, 0.0, 1.673120057943996E9, 0.0, 2023-01-07 14:34:17.943
180.0, -32679.90442274862, -34473.72132226483, -34614.00087046634, -28768.8408814479, -32048.892325030843, -30691.40382902668, -38188.17891933667, -35854.634446458156, -29210.667814095952, -10331.84800527668, -36150.66095002424, -37545.029824379664, -20127.388254092726, -22167.2308048285, -35449.12909854997, -33613.73795434689, -0.12, 0.9400000000000001, -0.166, 192.0, 0.0, 0.0, 0.0, 0.0, 0.0, 0.0, 0.0, 0.0, 0.0, 1.6731200579440043E9, 0.0, 2023-01-07 14:34:17.944
182.0, -32697.204672957025, -34477.49876707778, -34644.33218769219, -28754.98279988561, -32071.780511353078, -30667.666276415144, -38204.361582322315, -35827.67824264506, -29261.093349587125, -10345.370810672142, -36182.288668428504, -37558.95496117532, -20159.954745764106, -22187.14620913818, -35472.419616272404, -33625.74084111939, -0.12, 0.9400000000000001, -0.166, 192.0, 0.0, 0.0, 0.0, 0.0, 0.0, 0.0, 0.0, 0.0, 0.0, 1.6731200579440095E9, 0.0, 2023-01-07 14:34:17.944
184.0, -32696.020030500895, -34471.06146467465, -34614.11262918862, -28763.69998022318, -32056.514269890104, -30682.463131244556, -38209.81540796941, -35854.276818546874, -29238.987474320827, -10319.576897570718, -36158.528764072515, -37536.156181830906, -20141.8051292664, -22164.079208860305, -35448.57030493859, -33609.17819847801, -0.12, 0.9400000000000001, -0.166, 192.0, 0.0, 0.0, 0.0, 0.0, 0.0, 0.0, 0.0, 0.0, 0.0, 1.6731200579440155E9, 0.0, 2023-01-07 14:34:17.944
186.0, -32707.464123662012, -34470.994409441286, -34629.110649718124, -28731.17819204071, -32029.982749221654, -30635.569171377323, -38180.19934656612, -35803.8512830557, -29280.13703586305, -10337.145368712589, -36179.137072460304, -37546.46033602481, -20153.36098114979, -22176.998517155473, -35450.201982283834, -33605.579567620705, -0.128, 0.9440000000000001, -0.164, 192.0, 126.0, 0.0, 14.5, 64.0, 125.0, 112.0, 0.0, 0.0, 0.0, 1.6731200579440217E9, 0.0, 2023-01-07 14:34:17.944
188.0, -32704.446638160545, -34475.15183390997, -34618.4712193574, -28753.619343473834, -32034.207228923708, -30662.167747279138, -38202.260518343515, -35842.76567015239, -29266.79304442323, -10299.505031049852, -36168.00590372156, -37519.660594422894, -20140.665190299176, -22142.19685103856, -35427.1126302615, -33580.94794523095, -0.128, 0.9440000000000001, -0.164, 192.0, 0.0, 0.0, 0.0, 0.0, 0.0, 0.0, 0.0, 0.0, 0.0, 1.6731200579440274E9, 0.0, 2023-01-07 14:34:17.944
190.0, -32720.115211023716, -34482.55026132468, -34651.39533894007, -28744.097500335873, -32058.123595490888, -30630.607084108247, -38161.93797134614, -35798.68803008652, -29297.526693049276, -10349.215310718455, -36202.76286634956, -37569.504984558225, -20171.935280792153, -22165.01798212743, -35461.44490974485, -33610.56400663424, -0.128, 0.9440000000000001, -0.164, 192.0, 0.0, 0.0, 0.0, 0.0, 0.0, 0.0, 0.0, 0.0, 0.0, 1.6731200579440336E9, 0.0, 2023-01-07 14:34:17.944
192.0, -32669.75673076591, -34425.84388564157, -34590.44213181044, -28729.658273417746, -32021.064403183987, -30623.38747064918, -38142.491953670025, -35804.07480050025, -29258.768768163776, -10282.674167475006, -36160.49571758458, -37515.92785309885, -20137.044207697418, -22114.5700948918, -35418.753077835216, -33559.17734613149, -0.128, 0.9440000000000001, -0.164, 192.0, 0.0, 0.0, 0.0, 0.0, 0.0, 0.0, 0.0, 0.0, 0.0, 1.6731200579440396E9, 0.0, 2023-01-07 14:34:17.944
194.0, -32685.022972228882, -34441.46775501582, -34630.96584450792, -28750.333637038904, -32034.09547020143, -30639.078395256805, -38163.27907601346, -35810.55680639229, -29262.009771109795, -10307.596362542674, -36165.74837753158, -37543.26403656769, -20143.7050275451, -22148.365932508223, -35426.710298861304, -33596.482407627394, -0.128, 0.9440000000000001, -0.164, 192.0, 0.0, 0.0, 0.0, 0.0, 0.0, 0.0, 0.0, 0.0, 0.0, 1.673120057944044E9, 0.0, 2023-01-07 14:34:17.944
196.0, -32652.054149157306, -34405.74966737624, -34584.3624573186, -28740.744738667578, -32011.699022257213, -30637.044386511374, -38134.42297392165, -35812.92609130455, -29251.057416326694, -10290.765498967827, -36151.37620584681, -37505.08725703803, -20130.405739594193, -22133.99376082346, -35418.35074643502, -33576.09761668416, -0.138, 0.934, -0.178, 192.0, 125.5, 88.0, 14.5, 24.0, 125.0, 56.0, 0.0, 0.0, 0.0, 1.673120057944049E9, 0.0, 2023-01-07 14:34:17.944
198.0, -32698.881053791174, -34443.12178410552, -34639.63832135658, -28762.671799978234, -32061.275191459084, -30652.57884890781, -38170.230468539055, -35821.3079954753, -29244.508355201287, -10305.741167752883, -36158.14878441677, -37542.034690622655, -20134.116129173774, -22144.23085978399, -35429.45956342931, -33608.55234963326, -0.138, 0.934, -0.178, 192.0, 0.0, 0.0, 0.0, 0.0, 0.0, 0.0, 0.0, 0.0, 0.0, 1.6731200579440536E9, 0.0, 2023-01-07 14:34:17.944
200.0, -32678.18333842556, -34419.29482451616, -34606.043649440246, -28748.59020097139, -32054.726130333678, -30639.39131967918, -38151.23148575205, -35821.88914083113, -29276.963088150394, -10293.492411791374, -36176.61132533685, -37521.71695491278, -20152.623373582766, -22138.70997890353, -35448.88322936097, -33586.8264540227, -0.138, 0.934, -0.178, 192.0, 0.0, 0.0, 0.0, 0.0, 0.0, 0.0, 0.0, 0.0, 0.0, 1.6731200579440584E9, 0.0, 2023-01-07 14:34:17.944
202.0, -32709.94516729655, -34445.82634518461, -34640.39828066806, -28763.968201156644, -32053.094452988444, -30644.711034859545, -38199.84652994234, -35831.36628048018, -29262.099178087614, -10315.37476961312, -36173.705598557666, -37559.022016408686, -20153.852719527807, -22154.624420955708, -35448.68206366087, -33606.98772752139, -0.138, 0.934, -0.178, 192.0, 0.0, 0.0, 0.0, 0.0, 0.0, 0.0, 0.0, 0.0, 0.0, 1.673120057944063E9, 0.0, 2023-01-07 14:34:17.944
204.0, -32676.41755061359, -34411.29290000116, -34602.959108705414, -28741.661160190244, -32010.62613852336, -30627.29902592886, -38164.97780859206, -35821.88914083113, -29279.93587016295, -10284.238789586878, -36181.14872946128, -37519.593539189525, -20150.946992748617, -22133.077339300795, -35448.97263633879, -33567.35808460213, -0.138, 0.934, -0.178, 192.0, 0.0, 0.0, 0.0, 0.0, 0.0, 0.0, 0.0, 0.0, 0.0, 1.6731200579440677E9, 0.0, 2023-01-07 14:34:17.944
206.0, -32722.529199424887, -34455.616409256036, -34650.25539997285, -28775.389942573303, -32062.906868804323, -30651.863593085243, -38191.911660660706, -35844.39734749762, -29269.45290201341, -10321.342685382688, -36184.43443589621, -37568.9685426913, -20156.64668758472, -22147.51656621892, -35444.904618847926, -33601.95858501895, -0.134, 0.9400000000000001, -0.18, 192.0, 125.5, 104.0, 14.5, 48.0, 125.0, 48.0, 0.0, 0.0, 0.0, 1.6731200579440725E9, 0.0, 2023-01-07 14:34:17.944
208.0, -32691.124998465184, -34423.04991758465, -34626.406088639036, -28755.02750337452, -32045.53956336255, -30641.201810980063, -38174.94668661913, -35839.18939103954, -29302.578187296178, -10303.885972963093, -36203.29930821649, -37534.0104143632, -20179.579577395867, -22141.36983649371, -35466.87638364749, -33576.701113784446, -0.134, 0.9400000000000001, -0.18, 192.0, 0.0, 0.0, 0.0, 0.0, 0.0, 0.0, 0.0, 0.0, 0.0, 1.6731200579440773E9, 0.0, 2023-01-07 14:34:17.944
210.0, -32686.498187362933, -34417.68549891538, -34621.08637345867, -28759.07316912093, -32034.49780160163, -30643.861668570244, -38166.318913259376, -35835.70251890451, -29259.372265264068, -10321.610906316151, -36176.25369742557, -37562.508888543714, -20152.645725327224, -22139.76051089293, -35448.92793284988, -33612.10627700166, -0.134, 0.9400000000000001, -0.18, 192.0, 0.0, 0.0, 0.0, 0.0, 0.0, 0.0, 0.0, 0.0, 0.0, 1.6731200579440815E9, 0.0, 2023-01-07 14:34:17.944
212.0, -32657.21740212648, -34384.20258572132, -34597.57233829169, -28737.74960491057, -32020.349147361416, -30616.749002545956, -38139.474468168555, -35806.93582379053, -29257.628829196554, -10262.244673042855, -36158.77463326152, -37496.07950402254, -20135.189012907627, -22120.023920538893, -35431.98531055276, -33559.35616008713, -0.134, 0.9400000000000001, -0.18, 192.0, 0.0, 0.0, 0.0, 0.0, 0.0, 0.0, 0.0, 0.0, 0.0, 1.6731200579440875E9, 0.0, 2023-01-07 14:34:17.944
214.0, -32675.836405257753, -34404.67678364239, -34608.72585877489, -28762.045951133485, -32028.77575502107, -30638.944284790075, -38148.68338688414, -35826.91828333357, -29241.289703999726, -10296.286379848289, -36157.411176849746, -37544.828658679566, -20133.84790824031, -22128.22701075399, -35438.28850248915, -33610.63106186761, -0.134, 0.9400000000000001, -0.18, 192.0, 0.0, 0.0, 0.0, 0.0, 0.0, 0.0, 0.0, 0.0, 0.0, 1.6731200579440925E9, 0.0, 2023-01-07 14:34:17.944
216.0, -32669.17558541007, -34395.11023701551, -34607.98825120786, -28754.424006274225, -32025.646510797324, -30631.322339930815, -38140.949683302606, -35818.87165532967, -29263.037951354738, -10263.026984098791, -36163.133223430304, -37501.33216396954, -20139.56995482087, -22114.43598442507, -35436.63447339946, -33572.70015152695, -0.134, 0.9400000000000001, -0.18, 192.0, 125.5, 104.0, 14.5, 48.0, 125.0, 48.0, 0.0, 0.0, 0.0, 1.6731200579440968E9, 0.0, 2023-01-07 14:34:17.944
218.0, -32684.352419895225, -34411.78463837918, -34616.101934445134, -28778.02744841903, -32047.81944129699, -30660.20079376707, -38172.80091915142, -35851.37109176768, -29249.895125615018, -10305.763519497337, -36164.20610716416, -37551.78005120517, -20143.257992655992, -22137.257115513938, -35452.928895107376, -33625.45026844148, -0.134, 0.9400000000000001, -0.18, 192.0, 0.0, 0.0, 0.0, 0.0, 0.0, 0.0, 0.0, 0.0, 0.0, 1.6731200579441016E9, 0.0, 2023-01-07 14:34:17.944
220.0, -32669.13088192116, -34395.04318178215, -34612.3691931211, -28752.07707310642, -32045.941894762746, -30633.043424253876, -38137.03812802293, -35814.46836167197, -29266.41306476749, -10281.131897107589, -36167.894144999285, -37507.54594892811, -20144.800263023408, -22125.880077586186, -35451.610142184516, -33578.086921940674, -0.134, 0.9400000000000001, -0.18, 192.0, 0.0, 0.0, 0.0, 0.0, 0.0, 0.0, 0.0, 0.0, 0.0, 1.673120057944106E9, 0.0, 2023-01-07 14:34:17.944
222.0, -32691.102646720727, -34414.55625469163, -34614.04557395525, -28784.487102566614, -32055.44138615625, -30674.282392773915, -38175.974866864075, -35861.60819072821, -29244.93303834594, -10308.959818954447, -36159.087557683895, -37539.933626643855, -20145.426111868157, -22143.090920816772, -35443.20588626932, -33607.054782754756, -0.134, 0.9400000000000001, -0.18, 192.0, 0.0, 0.0, 0.0, 0.0, 0.0, 0.0, 0.0, 0.0, 0.0, 1.6731200579441109E9, 0.0, 2023-01-07 14:34:17.944
224.0, -32690.834425787263, -34408.834208111075, -34623.522713604296, -28763.789387201, -32021.91376947329, -30648.801404094866, -38170.36457900579, -35840.73166140696, -29282.908652175505, -10290.474926289908, -36188.524805131536, -37530.05415559461, -20159.865338786287, -22149.304705775347, -35453.44298522985, -33596.0800762272, -0.134, 0.9400000000000001, -0.18, 192.0, 0.0, 0.0, 0.0, 0.0, 0.0, 0.0, 0.0, 0.0, 0.0, 1.6731200579441152E9, 0.0, 2023-01-07 14:34:17.944
226.0, -32700.71389683651, -34420.81474313912, -34617.53244609028, -28786.521111312046, -32038.38700513685, -30669.20854678256, -38169.962247605596, -35860.512955249906, -29256.019503595773, -10301.114356650634, -36171.82805202342, -37540.29125455514, -20141.156928677196, -22139.067606814817, -35436.00862455471, -33603.59026236418, -0.124, 0.9440000000000001, -0.19, 192.0, 126.0, 16.0, 14.5, 64.0, 125.0, 8.0, 0.0, 0.0, 0.0, 1.6731200579441197E9, 0.0, 2023-01-07 14:34:17.944
228.0, -32695.10360897823, -34410.35412673403, -34633.04455674226, -28762.962372656155, -32039.906923759812, -30627.880171284698, -38160.77568063446, -35818.42462044056, -29299.068963416692, -10300.577914783707, -36196.5937848799, -37532.04346085113, -20168.649574357223, -22145.23668828448, -35451.319569506595, -33586.290012155776, -0.124, 0.9440000000000001, -0.19, 192.0, 0.0, 0.0, 0.0, 0.0, 0.0, 0.0, 0.0, 0.0, 0.0, 1.6731200579441245E9, 0.0, 2023-01-07 14:34:17.944
230.0, -32683.726571050476, -34404.16269351992, -34607.094181429646, -28778.720352497145, -32030.116859688387, -30649.941343062088, -38171.99625635103, -35859.64123721614, -29266.055436856204, -10295.839344959182, -36171.313961900945, -37530.635300950446, -20154.456216628103, -22139.447586470556, -35436.90269433292, -33588.74870404586, -0.124, 0.9440000000000001, -0.19, 192.0, 0.0, 0.0, 0.0, 0.0, 0.0, 0.0, 0.0, 0.0, 0.0, 1.6731200579441288E9, 0.0, 2023-01-07 14:34:17.944
232.0, -32673.13184417866, -34385.677800855374, -34612.61506231011, -28748.50079399357, -32025.020661952578, -30605.39431636266, -38149.10807002879, -35805.99705052341, -29268.84940491312, -10292.017196657323, -36170.285781656006, -37519.302966511605, -20146.208422924094, -22135.893659102163, -35432.99113905324, -33566.66518052402, -0.124, 0.9440000000000001, -0.19, 192.0, 0.0, 0.0, 0.0, 0.0, 0.0, 0.0, 0.0, 0.0, 0.0, 1.6731200579441333E9, 0.0, 2023-01-07 14:34:17.944
234.0, -32664.302905118813, -34383.666143854396, -34582.08257938416, -28766.203375602174, -32027.457002098206, -30630.942360275076, -38139.36270944628, -35836.61894042718, -29239.25569525429, -10277.823838928205, -36146.19060113318, -37510.25051000721, -20126.918867459164, -22118.213429238014, -35415.601481867016, -33560.272581609795, -0.124, 0.9440000000000001, -0.19, 192.0, 0.0, 0.0, 0.0, 0.0, 0.0, 0.0, 0.0, 0.0, 0.0, 1.673120057944138E9, 0.0, 2023-01-07 14:34:17.944
236.0, -32676.082274446762, -34394.216167237304, -34616.548969334246, -28762.917669167244, -32019.186856649743, -30615.989043234476, -38162.69793065762, -35815.22832098345, -29265.78721592274, -10282.003615141346, -36162.26150539655, -37526.12024857048, -20142.05099845541, -22131.400958466646, -35428.34197620654, -33568.14039565807, -0.13, 0.9380000000000001, -0.19, 192.0, 125.5, 120.0, 14.5, 40.0, 125.0, 8.0, 0.0, 0.0, 0.0, 1.6731200579441426E9, 0.0, 2023-01-07 14:34:17.944
238.0, -32675.434073857556, -34397.70303937233, -34602.489722071856, -28791.259681136573, -32025.847676497422, -30654.948133820075, -38171.6609801842, -35867.844327431245, -29263.775558921763, -10279.209647084434, -36160.696883284676, -37518.543007200125, -20138.13944317573, -22134.485499201477, -35432.38764195295, -33578.44454985196, -0.13, 0.9380000000000001, -0.19, 192.0, 0.0, 0.0, 0.0, 0.0, 0.0, 0.0, 0.0, 0.0, 0.0, 1.673120057944147E9, 0.0, 2023-01-07 14:34:17.944
240.0, -32687.88399551916, -34404.073286542094, -34632.41870789751, -28783.16834964375, -32047.305351174517, -30642.58761913629, -38167.54825920442, -35840.68695791804, -29274.03500962675, -10306.56818229773, -36179.96408700515, -37553.769356461686, -20166.52615863397, -22173.176368853616, -35450.29138926165, -33611.99451827938, -0.13, 0.9380000000000001, -0.19, 192.0, 0.0, 0.0, 0.0, 0.0, 0.0, 0.0, 0.0, 0.0, 0.0, 1.6731200579441519E9, 0.0, 2023-01-07 14:34:17.944
242.0, -32662.42535858457, -34380.46984439729, -34590.19626262144, -28777.759227485567, -32031.726185289168, -30653.472918686024, -38163.41318648019, -35859.015388371394, -29258.858175141595, -10278.784963939783, -36158.14878441677, -37513.06682980857, -20149.89646075922, -22136.787728880376, -35431.00183379672, -33581.529090586795, -0.13, 0.9380000000000001, -0.19, 192.0, 0.0, 0.0, 0.0, 0.0, 0.0, 0.0, 0.0, 0.0, 0.0, 1.6731200579441564E9, 0.0, 2023-01-07 14:34:17.944
244.0, -32695.617699100698, -34410.35412673403, -34624.506190360335, -28780.754361242576, -32036.57651383597, -30649.986046550996, -38182.83685241185, -35852.13105107916, -29255.12543381756, -10305.495298563874, -36165.77072927603, -37546.39328079144, -20150.03057122595, -22150.042313342372, -35436.72388037728, -33607.92650078851, -0.13, 0.9380000000000001, -0.19, 192.0, 0.0, 0.0, 0.0, 0.0, 0.0, 0.0, 0.0, 0.0, 0.0, 1.673120057944162E9, 0.0, 2023-01-07 14:34:17.944
246.0, -32677.021047713883, -34388.85174856803, -34592.476140555875, -28772.774788472034, -32027.077022442463, -30650.187212251094, -38185.11673034629, -35871.465310033, -29270.70459970291, -10268.011423112324, -36165.167232175736, -37508.73059138424, -20138.430015853646, -22131.37860672219, -35432.72291811978, -33578.46690159642, -0.131, 0.936, -0.192, 192.0, 125.5, 112.0, 14.5, 24.0, 124.5, 120.0, 0.0, 0.0, 0.0, 1.6731200579441667E9, 0.0, 2023-01-07 14:34:17.944
248.0, -32691.102646720727, -34403.447437697345, -34622.87451301509, -28770.69607623769, -32042.410319138806, -30638.340787689784, -38188.04480886994, -35852.9133621351, -29272.962125892893, -10306.098795664167, -36177.93007825972, -37557.23387685226, -20156.959612007096, -22150.042313342372, -35455.40993874192, -33618.61063463815, -0.131, 0.936, -0.192, 192.0, 0.0, 0.0, 0.0, 0.0, 0.0, 0.0, 0.0, 0.0, 0.0, 1.6731200579441712E9, 0.0, 2023-01-07 14:34:17.944
250.0, -32656.055111414807, -34373.02671349367, -34581.6131927506, -28756.234497575108, -32017.175199648766, -30630.8306015528, -38157.69113989963, -35850.074690589274, -29254.141957061525, -10251.091152559657, -36148.96221744564, -37491.65385862039, -20140.17345192116, -22107.194019221548, -35427.15733375041, -33557.16568913051, -0.131, 0.936, -0.192, 192.0, 0.0, 0.0, 0.0, 0.0, 0.0, 0.0, 0.0, 0.0, 0.0, 1.6731200579441755E9, 0.0, 2023-01-07 14:34:17.944
252.0, -32687.973402496984, -34402.21809175231, -34612.39154486555, -28773.601803016878, -32041.762118549603, -30643.571095892323, -38171.482166228554, -35853.025120857375, -29243.435471467434, -10295.70523449245, -36153.209048892146, -37543.86753366799, -20147.862452013786, -22151.338714520778, -35435.36042396551, -33604.55138737576, -0.131, 0.936, -0.192, 192.0, 0.0, 0.0, 0.0, 0.0, 0.0, 0.0, 0.0, 0.0, 0.0, 1.673120057944181E9, 0.0, 2023-01-07 14:34:17.944
254.0, -32661.084253917248, -34377.9664490183, -34572.87366066857, -28755.273372563526, -32013.554217047003, -30623.074546226806, -38153.28784624193, -35837.13303054965, -29257.673532685465, -10259.182484052479, -36149.14103140128, -37492.92790805434, -20146.409588624192, -22127.467051442512, -35426.978519794764, -33556.78570947477, -0.131, 0.936, -0.192, 192.0, 0.0, 0.0, 0.0, 0.0, 0.0, 0.0, 0.0, 0.0, 0.0, 1.6731200579441864E9, 0.0, 2023-01-07 14:34:17.944
0.0, -32691.840254287752, -34407.62721391049, -34600.32160285969, -28778.161558885764, -32026.697042786724, -30637.089090000285, -38177.427730253665, -35848.48771673295, -29247.12350930256, -10312.916077723035, -36150.10215641286, -37547.01912963619, -20148.46594911408, -22140.229897526493, -35429.34780470703, -33594.69426807097, -0.1295, 0.937, -0.195, 192.0, 126.0, 0.0, 14.5, 40.0, 124.5, 104.0, 0.0, 0.0, 0.0, 1.6731200579441907E9, 0.0, 2023-01-07 14:34:17.944
2.0, -32670.337876121746, -34388.494120656746, -34586.10589338611, -28771.523090782535, -32009.977937934156, -30631.098822486263, -38158.272285255465, -35841.692786418535, -29263.060303099195, -10268.212588812423, -36157.65704603875, -37501.8015506031, -20148.13067294725, -22127.265885742414, -35436.47801118827, -33556.60689551913, -0.1295, 0.937, -0.195, 192.0, 0.0, 0.0, 0.0, 0.0, 0.0, 0.0, 0.0, 0.0, 0.0, 1.6731200579441955E9, 0.0, 2023-01-07 14:34:17.944
4.0, -32680.485568104457, -34399.64764113994, -34595.203053379424, -28781.871948465345, -32033.42491786777, -30641.268866213428, -38155.8582968543, -35848.33125452176, -29242.608456922586, -10306.255257875355, -36152.24792388057, -37550.550705260124, -20142.207460666592, -22143.828528383798, -35432.20882799731, -33597.15295996105, -0.1295, 0.937, -0.195, 192.0, 0.0, 0.0, 0.0, 0.0, 0.0, 0.0, 0.0, 0.0, 0.0, 1.6731200579442E9, 0.0, 2023-01-07 14:34:17.944
6.0, -32674.338838379248, -34388.80704507912, -34593.99605917884, -28775.680515251224, -32023.99248170763, -30644.95690404855, -38174.32083777438, -35850.25350454492, -29253.091425072125, -10261.417658498009, -36149.073976167914, -37494.09019876602, -20145.828443268354, -22137.704150403042, -35423.066964515085, -33548.470860537396, -0.1295, 0.937, -0.195, 192.0, 0.0, 0.0, 0.0, 0.0, 0.0, 0.0, 0.0, 0.0, 0.0, 1.6731200579442046E9, 0.0, 2023-01-07 14:34:17.944
8.0, -32707.28530970637, -34421.485295472776, -34611.67628904299, -28804.60367257639, -32038.252894670117, -30679.892680632198, -38199.77947470897, -35884.22815611698, -29255.5054134733, -10325.47775810692, -36163.51320308605, -37562.10655714352, -20155.685562573144, -22168.795426940374, -35448.100918305034, -33615.70490785896, -0.1295, 0.937, -0.195, 192.0, 0.0, 0.0, 0.0, 0.0, 0.0, 0.0, 0.0, 0.0, 0.0, 1.6731200579442098E9, 0.0, 2023-01-07 14:34:17.944
10.0, -32680.239698915448, -34390.68459161337, -34594.04076266775, -28769.667895992745, -32029.62512131037, -30644.845145326275, -38164.82134638087, -35839.8599433732, -29273.74443694883, -10282.473001774908, -36167.91649674374, -37504.99785006021, -20164.335687677347, -22142.085092316283, -35440.970711823786, -33560.80902347672, -0.12775, 0.9395, -0.1935, 192.0, 126.0, 8.0, 14.5, 56.0, 125.0, 0.0, 0.0, 0.0, 0.0, 1.6731200579442143E9, 0.0, 2023-01-07 14:34:17.944
12.0, -32690.52150136489, -34401.23461499627, -34590.71035274391, -28785.559986300468, -32039.661054570803, -30669.521471204935, -38172.890326129236, -35872.29232457785, -29240.350930732602, -10308.535135809796, -36148.939865701184, -37537.49728649823, -20148.577707836357, -22148.276525530404, -35432.789973353145, -33591.11798895812, -0.12775, 0.9395, -0.1935, 192.0, 0.0, 0.0, 0.0, 0.0, 0.0, 0.0, 0.0, 0.0, 0.0, 1.673120057944219E9, 0.0, 2023-01-07 14:34:17.944
14.0, -32679.882071004162, -34387.75651308972, -34592.02910566677, -28758.760244698555, -32038.096432458933, -30636.82086906682, -38167.54825920442, -35836.08249856025, -29268.89410840203, -10271.118315591611, -36157.4335285942, -37493.82197783256, -20149.4047223812, -22133.211449767525, -35426.710298861304, -33545.028691891275, -0.12775, 0.9395, -0.1935, 192.0, 0.0, 0.0, 0.0, 0.0, 0.0, 0.0, 0.0, 0.0, 0.0, 1.6731200579442234E9, 0.0, 2023-01-07 14:34:17.944
0.0, -16356.492502271236, -17209.636236385853, -17285.051022178057, -14354.133826987008, -16008.78876552448, -15327.597001504542, -19134.65787585472, -17917.292465840874, -14625.7522256079, -5165.599902343739, -18078.403839874725, -18777.47699945891, -10080.18971445438, -11085.370014353994, -17718.719568099925, -16801.314568676302, -0.12987500000000002, 0.9397500000000001, -0.19275, 192.0, 125.5, 112.0, 14.5, 48.0, 125.0, 0.0, 0.0, 0.0, 0.0, 1.6731200585449953E9, 0.0, 2023-01-07 14:34:18.544
2.0, -32735.515562953424, -34442.8312114276, -34590.62094576609, -28732.58635194139, -32038.364653392397, -30678.283355031417, -38277.09415877988, -35858.59070522674, -29270.436378769446, -10304.109490407645, -36158.43935709469, -37522.52161771317, -20165.006240011007, -22138.86644111472, -35417.411973167895, -33560.94313394346, -0.12987500000000002, 0.9397500000000001, -0.19275, 192.0, 0.0, 0.0, 0.0, 0.0, 0.0, 0.0, 0.0, 0.0, 0.0, 1.6731200585450482E9, 0.0, 2023-01-07 14:34:18.545
4.0, -32725.546684926354, -34431.45417349985, -34594.376038834576, -28718.482401190093, -32026.406470108806, -30646.92385756062, -38250.78615555599, -35819.27398672986, -29296.140884893048, -10282.830629686194, -36171.11279620085, -37492.123245253955, -20177.925548306175, -22134.686664901576, -35421.2117697253, -33528.73427018336, -0.12987500000000002, 0.9397500000000001, -0.19275, 192.0, 0.0, 0.0, 0.0, 0.0, 0.0, 0.0, 0.0, 0.0, 0.0, 1.6731200585450945E9, 0.0, 2023-01-07 14:34:18.545
6.0, -32735.58261818679, -34448.35209230806, -34597.4158760805, -28769.35497157037, -32053.474432644183, -30690.26389005946, -38278.6364291473, -35863.776309940375, -29268.98351537985, -10302.94719969597, -36157.187659405194, -37519.54883570061, -20160.960574264594, -22144.700246417553, -35403.26331892769, -33564.22884037839, -0.12987500000000002, 0.9397500000000001, -0.19275, 192.0, 0.0, 0.0, 0.0, 0.0, 0.0, 0.0, 0.0, 0.0, 0.0, 1.673120058545107E9, 0.0, 2023-01-07 14:34:18.545
8.0, -32732.05104256285, -34446.07221437361, -34612.27978614328, -28760.861308677355, -32048.601752352926, -30659.887869344697, -38261.09030974988, -35827.74529787842, -29303.22638788538, -10312.267877133832, -36184.16621496275, -37523.48274272475, -20186.70978387711, -22176.372668310723, -35429.0125285402, -33571.046122437256, -0.138, 0.9460000000000001, -0.186, 192.0, 125.5, 88.0, 14.5, 72.0, 125.0, 24.0, 0.0, 0.0, 0.0, 1.6731200585451128E9, 0.0, 2023-01-07 14:34:18.545
10.0, -32717.410649944624, -34438.09264160307, -34572.65014322402, -28771.45603554917, -32020.14798166132, -30682.038448099906, -38262.520821395025, -35867.844327431245, -29256.17596580696, -10315.41947310203, -36147.82227847842, -37522.588672946535, -20153.830367783354, -22158.267755301924, -35393.942641489826, -33569.36974160311, -0.138, 0.9460000000000001, -0.186, 192.0, 0.0, 0.0, 0.0, 0.0, 0.0, 0.0, 0.0, 0.0, 0.0, 1.6731200585451183E9, 0.0, 2023-01-07 14:34:18.545
12.0, -32740.43294673359, -34458.902115690966, -34603.13792266106, -28767.343314569393, -32046.25481918512, -30676.83049164182, -38275.99892330157, -35834.38376598165, -29291.312908090702, -10324.181356928511, -36172.722121801635, -37528.91421662739, -20173.678716859667, -22178.71960147853, -35412.96397602129, -33567.51454681332, -0.138, 0.9460000000000001, -0.186, 192.0, 0.0, 0.0, 0.0, 0.0, 0.0, 0.0, 0.0, 0.0, 0.0, 1.6731200585451243E9, 0.0, 2023-01-07 14:34:18.545
14.0, -32728.832391361284, -34451.52604002071, -34575.80173919222, -28770.15963437076, -32046.120708718387, -30696.768247695956, -38277.92117332473, -35863.95512389602, -29274.951431149417, -10324.963667984446, -36155.19835414867, -37523.84037063603, -20165.006240011007, -22168.884833918197, -35405.029106739654, -33557.344503086155, -0.138, 0.9460000000000001, -0.186, 192.0, 0.0, 0.0, 0.0, 0.0, 0.0, 0.0, 0.0, 0.0, 0.0, 1.67312005854513E9, 0.0, 2023-01-07 14:34:18.545
16.0, -32713.76731559841, -34431.342414777566, -34578.2604310823, -28727.7807268835, -32019.52213281657, -30651.617723896234, -38245.91347526473, -35806.8017133238, -29278.617117240086, -10323.0861214502, -36165.59191532039, -37523.41568749138, -20165.721495833575, -22161.15113033666, -35405.6549555844, -33546.05687213622, -0.138, 0.9460000000000001, -0.186, 192.0, 0.0, 0.0, 0.0, 0.0, 0.0, 0.0, 0.0, 0.0, 0.0, 1.6731200585451355E9, 0.0, 2023-01-07 14:34:18.545
18.0, -32702.367925926203, -34420.47946697229, -34549.069052823674, -28738.800136899965, -32010.33556584544, -30670.12496830523, -38252.48488813459, -35839.90464686211, -29238.585142920634, -10288.552676266752, -36131.594912003864, -37488.88224230793, -20135.568992563367, -22133.166746278614, -35362.538440530116, -33515.0102990878, -0.136, 0.9440000000000001, -0.18, 192.0, 125.5, 96.0, 14.5, 64.0, 125.0, 48.0, 0.0, 0.0, 0.0, 1.6731200585451417E9, 0.0, 2023-01-07 14:34:18.545
20.0, -32741.5281822119, -34452.39775805447, -34600.522768559786, -28749.417215516238, -32032.37438587837, -30675.17646255213, -38276.40125470177, -35833.89202760363, -29280.74053296334, -10314.19012715699, -36166.66479905424, -37526.07554508156, -20164.536853377445, -22159.184176824594, -35397.72008630277, -33544.201677346435, -0.136, 0.9440000000000001, -0.18, 192.0, 0.0, 0.0, 0.0, 0.0, 0.0, 0.0, 0.0, 0.0, 0.0, 1.6731200585451472E9, 0.0, 2023-01-07 14:34:18.545
22.0, -32719.981100556983, -34434.24814155676, -34558.79206166173, -28742.39876775727, -32027.52405733157, -30681.099674832785, -38261.44793766116, -35850.76759466739, -29269.02821886876, -10298.074519404712, -36151.42090933573, -37498.269974979165, -20153.718609061078, -22139.492289959468, -35384.46550184077, -33525.29210153724, -0.136, 0.9440000000000001, -0.18, 192.0, 0.0, 0.0, 0.0, 0.0, 0.0, 0.0, 0.0, 0.0, 0.0, 1.6731200585451531E9, 0.0, 2023-01-07 14:34:18.545
24.0, -32740.567057200322, -34453.49299353278, -34599.02520168128, -28733.279256019505, -32039.549295848527, -30665.766378136443, -38277.29532447998, -35832.327405491764, -29288.31777433369, -10319.286324892799, -36171.045740967485, -37525.583806703544, -20178.70785936211, -22153.19390931057, -35408.91831027488, -33549.47668903788, -0.136, 0.9440000000000001, -0.18, 192.0, 0.0, 0.0, 0.0, 0.0, 0.0, 0.0, 0.0, 0.0, 0.0, 1.673120058545159E9, 0.0, 2023-01-07 14:34:18.545
26.0, -32716.740097610964, -34429.95660662134, -34564.26823905328, -28728.339520494883, -32026.38411836435, -30675.914070119154, -38254.38478641329, -35849.940580122544, -29279.60059399612, -10284.507010520341, -36159.95927571765, -37488.03287601863, -20147.661286313687, -22130.61864741071, -35401.877510771454, -33523.16868581399, -0.136, 0.9440000000000001, -0.18, 192.0, 0.0, 0.0, 0.0, 0.0, 0.0, 0.0, 0.0, 0.0, 0.0, 1.6731200585451648E9, 0.0, 2023-01-07 14:34:18.545
28.0, -32724.585559914776, -34435.56689447962, -34590.08450389916, -28712.58154065389, -32033.111993445396, -30651.058930284853, -38252.26137069004, -35814.11073376069, -29262.12152983207, -10299.057996160745, -36157.96997046113, -37516.48664671024, -20152.71278056059, -22138.374702736703, -35404.31385091708, -33548.381453559574, -0.126, 0.9420000000000001, -0.176, 192.0, 126.0, 8.0, 14.5, 56.0, 125.0, 64.0, 0.0, 0.0, 0.0, 1.6731200585451703E9, 0.0, 2023-01-07 14:34:18.545
30.0, -32694.589518855755, -34408.9236150889, -34562.74832043032, -28705.92072080621, -32023.38898460734, -30655.50692743146, -38243.83476303038, -35833.69086190353, -29265.36253277809, -10266.960891122924, -36146.12354589982, -37467.80454728658, -20150.4552543706, -22121.499135672944, -35398.34593514752, -33517.02195608878, -0.126, 0.9420000000000001, -0.176, 192.0, 0.0, 0.0, 0.0, 0.0, 0.0, 0.0, 0.0, 0.0, 0.0, 1.6731200585451765E9, 0.0, 2023-01-07 14:34:18.545
32.0, -32709.85576031873, -34417.90901635993, -34584.451864296425, -28710.279310974995, -32039.884572015355, -30656.892735587688, -38268.734606353595, -35822.827914098256, -29255.147785562014, -10289.156173367044, -36139.59683651887, -37499.588727902024, -20155.931431762154, -22135.088996301773, -35406.32550791806, -33559.646732765046, -0.126, 0.9420000000000001, -0.176, 192.0, 0.0, 0.0, 0.0, 0.0, 0.0, 0.0, 0.0, 0.0, 0.0, 1.673120058545182E9, 0.0, 2023-01-07 14:34:18.545
34.0, -32695.14831246714, -34402.79923710814, -34558.859116895095, -28714.50379067705, -32020.460906083696, -30660.40195946717, -38252.440184645675, -35826.47124844447, -29257.137090818538, -10250.040620570258, -36129.6279584918, -37448.202067399274, -20139.279382142948, -22109.496248900447, -35385.739551274724, -33517.49134272234, -0.126, 0.9420000000000001, -0.176, 192.0, 0.0, 0.0, 0.0, 0.0, 0.0, 0.0, 0.0, 0.0, 0.0, 1.6731200585451877E9, 0.0, 2023-01-07 14:34:18.545
36.0, -32711.95682429753, -34422.267606528716, -34584.094236385135, -28735.894410120778, -32034.29663590153, -30664.78290138041, -38259.0786527489, -35821.93384432004, -29265.6084019671, -10316.80528125826, -36152.67260702522, -37519.7052979118, -20154.41151313919, -22141.77216789391, -35401.07284797107, -33578.1763289185, -0.126, 0.9420000000000001, -0.176, 192.0, 0.0, 0.0, 0.0, 0.0, 0.0, 0.0, 0.0, 0.0, 0.0, 1.673120058545195E9, 0.0, 2023-01-07 14:34:18.545
38.0, -32681.290230904848, -34394.52909165968, -34555.12637557106, -28727.937189094686, -32013.017775180077, -30650.88011632921, -38242.09132696287, -35805.03592551183, -29258.07586408566, -10266.55855972273, -36130.410269547734, -37458.975608226734, -20130.673960527656, -22116.067661770307, -35373.781367991134, -33522.69929918043, -0.114, 0.9420000000000001, -0.18, 192.0, 126.0, 56.0, 14.5, 56.0, 125.0, 48.0, 0.0, 0.0, 0.0, 1.6731200585452008E9, 0.0, 2023-01-07 14:34:18.545
40.0, -32690.38739089816, -34402.91099583042, -34566.92809664346, -28729.25594201755, -32018.04691768252, -30638.430194667602, -38240.906684506735, -35789.546166604305, -29240.775613877253, -10303.617752029628, -36124.48705726708, -37508.887053595434, -20131.165698905672, -22144.409673739636, -35371.0991586565, -33563.06654966671, -0.114, 0.9420000000000001, -0.18, 192.0, 0.0, 0.0, 0.0, 0.0, 0.0, 0.0, 0.0, 0.0, 0.0, 1.6731200585452063E9, 0.0, 2023-01-07 14:34:18.545
42.0, -32666.806300497807, -34381.363914175505, -34546.96798884487, -28704.221988227608, -32004.23353960914, -30621.934607259587, -38233.46355360312, -35767.35088436018, -29246.40825347999, -10249.146550792046, -36110.696030938154, -37442.74824175218, -20123.02966392394, -22102.61191160821, -35356.50346952718, -33499.22996750235, -0.114, 0.9420000000000001, -0.18, 192.0, 0.0, 0.0, 0.0, 0.0, 0.0, 0.0, 0.0, 0.0, 0.0, 1.6731200585452123E9, 0.0, 2023-01-07 14:34:18.545
44.0, -32698.23285320197, -34421.10531581704, -34570.63848622304, -28732.6310554303, -32020.9079409728, -30656.7362733765, -38258.27398994851, -35800.4985213874, -29243.279009256246, -10301.807260728749, -36119.90494965374, -37508.84235010652, -20132.484451828535, -22133.90435384564, -35376.48592907023, -33560.83137522118, -0.114, 0.9420000000000001, -0.18, 192.0, 0.0, 0.0, 0.0, 0.0, 0.0, 0.0, 0.0, 0.0, 0.0, 1.673120058545218E9, 0.0, 2023-01-07 14:34:18.545
46.0, -32690.700315320533, -34409.79533312265, -34574.34887580262, -28722.10338379185, -32015.856446725902, -30647.125023260716, -38257.08934749238, -35786.886309014124, -29262.657971698998, -10262.110562576123, -36131.55020851496, -37470.82203278805, -20134.093777429316, -22116.447641426046, -35377.067074426064, -33522.74400266934, -0.114, 0.9420000000000001, -0.18, 192.0, 0.0, 0.0, 0.0, 0.0, 0.0, 0.0, 0.0, 0.0, 0.0, 1.6731200585452256E9, 0.0, 2023-01-07 14:34:18.545
48.0, -32710.258091718926, -34436.595074724566, -34591.62677426657, -28756.25684931956, -32044.19845869523, -30680.809102154864, -38269.20399298716, -35820.48098093045, -29247.5034889583, -10311.865545733637, -36145.72121449962, -37539.24072256574, -20147.41541712468, -22148.835319141785, -35408.8065515526, -33595.65539308255, -0.128, 0.9500000000000001, -0.18, 192.0, 126.0, 0.0, 14.5, 88.0, 125.0, 48.0, 0.0, 0.0, 0.0, 1.6731200585452332E9, 0.0, 2023-01-07 14:34:18.545
50.0, -32683.145425694638, -34403.24627199725, -34566.36930303208, -28709.944034808166, -32023.8583712409, -30633.53516263189, -38238.604454827844, -35771.50830882887, -29263.239117054836, -10262.490542231864, -36132.71249922663, -37482.02025676015, -20136.954800719595, -22128.405824709633, -35383.05734194009, -33535.43979351995, -0.128, 0.9500000000000001, -0.18, 192.0, 0.0, 0.0, 0.0, 0.0, 0.0, 0.0, 0.0, 0.0, 0.0, 1.673120058545241E9, 0.0, 2023-01-07 14:34:18.545
52.0, -32691.504978120924, -34412.83517036858, -34560.64725645152, -28723.31037799244, -32016.929330459756, -30663.240631012995, -38257.759899826044, -35805.058277256285, -29232.192544006415, -10277.175638339, -36114.696993195656, -37505.48958843823, -20127.7011785151, -22128.204659009538, -35373.37903659094, -33566.218145634906, -0.128, 0.9500000000000001, -0.18, 192.0, 0.0, 0.0, 0.0, 0.0, 0.0, 0.0, 0.0, 0.0, 0.0, 1.673120058545249E9, 0.0, 2023-01-07 14:34:18.545
54.0, -32669.75673076591, -34386.66127761141, -34554.656988937495, -28673.555394834926, -31997.48331278364, -30615.497304856457, -38234.24586465906, -35753.55985803126, -29254.87956462855, -10237.166015764, -36122.4754002661, -37466.35168389698, -20134.339646618326, -22101.203751707526, -35370.83093772303, -33520.709993923905, -0.128, 0.9500000000000001, -0.18, 192.0, 0.0, 0.0, 0.0, 0.0, 0.0, 0.0, 0.0, 0.0, 0.0, 1.6731200585452547E9, 0.0, 2023-01-07 14:34:18.545
56.0, -32702.122056737193, -34421.50764721724, -34575.33235255866, -28723.846819859365, -32028.14990617632, -30678.21629979805, -38292.96389734315, -35827.365318222684, -29238.674549898453, -10259.450704985942, -36117.6250717193, -37493.28553596563, -20133.959666962586, -22105.115306987205, -35382.610307050985, -33556.53984028576, -0.128, 0.9500000000000001, -0.18, 192.0, 0.0, 0.0, 0.0, 0.0, 0.0, 0.0, 0.0, 0.0, 0.0, 1.6731200585452607E9, 0.0, 2023-01-07 14:34:18.545
58.0, -32679.256222159416, -34393.07622827008, -34577.522823515275, -28689.38042990928, -32018.62806303836, -30641.045348768876, -38261.64910336126, -35774.68225654152, -29277.924213161972, -10257.327289262688, -36146.25765636655, -37493.82197783256, -20158.099550974315, -22120.98504555047, -35411.98049926526, -33560.02671242079, -0.129, 0.9490000000000001, -0.179, 192.0, 125.5, 120.0, 14.5, 80.0, 125.0, 56.0, 0.0, 0.0, 0.0, 1.6731200585452664E9, 0.0, 2023-01-07 14:34:18.545
60.0, -32639.581875751246, -34351.434928349845, -34529.01953804726, -28668.034513954466, -32014.113010658388, -30636.373834177713, -38201.25468984302, -35775.66573329756, -29221.64252062351, -10225.207832480412, -36090.937088839666, -37461.41194837236, -20128.774062248955, -22080.103704941717, -35368.64046676642, -33538.390223788054, -0.129, 0.9490000000000001, -0.179, 192.0, 0.0, 0.0, 0.0, 0.0, 0.0, 0.0, 0.0, 0.0, 0.0, 1.673120058545272E9, 0.0, 2023-01-07 14:34:18.545
62.0, -32618.66064294108, -34321.796515202106, -34524.459782178375, -28616.84901915181, -32008.94975768921, -30572.783121202367, -38190.77172169348, -35705.14597954106, -29221.64252062351, -10180.392584847521, -36073.70389386462, -37416.26142457264, -20127.65647502619, -22044.92205916906, -35346.75810894467, -33488.34466795262, -0.129, 0.9490000000000001, -0.179, 192.0, 0.0, 0.0, 0.0, 0.0, 0.0, 0.0, 0.0, 0.0, 0.0, 1.673120058545278E9, 0.0, 2023-01-07 14:34:18.545
64.0, -32656.74801549292, -34366.07532096807, -34535.05450905019, -28678.204557681627, -32004.85938845389, -30645.426290682113, -38256.91053353674, -35798.062181241774, -29214.802886820187, -10196.418785621976, -36073.56978339789, -37426.78909621109, -20118.291094099415, -22057.103759897203, -35348.52389675664, -33500.2581477473, -0.129, 0.9490000000000001, -0.179, 192.0, 0.0, 0.0, 0.0, 0.0, 0.0, 0.0, 0.0, 0.0, 0.0, 1.673120058545284E9, 0.0, 2023-01-07 14:34:18.545
66.0, -32641.16884960757, -34347.03163469215, -34540.41892771947, -28641.055958396908, -31977.90318464079, -30596.29715636935, -38221.840646486366, -35735.03026187781, -29255.371303006566, -10223.710265601905, -36108.19263555916, -37448.425584843826, -20141.693370544122, -22091.592501591746, -35361.51026028517, -33507.075429806166, -0.129, 0.9490000000000001, -0.179, 192.0, 0.0, 0.0, 0.0, 0.0, 0.0, 0.0, 0.0, 0.0, 0.0, 1.673120058545292E9, 0.0, 2023-01-07 14:34:18.545
68.0, -32621.164038320072, -34336.056928164595, -34510.15466572698, -28657.797414993933, -31977.232632307132, -30623.25336018245, -38225.30516687693, -35771.776529762334, -29213.573540875142, -10188.640378551529, -36071.33460895236, -37413.668622215824, -20109.909189928676, -22056.790835474832, -35323.244073777685, -33476.788816069224, -0.1265, 0.9495, -0.1745, 192.0, 126.0, 16.0, 14.5, 88.0, 125.0, 88.0, 0.0, 0.0, 0.0, 1.673120058545303E9, 0.0, 2023-01-07 14:34:18.545
70.0, -32639.35835830669, -34354.49711734022, -34545.11279405508, -28659.160871405707, -31995.337545315928, -30620.213522936527, -38241.66664381822, -35753.78337547581, -29228.92918931594, -10218.099977743625, -36091.9205655957, -37445.7880789981, -20138.094739686818, -22077.332088629257, -35351.004940391176, -33506.13665653904, -0.1265, 0.9495, -0.1745, 192.0, 0.0, 0.0, 0.0, 0.0, 0.0, 0.0, 0.0, 0.0, 0.0, 1.6731200585453117E9, 0.0, 2023-01-07 14:34:18.545
72.0, -32616.581930706732, -34337.9568264433, -34510.95932852737, -28663.608868552314, -31993.81762669297, -30640.151278990663, -38233.485905347574, -35786.37221889165, -29219.384994433523, -10215.93185853146, -36083.49395793604, -37428.64429100088, -20125.577762791847, -22068.97253620297, -35347.652178722885, -33499.47583669136, -0.1265, 0.9495, -0.1745, 192.0, 0.0, 0.0, 0.0, 0.0, 0.0, 0.0, 0.0, 0.0, 0.0, 1.6731200585453231E9, 0.0, 2023-01-07 14:34:18.545
74.0, -32617.990090607418, -34330.44664030631, -34538.07199455166, -28643.112318886797, -31995.04697263801, -30605.90840648513, -38226.6239197998, -35746.36259631665, -29210.4442966514, -10207.63936133854, -36083.85158584733, -37437.093250404985, -20129.042283182418, -22063.02697217786, -35347.11573685596, -33504.50497919381, -0.1265, 0.9495, -0.1745, 192.0, 0.0, 0.0, 0.0, 0.0, 0.0, 0.0, 0.0, 0.0, 0.0, 1.673120058545333E9, 0.0, 2023-01-07 14:34:18.545
76.0, -32609.16115154757, -34323.94228266982, -34524.79505834521, -28657.886821971755, -31983.446417265706, -30631.367043419727, -38240.41494612872, -35782.03598046732, -29211.003090262784, -10176.078698167647, -36080.007085801015, -37401.46456974323, -20124.035492424428, -22056.209690118994, -35348.30037931209, -33482.42145567196, -0.1265, 0.9495, -0.1745, 192.0, 0.0, 0.0, 0.0, 0.0, 0.0, 0.0, 0.0, 0.0, 0.0, 1.6731200585453544E9, 0.0, 2023-01-07 14:34:18.545
78.0, -32630.7529366914, -34341.19782938932, -34557.2050878054, -28652.120071902285, -31999.56202501798, -30612.613929821724, -38242.65012057425, -35754.722148742934, -29217.350985688092, -10206.432367137953, -36095.9215278532, -37442.16709639634, -20135.568992563367, -22078.360268874203, -35359.72212072875, -33514.63031943206, -0.12225, 0.9497500000000001, -0.17025, 192.0, 126.0, 40.0, 14.5, 88.0, 125.0, 104.0, 0.0, 0.0, 0.0, 1.673120058545362E9, 0.0, 2023-01-07 14:34:18.545
80.0, -32614.056183583285, -34326.37862281545, -34526.87377057955, -28651.538926546447, -31991.649507480804, -30615.117325200717, -38218.398477840245, -35762.25468662437, -29229.376224205047, -10175.162276644978, -36097.32968775388, -37405.420828511815, -20133.065597184373, -22052.633411006143, -35351.11669911345, -33476.788816069224, -0.12225, 0.9497500000000001, -0.17025, 192.0, 0.0, 0.0, 0.0, 0.0, 0.0, 0.0, 0.0, 0.0, 0.0, 1.6731200585453696E9, 0.0, 2023-01-07 14:34:18.545
82.0, -32631.55759949179, -34346.02580619166, -34548.89023886803, -28656.880993471266, -31999.80789420699, -30619.408860136136, -38238.671510061205, -35758.52194530034, -29220.480229911835, -10216.870631798582, -36094.8709958638, -37447.46445983225, -20132.238582639526, -22066.670306524076, -35353.66479798136, -33515.412630488, -0.12225, 0.9497500000000001, -0.17025, 192.0, 0.0, 0.0, 0.0, 0.0, 0.0, 0.0, 0.0, 0.0, 0.0, 1.6731200585453796E9, 0.0, 2023-01-07 14:34:18.545
84.0, -32617.65481444059, -34334.84993396401, -34520.01178503177, -28656.56806904889, -31978.305516040986, -30623.476877627003, -38238.537399594476, -35772.38002686263, -29222.111907257073, -10173.86587546657, -36087.226699260085, -37400.16816856482, -20123.11907090176, -22047.44780629251, -35353.12835611443, -33479.51572889277, -0.12225, 0.9497500000000001, -0.17025, 192.0, 0.0, 0.0, 0.0, 0.0, 0.0, 0.0, 0.0, 0.0, 0.0, 1.6731200585453887E9, 0.0, 2023-01-07 14:34:18.545
86.0, -32642.755823463896, -34359.14628018693, -34545.55982894419, -28672.326048889885, -31992.968260403668, -30627.96957826252, -38237.688033305174, -35770.77070126185, -29215.11581124256, -10219.68695159995, -36095.83212087538, -37458.059186704064, -20126.337722103326, -22075.968632217486, -35358.693940483805, -33530.34359578414, -0.12225, 0.9497500000000001, -0.17025, 192.0, 0.0, 0.0, 0.0, 0.0, 0.0, 0.0, 0.0, 0.0, 0.0, 1.6731200585453963E9, 0.0, 2023-01-07 14:34:18.545
88.0, -32599.393439220603, -34313.45931452028, -34508.90296803749, -28644.43107180966, -31982.060609109478, -30602.86856923921, -38213.25757661552, -35746.29554108328, -29224.5482474027, -10179.051480180202, -36090.53475743947, -37400.43638949828, -20120.682730756133, -22060.6576872656, -35343.382995531916, -33480.72272309336, -0.11812500000000001, 0.949875, -0.17012500000000003, 192.0, 126.0, 56.0, 14.5, 88.0, 125.0, 88.0, 0.0, 0.0, 0.0, 1.6731200585454051E9, 0.0, 2023-01-07 14:34:18.545
90.0, -32616.939558618018, -34332.88298045194, -34533.914570082976, -28665.10643543082, -31999.629080251347, -30627.075508484308, -38254.09421373537, -35768.22260239394, -29193.725191798832, -10204.219544436877, -36071.87105081929, -37431.10298289097, -20112.345530074304, -22069.79955074782, -35346.13226009992, -33513.89271186504, -0.11812500000000001, 0.949875, -0.17012500000000003, 192.0, 0.0, 0.0, 0.0, 0.0, 0.0, 0.0, 0.0, 0.0, 0.0, 1.673120058545411E9, 0.0, 2023-01-07 14:34:18.545
92.0, -32594.721924629444, -34311.76058194168, -34516.88254080803, -28643.693464242635, -31968.26958278055, -30606.40014486315, -38242.89598976326, -35759.10309065617, -29221.01667177876, -10169.283767853232, -36079.09066427835, -37389.99812483766, -20123.655512768688, -22059.22717562046, -35367.16525163237, -33483.33787719463, -0.11812500000000001, 0.949875, -0.17012500000000003, 192.0, 0.0, 0.0, 0.0, 0.0, 0.0, 0.0, 0.0, 0.0, 0.0, 1.673120058545418E9, 0.0, 2023-01-07 14:34:18.545
94.0, -32605.227244523438, -34321.170666357364, -34520.45881992088, -28650.890725957244, -31997.52801627255, -30617.06192696833, -38235.29639664846, -35766.3897593486, -29197.860264523064, -10199.928009501458, -36063.53385013746, -37422.72107872023, -20112.45728879658, -22057.88607095314, -35362.113757385465, -33514.11622930959, -0.11812500000000001, 0.949875, -0.17012500000000003, 192.0, 0.0, 0.0, 0.0, 0.0, 0.0, 0.0, 0.0, 0.0, 0.0, 1.6731200585454235E9, 0.0, 2023-01-07 14:34:18.545
96.0, -32582.763741345854, -34295.30969802257, -34501.41513364496, -28622.168734332176, -31993.52705401505, -30591.022144677896, -38221.30420461943, -35738.76300320184, -29207.337404172114, -10155.537445013219, -36061.6116001143, -37373.413130451816, -20111.83143995183, -22036.651913720598, -35359.54330677311, -33464.070673474154, -0.11812500000000001, 0.949875, -0.17012500000000003, 192.0, 0.0, 0.0, 0.0, 0.0, 0.0, 0.0, 0.0, 0.0, 0.0, 1.67312005854543E9, 0.0, 2023-01-07 14:34:18.545
98.0, -32599.996936320895, -34313.481666264735, -34505.080819735624, -28639.49133628504, -31992.81179819248, -30611.33988038777, -38236.05635595994, -35767.105015171175, -29173.899194466972, -10173.06121266618, -36035.638873057236, -37400.883424387386, -20099.582683990324, -22050.018256904874, -35345.17113508834, -33489.931641808944, -0.1240625, 0.9469375, -0.1690625, 192.0, 125.5, 120.0, 14.5, 64.0, 125.0, 96.0, 0.0, 0.0, 0.0, 1.673120058545436E9, 0.0, 2023-01-07 14:34:18.545
100.0, -32611.776305648844, -34319.22606458975, -34529.153648513995, -28634.641007738235, -31993.214129592674, -30609.931720487086, -38243.790059541476, -35758.54429704479, -29233.10896552908, -10161.974747416347, -36077.54839391093, -37390.10988355993, -20130.56220180538, -22056.164986630083, -35368.01461792167, -33476.319429435665, -0.1240625, 0.9469375, -0.1690625, 192.0, 0.0, 0.0, 0.0, 0.0, 0.0, 0.0, 0.0, 0.0, 0.0, 1.6731200585454445E9, 0.0, 2023-01-07 14:34:18.545
102.0, -32614.5479219613, -34324.14344836992, -34517.24016871931, -28645.41454856569, -31993.90703367079, -30631.098822486263, -38241.93486475168, -35782.86299501217, -29201.68241282492, -10193.244837909322, -36065.72432109408, -37419.748296707665, -20117.911114443676, -22056.679076752553, -35357.46459453876, -33508.97532808487, -0.1240625, 0.9469375, -0.1690625, 192.0, 0.0, 0.0, 0.0, 0.0, 0.0, 0.0, 0.0, 0.0, 0.0, 1.6731200585454504E9, 0.0, 2023-01-07 14:34:18.545
104.0, -32619.957044119485, -34325.41749780387, -34530.71827062586, -28631.824687936867, -31991.314231313972, -30603.42736285059, -38238.045661216456, -35749.201267862474, -29237.6016661646, -10171.988328932326, -36089.84185336135, -37404.81733141153, -20132.97619020655, -22051.18054761655, -35360.66089399587, -33480.74507483782, -0.1240625, 0.9469375, -0.1690625, 192.0, 0.0, 0.0, 0.0, 0.0, 0.0, 0.0, 0.0, 0.0, 0.0, 1.673120058545456E9, 0.0, 2023-01-07 14:34:18.545
106.0, -32621.678128442545, -34332.97238742976, -34512.07691575014, -28653.751749247524, -31979.959545130678, -30625.68970032808, -38243.6783008192, -35776.403340864585, -29205.34809891559, -10184.527657571753, -36070.41818742969, -37423.70455547626, -20107.629311994235, -22049.437111549036, -35343.71827169875, -33492.21151974339, -0.1240625, 0.9469375, -0.1690625, 192.0, 0.0, 0.0, 0.0, 0.0, 0.0, 0.0, 0.0, 0.0, 0.0, 1.673120058545462E9, 0.0, 2023-01-07 14:34:18.545
108.0, -32624.919131388564, -34333.70999499679, -34532.52876192675, -28644.699292743124, -31992.498873770106, -30597.124170914194, -38235.02817571499, -35742.428689292516, -29229.42092769396, -10188.036881451235, -36088.746617883044, -37418.74246820718, -20126.516536058967, -22059.249527364915, -35359.76682421766, -33477.48172014734, -0.12903125000000001, 0.94646875, -0.16753125000000002, 192.0, 125.5, 104.0, 14.5, 72.0, 125.0, 104.0, 0.0, 0.0, 0.0, 1.6731200585454676E9, 0.0, 2023-01-07 14:34:18.545
110.0, -32630.954102391497, -34343.03067243465, -34521.08466876563, -28674.24829891304, -32004.18883612023, -30638.00551152295, -38251.814335800926, -35786.21575668046, -29207.20329370538, -10193.513058842786, -36070.90992580771, -37425.917378177335, -20116.41354756517, -22066.89382396863, -35350.155574101875, -33495.81015060069, -0.12903125000000001, 0.94646875, -0.16753125000000002, 192.0, 0.0, 0.0, 0.0, 0.0, 0.0, 0.0, 0.0, 0.0, 0.0, 1.6731200585454733E9, 0.0, 2023-01-07 14:34:18.545
112.0, -32618.392422007615, -34327.049175149106, -34520.414116431966, -28633.813993193387, -31981.457112009182, -30593.10085691224, -38220.03015518548, -35730.179933331005, -29231.343177717114, -10198.855125767604, -36088.09841729384, -37427.63846250039, -20133.42322509566, -22068.503149569413, -35367.2993620991, -33500.54872042522, -0.12903125000000001, 0.94646875, -0.16753125000000002, 192.0, 0.0, 0.0, 0.0, 0.0, 0.0, 0.0, 0.0, 0.0, 0.0, 1.6731200585454793E9, 0.0, 2023-01-07 14:34:18.545
114.0, -32613.720907416453, -34333.57588453006, -34500.699877822386, -28656.366903348793, -31973.05285609399, -30635.613874866234, -38232.301262891444, -35781.723056044946, -29196.452104622378, -10171.943625443415, -36057.65534134571, -37404.19148256678, -20101.08025086883, -22041.5022422674, -35332.52004772664, -33488.03174353024, -0.12903125000000001, 0.94646875, -0.16753125000000002, 192.0, 0.0, 0.0, 0.0, 0.0, 0.0, 0.0, 0.0, 0.0, 0.0, 1.6731200585454848E9, 0.0, 2023-01-07 14:34:18.545
116.0, -32645.102756631706, -34361.85084126602, -34551.14776505801, -28661.999542951533, -31994.152902859798, -30635.837392310787, -38258.98924577108, -35769.22843089443, -29227.54338115971, -10212.154413718512, -36094.558071441425, -37438.68022426131, -20121.241524367517, -22073.599347305222, -35367.52287954365, -33520.93351136846, -0.12903125000000001, 0.94646875, -0.16753125000000002, 192.0, 0.0, 0.0, 0.0, 0.0, 0.0, 0.0, 0.0, 0.0, 0.0, 1.6731200585454905E9, 0.0, 2023-01-07 14:34:18.545
118.0, -32629.970625635462, -34349.51267832669, -34521.12937225454, -28665.91109823121, -31989.749609202103, -30647.6838168721, -38243.4771351191, -35798.50921613088, -29224.235322980327, -10210.25451543981, -36091.071199306396, -37430.6335962574, -20126.471832570056, -22069.285460625346, -35365.06418765357, -33510.89757810802, -0.12751562500000002, 0.9432343750000001, -0.16476562500000003, 192.0, 126.0, 8.0, 14.5, 48.0, 125.0, 120.0, 0.0, 0.0, 0.0, 1.6731200585454962E9, 0.0, 2023-01-07 14:34:18.545
120.0, -32632.58577973673, -34351.434928349845, -34537.468497451366, -28636.33974031684, -32002.311289585985, -30610.132886187184, -38230.356661123835, -35749.02245390683, -29217.283930454723, -10214.25547769731, -36085.01387655901, -37433.114639891945, -20126.15890814768, -22068.19022514704, -35352.9942456477, -33494.78197035575, -0.12751562500000002, 0.9432343750000001, -0.16476562500000003, 192.0, 0.0, 0.0, 0.0, 0.0, 0.0, 0.0, 0.0, 0.0, 0.0, 1.6731200590251248E9, 0.0, 2023-01-07 14:34:19.025
122.0, -32613.966776605463, -34339.02971017715, -34504.41026740197, -28638.150231617718, -31983.938155643722, -30628.640130596177, -38236.03400421548, -35774.436387352514, -29214.311148442168, -10178.336224357632, -36069.524117651476, -37399.2293952977, -20119.542791788914, -22044.519727768868, -35340.67843445283, -33471.58085961114, -0.12751562500000002, 0.9432343750000001, -0.16476562500000003, 192.0, 0.0, 0.0, 0.0, 0.0, 0.0, 0.0, 0.0, 0.0, 0.0, 1.6731200590251603E9, 0.0, 2023-01-07 14:34:19.025
124.0, -32647.6061520107, -34372.66908558239, -34545.89510511102, -28645.772176476978, -31993.862330181877, -30627.276674184406, -38259.436280660186, -35765.78626224831, -29219.005014777784, -10214.769567819783, -36088.053713804926, -37440.311901606554, -20138.206498409094, -22070.64891703712, -35357.1963736053, -33506.29311875023, -0.12751562500000002, 0.9432343750000001, -0.16476562500000003, 192.0, 0.0, 0.0, 0.0, 0.0, 0.0, 0.0, 0.0, 0.0, 0.0, 1.6731200590251963E9, 0.0, 2023-01-07 14:34:19.025
126.0, -32622.058108098285, -34349.91500972689, -34507.45010464789, -28640.318350829883, -31981.166539331265, -30624.840334038778, -38219.76193425202, -35773.22939315193, -29224.01180553577, -10191.769622775271, -36089.461873705615, -37411.52285474812, -20129.01993143796, -22056.187338374537, -35346.19931533329, -33478.50990039229, -0.12751562500000002, 0.9432343750000001, -0.16476562500000003, 192.0, 0.0, 0.0, 0.0, 0.0, 0.0, 0.0, 0.0, 0.0, 0.0, 1.673120059025215E9, 0.0, 2023-01-07 14:34:19.025
128.0, -32645.952122921008, -34373.7643210607, -34544.06226206568, -28650.778967234968, -32003.18300761974, -30622.895732271165, -38238.49269610557, -35761.76294824635, -29209.840799551108, -10213.204945707912, -36086.578498670875, -37438.74727949468, -20128.03645468193, -22065.105684412203, -35340.454917008276, -33494.78197035575, -0.12751562500000002, 0.9432343750000001, -0.16476562500000003, 192.0, 0.0, 0.0, 0.0, 0.0, 0.0, 0.0, 0.0, 0.0, 0.0, 1.6731200590252407E9, 0.0, 2023-01-07 14:34:19.025
130.0, -32616.447820240002, -34349.356216115506, -34512.81452331716, -28652.656513769212, -31978.931364885735, -30634.25041845446, -38241.398422884755, -35780.65017231109, -29218.222703721847, -10185.466430838875, -36090.4677022061, -37409.24297681367, -20128.349379104304, -22048.855966193198, -35350.08851886851, -33481.348571938106, -0.114, 0.9380000000000001, -0.148, 192.0, 126.0, 56.0, 14.5, 40.0, 125.5, 48.0, 0.0, 0.0, 0.0, 1.6731200590252695E9, 0.0, 2023-01-07 14:34:19.025
132.0, -32631.84817216971, -34363.14724244443, -34532.014671804274, -28655.316371359393, -31986.530958000538, -30632.104650986752, -38250.60734160034, -35772.000047206886, -29197.189712189404, -10219.441082410942, -36077.57074565539, -37442.52472430762, -20120.190992378117, -22063.764579744886, -35348.92622815684, -33515.323223510175, -0.114, 0.9380000000000001, -0.148, 192.0, 0.0, 0.0, 0.0, 0.0, 0.0, 0.0, 0.0, 0.0, 0.0, 1.6731200590253017E9, 0.0, 2023-01-07 14:34:19.025
134.0, -32622.16986682056, -34354.83239350705, -34509.55116862669, -28652.25418236902, -31987.916766156766, -30633.132831231695, -38241.28666416248, -35781.9465734895, -29212.455953652378, -10190.093241941124, -36079.89532707874, -37402.11277033243, -20122.627332523745, -22047.336047570236, -35347.67453046734, -33481.57208938266, -0.114, 0.9380000000000001, -0.148, 192.0, 0.0, 0.0, 0.0, 0.0, 0.0, 0.0, 0.0, 0.0, 0.0, 1.673120059025324E9, 0.0, 2023-01-07 14:34:19.025
136.0, -32629.32242504626, -34362.99078023324, -34515.36262218507, -28643.67111249818, -31980.540690486516, -30613.709165300035, -38237.10688794934, -35761.40532033507, -29206.644500094, -10232.315687217199, -36081.01291430151, -37450.77251801163, -20117.642893510212, -22061.015315176883, -35360.68324574033, -33520.59823520163, -0.114, 0.9380000000000001, -0.148, 192.0, 0.0, 0.0, 0.0, 0.0, 0.0, 0.0, 0.0, 0.0, 0.0, 1.673120059025341E9, 0.0, 2023-01-07 14:34:19.025
138.0, -32612.335099260225, -34343.72357651276, -34497.9953167433, -28633.009330392997, -31982.61940272086, -30609.06000245333, -38229.84257100136, -35766.00977969287, -29215.54049438721, -10171.384831832032, -36072.00516128602, -37391.24982252715, -20112.256123096482, -22043.11156786818, -35342.690091453806, -33466.57406885315, -0.114, 0.9380000000000001, -0.148, 192.0, 0.0, 0.0, 0.0, 0.0, 0.0, 0.0, 0.0, 0.0, 0.0, 1.673120059025348E9, 0.0, 2023-01-07 14:34:19.025
140.0, -32624.516799988367, -34350.4067481049, -34510.065258749164, -28641.123013630273, -31996.566891260973, -30620.414688636625, -38232.61418731382, -35774.03405595232, -29190.998278975283, -10201.82790778016, -36063.82442281538, -37427.6831659893, -20113.552524274888, -22051.98521041694, -35340.5443239861, -33512.10457230861, -0.112, 0.9420000000000001, -0.154, 192.0, 126.0, 64.0, 14.5, 56.0, 125.5, 24.0, 0.0, 0.0, 0.0, 1.6731200590253556E9, 0.0, 2023-01-07 14:34:19.025
142.0, -32608.825875380742, -34335.07345140856, -34504.65613659097, -28627.264932067985, -31982.306478298484, -30609.5740925758, -38243.4771351191, -35769.049616938784, -29208.902026283984, -10166.15452362949, -36069.881745562765, -37380.23041251068, -20114.536001030923, -22043.89387892412, -35347.85334442298, -33474.95597302389, -0.112, 0.9420000000000001, -0.154, 192.0, 0.0, 0.0, 0.0, 0.0, 0.0, 0.0, 0.0, 0.0, 0.0, 1.673120059025362E9, 0.0, 2023-01-07 14:34:19.025
144.0, -32642.331140319246, -34373.42904489387, -34531.79115435972, -28659.362037105806, -32001.126647129855, -30645.7839185934, -38271.886202321795, -35805.39355342311, -29202.26355818076, -10221.296277200732, -36073.68154212017, -37434.20987537025, -20123.901381957698, -22071.721800770974, -35365.62298126495, -33530.96944462889, -0.112, 0.9420000000000001, -0.154, 192.0, 0.0, 0.0, 0.0, 0.0, 0.0, 0.0, 0.0, 0.0, 0.0, 1.67312005902537E9, 0.0, 2023-01-07 14:34:19.025
146.0, -32621.07463134225, -34349.42327134887, -34520.43646817642, -28627.667263468178, -31990.375458046852, -30605.39431636266, -38218.51023656252, -35755.16918363204, -29242.004959822294, -10193.311893142689, -36095.16156854171, -37406.49371224567, -20142.6544955557, -22060.54592854332, -35370.47330981175, -33489.08227551964, -0.112, 0.9420000000000001, -0.154, 192.0, 0.0, 0.0, 0.0, 0.0, 0.0, 0.0, 0.0, 0.0, 0.0, 1.6731200590253768E9, 0.0, 2023-01-07 14:34:19.025
148.0, -32632.02698612535, -34359.39214937593, -34515.586139629624, -28643.42524330917, -31991.984783647633, -30614.40206937815, -38230.490771590565, -35771.46360533996, -29196.72032555584, -10198.184573433946, -36066.21605947209, -37421.04469788608, -20113.396062063704, -22038.84238467722, -35340.5443239861, -33493.083237777144, -0.112, 0.9420000000000001, -0.154, 192.0, 0.0, 0.0, 0.0, 0.0, 0.0, 0.0, 0.0, 0.0, 0.0, 1.6731200590253842E9, 0.0, 2023-01-07 14:34:19.025
150.0, -32632.78694543683, -34356.59818131902, -34526.560846157176, -28640.407757807705, -31982.61940272086, -30603.49441808396, -38244.48296361959, -35760.98063719042, -29237.802831864698, -10188.439212851432, -36095.876824364284, -37411.791075681576, -20132.37269310626, -22051.06878889427, -35355.698806726796, -33477.41466491397, -0.128, 0.9440000000000001, -0.154, 192.0, 126.0, 0.0, 14.5, 64.0, 125.5, 24.0, 0.0, 0.0, 0.0, 1.6731200590253909E9, 0.0, 2023-01-07 14:34:19.025
152.0, -32647.002654910408, -34370.97035300379, -34526.40438394599, -28664.97232496409, -31992.543577259017, -30633.043424253876, -38250.74145206707, -35792.675410828044, -29214.78053507573, -10215.842451553637, -36084.79035911446, -37442.16709639634, -20117.575838276844, -22063.295193111324, -35355.43058579333, -33511.79164788624, -0.128, 0.9440000000000001, -0.154, 192.0, 0.0, 0.0, 0.0, 0.0, 0.0, 0.0, 0.0, 0.0, 0.0, 1.6731200590253973E9, 0.0, 2023-01-07 14:34:19.025
154.0, -32642.375843808157, -34363.48251861126, -34528.81837234717, -28642.553525275413, -31981.367705031364, -30601.43805759407, -38240.68316706218, -35756.71145399946, -29238.808660365186, -10203.437233380942, -36094.491016208056, -37413.02042162662, -20130.673960527656, -22067.11734141318, -35353.933018914824, -33473.52546137875, -0.128, 0.9440000000000001, -0.154, 192.0, 0.0, 0.0, 0.0, 0.0, 0.0, 0.0, 0.0, 0.0, 0.0, 1.673120059025404E9, 0.0, 2023-01-07 14:34:19.025
156.0, -32635.13387860464, -34361.94024824384, -34504.902005779986, -28659.71966501709, -31997.684478483738, -30632.86461029823, -38237.79979202745, -35792.675410828044, -29217.753317088285, -10216.557707376207, -36082.24226024655, -37435.50627654866, -20122.26970461246, -22076.84035025124, -35351.60843749147, -33497.26301399029, -0.128, 0.9440000000000001, -0.154, 192.0, 0.0, 0.0, 0.0, 0.0, 0.0, 0.0, 0.0, 0.0, 0.0, 1.673120059025411E9, 0.0, 2023-01-07 14:34:19.025
158.0, -32624.382689521637, -34354.83239350705, -34519.52004665376, -28634.395138549226, -31996.52218777206, -30598.174702903594, -38221.393611597254, -35743.79214570429, -29230.560866661177, -10196.865820511082, -36085.684428892666, -37416.887273417386, -20122.828498223844, -22062.02114367737, -35354.11183287047, -33471.91613577797, -0.128, 0.9440000000000001, -0.154, 192.0, 0.0, 0.0, 0.0, 0.0, 0.0, 0.0, 0.0, 0.0, 0.0, 1.673120059025417E9, 0.0, 2023-01-07 14:34:19.025
160.0, -32633.23398032594, -34364.48834711174, -34513.66388960646, -28664.56999356389, -31991.94008015872, -30637.312607444837, -38243.41007988573, -35796.13993121862, -29197.904968011975, -10202.16318394699, -36068.16066123971, -37419.70359321876, -20107.472849783047, -22047.157233614595, -35343.83003042103, -33476.27472594675, -0.126, 0.9480000000000001, -0.15, 192.0, 126.0, 8.0, 14.5, 80.0, 125.5, 40.0, 0.0, 0.0, 0.0, 1.673120059025424E9, 0.0, 2023-01-07 14:34:19.025
162.0, -32632.22815182545, -34357.20167841932, -34534.83099160564, -28639.536039773946, -31991.53774875853, -30601.952147716544, -38244.3265014084, -35756.39852957708, -29232.12548877305, -10212.087358485147, -36099.028420332485, -37435.148648637376, -20129.13169016024, -22067.720838513476, -35375.83772848103, -33493.440865688426, -0.126, 0.9480000000000001, -0.15, 192.0, 0.0, 0.0, 0.0, 0.0, 0.0, 0.0, 0.0, 0.0, 0.0, 1.673120059025431E9, 0.0, 2023-01-07 14:34:19.025
164.0, -32626.483753500434, -34358.18515517535, -34512.68041285043, -28648.923772445178, -31993.549405759506, -30629.690662585577, -38239.096193205856, -35794.016515495365, -29200.564825602156, -10186.293445383722, -36070.932277552165, -37406.51606399013, -20109.93154167313, -22050.152367371604, -35354.156536359376, -33477.34760968061, -0.126, 0.9480000000000001, -0.15, 192.0, 0.0, 0.0, 0.0, 0.0, 0.0, 0.0, 0.0, 0.0, 0.0, 1.6731200590254421E9, 0.0, 2023-01-07 14:34:19.025
166.0, -32647.874372944163, -34378.346428674035, -34539.12252654106, -28640.05012989642, -32011.922539701765, -30620.124115958708, -38248.57333285491, -35771.24008789541, -29223.810639835676, -10222.525623145775, -36093.39578072975, -37428.13020087841, -20134.809033251888, -22069.46427458099, -35380.73276051674, -33499.587595413635, -0.126, 0.9480000000000001, -0.15, 192.0, 0.0, 0.0, 0.0, 0.0, 0.0, 0.0, 0.0, 0.0, 0.0, 1.6731200590254505E9, 0.0, 2023-01-07 14:34:19.025
168.0, -32622.88512264313, -34358.45337610881, -34495.648383575484, -28640.94419967463, -31985.927460900246, -30631.21058120854, -38228.83674250088, -35784.94170724651, -29207.20329370538, -10202.677274069461, -36074.32974270937, -37409.95823263624, -20113.753689974987, -22053.482777295445, -35363.63367600842, -33484.92485105096, -0.126, 0.9480000000000001, -0.15, 192.0, 0.0, 0.0, 0.0, 0.0, 0.0, 0.0, 0.0, 0.0, 0.0, 1.673120059025458E9, 0.0, 2023-01-07 14:34:19.025
170.0, -32642.04056764133, -34374.12194897198, -34534.89804683901, -28639.71485372959, -32003.63004250885, -30606.15427567414, -38225.32751862139, -35752.84460220869, -29215.607549620578, -10211.170936962479, -36083.583364913866, -37426.90085493337, -20121.956780190085, -22050.46529179398, -35363.030178908135, -33487.785874341236, -0.124, 0.9480000000000001, -0.14400000000000002, 192.0, 126.0, 16.0, 14.5, 80.0, 125.5, 64.0, 0.0, 0.0, 0.0, 1.6731200590254655E9, 0.0, 2023-01-07 14:34:19.025
172.0, -32622.92982613204, -34362.11906219948, -34507.38304941452, -28651.918906202187, -31988.52026325706, -30621.599331092755, -38217.52675980649, -35778.280887398825, -29206.644500094, -10185.712300027884, -36076.63197238827, -37402.31393603253, -20113.88780044172, -22036.13782359813, -35347.160440344865, -33468.4516153874, -0.124, 0.9480000000000001, -0.14400000000000002, 192.0, 0.0, 0.0, 0.0, 0.0, 0.0, 0.0, 0.0, 0.0, 0.0, 1.6731200590254748E9, 0.0, 2023-01-07 14:34:19.025
174.0, -32656.70331200401, -34395.33375446007, -34554.47817498186, -28671.52138608949, -32012.0566501685, -30626.91904627312, -38240.347890895355, -35771.97769546243, -29212.67947109693, -10212.534393374252, -36096.34621099785, -37445.74337550919, -20127.16473664817, -22065.597422790222, -35358.91745792836, -33505.51080769429, -0.124, 0.9480000000000001, -0.14400000000000002, 192.0, 0.0, 0.0, 0.0, 0.0, 0.0, 0.0, 0.0, 0.0, 0.0, 1.6731200590254827E9, 0.0, 2023-01-07 14:34:19.025
176.0, -32634.351567548703, -34374.457225138816, -34514.69206985141, -28672.303697145428, -31995.896338927312, -30636.574999877812, -38220.499541819045, -35786.819253780755, -29217.01570952126, -10187.612198306584, -36091.5182341955, -37417.870750173424, -20122.26970461246, -22065.32920185676, -35357.30813232758, -33486.735342351836, -0.124, 0.9480000000000001, -0.14400000000000002, 192.0, 0.0, 0.0, 0.0, 0.0, 0.0, 0.0, 0.0, 0.0, 0.0, 1.6731200590254903E9, 0.0, 2023-01-07 14:34:19.025
178.0, -32665.599306297223, -34399.535882417666, -34550.32075051317, -28677.265784414507, -32021.802010751013, -30636.35148243326, -38253.89304803527, -35780.35959963317, -29218.468572910857, -10226.2136609809, -36097.12852205378, -37457.34393088149, -20135.680751285643, -22082.450638109523, -35372.127338901446, -33518.78774390075, -0.124, 0.9480000000000001, -0.14400000000000002, 192.0, 0.0, 0.0, 0.0, 0.0, 0.0, 0.0, 0.0, 0.0, 0.0, 1.673120059025498E9, 0.0, 2023-01-07 14:34:19.025
180.0, -32642.17467810806, -34378.055855996114, -34519.698860609395, -28667.654534298723, -31999.04793489551, -30641.179459235605, -38251.90374277875, -35796.16228296307, -29225.710538114374, -10210.366274162088, -36094.982754586075, -37413.15453209335, -20131.45627158359, -22063.47400706697, -35371.43443482333, -33484.075484761655, -0.11800000000000001, 0.9440000000000001, -0.146, 192.0, 126.0, 40.0, 14.5, 64.0, 125.5, 56.0, 0.0, 0.0, 0.0, 1.6731200590255055E9, 0.0, 2023-01-07 14:34:19.025
182.0, -32660.03372192785, -34399.893510328955, -34547.63854117853, -28668.459197099117, -32016.258778126095, -30640.754776090955, -38251.97079801212, -35792.474245127945, -29220.949616545397, -10239.445893698441, -36097.10617030933, -37457.07570994803, -20142.90036474471, -22087.859760267707, -35383.638487295924, -33525.51561898179, -0.11800000000000001, 0.9440000000000001, -0.146, 192.0, 0.0, 0.0, 0.0, 0.0, 0.0, 0.0, 0.0, 0.0, 0.0, 1.6731200590255167E9, 0.0, 2023-01-07 14:34:19.025
184.0, -32620.828762153244, -34359.92859124286, -34508.59004361511, -28635.15509786071, -31990.375458046852, -30616.614892079222, -38213.65990801572, -35766.09918667068, -29222.916570057463, -10185.980520961348, -36083.38219921377, -37400.83872089848, -20133.155004162196, -22056.07557965226, -35365.555926031586, -33466.19408919741, -0.11800000000000001, 0.9440000000000001, -0.146, 192.0, 0.0, 0.0, 0.0, 0.0, 0.0, 0.0, 0.0, 0.0, 0.0, 1.6731200590255241E9, 0.0, 2023-01-07 14:34:19.025
186.0, -32634.68684371553, -34371.55149835962, -34526.51614266827, -28636.920885672676, -31998.265623839576, -30615.72082230101, -38225.90866397723, -35765.87566922613, -29192.987584231807, -10209.718073572883, -36068.18301298416, -37432.57819802502, -20121.04035866742, -22071.31946937078, -35354.02242589265, -33492.36798195457, -0.11800000000000001, 0.9440000000000001, -0.146, 192.0, 0.0, 0.0, 0.0, 0.0, 0.0, 0.0, 0.0, 0.0, 0.0, 1.6731200590255322E9, 0.0, 2023-01-07 14:34:19.025
188.0, -32615.777267906342, -34351.792556261134, -34499.895215022, -28613.272740038963, -31988.22969057914, -30601.102781427242, -38215.91743420571, -35758.65605576707, -29210.26548269576, -10168.166180630467, -36074.88853632075, -37387.606488180936, -20121.50974530098, -22047.939544670528, -35348.479193267725, -33452.64893205749, -0.11800000000000001, 0.9440000000000001, -0.146, 192.0, 0.0, 0.0, 0.0, 0.0, 0.0, 0.0, 0.0, 0.0, 0.0, 1.67312005902554E9, 0.0, 2023-01-07 14:34:19.025
190.0, -32642.50995427489, -34373.92078327188, -34507.74067732581, -28627.868429168277, -32010.29086235653, -30618.470086869012, -38233.508257092035, -35776.112768186664, -29198.508465112267, -10202.476108369365, -36066.01489377199, -37425.67150898832, -20118.17933537714, -22061.79762623282, -35342.265408309155, -33491.764484854284, -0.126, 0.9420000000000001, -0.152, 192.0, 126.0, 8.0, 14.5, 56.0, 125.5, 32.0, 0.0, 0.0, 0.0, 1.6731200590255475E9, 0.0, 2023-01-07 14:34:19.025
192.0, -32613.31857601626, -34342.96361720128, -34487.17707242692, -28602.27568176695, -32000.880777940845, -30590.373944088693, -38221.393611597254, -35751.16822137454, -29220.994320034304, -10165.729840484839, -36066.84190831684, -37375.17891826379, -20116.32414058735, -22034.528497997344, -35334.6881669388, -33443.77528950874, -0.126, 0.9420000000000001, -0.152, 192.0, 0.0, 0.0, 0.0, 0.0, 0.0, 0.0, 0.0, 0.0, 0.0, 1.6731200590255558E9, 0.0, 2023-01-07 14:34:19.025
194.0, -32624.18152382154, -34356.531126085654, -34497.63768883201, -28625.610902978293, -31982.015905620567, -30616.838409523778, -38243.14185895227, -35783.533547345825, -29179.576537558623, -10204.241896181333, -36046.50182086251, -37407.70070644626, -20102.55546600288, -22035.89195440912, -35325.03221333411, -33477.86169980308, -0.126, 0.9420000000000001, -0.152, 192.0, 0.0, 0.0, 0.0, 0.0, 0.0, 0.0, 0.0, 0.0, 0.0, 1.6731200590255644E9, 0.0, 2023-01-07 14:34:19.025
196.0, -32636.050300127306, -34367.796405291134, -34524.61624438957, -28642.352359575318, -31996.365725560874, -30615.96669149002, -38256.083518991894, -35782.5947740787, -29219.586160133622, -10176.570436545664, -36076.98960029955, -37394.82610164, -20122.26970461246, -22043.826823690753, -35351.004940391176, -33464.33889440762, -0.126, 0.9420000000000001, -0.152, 192.0, 0.0, 0.0, 0.0, 0.0, 0.0, 0.0, 0.0, 0.0, 0.0, 1.673120059025576E9, 0.0, 2023-01-07 14:34:19.025
198.0, -32645.37097756517, -34381.47567289778, -34525.75618335679, -28667.922755232186, -32014.33652810294, -30633.177534720606, -38259.6821498492, -35806.265271456876, -29208.700860583886, -10219.351675433121, -36079.26947823399, -37446.72685226522, -20123.4990505575, -22081.37775437567, -35359.20803060628, -33510.89757810802, -0.126, 0.9420000000000001, -0.152, 192.0, 0.0, 0.0, 0.0, 0.0, 0.0, 0.0, 0.0, 0.0, 0.0, 1.6731200590255835E9, 0.0, 2023-01-07 14:34:19.025
200.0, -32613.653852183088, -34344.170611401874, -34514.71442159586, -28626.34851054532, -31994.95756566019, -30575.6664962371, -38194.43740778416, -35740.57349450272, -29222.804811335187, -10173.06121266618, -36079.872975334285, -37404.30324128905, -20129.89164947172, -22055.963820929985, -35347.652178722885, -33459.42151062745, -0.128, 0.9450000000000001, -0.155, 192.0, 125.5, 120.0, 14.5, 80.0, 125.5, 8.0, 0.0, 0.0, 0.0, 1.673120059025592E9, 0.0, 2023-01-07 14:34:19.025
202.0, -32628.137782590125, -34357.872230752975, -34520.481171665335, -28656.05397892642, -32007.116914643877, -30610.356403631737, -38217.95144295114, -35776.112768186664, -29191.15474118647, -10189.087413440635, -36064.785547826956, -37422.16228510884, -20120.615675522768, -22054.019219162372, -35334.151725071875, -33479.98511552633, -0.128, 0.9450000000000001, -0.155, 192.0, 0.0, 0.0, 0.0, 0.0, 0.0, 0.0, 0.0, 0.0, 0.0, 1.673120059025599E9, 0.0, 2023-01-07 14:34:19.025
204.0, -32650.243657856427, -34374.770149561184, -34550.32075051317, -28657.95387720512, -31999.29380408452, -30610.043479209362, -38247.38869039878, -35771.55301231778, -29222.514238657266, -10185.086451183135, -36089.439521961154, -37408.862997157936, -20134.250239640503, -22056.053227907807, -35353.173059603345, -33469.70331307689, -0.128, 0.9450000000000001, -0.155, 192.0, 0.0, 0.0, 0.0, 0.0, 0.0, 0.0, 0.0, 0.0, 0.0, 1.6731200590256076E9, 0.0, 2023-01-07 14:34:19.025
206.0, -32656.6586085151, -34387.04125726715, -34537.960235829385, -28679.210386182116, -32009.217978622673, -30642.766433091932, -38246.226399687104, -35806.75700983489, -29219.31793920016, -10210.656846840007, -36092.389952229256, -37438.07672716102, -20128.483489571034, -22070.22423389247, -35361.71142598527, -33507.58951992864, -0.128, 0.9450000000000001, -0.155, 192.0, 0.0, 0.0, 0.0, 0.0, 0.0, 0.0, 0.0, 0.0, 0.0, 1.673120059025616E9, 0.0, 2023-01-07 14:34:19.025
208.0, -32627.22136106746, -34356.77699527467, -34527.343157213116, -28622.034623865442, -32000.254929096096, -30583.24373760745, -38208.16137887971, -35743.814497448744, -29234.651235896497, -10196.619951322074, -36095.38508598627, -37420.30709031905, -20138.809995509386, -22059.495396553924, -35365.958257431776, -33483.69550510591, -0.128, 0.9450000000000001, -0.155, 192.0, 0.0, 0.0, 0.0, 0.0, 0.0, 0.0, 0.0, 0.0, 0.0, 1.673120059025623E9, 0.0, 2023-01-07 14:34:19.025
210.0, -32628.093079101218, -34360.42032962088, -34509.12648548204, -28641.27947584146, -31996.321022071963, -30622.135772959686, -38220.83481798587, -35782.617125823155, -29181.72230502633, -10189.91442798548, -36048.915809263686, -37390.668677171314, -20107.472849783047, -22033.589724730224, -35329.122582569435, -33457.96864723786, -0.125, 0.9445000000000001, -0.1505, 192.0, 126.0, 24.0, 14.5, 64.0, 125.5, 56.0, 0.0, 0.0, 0.0, 1.6731200590256324E9, 0.0, 2023-01-07 14:34:19.025
212.0, -32632.78694543683, -34363.16959418888, -34538.78725037423, -28628.360167546296, -31999.159693617785, -30601.929795972086, -38239.00678622804, -35758.857221467166, -29225.107041014082, -10202.185535691446, -36085.79618761494, -37413.06512511553, -20142.185108922138, -22069.732495514454, -35366.91938244335, -33480.81213007118, -0.125, 0.9445000000000001, -0.1505, 192.0, 0.0, 0.0, 0.0, 0.0, 0.0, 0.0, 0.0, 0.0, 0.0, 1.673120059025641E9, 0.0, 2023-01-07 14:34:19.025
214.0, -32630.41766052457, -34363.102538955514, -34519.90002630949, -28649.639028267746, -31983.155844587785, -30629.713014330035, -38251.36730091182, -35807.42756216855, -29196.697973811388, -10184.013567449281, -36064.89730654923, -37396.43542724078, -20121.375634834247, -22050.46529179398, -35347.76393744516, -33471.357342166586, -0.125, 0.9445000000000001, -0.1505, 192.0, 0.0, 0.0, 0.0, 0.0, 0.0, 0.0, 0.0, 0.0, 0.0, 1.6731200590256486E9, 0.0, 2023-01-07 14:34:19.025
216.0, -32645.639198498633, -34375.775978061676, -34554.54523021522, -28638.03847289544, -32008.39096407783, -30602.53329307238, -38238.49269610557, -35767.82027099375, -29222.15661074598, -10202.341997902633, -36094.24514701905, -37426.6326339999, -20145.582574079344, -22066.200919890514, -35373.22257437975, -33484.6566301175, -0.125, 0.9445000000000001, -0.1505, 192.0, 0.0, 0.0, 0.0, 0.0, 0.0, 0.0, 0.0, 0.0, 0.0, 1.6731200590256584E9, 0.0, 2023-01-07 14:34:19.025
218.0, -32633.36809079267, -34372.5126233712, -34529.10894502508, -28651.695388757635, -32014.53769380304, -30629.5789038633, -38239.36441413932, -35809.126294747155, -29209.50552338428, -10195.859992010593, -36083.06927479139, -37409.35473553595, -20127.008274436987, -22049.75003597141, -35361.04087365161, -33464.6965223189, -0.125, 0.9445000000000001, -0.1505, 192.0, 0.0, 0.0, 0.0, 0.0, 0.0, 0.0, 0.0, 0.0, 0.0, 1.6731200590256689E9, 0.0, 2023-01-07 14:34:19.025
220.0, -32646.913247932585, -34385.78955957765, -34560.3566837736, -28643.17937412016, -32019.499781072114, -30607.24951115245, -38243.05245197445, -35770.815404750756, -29217.68626185492, -10221.765663834294, -36095.9215278532, -37437.31676784954, -20143.727379289554, -22064.390428589635, -35369.98157143373, -33486.10949350709, -0.1235, 0.94425, -0.14725, 192.0, 126.0, 24.0, 14.5, 64.0, 125.5, 64.0, 0.0, 0.0, 0.0, 1.673120059025686E9, 0.0, 2023-01-07 14:34:19.025
222.0, -32621.87929414264, -34362.16376568839, -34515.20615997388, -28642.307656086406, -31991.13541735833, -30610.6246245652, -38227.13800992227, -35788.070951470254, -29208.566750117156, -10185.757003516794, -36075.268515976495, -37399.899947631355, -20123.901381957698, -22042.32925681225, -35350.22262933524, -33457.07457745964, -0.1235, 0.94425, -0.14725, 192.0, 0.0, 0.0, 0.0, 0.0, 0.0, 0.0, 0.0, 0.0, 0.0, 1.6731200590256944E9, 0.0, 2023-01-07 14:34:19.025
224.0, -32649.32723633376, -34385.87896655547, -34541.804735875696, -28647.91794394469, -31999.025583151055, -30598.95701395953, -38236.34692863785, -35771.97769546243, -29213.238264708314, -10219.128157988567, -36083.49395793604, -37435.975663182224, -20128.394082593215, -22065.351553601213, -35361.554963774084, -33492.14446451002, -0.1235, 0.94425, -0.14725, 192.0, 0.0, 0.0, 0.0, 0.0, 0.0, 0.0, 0.0, 0.0, 0.0, 1.6731200590257037E9, 0.0, 2023-01-07 14:34:19.025
226.0, -32647.717910732976, -34380.29103044165, -34517.91072105298, -28657.551545804927, -32001.976013419157, -30620.77231654791, -38232.167152424714, -35796.676373085545, -29220.59198863411, -10193.133079187046, -36085.01387655901, -37403.85620639994, -20112.45728879658, -22043.782120201842, -35351.2955130691, -33464.60711534108, -0.1235, 0.94425, -0.14725, 192.0, 0.0, 0.0, 0.0, 0.0, 0.0, 0.0, 0.0, 0.0, 0.0, 1.6731200590257125E9, 0.0, 2023-01-07 14:34:19.025
228.0, -32661.263067872893, -34389.20937647932, -34543.01173007629, -28652.902382958222, -32004.457057053693, -30608.25533965294, -38226.020422699505, -35771.53066057333, -29227.72219511535, -10222.570326634685, -36098.62608893229, -37446.659797031854, -20126.98592269253, -22068.03376293585, -35358.91745792836, -33505.73432513885, -0.1235, 0.94425, -0.14725, 192.0, 0.0, 0.0, 0.0, 0.0, 0.0, 0.0, 0.0, 0.0, 0.0, 1.6731200590257509E9, 0.0, 2023-01-07 14:34:19.025
230.0, -32629.36712853517, -34358.09574819753, -34518.49186640881, -28643.33583633135, -31991.180120847243, -30604.209673906527, -38219.717230763104, -35767.41793959355, -29233.06426204017, -10182.516000570775, -36090.80297837293, -37395.38489525138, -20127.45530932609, -22044.56443125778, -35348.30037931209, -33463.89185951852, -0.12075, 0.941125, -0.144625, 192.0, 126.0, 40.0, 14.5, 40.0, 125.5, 72.0, 0.0, 0.0, 0.0, 1.6731200590257633E9, 0.0, 2023-01-07 14:34:19.025
232.0, -32634.28451231534, -34367.39407389094, -34535.367433472566, -28641.39123456374, -31994.219958093163, -30598.241758136963, -38223.18175115368, -35749.000102162376, -29204.655194837476, -10208.242858438833, -36075.58144039887, -37425.22447409922, -20118.916942944164, -22063.45165532251, -35337.10215533998, -33495.117246522575, -0.12075, 0.941125, -0.144625, 192.0, 0.0, 0.0, 0.0, 0.0, 0.0, 0.0, 0.0, 0.0, 0.0, 1.6731200590257719E9, 0.0, 2023-01-07 14:34:19.025
234.0, -32611.97747134894, -34341.711919511785, -34511.182845971925, -28624.985054133544, -31985.301612055497, -30599.62756629319, -38201.67937298767, -35747.234314350404, -29224.59295089161, -10170.691927753918, -36075.20146074313, -37381.07977879998, -20115.11714638676, -22044.92205916906, -35332.45299249327, -33461.12024320605, -0.12075, 0.941125, -0.144625, 192.0, 0.0, 0.0, 0.0, 0.0, 0.0, 0.0, 0.0, 0.0, 0.0, 1.6731200590257823E9, 0.0, 2023-01-07 14:34:19.025
236.0, -32622.92982613204, -34353.98302721775, -34522.78340134423, -28619.017138363975, -32005.03820240953, -30598.241758136963, -38214.777495238486, -35742.5851515037, -29193.412267376458, -10197.648131567017, -36062.17039372568, -37411.14287509237, -20115.206553364584, -22047.559565014788, -35332.29653028209, -33498.93939482443, -0.12075, 0.941125, -0.144625, 192.0, 0.0, 0.0, 0.0, 0.0, 0.0, 0.0, 0.0, 0.0, 0.0, 1.6731200590257933E9, 0.0, 2023-01-07 14:34:19.025
238.0, -32624.472096499456, -34357.17932667486, -34519.20712223138, -28626.169696589674, -31986.1509783448, -30607.33891813027, -38215.71626850561, -35746.72022422793, -29227.2975119707, -10167.875607952548, -36069.8146903294, -37370.37329320589, -20119.36397783327, -22031.84628866271, -35335.962216372754, -33466.9987519978, -0.12075, 0.941125, -0.144625, 192.0, 0.0, 0.0, 0.0, 0.0, 0.0, 0.0, 0.0, 0.0, 0.0, 1.6731200590258012E9, 0.0, 2023-01-07 14:34:19.025
240.0, -32630.440012269024, -34362.6108005775, -34524.12450601155, -28631.690577470134, -32007.541597788528, -30606.020165207407, -38213.32463184889, -35740.752308458366, -29209.125543728536, -10216.40124516502, -36067.89244030624, -37422.11758161993, -20115.78769872042, -22047.44780629251, -35330.46368723675, -33511.143447297036, -0.12637500000000002, 0.9425625, -0.1423125, 192.0, 125.5, 112.0, 14.5, 64.0, 125.5, 80.0, 0.0, 0.0, 0.0, 1.6731200595051565E9, 0.0, 2023-01-07 14:34:19.505
242.0, -32601.807427621774, -34334.55936128609, -34510.31112793817, -28609.942330115122, -31978.12670208534, -30576.649972993135, -38195.73380896256, -35713.70669766745, -29221.083727012126, -10159.449000292898, -36066.01489377199, -37371.245011239655, -20111.540867273914, -22026.526573482344, -35328.832009891514, -33461.61198158407, -0.12637500000000002, 0.9425625, -0.1423125, 192.0, 0.0, 0.0, 0.0, 0.0, 0.0, 0.0, 0.0, 0.0, 0.0, 1.673120059505241E9, 0.0, 2023-01-07 14:34:19.505
244.0, -32625.61203546668, -34362.409634877404, -34526.02440429025, -28637.61378975079, -31990.733085958134, -30599.471104082004, -38217.41500108421, -35736.14784910058, -29191.646479564486, -10193.244837909322, -36053.14028896574, -37412.148703592866, -20104.433012537123, -22043.826823690753, -35321.81356213255, -33496.83833084564, -0.12637500000000002, 0.9425625, -0.1423125, 192.0, 0.0, 0.0, 0.0, 0.0, 0.0, 0.0, 0.0, 0.0, 0.0, 1.6731200595052953E9, 0.0, 2023-01-07 14:34:19.505
246.0, -32627.89191340112, -34364.91303025639, -34535.34508172811, -28632.562295503893, -31989.973126646655, -30589.27870861038, -38214.352812093835, -35724.323776283716, -29222.73775610182, -10175.519904556264, -36077.74955961103, -37397.374200507904, -20119.36397783327, -22039.758806199887, -35333.54822797159, -33470.91030727748, -0.12637500000000002, 0.9425625, -0.1423125, 192.0, 0.0, 0.0, 0.0, 0.0, 0.0, 0.0, 0.0, 0.0, 0.0, 1.6731200595053444E9, 0.0, 2023-01-07 14:34:19.505
248.0, -32638.106660617195, -34381.72154208679, -34527.83489559113, -28650.846022468333, -31993.795274948512, -30609.417630364613, -38210.217739369604, -35742.02635789232, -29204.990471004305, -10215.373064920077, -36075.268515976495, -37443.15057315237, -20113.798393463898, -22051.98521041694, -35334.0399663496, -33508.41653447349, -0.12637500000000002, 0.9425625, -0.1423125, 192.0, 0.0, 0.0, 0.0, 0.0, 0.0, 0.0, 0.0, 0.0, 0.0, 1.6731200595053947E9, 0.0, 2023-01-07 14:34:19.505
250.0, -32618.101849329694, -34361.87319301048, -34528.48309618033, -28622.504010499004, -31994.845806937912, -30578.974554416487, -38190.95053564913, -35702.17319752851, -29223.922398557952, -10190.964959974881, -36080.25295499003, -37410.60643322545, -20114.915980686663, -22035.534326497833, -35326.64153893489, -33463.444824629405, -0.1271875, 0.9432812500000001, -0.13915625, 192.0, 126.0, 0.0, 14.5, 64.0, 125.5, 96.0, 0.0, 0.0, 0.0, 1.6731200595054E9, 0.0, 2023-01-07 14:34:19.505
252.0, -32637.726680961456, -34385.14135898845, -34535.14391602801, -28656.56806904889, -31992.32005981446, -30636.574999877812, -38238.246826916555, -35770.658942539565, -29205.705726826876, -10225.699570858427, -36072.78747234195, -37436.7356224937, -20102.13078285823, -22045.771425458363, -35331.916550626345, -33506.18136002796, -0.1271875, 0.9432812500000001, -0.13915625, 192.0, 0.0, 0.0, 0.0, 0.0, 0.0, 0.0, 0.0, 0.0, 0.0, 1.6731200595054057E9, 0.0, 2023-01-07 14:34:19.505
254.0, -32626.03671861133, -34368.44460588034, -34539.83778236363, -28618.368937774772, -31978.32786778544, -30601.348650616248, -38203.80278871093, -35721.82038090472, -29239.63567491003, -10212.869669541082, -36101.420056989205, -37427.92903517831, -20126.293018614415, -22064.792759989832, -35351.45197528029, -33501.57690067016, -0.1271875, 0.9432812500000001, -0.13915625, 192.0, 0.0, 0.0, 0.0, 0.0, 0.0, 0.0, 0.0, 0.0, 0.0, 1.6731200595054111E9, 0.0, 2023-01-07 14:34:19.505
0.0, -32606.858921868676, -34355.0559109516, -34503.069162734646, -28616.8043156629, -31972.963449116167, -30608.545912330857, -38194.07977987287, -35740.461735780445, -29179.464778836344, -10189.02035820727, -36058.23648670155, -37409.31003204704, -20086.082230339318, -22035.154346842093, -35319.10900105345, -33494.983136055846, -0.1271875, 0.9432812500000001, -0.13915625, 192.0, 0.0, 0.0, 0.0, 0.0, 0.0, 0.0, 0.0, 0.0, 0.0, 1.6731200595054166E9, 0.0, 2023-01-07 14:34:19.505
2.0, -32626.41669826707, -34374.8148530501, -34537.334386984636, -28618.503048241502, -31992.27535632555, -30602.24272039446, -38199.69006773115, -35721.68627043799, -29205.68337508242, -10192.551933831208, -36071.93810605265, -37405.286718045085, -20102.868390425254, -22042.373960301156, -35329.681376180815, -33490.55749065369, -0.1271875, 0.9432812500000001, -0.13915625, 192.0, 0.0, 0.0, 0.0, 0.0, 0.0, 0.0, 0.0, 0.0, 0.0, 1.673120059505422E9, 0.0, 2023-01-07 14:34:19.505
4.0, -32616.246654539904, -34368.913992513895, -34512.05456400568, -28632.539943759435, -31968.671914180748, -30616.659595568133, -38210.776532980984, -35751.77171847483, -29188.24901440728, -10200.620913579574, -36064.71849259359, -37416.2837763171, -20099.627387479235, -22041.055207378293, -35326.261559279155, -33501.46514194788, -0.12259375, 0.9446406250000001, -0.135578125, 192.0, 126.0, 40.0, 14.5, 72.0, 125.5, 112.0, 0.0, 0.0, 0.0, 1.6731200595054357E9, 0.0, 2023-01-07 14:34:19.505
6.0, -32634.5527332488, -34384.26964095469, -34552.60062844761, -28623.46513551058, -31990.95660340269, -30599.76167675992, -38227.65210004474, -35728.525904241316, -29216.07693625414, -10211.953248018413, -36091.406475473224, -37429.53836077909, -20121.107413900783, -22051.6052307612, -35344.500582754685, -33501.37573497006, -0.12259375, 0.9446406250000001, -0.135578125, 192.0, 0.0, 0.0, 0.0, 0.0, 0.0, 0.0, 0.0, 0.0, 0.0, 1.6731200595054412E9, 0.0, 2023-01-07 14:34:19.505
8.0, -32631.8034686808, -34379.70988508581, -34537.13322128454, -28643.20172586462, -31996.343373816417, -30630.87530504171, -38226.28864363297, -35769.36254136116, -29209.282005939724, -10196.418785621976, -36080.14119626775, -37413.1321803489, -20111.876143440742, -22039.132957355137, -35342.77949843163, -33486.62358362956, -0.12259375, 0.9446406250000001, -0.135578125, 192.0, 0.0, 0.0, 0.0, 0.0, 0.0, 0.0, 0.0, 0.0, 0.0, 1.673120059505447E9, 0.0, 2023-01-07 14:34:19.505
10.0, -32622.5498464763, -34367.48348086876, -34549.22551503486, -28617.184295318642, -31982.395885276306, -30587.468217309503, -38192.403399038725, -35710.10806681014, -29223.140087502015, -10229.275849971276, -36099.587213943865, -37432.7346602362, -20127.16473664817, -22052.476948794956, -35353.240114836706, -33492.07740927666, -0.12259375, 0.9446406250000001, -0.135578125, 192.0, 0.0, 0.0, 0.0, 0.0, 0.0, 0.0, 0.0, 0.0, 0.0, 1.6731200595054522E9, 0.0, 2023-01-07 14:34:19.505
12.0, -32609.183503292028, -34359.973294731775, -34523.208084488884, -28635.915057172188, -31990.777789447046, -30611.85397051024, -38189.20709958161, -35740.34997705817, -29191.82529352013, -10187.656901795495, -36067.62421937278, -37394.89315687337, -20102.667224725155, -22033.992056130417, -35321.23241677671, -33462.46134787337, -0.12259375, 0.9446406250000001, -0.135578125, 192.0, 0.0, 0.0, 0.0, 0.0, 0.0, 0.0, 0.0, 0.0, 0.0, 1.6731200595054576E9, 0.0, 2023-01-07 14:34:19.505
14.0, -32632.6528349701, -34381.498024642235, -34562.16717507448, -28636.026815894464, -31991.828321436446, -30599.96284246002, -38209.860111458314, -35722.133305327094, -29215.316976942657, -10222.659733612507, -36096.167397042205, -37440.64717777338, -20127.79058549292, -22060.903556454607, -35353.55303925908, -33502.5603774262, -0.12259375, 0.9446406250000001, -0.135578125, 192.0, 0.0, 0.0, 0.0, 0.0, 0.0, 0.0, 0.0, 0.0, 0.0, 1.6731200595054631E9, 0.0, 2023-01-07 14:34:19.505
16.0, -32596.957099074974, -34350.58556206054, -34513.976814028836, -28619.19595231962, -31973.455187494183, -30589.323412099293, -38179.528794232465, -35721.06042159324, -29203.403497147978, -10181.264302881278, -36076.18493749916, -37399.341154019974, -20108.433974794625, -22026.615980460167, -35333.41411750485, -33465.9482200084, -0.114, 0.9460000000000001, -0.14200000000000002, 192.0, 126.0, 56.0, 14.5, 72.0, 125.5, 72.0, 0.0, 0.0, 0.0, 1.6731200595054686E9, 0.0, 2023-01-07 14:34:19.505
18.0, -32645.303922331805, -34392.65154512543, -34569.073864111175, -28643.42524330917, -32002.400696563807, -30613.30683389984, -38215.22453012759, -35739.07592762422, -29209.371412917546, -10214.903678286515, -36093.8204638744, -37439.44018357279, -20125.868335469764, -22049.481815037947, -35352.45780378077, -33503.521502437776, -0.114, 0.9460000000000001, -0.14200000000000002, 192.0, 0.0, 0.0, 0.0, 0.0, 0.0, 0.0, 0.0, 0.0, 0.0, 1.673120059505474E9, 0.0, 2023-01-07 14:34:19.505
20.0, -32621.07463134225, -34369.80806229211, -34533.132259027036, -28633.255199582007, -31999.56202501798, -30612.47981935499, -38204.1157131333, -35740.037052635795, -29220.636692123022, -10195.859992010593, -36096.927356353684, -37409.69001170278, -20121.196820878606, -22047.112530125683, -35354.42475729284, -33480.72272309336, -0.114, 0.9460000000000001, -0.14200000000000002, 192.0, 0.0, 0.0, 0.0, 0.0, 0.0, 0.0, 0.0, 0.0, 0.0, 1.6731200595054796E9, 0.0, 2023-01-07 14:34:19.505
22.0, -32631.378785536148, -34377.69822808483, -34543.83874462113, -28620.827629664855, -31980.518338742062, -30606.042516951864, -38209.92716669168, -35728.59295947468, -29220.837857823117, -10229.521719160286, -36097.66496392071, -37447.307997621065, -20125.6001145363, -22065.68682976804, -35357.46459453876, -33510.94228159694, -0.114, 0.9460000000000001, -0.14200000000000002, 192.0, 0.0, 0.0, 0.0, 0.0, 0.0, 0.0, 0.0, 0.0, 0.0, 1.673120059505485E9, 0.0, 2023-01-07 14:34:19.505
24.0, -32609.429372481034, -34354.76533827369, -34508.813561059666, -28607.41658299167, -31972.784635160526, -30603.159141917127, -38180.26640179949, -35730.82813392021, -29213.93116878643, -10190.361462874587, -36077.99542880004, -37385.46072071323, -20103.02485263644, -22029.700521194998, -35324.69693716728, -33458.7956617827, -0.114, 0.9460000000000001, -0.14200000000000002, 192.0, 0.0, 0.0, 0.0, 0.0, 0.0, 0.0, 0.0, 0.0, 0.0, 1.6731200595054903E9, 0.0, 2023-01-07 14:34:19.505
26.0, -32626.371994778157, -34369.696303569835, -34530.606511903585, -28612.892760383224, -31999.696135484715, -30603.472066339502, -38185.63082046877, -35723.85438965016, -29199.78251454622, -10210.88036428456, -36073.90505956472, -37425.71621247724, -20109.12687887274, -22044.40796904659, -35329.61432094745, -33501.19692101442, -0.11800000000000001, 0.9400000000000001, -0.15, 192.0, 126.0, 40.0, 14.5, 48.0, 125.5, 40.0, 0.0, 0.0, 0.0, 1.673120059505496E9, 0.0, 2023-01-07 14:34:19.505
28.0, -32606.568349190755, -34348.12687017046, -34508.29947093719, -28599.593472432312, -31971.1976613042, -30588.183473132074, -38198.483073530566, -35727.14009608509, -29216.00988102077, -10172.077735910147, -36072.407492686216, -37375.44713919725, -20108.523381772447, -22017.272951277846, -35327.736774413206, -33455.688769303415, -0.11800000000000001, 0.9400000000000001, -0.15, 192.0, 0.0, 0.0, 0.0, 0.0, 0.0, 0.0, 0.0, 0.0, 0.0, 1.6731200595055015E9, 0.0, 2023-01-07 14:34:19.505
30.0, -32646.3544543212, -34389.85757706852, -34544.41988997697, -28627.488449512537, -31987.961469645677, -30610.19994142055, -38204.56274802241, -35746.07202363873, -29204.230511692826, -10209.02516949477, -36080.431768945666, -37428.10784913395, -20110.244466095504, -22046.911364425585, -35335.7386989282, -33505.42140071648, -0.11800000000000001, 0.9400000000000001, -0.15, 192.0, 0.0, 0.0, 0.0, 0.0, 0.0, 0.0, 0.0, 0.0, 0.0, 1.6731200595055068E9, 0.0, 2023-01-07 14:34:19.505
32.0, -32613.229169038437, -34354.27359989567, -34520.88350306553, -28595.860731108278, -31995.270490082563, -30573.543080513846, -38177.13715757575, -35711.78444764429, -29232.97485506235, -10171.787163232228, -36092.68052490718, -37388.299392259054, -20125.42130058066, -22037.702445709998, -35337.45978325126, -33455.264086158764, -0.11800000000000001, 0.9400000000000001, -0.15, 192.0, 0.0, 0.0, 0.0, 0.0, 0.0, 0.0, 0.0, 0.0, 0.0, 1.6731200595055125E9, 0.0, 2023-01-07 14:34:19.505
34.0, -32659.251410871915, -34402.37455396349, -34556.46748023838, -28649.616676523292, -31974.46101599467, -30621.688738070578, -38250.80850730044, -35765.71920701495, -29207.091534983105, -10206.320608415677, -36083.315143980406, -37431.52766603562, -20113.88780044172, -22056.36615233018, -35336.878637895425, -33495.43017094495, -0.11800000000000001, 0.9400000000000001, -0.15, 192.0, 0.0, 0.0, 0.0, 0.0, 0.0, 0.0, 0.0, 0.0, 0.0, 1.673120059505518E9, 0.0, 2023-01-07 14:34:19.505
36.0, -32644.02987289785, -34389.32113520159, -34560.043759351225, -28637.81495545089, -31982.127664342843, -30594.95605170203, -38226.512161077524, -35744.239180593395, -29243.83780286763, -10198.519849600774, -36112.3724117723, -37419.971814152224, -20128.50584131549, -22056.41085581909, -35362.13610912992, -33485.28247896224, -0.124, 0.9440000000000001, -0.14400000000000002, 192.0, 126.0, 16.0, 14.5, 64.0, 125.5, 64.0, 0.0, 0.0, 0.0, 1.6731200595055249E9, 0.0, 2023-01-07 14:34:19.505
38.0, -32666.13574816415, -34416.947891348354, -34579.914460171996, -28674.091836701853, -32020.840885739435, -30625.19796195006, -38244.14768745276, -35775.71043678647, -29228.392747449012, -10243.156283278024, -36102.96232735662, -37459.60145707148, -20131.344512861313, -22061.149425643616, -35367.008789421176, -33523.77218291428, -0.124, 0.9440000000000001, -0.14400000000000002, 192.0, 0.0, 0.0, 0.0, 0.0, 0.0, 0.0, 0.0, 0.0, 0.0, 1.6731200595055304E9, 0.0, 2023-01-07 14:34:19.505
40.0, -32637.41375653908, -34387.644754367444, -34561.518974485276, -28638.977246162565, -32006.33460358794, -30593.592595290258, -38225.104001176835, -35739.8358869357, -29255.281896028748, -10220.02222776678, -36115.36754552931, -37434.96983468173, -20152.578670093855, -22060.814149476784, -35383.14674891791, -33496.033668045246, -0.124, 0.9440000000000001, -0.14400000000000002, 192.0, 0.0, 0.0, 0.0, 0.0, 0.0, 0.0, 0.0, 0.0, 0.0, 1.6731200595055358E9, 0.0, 2023-01-07 14:34:19.505
42.0, -32656.41273932609, -34406.93430983237, -34558.38973026154, -28662.7147987741, -32002.221882608163, -30631.791726564377, -38246.360510153834, -35781.27602115584, -29218.826200822143, -10227.957097048415, -36089.12659753879, -37449.56552381105, -20129.355207604793, -22069.88895772564, -35361.77848121864, -33515.47968572136, -0.124, 0.9440000000000001, -0.14400000000000002, 192.0, 0.0, 0.0, 0.0, 0.0, 0.0, 0.0, 0.0, 0.0, 0.0, 1.673120059505541E9, 0.0, 2023-01-07 14:34:19.505
44.0, -32623.913302888075, -34373.42904489387, -34546.4538987224, -28622.772231432467, -31986.977992889642, -30596.543025558356, -38206.64146025675, -35733.130363599106, -29253.44905298341, -10209.941591017436, -36106.270385536, -37423.72690722071, -20144.196765923116, -22071.90061472662, -35367.41112082137, -33491.29509822072, -0.124, 0.9440000000000001, -0.14400000000000002, 192.0, 0.0, 0.0, 0.0, 0.0, 0.0, 0.0, 0.0, 0.0, 0.0, 1.6731200595055468E9, 0.0, 2023-01-07 14:34:19.505
46.0, -32627.713099445475, -34383.42027466539, -34534.22749450535, -28648.72260674508, -32006.200493121207, -30632.238761453482, -38219.96309995212, -35772.40237860708, -29198.35200290108, -10207.2593816828, -36064.5620303824, -37422.72107872023, -20117.419376065656, -22057.7072569975, -35339.02440536313, -33503.54385418223, -0.128, 0.9380000000000001, -0.14400000000000002, 192.0, 126.0, 0.0, 14.5, 40.0, 125.5, 64.0, 0.0, 0.0, 0.0, 1.6731200595055523E9, 0.0, 2023-01-07 14:34:19.505
48.0, -32627.84720991221, -34379.866347297, -34535.14391602801, -28619.888856397734, -31984.653411466294, -30595.827769735788, -38209.7707044805, -35728.97293913042, -29228.102174771095, -10205.359483404098, -36086.26557424851, -37417.84839842897, -20130.226925638548, -22065.150387901114, -35355.475289282236, -33492.79266509922, -0.128, 0.9380000000000001, -0.14400000000000002, 192.0, 0.0, 0.0, 0.0, 0.0, 0.0, 0.0, 0.0, 0.0, 0.0, 1.6731200595055575E9, 0.0, 2023-01-07 14:34:19.505
50.0, -32641.191201352027, -34393.85853932602, -34524.10215426709, -28644.118147387286, -31992.051838880998, -30627.54489511787, -38220.47719007459, -35768.75904426087, -29199.983680246318, -10211.193288706934, -36071.15579499672, -37425.760915966144, -20109.35039631729, -22046.79960570331, -35330.35192851447, -33494.133769766544, -0.128, 0.9380000000000001, -0.14400000000000002, 192.0, 0.0, 0.0, 0.0, 0.0, 0.0, 0.0, 0.0, 0.0, 0.0, 1.6731200595055633E9, 0.0, 2023-01-07 14:34:19.505
52.0, -32640.02891064035, -34387.98003053427, -34542.87761960955, -28622.124030843264, -31987.24621382311, -30595.827769735788, -38208.65311725773, -35725.59782571767, -29248.21874478087, -10230.192271493945, -36111.65715594973, -37441.02715742912, -20143.101530444805, -22068.19022514704, -35358.09044338351, -33498.06767679068, -0.128, 0.9380000000000001, -0.14400000000000002, 192.0, 0.0, 0.0, 0.0, 0.0, 0.0, 0.0, 0.0, 0.0, 0.0, 1.6731200595055685E9, 0.0, 2023-01-07 14:34:19.505
54.0, -32616.894855129107, -34367.84110878004, -34503.24797669029, -28621.162905831687, -31977.7467224296, -30603.29325238386, -38181.071064599884, -35743.680386982014, -29200.63188083552, -10206.49942237132, -36067.06542576139, -37409.01945936912, -20099.381518290225, -22034.64025671962, -35322.193541788285, -33471.51380437777, -0.128, 0.9380000000000001, -0.14400000000000002, 192.0, 0.0, 0.0, 0.0, 0.0, 0.0, 0.0, 0.0, 0.0, 0.0, 1.673120059505574E9, 0.0, 2023-01-07 14:34:19.505
56.0, -32628.02602386785, -34371.52914661517, -34534.40630846099, -28609.830571392846, -31970.013018848065, -30578.214595105004, -38189.05063737043, -35710.890377866075, -29212.813581563663, -10201.11265195759, -36079.13536776726, -37409.66765995832, -20116.570009776355, -22048.386579559636, -35333.727041927224, -33472.81020555618, -0.13, 0.9400000000000001, -0.14200000000000002, 192.0, 125.5, 120.0, 14.5, 48.0, 125.5, 72.0, 0.0, 0.0, 0.0, 1.6731200595055797E9, 0.0, 2023-01-07 14:34:19.505
58.0, -32631.870523914164, -34380.64865835293, -34524.57154090065, -28644.319313087384, -31989.794312691014, -30633.043424253876, -38237.3751088828, -35777.78914902081, -29205.437505893413, -10193.334244887143, -36072.83217583087, -37403.342116277476, -20104.79064044841, -22036.36134104268, -35332.65415819337, -33480.4545021599, -0.13, 0.9400000000000001, -0.14200000000000002, 192.0, 0.0, 0.0, 0.0, 0.0, 0.0, 0.0, 0.0, 0.0, 0.0, 1.673120059505585E9, 0.0, 2023-01-07 14:34:19.505
60.0, -32664.057035929807, -34411.76228663472, -34567.397483277025, -28653.23765912505, -31994.82345519346, -30627.16491546213, -38244.23709443058, -35759.23720112291, -29236.193506263913, -10232.472149428386, -36105.44337099116, -37444.26816037514, -20131.009236694485, -22070.917137970584, -35367.70169349929, -33524.33097652566, -0.13, 0.9400000000000001, -0.14200000000000002, 192.0, 0.0, 0.0, 0.0, 0.0, 0.0, 0.0, 0.0, 0.0, 0.0, 1.6731200595055904E9, 0.0, 2023-01-07 14:34:19.505
62.0, -32619.666471441567, -34372.7137890713, -34508.79120931521, -28628.740147202036, -31979.736027686125, -30612.502171099448, -38192.22458508308, -35747.48018353942, -29215.719308342854, -10202.833736280649, -36084.58919341436, -37411.791075681576, -20121.241524367517, -22040.675227722553, -35340.432565263814, -33491.33980170963, -0.13, 0.9400000000000001, -0.14200000000000002, 192.0, 0.0, 0.0, 0.0, 0.0, 0.0, 0.0, 0.0, 0.0, 0.0, 1.673120059505596E9, 0.0, 2023-01-07 14:34:19.505
64.0, -32650.7577479789, -34399.04414403965, -34554.36641625958, -28634.663359482693, -32004.03237390904, -30604.880226240188, -38226.936844222175, -35733.80091593277, -29223.430660179933, -10223.665562112996, -36092.70287665163, -37434.12046839243, -20126.471832570056, -22059.517748298378, -35353.12835611443, -33505.399048972016, -0.13, 0.9400000000000001, -0.14200000000000002, 192.0, 0.0, 0.0, 0.0, 0.0, 0.0, 0.0, 0.0, 0.0, 0.0, 1.6731200595056014E9, 0.0, 2023-01-07 14:34:19.505
66.0, -32629.79181167982, -34384.09082699905, -34523.25278797779, -28639.513688029492, -31974.48336773913, -30628.55072361836, -38206.864977701305, -35759.01368367836, -29216.479267654333, -10197.469317611376, -36084.67860039218, -37399.81054065353, -20121.68855925662, -22048.610097004188, -35345.819335677545, -33477.794644569716, -0.11800000000000001, 0.9420000000000001, -0.138, 192.0, 126.0, 40.0, 14.5, 56.0, 125.5, 88.0, 0.0, 0.0, 0.0, 1.673120059505607E9, 0.0, 2023-01-07 14:34:19.505
68.0, -32648.187297366538, -34398.88768182846, -34557.02627384976, -28640.09483338533, -32004.85938845389, -30622.649863082155, -38224.344041865355, -35743.434517793, -29216.054584509682, -10242.753951877827, -36096.70383890913, -37439.8872184619, -20144.420283367668, -22071.07360018177, -35358.00103640569, -33511.63518567505, -0.11800000000000001, 0.9420000000000001, -0.138, 192.0, 0.0, 0.0, 0.0, 0.0, 0.0, 0.0, 0.0, 0.0, 0.0, 1.673120059505616E9, 0.0, 2023-01-07 14:34:19.505
70.0, -32616.894855129107, -34366.879983768464, -34518.06718326416, -28629.56716174688, -31964.402730989783, -30623.8792090272, -38208.831931213375, -35757.27024761084, -29213.77470657524, -10200.531506601752, -36082.68929513566, -37389.282869015085, -20121.755614489986, -22040.988152144928, -35344.38882403241, -33471.424397399955, -0.11800000000000001, 0.9420000000000001, -0.138, 192.0, 0.0, 0.0, 0.0, 0.0, 0.0, 0.0, 0.0, 0.0, 0.0, 1.6731200595056217E9, 0.0, 2023-01-07 14:34:19.505
72.0, -32653.663474758087, -34400.80993185162, -34557.85328839461, -28650.600153279323, -31999.539673273528, -30632.350520175758, -38244.01357698603, -35762.634666280115, -29209.72904082883, -10234.684972129462, -36089.439521961154, -37436.22153237123, -20128.327027359846, -22061.931736699553, -35357.1963736053, -33517.73721191135, -0.11800000000000001, 0.9420000000000001, -0.138, 192.0, 0.0, 0.0, 0.0, 0.0, 0.0, 0.0, 0.0, 0.0, 0.0, 1.6731200595056272E9, 0.0, 2023-01-07 14:34:19.505
74.0, -32615.866674884164, -34365.53887910114, -34510.73581108282, -28626.795545434423, -31966.749664157593, -30609.01529896442, -38217.973794695594, -35754.11865164264, -29219.139125244514, -10197.581076333652, -36081.214080001606, -37394.043790584066, -20123.253181368495, -22042.910402168083, -35347.719233956246, -33477.25820270279, -0.11800000000000001, 0.9420000000000001, -0.138, 192.0, 0.0, 0.0, 0.0, 0.0, 0.0, 0.0, 0.0, 0.0, 0.0, 1.6731200595056329E9, 0.0, 2023-01-07 14:34:19.505
76.0, -32632.69753845901, -34380.179271719375, -34530.78532585923, -28628.650740224213, -31981.881795153833, -30600.43222909358, -38216.655041772734, -35743.747442215375, -29201.525950613734, -10224.291410957743, -36072.9662862976, -37431.639424757894, -20117.084099898828, -22069.5089780699, -35341.37133853094, -33506.11430479459, -0.12, 0.9380000000000001, -0.14400000000000002, 192.0, 126.0, 32.0, 14.5, 40.0, 125.5, 64.0, 0.0, 0.0, 0.0, 1.6731200595056381E9, 0.0, 2023-01-07 14:34:19.505
78.0, -32631.624654725154, -34376.15595771742, -34530.02536654775, -28629.790679191436, -31996.298670327506, -30603.96380471752, -38211.78236148148, -35753.76102373136, -29218.557979888676, -10178.291520868723, -36072.85452757532, -37381.236241011175, -20124.035492424428, -22034.863774164176, -35337.169210573345, -33452.80539426868, -0.12, 0.9380000000000001, -0.14400000000000002, 192.0, 0.0, 0.0, 0.0, 0.0, 0.0, 0.0, 0.0, 0.0, 0.0, 1.6731200595056436E9, 0.0, 2023-01-07 14:34:19.505
80.0, -32645.728605476455, -34389.63405962397, -34547.16915454497, -28643.17937412016, -32009.106219900397, -30609.06000245333, -38220.03015518548, -35753.0904713977, -29222.78245959073, -10230.706361616418, -36091.29471675095, -37449.63257904442, -20140.866355999275, -22069.196053647527, -35361.28674284062, -33516.999604344324, -0.12, 0.9380000000000001, -0.14400000000000002, 192.0, 0.0, 0.0, 0.0, 0.0, 0.0, 0.0, 0.0, 0.0, 0.0, 1.673120059505649E9, 0.0, 2023-01-07 14:34:19.505
82.0, -32615.55375046179, -34356.888753996944, -34513.73094483983, -28613.876237139255, -31963.888640867313, -30579.890975939154, -38190.63761122675, -35725.21784606193, -29225.576427647644, -10181.48782032583, -36073.18980374215, -37379.850432854946, -20119.02870166644, -22020.804526901786, -35331.223646548235, -33452.76069077977, -0.12, 0.9380000000000001, -0.14400000000000002, 192.0, 0.0, 0.0, 0.0, 0.0, 0.0, 0.0, 0.0, 0.0, 0.0, 1.6731200595056548E9, 0.0, 2023-01-07 14:34:19.505
84.0, -32653.238791613436, -34403.71565863081, -34546.67741616695, -28663.47475808558, -32005.73110648765, -30632.61874110922, -38242.13603045178, -35780.85133801119, -29213.841761808606, -10235.02024829629, -36080.05178928993, -37441.004805684664, -20121.93442844563, -22063.07167566677, -35350.98258864672, -33523.10163058062, -0.12, 0.9380000000000001, -0.14400000000000002, 192.0, 0.0, 0.0, 0.0, 0.0, 0.0, 0.0, 0.0, 0.0, 0.0, 1.6731200595056603E9, 0.0, 2023-01-07 14:34:19.505
86.0, -32627.623692467656, -34378.905222285415, -34528.08076478014, -28635.222153094073, -31979.892489897313, -30595.04545867985, -38213.995184182546, -35741.22169509193, -29233.220724251358, -10205.583000848652, -36085.63972540376, -37403.14095057738, -20128.66230352668, -22063.675172767063, -35356.95050441629, -33490.06575227568, -0.125, 0.9390000000000001, -0.14800000000000002, 192.0, 125.5, 120.0, 14.5, 48.0, 125.5, 32.0, 0.0, 0.0, 0.0, 1.673120059505666E9, 0.0, 2023-01-07 14:34:19.505
88.0, -32651.115375890182, -34401.145208018446, -34543.1011370541, -28660.39021735075, -32005.90992044329, -30626.606121850746, -38229.90962623473, -35772.51413732936, -29206.555093116178, -10224.894908058037, -36075.04499853194, -37437.36147133845, -20123.7002162576, -22072.37000136018, -35347.11573685596, -33520.39706950153, -0.125, 0.9390000000000001, -0.14800000000000002, 192.0, 0.0, 0.0, 0.0, 0.0, 0.0, 0.0, 0.0, 0.0, 0.0, 1.6731200595056715E9, 0.0, 2023-01-07 14:34:19.505
90.0, -32640.78886995183, -34388.85174856803, -34544.1516690435, -28634.685711227146, -32001.57368201896, -30610.06583095382, -38219.89604471875, -35749.64830275158, -29243.323712745158, -10203.861916525593, -36099.654269177234, -37413.10982860444, -20141.738074033034, -22064.569242545276, -35361.28674284062, -33485.52834815125, -0.125, 0.9390000000000001, -0.14800000000000002, 192.0, 0.0, 0.0, 0.0, 0.0, 0.0, 0.0, 0.0, 0.0, 0.0, 1.6731200595056772E9, 0.0, 2023-01-07 14:34:19.505
92.0, -32662.40300684011, -34415.36091749203, -34542.94467484292, -28660.05494118392, -32004.837036709436, -30650.142508762183, -38250.562638111434, -35791.17784394954, -29224.280026469234, -10235.668448885495, -36093.97692608558, -37444.69284351979, -20130.226925638548, -22077.89088224064, -35360.39267306241, -33517.40193574452, -0.125, 0.9390000000000001, -0.14800000000000002, 192.0, 0.0, 0.0, 0.0, 0.0, 0.0, 0.0, 0.0, 0.0, 0.0, 1.6731200595056827E9, 0.0, 2023-01-07 14:34:19.505
94.0, -32649.438995056036, -34400.787580107164, -34536.21679976187, -28627.80137393491, -31976.293859040008, -30610.11053444273, -38223.33821336487, -35747.30136958377, -29255.237192539837, -10227.487710414853, -36111.7242111831, -37426.744392722176, -20142.073350199862, -22074.582824061254, -35362.06905389656, -33492.166816254474, -0.125, 0.9390000000000001, -0.14800000000000002, 192.0, 0.0, 0.0, 0.0, 0.0, 0.0, 0.0, 0.0, 0.0, 0.0, 1.6731200595056882E9, 0.0, 2023-01-07 14:34:19.505
96.0, -32646.466213043477, -34402.97805106379, -34514.15562798448, -28643.916981687187, -31980.85361490889, -30629.10951722974, -38225.90866397723, -35773.050579196286, -29205.281043682226, -10228.06885577069, -36073.05569327542, -37428.06314564504, -20109.88683818422, -22053.348666828715, -35322.953501099764, -33485.01425802878, -0.1295, 0.9405000000000001, -0.14600000000000002, 192.0, 125.5, 104.0, 14.5, 56.0, 125.5, 64.0, 0.0, 0.0, 0.0, 1.673120059505694E9, 0.0, 2023-01-07 14:34:19.505
98.0, -32660.860736472696, -34413.796295380154, -34543.5034684543, -28635.602132749813, -31996.030449394042, -30616.21256067903, -38231.74246928006, -35755.79503247679, -29242.36258773358, -10225.699570858427, -36104.63870819077, -37431.77353522462, -20138.720588531567, -22079.299042141323, -35348.16626884535, -33486.154196996, -0.1295, 0.9405000000000001, -0.14600000000000002, 192.0, 0.0, 0.0, 0.0, 0.0, 0.0, 0.0, 0.0, 0.0, 0.0, 1.6731200595056994E9, 0.0, 2023-01-07 14:34:19.505
100.0, -32656.32333234827, -34413.28220525768, -34522.53753215522, -28646.375673577273, -31981.61357422037, -30633.848087054266, -38230.02138495701, -35785.344038646705, -29224.45884042488, -10239.378838465076, -36096.41326623121, -37441.11656440694, -20127.879992470742, -22070.98419320395, -35338.622073962935, -33499.90051983601, -0.1295, 0.9405000000000001, -0.14600000000000002, 192.0, 0.0, 0.0, 0.0, 0.0, 0.0, 0.0, 0.0, 0.0, 0.0, 1.673120059505706E9, 0.0, 2023-01-07 14:34:19.505
102.0, -32649.237829355938, -34401.92751907439, -34532.72992762684, -28612.021042349465, -31990.66603072477, -30581.29913583984, -38204.58509976687, -35727.76594492984, -29235.455898696888, -10220.64807661153, -36100.90596686673, -37426.52087527762, -20133.087948928827, -22053.393370317623, -35340.23139956372, -33468.898650276504, -0.1295, 0.9405000000000001, -0.14600000000000002, 192.0, 0.0, 0.0, 0.0, 0.0, 0.0, 0.0, 0.0, 0.0, 0.0, 1.6731200595057116E9, 0.0, 2023-01-07 14:34:19.505
104.0, -32652.344721835223, -34409.99649882275, -34520.68233736543, -28642.106490386308, -31988.944946401713, -30607.741249530467, -38222.19827439765, -35769.13902391661, -29218.468572910857, -10210.232163695355, -36087.04788530444, -37419.79300019658, -20122.56027729038, -22036.13782359813, -35333.48117273822, -33460.38263563903, -0.1295, 0.9405000000000001, -0.14600000000000002, 192.0, 0.0, 0.0, 0.0, 0.0, 0.0, 0.0, 0.0, 0.0, 0.0, 1.6731200599854643E9, 0.0, 2023-01-07 14:34:19.985
106.0, -32664.057035929807, -34419.22776928279, -34554.47817498186, -28640.228943852064, -31995.829283693947, -30584.20486261903, -38227.339175622365, -35735.41024153355, -29233.93598007393, -10230.080512771669, -36106.85153089184, -37443.038814430096, -20140.396969365713, -22050.152367371604, -35358.559830017075, -33471.33499042213, -0.13075, 0.9412500000000001, -0.14200000000000002, 192.0, 125.5, 112.0, 14.5, 56.0, 125.5, 88.0, 0.0, 0.0, 0.0, 1.6731200599854944E9, 0.0, 2023-01-07 14:34:19.985
108.0, -32647.315579332782, -34405.414391209415, -34529.53362816973, -28661.53015631797, -31975.243327050608, -30614.692642056067, -38220.141913907755, -35770.43542509501, -29223.184790990927, -10222.011533023302, -36095.183920286174, -37432.89112244739, -20119.855716211285, -22053.996867417918, -35344.88056241042, -33465.3000194192, -0.13075, 0.9412500000000001, -0.14200000000000002, 192.0, 0.0, 0.0, 0.0, 0.0, 0.0, 0.0, 0.0, 0.0, 0.0, 1.6731200599855275E9, 0.0, 2023-01-07 14:34:19.985
110.0, -32667.70037027602, -34417.97607159329, -34567.55394548821, -28660.43492083966, -31995.38224880484, -30612.636281566178, -38217.973794695594, -35748.19543936198, -29235.902933585996, -10246.799617624238, -36112.68533619468, -37454.52761108013, -20143.23564091154, -22079.88018749716, -35365.690036498316, -33492.815016843684, -0.13075, 0.9412500000000001, -0.14200000000000002, 192.0, 0.0, 0.0, 0.0, 0.0, 0.0, 0.0, 0.0, 0.0, 0.0, 1.6731200599855852E9, 0.0, 2023-01-07 14:34:19.985
112.0, -32620.26996854186, -34375.03837049465, -34503.51619762376, -28635.356263560807, -31976.316210784462, -30608.612967564222, -38162.832041124355, -35743.814497448744, -29217.86507581056, -10212.266172440788, -36083.00221955803, -37407.63365121289, -20128.03645468193, -22048.498338281912, -35338.93499838531, -33466.01527524177, -0.13075, 0.9412500000000001, -0.14200000000000002, 192.0, 0.0, 0.0, 0.0, 0.0, 0.0, 0.0, 0.0, 0.0, 0.0, 1.6731200599855988E9, 0.0, 2023-01-07 14:34:19.985
114.0, -32662.42535858457, -34415.38326923648, -34561.407215763, -28658.132691160765, -32017.44342058223, -30628.617778851723, -38241.264312418025, -35758.164317389055, -29213.059450752673, -10231.622783139084, -36082.13050152427, -37426.38676481089, -20131.7021407726, -22059.495396553924, -35347.920399656345, -33492.9044238215, -0.13075, 0.9412500000000001, -0.14200000000000002, 192.0, 0.0, 0.0, 0.0, 0.0, 0.0, 0.0, 0.0, 0.0, 0.0, 1.6731200599856043E9, 0.0, 2023-01-07 14:34:19.985
116.0, -32649.059015400293, -34409.43770521137, -34535.74741312831, -28664.659400541714, -31985.726295200147, -30651.662427385145, -38256.99994051456, -35800.81144580978, -29232.12548877305, -10230.393437194043, -36099.14017905476, -37420.70942171925, -20139.79347226542, -22079.053172952317, -35369.06514991107, -33501.35338322561, -0.12637500000000002, 0.9396250000000002, -0.138, 192.0, 126.0, 24.0, 14.5, 40.0, 125.5, 104.0, 0.0, 0.0, 0.0, 1.6731200599856095E9, 0.0, 2023-01-07 14:34:19.985
118.0, -32654.758710236398, -34409.05772555563, -34551.25952378029, -28644.699292743124, -31999.651431995804, -30625.68970032808, -38237.46451586062, -35767.32853261573, -29223.65417762449, -10257.237882284866, -36096.32385925339, -37448.69380577729, -20141.46985309957, -22097.98510050596, -35368.95339118879, -33518.899502623026, -0.12637500000000002, 0.9396250000000002, -0.138, 192.0, 0.0, 0.0, 0.0, 0.0, 0.0, 0.0, 0.0, 0.0, 0.0, 1.673120059985615E9, 0.0, 2023-01-07 14:34:19.985
