%OpenBCI Raw EEG Data
%Number of channels = 16
%Sample Rate = 125 Hz
%Board = OpenBCI_GUI$BoardCytonSerialDaisy
Sample Index, EXG Channel 0, EXG Channel 1, EXG Channel 2, EXG Channel 3, EXG Channel 4, EXG Channel 5, EXG Channel 6, EXG Channel 7, EXG Channel 8, EXG Channel 9, EXG Channel 10, EXG Channel 11, EXG Channel 12, EXG Channel 13, EXG Channel 14, EXG Channel 15, Accel Channel 0, Accel Channel 1, Accel Channel 2, Other, Other, Other, Other, Other, Other, Other, Analog Channel 0, Analog Channel 1, Analog Channel 2, Timestamp, Other, Timestamp (Formatted)
44.0, -18560.173339864414, -25398.957776899075, -31985.458074266684, -18141.368704005326, -8735.128788367367, -6775.529000226141, -19184.23404505659, -3841.7731334892674, -23028.398815202574, 6577.805468774494, -20015.96480798302, -25967.921432008916, -6489.091395031381, -4073.6948339575333, -10511.578382441805, -17558.9940022223, 0.0, 0.0, 0.0, 192.0, 0.0, 0.0, 0.0, 0.0, 0.0, 0.0, 0.0, 0.0, 0.0, 1.6730446043054507E9, 0.0, 2023-01-06 17:36:44.305
46.0, -18572.355040592556, -25422.583570788334, -32009.888530956334, -18175.34335557739, -8784.056756980033, -6795.824384191559, -19199.299120819465, -3876.3065786727166, -23032.64564664908, 6471.209999467135, -20032.750968068955, -25968.748446553764, -6497.607409668853, -4059.747345417422, -10506.996274828467, -17558.32344988864, -0.17200000000000001, 0.934, 0.024, 192.0, 125.0, 80.0, 14.5, 24.0, 0.0, 96.0, 0.0, 0.0, 0.0, 1.6730446043054574E9, 0.0, 2023-01-06 17:36:44.305
48.0, -18664.466579492877, -25523.792269681966, -32123.63655848939, -18265.17501654327, -8818.903126585858, -6802.820480206071, -19223.640170531293, -3867.3435291461387, -22998.201608443454, 6398.946809643127, -20050.58766014429, -26009.942711584892, -6535.761837454062, -4089.050482398329, -10518.37331275622, -17582.061002500177, -0.17200000000000001, 0.934, 0.024, 192.0, 0.0, 0.0, 0.0, 0.0, 0.0, 0.0, 0.0, 0.0, 0.0, 1.6730446043054633E9, 0.0, 2023-01-06 17:36:44.305
50.0, -18625.842765074107, -25452.71372231409, -32128.308073080552, -18192.308329618972, -8805.022693279112, -6813.7057797558045, -19225.51771706554, -3884.844945054644, -23231.665579279135, 6348.565977640865, -20180.85362682982, -26078.987250207338, -6482.5870373948865, -4132.614032341723, -10589.317749657363, -17615.968598838877, -0.17200000000000001, 0.934, 0.024, 192.0, 0.0, 0.0, 0.0, 0.0, 0.0, 0.0, 0.0, 0.0, 0.0, 1.6730446043054693E9, 0.0, 2023-01-06 17:36:44.305
52.0, -18576.467761572334, -25436.531059328445, -32042.119746460885, -18187.055669671976, -8775.071355709, -6775.596055459507, -19200.21554234213, -3857.3746511190716, -22966.84211097266, 6511.532546464508, -20050.16297699964, -25990.13906599749, -6468.1478104767575, -4099.041712169852, -10555.208987618566, -17585.793743824215, -0.17200000000000001, 0.934, 0.024, 192.0, 0.0, 0.0, 0.0, 0.0, 0.0, 0.0, 0.0, 0.0, 0.0, 1.6730446043054748E9, 0.0, 2023-01-06 17:36:44.305
54.0, -18598.081898460616, -25423.969378944563, -32083.671639403303, -18204.17710592474, -8789.756451816136, -6782.636854962928, -19216.75583323906, -3878.2511804403284, -23167.24785175894, 6428.831091979872, -20109.775079461942, -26033.076767096136, -6678.723594990206, -4088.514040531402, -10550.85039744978, -17586.62075836906, -0.17200000000000001, 0.934, 0.024, 192.0, 0.0, 0.0, 0.0, 0.0, 0.0, 0.0, 0.0, 0.0, 0.0, 1.6730446043054807E9, 0.0, 2023-01-06 17:36:44.305
56.0, -18604.49684911929, -25458.03343749445, -31980.250117808595, -18211.530829850537, -8753.188997887253, -6752.238482503711, -19205.356443566852, -3860.0121569647977, -22862.48181611083, 6567.143686669313, -19989.81326697031, -25946.977847454295, -6731.317249693543, -4066.7434414319328, -10492.579399654795, -17558.256394655276, -0.185, 0.9400000000000001, 0.026000000000000002, 192.0, 124.5, 104.0, 14.5, 72.0, 0.0, 112.0, 0.0, 0.0, 0.0, 1.673044604305487E9, 0.0, 2023-01-06 17:36:44.305
58.0, -18620.5454016382, -25447.975152489562, -32092.724095907703, -18217.543449109013, -8832.761208148147, -6796.517288269674, -19243.80144402998, -3905.9226400759985, -23220.176782629107, 6130.92704187954, -20123.767271490964, -26119.712128604908, -6641.642050938851, -4074.5665519912905, -10558.539397542405, -17605.172706266967, -0.185, 0.9400000000000001, 0.026000000000000002, 192.0, 0.0, 0.0, 0.0, 0.0, 0.0, 0.0, 0.0, 0.0, 0.0, 1.6730446043054924E9, 0.0, 2023-01-06 17:36:44.305
60.0, -18611.82822130063, -25444.801204776908, -32122.094288121974, -18217.632856086835, -8862.243159084697, -6817.662038524394, -19245.723694053137, -3923.424055984504, -22903.787839864235, 6801.859355194492, -20046.787863586887, -25957.125539437002, -6560.415811588266, -4119.091226946262, -10596.179735205144, -17605.19505801142, -0.185, 0.9400000000000001, 0.026000000000000002, 192.0, 0.0, 0.0, 0.0, 0.0, 0.0, 0.0, 0.0, 0.0, 0.0, 1.6730446043054981E9, 0.0, 2023-01-06 17:36:44.305
62.0, -18586.190770410394, -25435.905210483696, -32020.349147361416, -18244.320838966472, -8794.047986751555, -6789.275323066155, -19216.21939137213, -3885.850773555133, -22969.07728541819, 6423.55608028842, -20057.449645692068, -26041.861002667072, -6640.099780571435, -4011.60168786069, -10552.169150372643, -17588.76652583677, -0.185, 0.9400000000000001, 0.026000000000000002, 192.0, 0.0, 0.0, 0.0, 0.0, 0.0, 0.0, 0.0, 0.0, 0.0, 1.6730446043055038E9, 0.0, 2023-01-06 17:36:44.305
64.0, -18581.67571803042, -25397.63902397621, -32025.28888288604, -18183.322928347938, -8786.44839363675, -6767.191799544311, -19231.128004923823, -3889.784680579267, -22921.333959261654, 6587.081442723446, -20062.523491683423, -26019.039871578203, -6736.122874751434, -4127.607241583734, -10548.838740448802, -17601.641130643027, -0.185, 0.9400000000000001, 0.026000000000000002, 192.0, 0.0, 0.0, 0.0, 0.0, 0.0, 0.0, 0.0, 0.0, 0.0, 1.6730446043055096E9, 0.0, 2023-01-06 17:36:44.305
66.0, -18621.707692349875, -25449.22685017906, -32027.121725931374, -18218.661036331778, -8759.760410757115, -6766.476543721741, -19193.711184705637, -3870.9868634923537, -22878.150388973998, 6653.711992944717, -19992.67429026059, -25967.161472697437, -6739.140360252901, -4025.7279903564445, -10465.556140608329, -17536.37403683353, -0.1915, 0.9400000000000001, 0.029, 192.0, 124.5, 104.0, 14.5, 48.0, 0.5, 0.0, 0.0, 0.0, 0.0, 1.6730446043055153E9, 0.0, 2023-01-06 17:36:44.305
68.0, -18652.307230509192, -25500.166475792706, -32085.01274407062, -18291.214798833706, -8794.539725129573, -6789.789413188626, -19219.549801295972, -3918.461968715426, -23248.988181231998, 6372.325881996856, -20223.09842385035, -26147.495346962853, -6661.333937803976, -4120.946421736053, -10579.281816396931, -17638.588564227648, -0.1915, 0.9400000000000001, 0.029, 192.0, 0.0, 0.0, 0.0, 0.0, 0.0, 0.0, 0.0, 0.0, 0.0, 1.6730446043055212E9, 0.0, 2023-01-06 17:36:44.305
70.0, -18612.945808523396, -25469.030495766463, -32060.53758389206, -18273.646327691833, -8795.41144316333, -6778.613540960973, -19209.759737224547, -3878.809974051711, -22749.78432056717, 6612.338913957944, -20000.20682814203, -26073.600479793608, -6883.689091645371, -4139.1630934671275, -10492.311178721331, -17562.927909246435, -0.1915, 0.9400000000000001, 0.029, 192.0, 0.0, 0.0, 0.0, 0.0, 0.0, 0.0, 0.0, 0.0, 0.0, 1.6730446043055267E9, 0.0, 2023-01-06 17:36:44.305
72.0, -18637.30920997968, -25422.22594287705, -32111.566616483527, -18219.17512645425, -8829.31903950203, -6810.196555876321, -19248.96469699916, -3926.3521345081494, -22879.178569218944, 6914.1321675935, -20133.691446029123, -25987.412153173944, -6714.464034374241, -4089.3410550762483, -10587.820182778858, -17606.111479534087, -0.1915, 0.9400000000000001, 0.029, 192.0, 0.0, 0.0, 0.0, 0.0, 0.0, 0.0, 0.0, 0.0, 0.0, 1.6730446043055327E9, 0.0, 2023-01-06 17:36:44.305
74.0, -18539.52032798771, -25326.269903930417, -31955.685550652215, -18151.31523028794, -8787.588332603971, -6759.2345785182215, -19204.14944936627, -3877.200648450929, -22790.576254198106, 6795.623218491462, -20044.77620658591, -26031.892124640006, -6795.3326458135425, -4049.2196737789723, -10539.89804266668, -17589.660595614983, -0.1915, 0.9400000000000001, 0.029, 192.0, 0.0, 0.0, 0.0, 0.0, 0.0, 0.0, 0.0, 0.0, 0.0, 1.6730446043055384E9, 0.0, 2023-01-06 17:36:44.305
76.0, -18561.559148020646, -25344.330113450305, -31990.554272002493, -18152.812797166443, -8795.50085014115, -6777.1383258269225, -19235.821871259435, -3930.8895386325767, -22662.81368289157, 7142.388181971095, -19958.453769499512, -25868.769093605173, -6868.6463676269495, -4120.901718247142, -10490.03130078689, -17537.536327545207, -0.19175, 0.937, 0.0315, 192.0, 125.0, 0.0, 14.5, 24.0, 0.5, 8.0, 0.0, 0.0, 0.0, 1.6730446043055482E9, 0.0, 2023-01-06 17:36:44.305
78.0, -18581.34044186359, -25381.255195290472, -32004.121780886864, -18201.785469268023, -8771.897407996346, -6779.373500272453, -19230.256286890064, -3895.260857970817, -22712.479259071264, 6963.238950161809, -20023.698511564555, -25978.873786792017, -6807.603753519506, -4052.0806970692515, -10529.75035068397, -17578.61883385406, -0.19175, 0.937, 0.0315, 192.0, 0.0, 0.0, 0.0, 0.0, 0.0, 0.0, 0.0, 0.0, 0.0, 1.673044604305554E9, 0.0, 2023-01-06 17:36:44.305
80.0, -18618.377282426034, -25423.79056498892, -32062.48218565967, -18250.646382647323, -8819.059588797045, -6829.910794485902, -19249.076455721435, -3936.8574544021435, -22669.407447505888, 6937.780313227215, -20033.890907036177, -25998.722135868327, -6756.641776161406, -4030.9135950700756, -10537.819330432336, -17598.914217819478, -0.19175, 0.937, 0.0315, 192.0, 0.0, 0.0, 0.0, 0.0, 0.0, 0.0, 0.0, 0.0, 0.0, 1.67304460430556E9, 0.0, 2023-01-06 17:36:44.305
82.0, -18688.85233269362, -25483.223853495583, -32159.153480428875, -18279.502484739125, -8841.836016397003, -6844.081800470567, -19253.032714490022, -3949.3744312971157, -22756.422788670396, 6864.846571069547, -20120.392158078215, -26083.032915953747, -6722.644772844884, -4057.199246549517, -10602.259409696986, -17641.091959606645, -0.19175, 0.937, 0.0315, 192.0, 0.0, 0.0, 0.0, 0.0, 0.0, 0.0, 0.0, 0.0, 0.0, 1.6730446043055656E9, 0.0, 2023-01-06 17:36:44.305
84.0, -18723.76575753281, -25517.28791204547, -32156.5383263276, -18279.90481613932, -8793.489193140173, -6820.2101373923, -19252.943307512203, -3943.5629777387358, -22744.196384453346, 6823.808768249603, -20131.433919839135, -26065.509148300785, -6595.061015493991, -4014.6191733621567, -10580.175886175142, -17609.48659294684, -0.19175, 0.937, 0.0315, 192.0, 0.0, 0.0, 0.0, 0.0, 0.0, 0.0, 0.0, 0.0, 0.0, 1.6730446043055716E9, 0.0, 2023-01-06 17:36:44.305
86.0, -18772.023173811816, -25605.085564265915, -32162.46153860826, -18321.546116059555, -8832.068304070033, -6810.576535532062, -19262.71101983917, -3928.0285153422974, -23076.767990203858, 6633.260146768111, -20246.43364506169, -26165.533204738287, -6828.904965985414, -4021.771731587855, -10607.176793477154, -17630.139604823544, -0.183875, 0.9385000000000001, 0.02875, 192.0, 125.0, 64.0, 14.5, 48.0, 0.0, 104.0, 0.0, 0.0, 0.0, 1.6730446043055773E9, 0.0, 2023-01-06 17:36:44.305
88.0, -18724.346902888647, -25566.57350856942, -32098.848473888454, -18375.056192285563, -8822.814681865535, -6841.511349858207, -19258.777112815038, -3936.2092538129396, -22619.786574815105, 6367.967291828071, -20169.677754602166, -26232.364920659653, -6899.938809864379, -3990.12166143914, -10555.633670763216, -17616.10270930561, -0.183875, 0.9385000000000001, 0.02875, 192.0, 0.0, 0.0, 0.0, 0.0, 0.0, 0.0, 0.0, 0.0, 0.0, 1.673044604305583E9, 0.0, 2023-01-06 17:36:44.305
90.0, -18571.72919174781, -25293.99398493695, -31961.85463212188, -18141.703980172155, -8780.50282961164, -6776.0207386041575, -19213.80540297096, -3895.976113793387, -22553.200728082746, 7248.849540811723, -20064.15516902866, -26035.423700263942, -6810.576535532062, -3982.544420068791, -10546.961193914556, -17608.30195049071, -0.183875, 0.9385000000000001, 0.02875, 192.0, 0.0, 0.0, 0.0, 0.0, 0.0, 0.0, 0.0, 0.0, 0.0, 1.6730446043055887E9, 0.0, 2023-01-06 17:36:44.305
92.0, -18581.11692441904, -25333.936552278585, -31999.33850757343, -18176.59505326689, -8787.744794815158, -6768.845828634004, -19204.32826332191, -3895.1490992485406, -22483.865616782383, 7337.965945955032, -19965.85219691422, -25878.067419298583, -6838.873844012481, -3928.6767159315013, -10496.066271789823, -17545.962935204858, -0.183875, 0.9385000000000001, 0.02875, 192.0, 0.0, 0.0, 0.0, 0.0, 0.0, 0.0, 0.0, 0.0, 0.0, 1.6730446043055947E9, 0.0, 2023-01-06 17:36:44.305
94.0, -18629.486099420323, -25399.36010829927, -32040.644531326838, -18216.336454908425, -8808.621324136415, -6787.53188699864, -19212.643112259284, -3913.3881227240713, -22546.785777424073, 7085.078309187688, -20027.565363355323, -25983.969984527826, -6802.216983105777, -3982.2091439019614, -10535.874728664725, -17583.938549034425, -0.183875, 0.9385000000000001, 0.02875, 192.0, 0.0, 0.0, 0.0, 0.0, 0.0, 0.0, 0.0, 0.0, 0.0, 1.6730446043056004E9, 0.0, 2023-01-06 17:36:44.305
96.0, -18634.336427967122, -25405.126858368738, -32051.798051810034, -18220.627989843844, -8809.98478054819, -6799.87004993797, -19234.816042758946, -3918.7748931378, -22541.331951776978, 7067.666300257004, -20043.59156412978, -25998.09628702358, -6763.637872175917, -3925.592175196669, -10539.160435099655, -17585.123191490555, -0.17793750000000003, 0.94025, 0.024375, 192.0, 125.0, 80.0, 14.5, 56.0, 0.0, 80.0, 0.0, 0.0, 0.0, 1.673044604305606E9, 0.0, 2023-01-06 17:36:44.305
98.0, -18661.538500969233, -25427.83623073533, -32058.34711293544, -18220.583286354933, -8796.21610596372, -6798.1489656149115, -19233.47493809163, -3907.8672418436104, -22559.772140952606, 7033.937517873946, -20077.141532557194, -26032.942656629402, -6778.233561305233, -3980.26454213435, -10568.932958714124, -17618.047311073224, -0.17793750000000003, 0.94025, 0.024375, 192.0, 0.0, 0.0, 0.0, 0.0, 0.0, 0.0, 0.0, 0.0, 0.0, 1.6730446043056118E9, 0.0, 2023-01-06 17:36:44.305
100.0, -18652.709561909385, -25416.056861407385, -32044.10905171741, -18204.624140813845, -8822.0323708096, -6789.387081788431, -19236.537127082007, -3921.010067583331, -22530.066672571502, 7079.4903730738615, -20052.532261911903, -26007.260502250258, -6751.3667644699535, -3942.870073660621, -10534.198347830576, -17574.126133218542, -0.17793750000000003, 0.94025, 0.024375, 192.0, 0.0, 0.0, 0.0, 0.0, 0.0, 0.0, 0.0, 0.0, 0.0, 1.6730446043056176E9, 0.0, 2023-01-06 17:36:44.305
102.0, -18646.540480439722, -25407.8984746812, -32017.510475815594, -18177.511474789557, -8793.600951862449, -6755.0100988161685, -19212.643112259284, -3878.675863584979, -22520.008387566613, 7089.2357336563755, -20049.134796754694, -26001.67256613643, -6749.712735380261, -3952.0566406317525, -10535.807673431358, -17569.745191305305, -0.17793750000000003, 0.94025, 0.024375, 192.0, 0.0, 0.0, 0.0, 0.0, 0.0, 0.0, 0.0, 0.0, 0.0, 1.6730446043056245E9, 0.0, 2023-01-06 17:36:44.305
104.0, -18670.032163862248, -25437.55923957339, -32034.140173690343, -18201.293730890004, -8788.795326804558, -6755.501837194185, -19240.627496317327, -3906.5484889207473, -22516.07448054248, 7104.88195477509, -20044.843261819275, -26004.086554537604, -6728.9479647812805, -3945.552282995258, -10519.93793486809, -17547.147577660988, -0.17793750000000003, 0.94025, 0.024375, 192.0, 0.0, 0.0, 0.0, 0.0, 0.0, 0.0, 0.0, 0.0, 0.0, 1.6730446043056312E9, 0.0, 2023-01-06 17:36:44.305
106.0, -18668.46754175038, -25445.583515832845, -32018.24808338262, -18198.03037619953, -8759.894521223847, -6769.739898412216, -19234.637228803305, -3912.292887245761, -22515.783907864563, 7094.175469180998, -20053.851014834763, -26014.144839542492, -6734.804121828571, -3964.1936378709843, -10526.41994076013, -17570.43809538342, -0.18296875, 0.9441250000000001, 0.0241875, 192.0, 125.0, 16.0, 14.5, 80.0, 0.0, 96.0, 0.0, 0.0, 0.0, 1.6730446043056388E9, 0.0, 2023-01-06 17:36:44.305
108.0, -18687.287710581746, -25467.979963777063, -32034.140173690343, -18225.612428857377, -8777.105364454432, -6806.3073523410985, -19251.781016800527, -3928.1179223201184, -22519.78487012206, 7092.253219157841, -20056.265003235938, -26035.468403752853, -6715.983952997202, -3977.7611467553556, -10519.334437767797, -17570.303984916685, -0.18296875, 0.9441250000000001, 0.0241875, 192.0, 0.0, 0.0, 0.0, 0.0, 0.0, 0.0, 0.0, 0.0, 0.0, 1.6730446043056483E9, 0.0, 2023-01-06 17:36:44.305
110.0, -18676.08948660964, -25458.36871366128, -32021.1091066729, -18222.349074166905, -8786.068413981011, -6793.477451023752, -19255.625516846838, -3915.48918670287, -22526.579800436473, 7092.677902302493, -20056.98025905851, -26029.969874616847, -6706.439758114786, -3990.6581033060675, -10530.89028965119, -17587.96186303638, -0.18296875, 0.9441250000000001, 0.0241875, 192.0, 0.0, 0.0, 0.0, 0.0, 0.0, 0.0, 0.0, 0.0, 0.0, 1.673044604305656E9, 0.0, 2023-01-06 17:36:44.305
112.0, -18663.281937036747, -25444.175355932162, -32013.822437980467, -18216.89524851981, -8768.857570750424, -6801.591134261029, -19244.226127174632, -3889.069424756697, -22523.74112889065, 7115.208460713442, -20039.232973960992, -26028.561714716165, -6685.652635771351, -3970.250960618372, -10525.592926215282, -17570.460447127873, -0.18296875, 0.9441250000000001, 0.0241875, 192.0, 0.0, 0.0, 0.0, 0.0, 0.0, 0.0, 0.0, 0.0, 0.0, 1.6730446043056643E9, 0.0, 2023-01-06 17:36:44.305
114.0, -18654.78827414373, -25437.08985293983, -32018.337490360438, -18212.648417073302, -8749.59036702995, -6774.299654281099, -19239.040522461, -3888.6447416120463, -22545.981114623683, 7128.440693430984, -20041.646962362167, -26009.629787162517, -6675.594350766462, -3966.652329761068, -10545.150702613677, -17585.39141242402, -0.18296875, 0.9441250000000001, 0.0241875, 192.0, 0.0, 0.0, 0.0, 0.0, 0.0, 0.0, 0.0, 0.0, 0.0, 1.67304460430567E9, 0.0, 2023-01-06 17:36:44.305
116.0, -18638.382093713535, -25421.354224843293, -32004.68057449825, -18202.679539046232, -8776.948902243246, -6783.195648574311, -19241.38745562881, -3887.884782300566, -22559.190995596768, 7137.202577257464, -20028.705302322545, -26008.221627261835, -6666.363080306421, -3960.326786080216, -10549.978679416023, -17575.936624519425, -0.185484375, 0.9460625, 0.02409375, 192.0, 125.0, 16.0, 14.5, 80.0, 0.0, 96.0, 0.0, 0.0, 0.0, 1.6730446043056767E9, 0.0, 2023-01-06 17:36:44.305
118.0, -18633.73293086683, -25422.829439977344, -32006.021679165566, -18198.32094887745, -8802.586353133483, -6784.313235797076, -19245.835452775413, -3900.5358696622698, -22584.984908698192, 7135.369734212129, -20025.86663077672, -25986.361621184544, -6643.452542239731, -3974.6095507871573, -10551.006859660967, -17599.025976541758, -0.185484375, 0.9460625, 0.02409375, 192.0, 0.0, 0.0, 0.0, 0.0, 0.0, 0.0, 0.0, 0.0, 0.0, 1.6730446043056827E9, 0.0, 2023-01-06 17:36:44.305
120.0, -18629.21787848686, -25421.197762632106, -31996.0528011385, -18185.803971982477, -8787.253056437143, -6790.907000411392, -19229.652789789772, -3862.2920348992393, -22601.681661806306, 7134.69918187847, -20020.211639429526, -25997.492789923286, -6622.419550707287, -3962.45020180347, -10536.724094954026, -17574.729630318838, -0.185484375, 0.9460625, 0.02409375, 192.0, 0.0, 0.0, 0.0, 0.0, 0.0, 0.0, 0.0, 0.0, 0.0, 1.6730446043056886E9, 0.0, 2023-01-06 17:36:44.305
122.0, -18630.648390132, -25423.499992311, -31998.265623839576, -18190.699004018188, -8791.209315205731, -6773.070308336057, -19219.99683618508, -3856.4805813408593, -22617.037310247102, 7134.69918187847, -20021.239819674473, -25979.85726354805, -6631.896690356338, -3965.8923704495874, -10531.247917562476, -17574.260243685276, -0.185484375, 0.9460625, 0.02409375, 192.0, 0.0, 0.0, 0.0, 0.0, 0.0, 0.0, 0.0, 0.0, 0.0, 1.6730446043056943E9, 0.0, 2023-01-06 17:36:44.305
124.0, -18641.824262359652, -25437.246315151016, -32012.034298424045, -18203.439498357715, -8777.954730743735, -6794.036244635135, -19227.059987432956, -3871.0315669812644, -22656.555194444085, 7113.5991351126595, -20033.801500058355, -26011.52968544122, -6623.604193163418, -3978.7222717669338, -10532.544318740884, -17571.175702950444, -0.185484375, 0.9460625, 0.02409375, 192.0, 0.0, 0.0, 0.0, 0.0, 0.0, 0.0, 0.0, 0.0, 0.0, 1.6730446043057003E9, 0.0, 2023-01-06 17:36:44.305
126.0, -18604.563904352653, -25396.96847164255, -31983.871100410357, -18186.89920746079, -8744.225948360676, -6759.703965151783, -19195.544027750973, -3848.3445463591274, -22691.40156404991, 7111.431015900495, -20037.19896521556, -25996.442257933886, -6601.766538830583, -3980.957446212464, -10528.163376827642, -17572.874435529047, -0.185484375, 0.9460625, 0.02409375, 192.0, 0.0, 0.0, 0.0, 0.0, 0.0, 0.0, 0.0, 0.0, 0.0, 1.6730446043057063E9, 0.0, 2023-01-06 17:36:44.305
128.0, -18622.82527957264, -25412.704099739087, -32018.67276652727, -18228.495803892114, -8793.824469307003, -6779.082927594534, -19227.32820836642, -3848.3445463591274, -22711.98752069325, 7107.877088532101, -20024.749043553955, -26000.823199847127, -6567.9930529586145, -3978.230533388917, -10506.37042598372, -17554.81422600916, -0.182, 0.906, 0.0, 192.0, 125.0, 40.0, 14.0, 40.0, 0.0, 0.0, 0.0, 0.0, 0.0, 1.673044604305712E9, 0.0, 2023-01-06 17:36:44.305
130.0, -18616.790308569707, -25408.32315782585, -32013.129533902353, -18229.41222541478, -8751.602024030928, -6772.153886813389, -19222.99196994209, -3852.323156872172, -22759.753198594237, 7056.356317562619, -20042.898660051666, -26010.47915345182, -6577.179619929746, -4000.2693534218497, -10518.46271973404, -17570.929833761435, -0.182, 0.906, 0.0, 192.0, 0.0, 0.0, 0.0, 0.0, 0.0, 0.0, 0.0, 0.0, 0.0, 1.6730446043057177E9, 0.0, 2023-01-06 17:36:44.305
132.0, -18637.01863730176, -25427.433899335134, -32016.459943826194, -18222.863164289378, -8757.413477589307, -6781.206343317788, -19220.533278052008, -3845.1258951575633, -22812.45861201985, 6997.034787778233, -20051.839357833785, -26033.680264196428, -6587.64023633483, -3998.2129929319613, -10521.122577324222, -17579.870531543558, -0.182, 0.906, 0.0, 192.0, 0.0, 0.0, 0.0, 0.0, 0.0, 0.0, 0.0, 0.0, 0.0, 1.6730446043057237E9, 0.0, 2023-01-06 17:36:44.305
134.0, -18619.53957313771, -25421.89066671022, -31991.157769102785, -18195.057594186976, -8776.88184700988, -6801.926410427858, -19200.081431875402, -3844.0530114237085, -22826.22728660432, 6973.565456100161, -20025.19607844306, -25991.90485380946, -6567.143686669313, -3985.517202081347, -10501.475393948007, -17553.115493430556, -0.182, 0.906, 0.0, 192.0, 0.0, 0.0, 0.0, 0.0, 0.0, 0.0, 0.0, 0.0, 0.0, 1.6730446043057292E9, 0.0, 2023-01-06 17:36:44.305
136.0, -18641.712503637376, -25461.967344518584, -31992.72239121466, -18194.31998661995, -8784.280274424586, -6771.192761801811, -19205.08822263339, -3828.89852868301, -22866.95216500189, 6912.969876881823, -20028.079453477796, -26009.38391797351, -6545.149570125291, -4006.103158724685, -10504.850507360758, -17557.362324877064, -0.182, 0.906, 0.0, 192.0, 0.0, 0.0, 0.0, 0.0, 0.0, 0.0, 0.0, 0.0, 0.0, 1.6730446043057349E9, 0.0, 2023-01-06 17:36:44.305
138.0, -18635.722236123354, -25458.726341572565, -32008.14509488882, -18202.88070474633, -8811.236478237686, -6822.892346726936, -19217.001702428068, -3856.1900086629403, -22876.608118606582, 6879.442260198863, -20013.14848818165, -25988.19446422988, -6530.19625308469, -4016.161443729573, -10498.524963679905, -17545.918231715947, -0.178, 0.936, 0.01, 192.0, 125.0, 56.0, 14.5, 32.0, 0.0, 40.0, 0.0, 0.0, 0.0, 1.6730446043057408E9, 0.0, 2023-01-06 17:36:44.305
140.0, -18681.342146556635, -25504.323900261392, -32027.188781164743, -18224.673655590257, -8764.320166625997, -6824.300506627621, -19222.27671411952, -3884.6884828434568, -22961.477692303382, 6767.884703622425, -20081.76834365944, -26060.01061916478, -6569.982358215137, -4090.123366132184, -10557.734734742015, -17616.885020361548, -0.178, 0.936, 0.01, 192.0, 0.0, 0.0, 0.0, 0.0, 0.0, 0.0, 0.0, 0.0, 0.0, 1.673044604305748E9, 0.0, 2023-01-06 17:36:44.305
142.0, -18625.30632320718, -25447.03637922244, -31983.312306798973, -18175.34335557739, -8759.045154934545, -6776.57953221554, -19184.54696947896, -3805.4739004938488, -22928.86649714309, 6781.34045378452, -20024.10084296475, -25995.637595133496, -6507.285715018001, -4040.860121352687, -10496.803879356847, -17549.561566062162, -0.178, 0.936, 0.01, 192.0, 0.0, 0.0, 0.0, 0.0, 0.0, 0.0, 0.0, 0.0, 0.0, 1.6730446043057537E9, 0.0, 2023-01-06 17:36:44.305
144.0, -18626.043930774205, -25454.233640937047, -31961.921687355243, -18156.478483257113, -8730.121997609378, -6776.4901252377185, -19177.573225208907, -3815.778054687745, -22932.44277625594, 6724.142339723389, -20021.32922665229, -25999.213874246347, -6502.52479344902, -4059.546179717324, -10494.971036311512, -17547.23698463881, -0.178, 0.936, 0.01, 192.0, 0.0, 0.0, 0.0, 0.0, 0.0, 0.0, 0.0, 0.0, 0.0, 1.6730446043057594E9, 0.0, 2023-01-06 17:36:44.305
146.0, -18651.077884564147, -25490.219949510094, -32001.707792485693, -18204.467678602658, -8725.763407440592, -6813.638724522439, -19211.14554538078, -3861.845000010133, -22923.8597063851, 6703.735197035694, -20001.5702845538, -25981.62305136002, -6485.224543240613, -4047.2080167779945, -10481.492934404961, -17527.992132662792, -0.178, 0.936, 0.01, 192.0, 0.0, 0.0, 0.0, 0.0, 0.0, 0.0, 0.0, 0.0, 0.0, 1.6730446043057652E9, 0.0, 2023-01-06 17:36:44.305
148.0, -18654.140073554525, -25498.08776355836, -32018.896283971822, -18204.959416980677, -8742.281346593065, -6796.517288269674, -19200.930798164703, -3805.652714449491, -22999.185085199486, 6590.389500902832, -20064.937480084598, -26045.25846782428, -6525.412979771255, -4147.34383193777, -10531.471435007028, -17590.62172062656, -0.176, 0.9400000000000001, 0.016, 192.0, 125.0, 64.0, 14.5, 48.0, 0.0, 64.0, 0.0, 0.0, 0.0, 1.673044604305771E9, 0.0, 2023-01-06 17:36:44.305
150.0, -18606.642616587, -25441.89547799772, -31997.349202316906, -18175.723335233135, -8733.005372644111, -6783.396814274409, -19189.93373989269, -3816.917993654966, -22964.74104699386, 6629.460350210709, -20016.076566705295, -25987.300394451668, -6481.402394938755, -4074.8794764136646, -10493.674635133104, -17532.127205387023, -0.176, 0.9400000000000001, 0.016, 192.0, 0.0, 0.0, 0.0, 0.0, 0.0, 0.0, 0.0, 0.0, 0.0, 1.6730446043057768E9, 0.0, 2023-01-06 17:36:44.305
152.0, -18655.79410264422, -25484.31908897389, -32032.732013789657, -18221.522059622057, -8744.181244871765, -6807.804919219604, -19203.434193543697, -3839.4485520659155, -23004.393041657575, 6558.091230164913, -20051.81700608933, -26012.736679641806, -6525.703552449174, -4115.514947833413, -10533.013705374446, -17588.498304903307, -0.176, 0.9400000000000001, 0.016, 192.0, 0.0, 0.0, 0.0, 0.0, 0.0, 0.0, 0.0, 0.0, 0.0, 1.6730446043057826E9, 0.0, 2023-01-06 17:36:44.305
154.0, -18599.4900583613, -25430.809012747886, -31988.9002429128, -18173.085829387408, -8738.25803259111, -6755.323023238543, -19178.55670196494, -3795.37091200005, -22987.45041936045, 6555.319613852455, -20020.613970829723, -25988.95442354136, -6509.207965041157, -4102.975619193986, -10510.751367896959, -17560.022182467244, -0.176, 0.9400000000000001, 0.016, 192.0, 0.0, 0.0, 0.0, 0.0, 0.0, 0.0, 0.0, 0.0, 0.0, 1.6730446043057885E9, 0.0, 2023-01-06 17:36:44.305
156.0, -18616.991474269806, -25447.863393767286, -31981.61357422037, -18172.54938752048, -8719.236698059643, -6798.216020848277, -19182.825885155904, -3822.0588948796867, -22986.60105307115, 6526.150587338279, -20009.639264302168, -25972.90587102245, -6510.794938897484, -4115.224375155494, -10500.000178813956, -17563.084371457622, -0.176, 0.9400000000000001, 0.016, 192.0, 0.0, 0.0, 0.0, 0.0, 0.0, 0.0, 0.0, 0.0, 0.0, 1.673044604305794E9, 0.0, 2023-01-06 17:36:44.305
158.0, -18644.126492038547, -25470.036324266952, -32000.14317037382, -18185.64750977129, -8727.35038129692, -6822.5123670711955, -19208.105708134855, -3837.5039502983036, -23016.954722041457, 6504.581153938909, -20029.15233721165, -25999.795019602185, -6554.626709774341, -4104.227316883483, -10508.247972517966, -17573.0979529736, -0.186, 0.9400000000000001, 0.012, 192.0, 125.0, 24.0, 14.5, 48.0, 0.0, 48.0, 0.0, 0.0, 0.0, 1.6730446043057997E9, 0.0, 2023-01-06 17:36:44.305
160.0, -18635.051683789694, -25466.61650736529, -31984.228728321643, -18184.529922548525, -8722.67886670576, -6825.686314783849, -19201.869571431824, -3815.3086680541837, -23020.84392557668, 6458.536560360976, -20031.63338084619, -25998.029231790213, -6525.9047181492715, -4151.367145939726, -10520.27321103492, -17585.86079905758, -0.186, 0.9400000000000001, 0.012, 192.0, 0.0, 0.0, 0.0, 0.0, 0.0, 0.0, 0.0, 0.0, 0.0, 1.6730446043058057E9, 0.0, 2023-01-06 17:36:44.305
162.0, -18597.52310484923, -25424.617579533766, -31947.616570903847, -18135.82547138041, -8707.189107798233, -6764.084907065023, -19166.866739614816, -3783.4127287164606, -22992.680727562994, 6486.118613018824, -19993.791877483356, -25972.011801244236, -6515.734674422107, -4110.351694864237, -10483.079908261288, -17542.364304347553, -0.186, 0.9400000000000001, 0.012, 192.0, 0.0, 0.0, 0.0, 0.0, 0.0, 0.0, 0.0, 0.0, 0.0, 1.6730446043058116E9, 0.0, 2023-01-06 17:36:44.305
164.0, -18642.15953852648, -25473.70201035762, -31984.675763210747, -18171.476503786624, -8716.77800616956, -6810.822404721071, -19200.684928975694, -3815.6662959654686, -23002.873123034613, 6471.589979122875, -20002.889037476663, -25959.204251671345, -6540.72392472314, -4115.246726899949, -10494.211077000033, -17554.36719112005, -0.186, 0.9400000000000001, 0.012, 192.0, 0.0, 0.0, 0.0, 0.0, 0.0, 0.0, 0.0, 0.0, 0.0, 1.6730446043058176E9, 0.0, 2023-01-06 17:36:44.305
166.0, -18643.12066353806, -25478.015897037494, -31979.1995858192, -18169.621308996833, -8739.688544236249, -6803.647494750917, -19194.292330061475, -3799.260115535273, -23035.28315249481, 6430.149844902736, -20029.889944778675, -26002.410173703454, -6560.147590654802, -4124.790921782365, -10506.03514981689, -17563.218481924356, -0.186, 0.9400000000000001, 0.012, 192.0, 0.0, 0.0, 0.0, 0.0, 0.0, 0.0, 0.0, 0.0, 0.0, 1.6730446043058236E9, 0.0, 2023-01-06 17:36:44.305
0.0, -9200.939142815965, -12540.446226650027, -15990.460335071128, -8297.92866682156, -4309.438682727657, -3239.103047740823, -9369.42659252007, -2246.0820968248963, -11511.506022394422, 3216.371323629776, -10012.285114799157, -12989.582179734967, -3268.4061847217304, -2069.9727022615316, -5248.122542872732, -8779.049966222045, -0.231, 0.907, 0.044, 192.0, 123.5, 48.0, 13.5, 40.0, 1.0, 48.0, 0.0, 0.0, 0.0, 1.6730446048981364E9, 0.0, 2023-01-06 17:36:44.898
2.0, -18410.55076248059, -25094.68347962898, -32002.892434941823, -16633.16239513903, -8599.788975690482, -6501.027226570514, -18766.010554553337, -4498.5120890750995, -23074.175187847042, 6407.485176025054, -19858.18384387301, -25379.154131311672, -6430.261603625012, -3923.044076328764, -10279.611978484629, -17529.0873681411, -0.231, 0.907, 0.044, 192.0, 0.0, 0.0, 0.0, 0.0, 0.0, 0.0, 0.0, 0.0, 0.0, 1.673044604898164E9, 0.0, 2023-01-06 17:36:44.898
4.0, -18386.857913357962, -25071.795293306746, -32004.077077397953, -16640.29260162027, -8612.46241479664, -6459.721202817107, -18849.673134049553, -4478.641388254331, -23059.244222550897, 6406.367588802289, -19849.421960046526, -25403.249311834494, -6404.98178064606, -3919.3113350047274, -10269.643100457562, -17517.307998813154, -0.231, 0.907, 0.044, 192.0, 0.0, 0.0, 0.0, 0.0, 0.0, 0.0, 0.0, 0.0, 0.0, 1.673044604898208E9, 0.0, 2023-01-06 17:36:44.898
6.0, -18419.98319864073, -25105.904055345545, -32064.315028705005, -16701.670491894543, -8677.327177205942, -6495.305179989956, -18935.861460669217, -4524.797740554541, -23079.740772216413, 6405.250001579524, -19873.472437080436, -25396.521436753446, -6432.943812959649, -3954.4706290329254, -10329.255202919865, -17548.399275350486, -0.231, 0.907, 0.044, 192.0, 0.0, 0.0, 0.0, 0.0, 0.0, 0.0, 0.0, 0.0, 0.0, 1.6730446048982244E9, 0.0, 2023-01-06 17:36:44.898
8.0, -18388.73545989221, -25078.880796299076, -32031.033281211054, -16668.768724056332, -8606.338036815887, -6456.636662082275, -18745.80457756574, -4509.933830491761, -23087.027440908845, 6392.26363805099, -19881.854341251175, -25423.32117835536, -6443.695002042652, -3959.432716302004, -10322.66143830555, -17559.28457490022, -0.278, 0.8300000000000001, 0.088, 192.0, 123.5, 40.0, 12.5, 120.0, 1.0, 96.0, 0.0, 0.0, 0.0, 1.6730446048982396E9, 0.0, 2023-01-06 17:36:44.898
10.0, -18412.60712297048, -25112.520171704313, -32040.66688307129, -16668.612261845145, -8639.150397676278, -6487.325607219411, -18796.14070607909, -4530.363324923912, -23069.548376744795, 6410.256792337513, -19860.26255610735, -25376.717791166044, -6432.787350748462, -3940.545492237269, -10268.346699279155, -17534.541193788195, -0.278, 0.8300000000000001, 0.088, 192.0, 0.0, 0.0, 0.0, 0.0, 0.0, 0.0, 0.0, 0.0, 0.0, 1.673044604898278E9, 0.0, 2023-01-06 17:36:44.898
12.0, -18401.744175165197, -25117.25874152884, -32009.843827467423, -16618.81257519872, -8621.313705600942, -6471.813496567428, -18851.461273605975, -4527.926984778283, -23095.252882868397, 6383.322940268868, -19871.37137310164, -25399.293053065903, -6436.900071728239, -3964.26069310435, -10286.965702410425, -17549.002772450778, -0.278, 0.8300000000000001, 0.088, 192.0, 0.0, 0.0, 0.0, 0.0, 0.0, 0.0, 0.0, 0.0, 0.0, 1.6730446048983252E9, 0.0, 2023-01-06 17:36:44.898
14.0, -18418.217410828758, -25155.904907692064, -32007.541597788528, -16602.85342965763, -8645.028906468024, -6466.627891853797, -18849.091988693715, -4558.772392126607, -23081.797132706302, 6400.042045121437, -19854.138178126595, -25362.07739854782, -6417.655219752219, -3960.170323869029, -10284.75287970935, -17540.0397229242, -0.278, 0.8300000000000001, 0.088, 192.0, 0.0, 0.0, 0.0, 0.0, 0.0, 0.0, 0.0, 0.0, 0.0, 1.6730446048983307E9, 0.0, 2023-01-06 17:36:44.898
16.0, -18402.660596687867, -25156.374294325626, -31969.7447979146, -16542.861347539587, -8627.952173704169, -6460.794086550962, -18851.72949453944, -4543.573205896999, -23093.42003982306, 6394.208239818602, -19861.089570652195, -25366.39128522769, -6422.527900043476, -3957.555169767758, -10278.248522072856, -17534.65295251047, -0.278, 0.8300000000000001, 0.088, 192.0, 0.0, 0.0, 0.0, 0.0, 0.0, 0.0, 0.0, 0.0, 0.0, 1.6730446048983362E9, 0.0, 2023-01-06 17:36:44.898
18.0, -18422.955980653285, -25190.617166831158, -31991.001306891598, -16568.297632729726, -8649.454551870174, -6486.610351396841, -18885.435925178044, -4567.668386419819, -23093.71061250098, 6401.807832933407, -19864.330573598218, -25341.15616573765, -6424.0031151775265, -3958.3821843126043, -10281.534228507786, -17530.495528041785, -0.294, 0.916, 0.14200000000000002, 192.0, 123.0, 104.0, 14.0, 80.0, 2.0, 56.0, 0.0, 0.0, 0.0, 1.6730446048983417E9, 0.0, 2023-01-06 17:36:44.898
20.0, -18386.343823235493, -25151.12163437863, -31931.8362393184, -16539.508585871292, -8621.559574789952, -6415.867080195794, -18850.2989828943, -4566.059060819038, -23105.780554506848, 6389.067338593882, -19875.305280125773, -25362.88206134821, -6422.907879699216, -3977.2247048884283, -10278.472039517408, -17543.638353781505, -0.294, 0.916, 0.14200000000000002, 192.0, 0.0, 0.0, 0.0, 0.0, 0.0, 0.0, 0.0, 0.0, 0.0, 1.6730446048983471E9, 0.0, 2023-01-06 17:36:44.898
22.0, -18384.22040751224, -25141.01864588483, -31939.27937022202, -16548.426931908958, -8590.535353485984, -6435.961298461116, -18904.121983542682, -4530.586842368465, -23073.012897135366, 6447.137170688769, -19845.376294300117, -25319.854953271744, -6399.9973416325265, -3949.5979487416685, -10248.543053691752, -17505.640388207485, -0.294, 0.916, 0.14200000000000002, 192.0, 0.0, 0.0, 0.0, 0.0, 0.0, 0.0, 0.0, 0.0, 0.0, 1.6730446048983524E9, 0.0, 2023-01-06 17:36:44.898
24.0, -18367.79187533759, -25127.182916066995, -31933.244399219086, -16545.6553155965, -8620.486691056096, -6449.394696878755, -18903.138506786647, -4592.679988465308, -23088.457952553985, 6437.548272317443, -19857.848567706176, -25333.333055178293, -6401.539611999943, -3957.9798529124087, -10264.099867832645, -17513.977588889313, -0.294, 0.916, 0.14200000000000002, 192.0, 0.0, 0.0, 0.0, 0.0, 0.0, 0.0, 0.0, 0.0, 0.0, 1.673044604898358E9, 0.0, 2023-01-06 17:36:44.898
26.0, -18369.758828849655, -25125.0818520882, -31949.36000697136, -16568.118818774085, -8611.903621185258, -6440.498702585543, -18915.54372495934, -4555.062002547026, -23074.644574480604, 6471.098240744858, -19842.7834919433, -25307.740307776967, -6377.019748332471, -3930.040172343275, -10248.118370547101, -17504.500449240262, -0.294, 0.916, 0.14200000000000002, 192.0, 0.0, 0.0, 0.0, 0.0, 0.0, 0.0, 0.0, 0.0, 0.0, 1.6730446048983636E9, 0.0, 2023-01-06 17:36:44.898
28.0, -18351.855081540954, -25107.312215246227, -31928.505829394562, -16547.823434808666, -8608.908487428247, -6424.964240189104, -18925.467899497497, -4587.404976773855, -23089.62024326566, 6457.888359771772, -19863.101227653173, -25316.278674158893, -6381.26657977898, -3949.7991144417665, -10262.89287363206, -17512.2341528218, -0.28400000000000003, 0.924, 0.14200000000000002, 192.0, 123.5, 16.0, 14.0, 112.0, 2.0, 56.0, 0.0, 0.0, 0.0, 1.6730446048983693E9, 0.0, 2023-01-06 17:36:44.898
30.0, -18326.642313795368, -25081.764171333813, -31923.65550084776, -16538.59216434862, -8598.291408811976, -6449.75232479004, -18946.769111963407, -4607.230974105713, -23049.074178823732, 6503.66473241624, -19829.573610970212, -25277.230176595473, -6342.508654893477, -3918.461968715426, -10220.245745211334, -17479.891178594968, -0.28400000000000003, 0.924, 0.14200000000000002, 192.0, 0.0, 0.0, 0.0, 0.0, 0.0, 0.0, 0.0, 0.0, 0.0, 1.6730446048983746E9, 0.0, 2023-01-06 17:36:44.898
32.0, -18335.583011577488, -25088.402639437038, -31922.157933969254, -16541.989629505828, -8577.593693446363, -6446.600728821842, -18949.585431764775, -4614.115311397947, -23075.650402981093, 6479.502496660054, -19854.89813743808, -25281.700525486533, -6416.112949384803, -3943.6747364610123, -10263.116391076612, -17506.1321265855, -0.28400000000000003, 0.924, 0.14200000000000002, 192.0, 0.0, 0.0, 0.0, 0.0, 0.0, 0.0, 0.0, 0.0, 0.0, 1.67304460489838E9, 0.0, 2023-01-06 17:36:44.898
34.0, -18321.90374397084, -25075.639793353057, -31904.41064887174, -16534.65825732449, -8537.1146842378, -6475.792107080473, -18937.403731036633, -4613.422407319833, -23041.295771753284, 6518.238069801101, -19815.11203230763, -25246.027141335864, -6321.8109395278625, -3899.86531732861, -10222.771492334783, -17469.899948823448, -0.28400000000000003, 0.924, 0.14200000000000002, 192.0, 0.0, 0.0, 0.0, 0.0, 0.0, 0.0, 0.0, 0.0, 0.0, 1.6730446048983855E9, 0.0, 2023-01-06 17:36:44.898
36.0, -18327.58108706249, -25085.720430102403, -31896.16285516773, -16536.08876896963, -8617.960943932647, -6511.309029019956, -18972.808894253838, -4631.214395906258, -23058.216042305954, 6491.661845643741, -19832.166413327028, -25253.89495538413, -6346.621375873253, -3923.2228902844063, -10241.569309421697, -17494.129239813, -0.28400000000000003, 0.924, 0.14200000000000002, 192.0, 0.0, 0.0, 0.0, 0.0, 0.0, 0.0, 0.0, 0.0, 0.0, 1.6730446048983924E9, 0.0, 2023-01-06 17:36:44.898
38.0, -18307.77744147509, -25068.017848493797, -31894.575881311404, -16524.868193253064, -8554.88432107977, -6488.353787464355, -18970.506664574943, -4627.101674926481, -23029.73991986989, 6523.580136725919, -19805.433726958483, -25236.572353431267, -6318.279363903924, -3902.882802830077, -10207.661713082995, -17463.417942931406, -0.302, 0.9540000000000001, 0.128, 192.0, 123.0, 72.0, 14.5, 104.0, 2.0, 0.0, 0.0, 0.0, 0.0, 1.673044604898398E9, 0.0, 2023-01-06 17:36:44.898
40.0, -18308.09036589746, -25071.281203184273, -31885.16579689572, -16516.821565249153, -8601.867687924825, -6508.693874918685, -18974.3288128768, -4669.547637647109, -23042.88274560961, 6504.447043472176, -19819.269456776317, -25232.414928962582, -6357.931358567639, -3925.1451403075625, -10220.961001033904, -17480.002937317247, -0.302, 0.9540000000000001, 0.128, 192.0, 0.0, 0.0, 0.0, 0.0, 0.0, 0.0, 0.0, 0.0, 0.0, 1.673044604898414E9, 0.0, 2023-01-06 17:36:44.898
42.0, -18277.557882971512, -25050.829357007668, -31862.367017551307, -16491.631149248024, -8582.376966759797, -6507.57628769592, -18961.163635392622, -4642.837303023017, -23011.187971971987, 6547.675317248741, -19787.082944760674, -25209.7502600849, -6300.845003228785, -3869.534000102759, -10193.133079187046, -17443.301372921633, -0.302, 0.9540000000000001, 0.128, 192.0, 0.0, 0.0, 0.0, 0.0, 0.0, 0.0, 0.0, 0.0, 0.0, 1.6730446048984194E9, 0.0, 2023-01-06 17:36:44.898
44.0, -18302.81535420601, -25075.662145097514, -31901.013183714535, -16530.79140553372, -8549.341088454854, -6549.888139949816, -19012.885572062205, -4749.589234541564, -23006.762326569835, 6516.00289535557, -19792.8720465746, -25210.040832762817, -6300.397968339678, -3910.7282651338896, -10221.296277200732, -17467.44125693336, -0.302, 0.9540000000000001, 0.128, 192.0, 0.0, 0.0, 0.0, 0.0, 0.0, 0.0, 0.0, 0.0, 0.0, 1.673044604898425E9, 0.0, 2023-01-06 17:36:44.898
46.0, -18269.08657182295, -25038.67000802398, -31861.517651262006, -16490.781782958722, -8540.914480795203, -6502.8377178713945, -19001.217961456536, -4677.1919342508245, -22995.094715964166, 6533.861939175361, -19785.317156948706, -25216.7016526105, -6316.267706902946, -3885.649607855035, -10205.650056082017, -17461.249823719245, -0.302, 0.9540000000000001, 0.128, 192.0, 0.0, 0.0, 0.0, 0.0, 0.0, 0.0, 0.0, 0.0, 0.0, 1.6730446048984303E9, 0.0, 2023-01-06 17:36:44.898
48.0, -18312.828935721987, -25086.234520224873, -31915.944149010676, -16536.714617814378, -8544.714277352605, -6520.316782035445, -19045.988505600515, -4655.734259573729, -22992.032526973788, 6525.457683260165, -19790.234540728874, -25202.41888790356, -6340.765218825963, -3893.740939347856, -10199.838602523638, -17432.773701283182, -0.274, 0.9440000000000001, 0.10200000000000001, 192.0, 123.5, 56.0, 14.5, 64.0, 1.5, 24.0, 0.0, 0.0, 0.0, 1.673044604898436E9, 0.0, 2023-01-06 17:36:44.898
50.0, -18305.117583884905, -25079.23842421036, -31898.867416246823, -16526.723388042854, -8583.740423171572, -6513.253630787567, -19031.52692693793, -4680.835268597039, -23001.822591045213, 6493.829964855906, -19815.737881152378, -25249.268144281883, -6312.356151623268, -3918.2831547597834, -10209.382797406053, -17452.733809081772, -0.274, 0.9440000000000001, 0.10200000000000001, 192.0, 0.0, 0.0, 0.0, 0.0, 0.0, 0.0, 0.0, 0.0, 0.0, 1.6730446048984413E9, 0.0, 2023-01-06 17:36:44.898
52.0, -18342.422645380815, -25128.076985845208, -31952.08691979491, -16579.89818810203, -8593.75400468755, -6558.448858076198, -19064.987488387524, -4717.64859171493, -23004.88478003559, 6466.672595342708, -19829.037169103285, -25246.965914602988, -6283.567104764832, -3927.648535686557, -10215.194250964434, -17463.060315020124, -0.274, 0.9440000000000001, 0.10200000000000001, 192.0, 0.0, 0.0, 0.0, 0.0, 0.0, 0.0, 0.0, 0.0, 0.0, 1.6730446048984468E9, 0.0, 2023-01-06 17:36:44.898
54.0, -18320.96497070372, -25111.06730831472, -31943.347387712885, -16565.973051306373, -8558.482951937074, -6520.7414651800955, -19046.837871889817, -4702.203536296312, -23009.55629462675, 6436.207167650124, -19839.296619808272, -25284.986231921463, -6336.496035634999, -3949.5979487416685, -10230.393437194043, -17480.248806506253, -0.274, 0.9440000000000001, 0.10200000000000001, 192.0, 0.0, 0.0, 0.0, 0.0, 0.0, 0.0, 0.0, 0.0, 0.0, 1.6730446048984523E9, 0.0, 2023-01-06 17:36:44.898
56.0, -18343.6296395814, -25137.129442349607, -31975.131568328332, -16601.847601157144, -8591.27296105301, -6582.924018254759, -19070.798941945905, -4742.950766438337, -22998.581588099194, 6431.803873992429, -19833.574573227714, -25268.75886544691, -6321.207442427569, -3954.3141668217386, -10236.69662913044, -17480.964062328825, -0.274, 0.9440000000000001, 0.10200000000000001, 192.0, 0.0, 0.0, 0.0, 0.0, 0.0, 0.0, 0.0, 0.0, 0.0, 1.6730446048984575E9, 0.0, 2023-01-06 17:36:44.898
58.0, -18346.87064252742, -25136.660055716045, -31973.723408427646, -16598.60659821112, -8651.645022826795, -6589.987169502637, -19084.47820955255, -4741.252033859734, -23001.50966662284, 6404.110062612303, -19839.27426806382, -25300.408935595624, -6320.268669160446, -3956.7281552229115, -10233.634440140062, -17489.390669988476, -0.265, 0.934, 0.092, 192.0, 124.0, 0.0, 14.0, 112.0, 1.0, 72.0, 0.0, 0.0, 0.0, 1.6730446048984632E9, 0.0, 2023-01-06 17:36:44.898
60.0, -18358.761770577643, -25144.21494534194, -31996.09750462741, -16627.082720647184, -8519.680323562661, -6610.863698823893, -19054.66098244917, -4748.091667663058, -23003.297806179264, 6386.809812403895, -19839.743654697377, -25285.09799064374, -6322.079160461326, -3947.6086434851463, -10245.011478067814, -17495.22447529131, -0.265, 0.934, 0.092, 192.0, 0.0, 0.0, 0.0, 0.0, 0.0, 0.0, 0.0, 0.0, 0.0, 1.6730446048984687E9, 0.0, 2023-01-06 17:36:44.898
62.0, -18343.562584348034, -25122.891381131576, -31971.398827004294, -16611.794127439753, -8645.073609956933, -6544.546073024997, -19066.954441899594, -4728.198615097835, -23000.347375911162, 6370.873018607262, -19833.55222148326, -25296.609139038224, -6365.016861559971, -3964.5959692711795, -10249.392419981054, -17498.26431253723, -0.265, 0.934, 0.092, 192.0, 0.0, 0.0, 0.0, 0.0, 0.0, 0.0, 0.0, 0.0, 0.0, 1.673044604898474E9, 0.0, 2023-01-06 17:36:44.898
64.0, -18389.093087803496, -25165.7396752524, -32008.592129777928, -16665.840645532688, -8631.819025494937, -6618.7091611277065, -19097.88925622574, -4750.46095257532, -23006.292939936273, 6350.3988206862, -19840.324800053215, -25294.038688425862, -6406.434644035655, -3970.3850710851043, -10243.98329782287, -17502.645254450472, -0.265, 0.934, 0.092, 192.0, 0.0, 0.0, 0.0, 0.0, 0.0, 0.0, 0.0, 0.0, 0.0, 1.6730446048984797E9, 0.0, 2023-01-06 17:36:44.898
66.0, -18380.331203977014, -25157.715398992947, -32010.469676312172, -16667.092343222183, -8527.59284109984, -6613.054169780514, -19098.649215537218, -4770.286949907178, -23018.161716242044, 6310.635067300209, -19863.794131731287, -25337.468127902524, -6353.8633410767725, -4021.3694001876597, -10272.83939991467, -17526.67337973993, -0.265, 0.934, 0.092, 192.0, 0.0, 0.0, 0.0, 0.0, 0.0, 0.0, 0.0, 0.0, 0.0, 1.673044604898485E9, 0.0, 2023-01-06 17:36:44.898
68.0, -18367.389543937392, -25145.667808731534, -32007.13926638833, -16665.21479668794, -8638.211624409154, -6664.150257605345, -19150.12528301779, -4742.101400149036, -23002.515495123327, 6328.605869842276, -19849.019628646332, -25311.271883400907, -6398.186850331646, -3979.9516177119754, -10258.511931718818, -17518.827917436116, -0.2515, 0.929, 0.079, 192.0, 124.0, 72.0, 14.0, 112.0, 1.0, 8.0, 0.0, 0.0, 0.0, 1.6730446048984923E9, 0.0, 2023-01-06 17:36:44.898
70.0, -18355.766636820634, -25137.17414583852, -31983.89345215481, -16650.14972092506, -8617.379798576809, -6591.104756725402, -19048.91658412416, -4652.403849649889, -23006.51645738083, 6313.071407445837, -19851.679486236513, -25322.514810861925, -6376.103326809804, -3971.0779751632185, -10257.170827051501, -17504.969835873824, -0.2515, 0.929, 0.079, 192.0, 0.0, 0.0, 0.0, 0.0, 0.0, 0.0, 0.0, 0.0, 0.0, 1.673044604898498E9, 0.0, 2023-01-06 17:36:44.898
72.0, -18351.452750140757, -25125.88651488859, -32000.366687818372, -16664.141912954085, -8538.768713327494, -6543.249671846589, -19069.994279145514, -4629.716829027752, -22983.762381525325, 6334.059695489371, -19829.484203992393, -25290.998851179942, -6406.814623691395, -3979.5939898006905, -10227.241841225845, -17469.832893590083, -0.2515, 0.929, 0.079, 192.0, 0.0, 0.0, 0.0, 0.0, 0.0, 0.0, 0.0, 0.0, 0.0, 1.6730446048985033E9, 0.0, 2023-01-06 17:36:44.898
74.0, -18360.371096178424, -25119.8291921412, -32013.263644369086, -16715.685035668022, -8657.210607196166, -6617.792739605038, -19116.59766633483, -4671.045204525614, -23023.660245378047, 6305.717683520042, -19864.040000920297, -25330.24851444346, -6463.588054607875, -3956.9516726674647, -10254.510969461318, -17517.21859183533, -0.2515, 0.929, 0.079, 192.0, 0.0, 0.0, 0.0, 0.0, 0.0, 0.0, 0.0, 0.0, 0.0, 1.6730446048985088E9, 0.0, 2023-01-06 17:36:44.898
76.0, -18352.078598985507, -25096.829247096688, -32021.690252028737, -16753.83946345323, -8549.564605899406, -6550.424581816743, -19097.576331803364, -4636.243538408701, -23027.08006227971, 6300.643837528687, -19870.07497192323, -25344.263058216937, -6469.645377355263, -3985.9865887149085, -10278.807315684238, -17517.59857149107, -0.2515, 0.929, 0.079, 192.0, 0.0, 0.0, 0.0, 0.0, 0.0, 0.0, 0.0, 0.0, 0.0, 1.6730446048985143E9, 0.0, 2023-01-06 17:36:44.898
78.0, -18338.444034867767, -25074.656316597026, -32016.214074637184, -16778.158161420604, -8600.32541755741, -6489.0466915424695, -19105.24298015153, -4633.941308729805, -23009.668053349025, 6304.600096297276, -19859.860224707154, -25353.181404254607, -6457.195455693657, -3984.556077069769, -10262.848170143148, -17518.716158713836, -0.23575000000000002, 0.8885000000000001, 0.0675, 192.0, 124.5, 16.0, 13.0, 64.0, 0.5, 96.0, 0.0, 0.0, 0.0, 1.6730446048985195E9, 0.0, 2023-01-06 17:36:44.898
80.0, -18340.858023268942, -25067.034371737765, -32008.033336166543, -16765.708239759, -8644.559519834462, -6555.833703974928, -19121.090366970348, -4627.369895859944, -23020.55335289876, 6313.451387101578, -19848.416131546037, -25342.78784308289, -6529.883328662316, -3984.9807602144197, -10265.731545177883, -17503.56167597314, -0.23575000000000002, 0.8885000000000001, 0.0675, 192.0, 0.0, 0.0, 0.0, 0.0, 0.0, 0.0, 0.0, 0.0, 0.0, 1.6730446048985252E9, 0.0, 2023-01-06 17:36:44.898
82.0, -18382.476971444725, -25104.07121230021, -32027.412298609295, -16782.583806822757, -8696.884953604336, -6617.479815182664, -19184.077582845403, -4657.187122963324, -23073.884615169125, 6245.479732212989, -19884.693012797, -25375.73431441001, -6580.130050197846, -3993.452071362981, -10304.757690996848, -17548.62279279504, -0.23575000000000002, 0.8885000000000001, 0.0675, 192.0, 0.0, 0.0, 0.0, 0.0, 0.0, 0.0, 0.0, 0.0, 0.0, 1.6730446048985305E9, 0.0, 2023-01-06 17:36:44.898
84.0, -18397.430288485324, -25124.813631154735, -32020.125629916864, -16794.877266273175, -8695.745014637116, -6658.472914513697, -19135.06020725491, -4676.901361572905, -23082.33357457323, 6228.984144804972, -19884.782419774823, -25363.50791019296, -6572.195180916212, -4015.848519307199, -10306.322313108722, -17557.9434702329, -0.23575000000000002, 0.8885000000000001, 0.0675, 192.0, 0.0, 0.0, 0.0, 0.0, 0.0, 0.0, 0.0, 0.0, 0.0, 1.673044604898536E9, 0.0, 2023-01-06 17:36:44.898
86.0, -18382.20875051126, -25104.026508811297, -32003.67474599776, -16758.622736766665, -8589.50717324104, -6499.283790503, -19208.552743023964, -4674.107393515992, -23092.01187992238, 6202.27381018088, -19894.97481524644, -25355.394226955683, -6621.927812329271, -4052.863008125187, -10317.922868481026, -17569.946357005403, -0.23575000000000002, 0.8885000000000001, 0.0675, 192.0, 0.0, 0.0, 0.0, 0.0, 0.0, 0.0, 0.0, 0.0, 0.0, 1.6730446048985415E9, 0.0, 2023-01-06 17:36:44.898
88.0, -18372.50809341766, -25065.693267070445, -32016.504647315105, -16788.864647014696, -8576.207885290132, -6516.919316878238, -19175.069829829914, -4612.774206730629, -23080.813655950267, 6241.657583911131, -19881.206140661972, -25330.96377026603, -6685.160897393334, -3984.7572427698665, -10334.753732055871, -17542.029028180725, -0.224875, 0.86625, 0.06775, 192.0, 124.5, 40.0, 13.0, 48.0, 1.0, 16.0, 0.0, 0.0, 0.0, 1.6730446048985467E9, 0.0, 2023-01-06 17:36:44.898
90.0, -18394.25634077267, -25067.168482204495, -32037.694101058736, -16848.364990754722, -8606.89683042727, -6482.967017050626, -19202.69658597667, -4486.017463924582, -23102.070164927267, 6202.22910669197, -19900.853324038188, -25362.97146832603, -6655.298966801044, -4057.7580401608993, -10338.553528613273, -17550.120359673543, -0.224875, 0.86625, 0.06775, 192.0, 0.0, 0.0, 0.0, 0.0, 0.0, 0.0, 0.0, 0.0, 0.0, 1.6730446048985536E9, 0.0, 2023-01-06 17:36:44.898
92.0, -18364.461465413748, -24998.28040579324, -31992.72239121466, -16837.680856905088, -8764.58838755946, -6530.1291978513245, -19180.32248977691, -4512.571336337488, -23069.838949422712, 6219.350542944735, -19876.40051560408, -25364.40197997117, -6613.858832580904, -4031.5394439148245, -10292.88891469108, -17533.80358622117, -0.224875, 0.86625, 0.06775, 192.0, 0.0, 0.0, 0.0, 0.0, 0.0, 0.0, 0.0, 0.0, 0.0, 1.673044604898559E9, 0.0, 2023-01-06 17:36:44.898
94.0, -18357.934756032795, -24967.18912925591, -32004.881740198343, -16827.466109689012, -8679.76351735157, -6510.414959241743, -19185.1281148348, -4502.1554234213145, -23096.035193924334, 6197.803461289819, -19871.46078007946, -25374.527320209425, -6693.542801564075, -4032.2770514818494, -10299.013292671836, -17548.2428131393, -0.224875, 0.86625, 0.06775, 192.0, 0.0, 0.0, 0.0, 0.0, 0.0, 0.0, 0.0, 0.0, 0.0, 1.6730446048985646E9, 0.0, 2023-01-06 17:36:44.898
96.0, -18334.755997032644, -24916.584779809094, -31985.055742866487, -16810.456432158524, -8509.912611235692, -6448.098295700347, -19180.680117688193, -4433.3567539878795, -23059.08776033971, 6224.871423825196, -19823.6280469451, -25372.91799460864, -6604.7393208431395, -4020.8106065762768, -10266.625614956096, -17518.023254635722, -0.224875, 0.86625, 0.06775, 192.0, 0.0, 0.0, 0.0, 0.0, 0.0, 0.0, 0.0, 0.0, 0.0, 1.6730446048985703E9, 0.0, 2023-01-06 17:36:44.898
98.0, -18372.530445162112, -24934.287361417697, -32007.273376855064, -16824.69449337655, -8801.98285603319, -6533.526663008531, -19286.33681372843, -4480.921266188773, -23102.181923649543, 6179.8773622366625, -19847.097378623173, -25379.578814456323, -6669.4252692967975, -4062.2060373075055, -10317.94522022548, -17550.32152537364, -0.2224375, 0.878125, 0.076875, 192.0, 124.5, 16.0, 13.5, 104.0, 1.0, 88.0, 0.0, 0.0, 0.0, 1.6730446048985755E9, 0.0, 2023-01-06 17:36:44.898
100.0, -18362.49451190168, -24928.140631692488, -31966.36968450185, -16781.93560623355, -8756.809980489013, -6498.412072469244, -19262.04046750551, -4433.267347010058, -23112.62018831017, 6172.568341799777, -19844.012837888342, -25367.73238989501, -6617.88214658286, -4045.397525477115, -10339.537005369308, -17556.49060684331, -0.2224375, 0.878125, 0.076875, 192.0, 0.0, 0.0, 0.0, 0.0, 0.0, 0.0, 0.0, 0.0, 0.0, 1.6730446048985827E9, 0.0, 2023-01-06 17:36:44.898
102.0, -18392.60231168298, -24960.148329752486, -31998.064458139477, -16811.171687981092, -8647.129970446822, -6484.308121717945, -19289.86838935237, -4432.194463276203, -23138.10117698922, 6125.339105765714, -19858.653230506567, -25363.12793053722, -6692.536973063586, -4087.99995040893, -10336.228947189922, -17568.80641803818, -0.2224375, 0.878125, 0.076875, 192.0, 0.0, 0.0, 0.0, 0.0, 0.0, 0.0, 0.0, 0.0, 0.0, 1.673044604898588E9, 0.0, 2023-01-06 17:36:44.898
104.0, -18362.114532245938, -24918.194105409875, -31945.448451691682, -16781.197998666525, -8699.231886772142, -6421.633830265264, -19291.991805075624, -4395.179974458215, -23143.264429958395, 6111.7268933924315, -19850.96423041394, -25380.428180745625, -6731.026677015624, -4077.606389237212, -10329.970458742435, -17549.002772450778, -0.2224375, 0.878125, 0.076875, 192.0, 0.0, 0.0, 0.0, 0.0, 0.0, 0.0, 0.0, 0.0, 0.0, 1.6730446048985937E9, 0.0, 2023-01-06 17:36:44.898
106.0, -18344.09902621496, -24889.36035506253, -31916.234721688597, -16772.32435611777, -8710.228945044153, -6450.981670735082, -19350.553375548527, -4404.992390274095, -23113.62601681066, 6140.270071061858, -19816.386081741584, -25338.764529080934, -6667.79359195156, -4047.118609800173, -10292.508935035341, -17512.927056899913, -0.2224375, 0.878125, 0.076875, 192.0, 0.0, 0.0, 0.0, 0.0, 0.0, 0.0, 0.0, 0.0, 0.0, 1.673044604898599E9, 0.0, 2023-01-06 17:36:44.898
108.0, -18347.272973927615, -24877.96096539032, -31929.958692784156, -16810.27761820288, -8582.332263270888, -6416.180004618169, -19307.10158432741, -4439.749352902098, -23107.032252196343, 6131.664649446565, -19818.598904442657, -25363.463206704047, -6655.321318545499, -4052.192455791528, -10312.80431900076, -17518.9843796473, -0.22921875000000003, 0.9110625000000001, 0.0744375, 192.0, 124.0, 80.0, 14.5, 64.0, 1.0, 32.0, 0.0, 0.0, 0.0, 1.6730446048986044E9, 0.0, 2023-01-06 17:36:44.898
110.0, -18363.768561335633, -24882.096038114552, -31937.46887892114, -16817.854859573228, -8520.105006707312, -6376.349195998811, -19350.843948226448, -4386.328683653914, -23117.04583371232, 6101.020407798339, -19841.35298029816, -25381.45636099057, -6740.950851553781, -4111.849261742743, -10318.124034181123, -17551.483816085318, -0.22921875000000003, 0.9110625000000001, 0.0744375, 192.0, 0.0, 0.0, 0.0, 0.0, 0.0, 0.0, 0.0, 0.0, 0.0, 1.6730446048986099E9, 0.0, 2023-01-06 17:36:44.898
112.0, -18300.446069293746, -24812.24683669172, -31857.471985515596, -16784.59546382373, -8715.079273590956, -6349.504750907988, -19346.328895846476, -4478.2614085985915, -23075.158664603077, 6170.757850498897, -19792.357956452128, -25344.553630894858, -6636.545853203042, -4006.907821525076, -10250.532358948274, -17474.437352947876, -0.22921875000000003, 0.9110625000000001, 0.0744375, 192.0, 0.0, 0.0, 0.0, 0.0, 0.0, 0.0, 0.0, 0.0, 0.0, 1.6730446048986154E9, 0.0, 2023-01-06 17:36:44.898
114.0, -18347.474139627713, -24845.707398141312, -31938.787631844003, -16832.51760393591, -8703.121090307366, -6429.076961168881, -19406.79036459808, -4527.547005122543, -23109.222723152965, 6164.4993620514115, -19816.63195093059, -25355.282468233403, -6625.906422842315, -4070.52088624488, -10326.66240056305, -17549.382752106518, -0.22921875000000003, 0.9110625000000001, 0.0744375, 192.0, 0.0, 0.0, 0.0, 0.0, 0.0, 0.0, 0.0, 0.0, 0.0, 1.6730446048986208E9, 0.0, 2023-01-06 17:36:44.898
116.0, -18345.39542739337, -24849.954229587824, -31907.27167216202, -16802.588618110254, -8717.940296881236, -6418.504586041521, -19425.588181684994, -4468.4042892938005, -23119.213952924485, 6157.682079992543, -19829.037169103285, -25384.339736025304, -6622.039571051547, -4049.2420255234274, -10282.94238840847, -17495.515047969227, -0.22921875000000003, 0.9110625000000001, 0.0744375, 192.0, 0.0, 0.0, 0.0, 0.0, 0.0, 0.0, 0.0, 0.0, 0.0, 1.6730446048986263E9, 0.0, 2023-01-06 17:36:44.898
118.0, -18350.581032107002, -24865.175767561886, -31928.103497994365, -16797.492420374445, -8530.319753923388, -6446.399563121744, -19435.624114945425, -4628.979221460727, -23114.363624377685, 6200.217449690992, -19812.429822972994, -25372.023924830428, -6602.526498142064, -4054.002947092408, -10309.362150354642, -17512.211801077345, -0.27260937500000004, 0.9605312500000001, 0.06721875, 192.0, 123.0, 16.0, 15.5, 72.0, 0.5, 112.0, 0.0, 0.0, 0.0, 1.673044604898632E9, 0.0, 2023-01-06 17:36:44.898
120.0, -18338.645200567866, -24858.62670643648, -31887.758599252535, -16771.69850727302, -8675.404927182786, -6420.292725597946, -19462.982650158723, -4666.708966101285, -23146.416025926595, 6195.590638588744, -19825.460889990438, -25394.35331754128, -6610.416663934787, -4016.831996063232, -10298.678016505006, -17525.734606472804, -0.27260937500000004, 0.9605312500000001, 0.06721875, 192.0, 0.0, 0.0, 0.0, 0.0, 0.0, 0.0, 0.0, 0.0, 0.0, 1.673044605378485E9, 0.0, 2023-01-06 17:36:45.378
122.0, -18378.565416165045, -24900.73739299028, -31939.726405111123, -16849.23670878848, -8883.097336661498, -6429.8145687359065, -19512.558819360594, -4686.043225055126, -23138.794081067335, 6206.185365460559, -19813.34624449566, -25396.83436117582, -6480.217752482624, -4057.5345227163466, -10276.907417405537, -17500.074803838113, -0.27260937500000004, 0.9605312500000001, 0.06721875, 192.0, 0.0, 0.0, 0.0, 0.0, 0.0, 0.0, 0.0, 0.0, 0.0, 1.673044605378637E9, 0.0, 2023-01-06 17:36:45.378
124.0, -18308.112717641918, -24836.543182914636, -31934.004358530565, -16787.858818514207, -8620.79961547847, -6399.125623598769, -19459.47342627924, -4781.75339481275, -23176.63558443017, 6180.3467488702245, -19867.526873055325, -25458.07814098336, -6585.203896189201, -4027.3820194461373, -10321.767368527338, -17551.70733352987, -0.27260937500000004, 0.9605312500000001, 0.06721875, 192.0, 0.0, 0.0, 0.0, 0.0, 0.0, 0.0, 0.0, 0.0, 0.0, 1.673044605378644E9, 0.0, 2023-01-06 17:36:45.378
126.0, -18358.001811266164, -24899.105715645044, -32071.333476463973, -16882.71962198253, -8514.45001536012, -6503.105938804858, -19680.778048131233, -4967.116411580612, -23138.525860133872, 6199.6586560796095, -19846.672695478523, -25455.865318282285, -6607.555640644508, -4000.515222610858, -10320.381560371108, -17607.921970834966, -0.27260937500000004, 0.9605312500000001, 0.06721875, 192.0, 0.0, 0.0, 0.0, 0.0, 0.0, 0.0, 0.0, 0.0, 0.0, 1.6730446053786504E9, 0.0, 2023-01-06 17:36:45.378
128.0, -18347.295325672072, -24900.558579034638, -32041.337435404952, -16873.533055011398, -8760.475666579685, -6391.1907543171355, -19498.164295931376, -4490.17488839327, -23225.02711117591, 6099.388730453102, -19921.46163242598, -25533.582333753388, -6738.00042128568, -4063.8600663971984, -10410.39203529263, -17601.28350273174, -0.27260937500000004, 0.9605312500000001, 0.06721875, 192.0, 0.0, 0.0, 0.0, 0.0, 0.0, 0.0, 0.0, 0.0, 0.0, 1.6730446053786569E9, 0.0, 2023-01-06 17:36:45.378
130.0, -18293.494676768147, -24860.660715181915, -32016.61640603738, -16883.993671416483, -8897.42480485735, -6370.895370351716, -19577.44593351435, -4481.4353563112445, -23203.055346376343, 6151.043611889317, -19882.480190095925, -25493.058621055916, -6550.513988794564, -4009.925307026542, -10334.597269844684, -17554.1436736755, -0.20800000000000002, 0.91, 0.112, 192.0, 124.5, 64.0, 14.0, 56.0, 1.5, 64.0, 0.0, 0.0, 0.0, 1.6730446053786633E9, 0.0, 2023-01-06 17:36:45.378
132.0, -18267.946632855732, -24861.97946810478, -32044.82430753998, -16942.667000611666, -8847.245138555187, -6392.665969451185, -19594.902645933944, -4422.538509671511, -23209.626759246203, 6156.072754391761, -19878.83685574971, -25481.03338253896, -6602.548849886519, -3992.2674289068495, -10371.231779006932, -17580.026993754745, -0.20800000000000002, 0.91, 0.112, 192.0, 0.0, 0.0, 0.0, 0.0, 0.0, 0.0, 0.0, 0.0, 0.0, 1.6730446053786776E9, 0.0, 2023-01-06 17:36:45.378
134.0, -18259.587080429446, -24886.700497472346, -32068.114825262408, -16952.72528561655, -8778.222951677199, -6383.635864691242, -19591.326366821097, -4396.655189592265, -23226.50232630996, 6145.053344375294, -19868.152721900075, -25477.39004819275, -6615.401102948321, -4010.573507615746, -10380.686566911527, -17610.693587147427, -0.20800000000000002, 0.91, 0.112, 192.0, 0.0, 0.0, 0.0, 0.0, 0.0, 0.0, 0.0, 0.0, 0.0, 1.673044605378684E9, 0.0, 2023-01-06 17:36:45.378
136.0, -18335.49360459967, -24981.38248698503, -32148.98343670171, -17035.85142324584, -8829.140225546387, -6422.930231443672, -19681.158027786976, -4442.4539139811895, -23319.552638477402, 6054.9087589870405, -19926.446071439514, -25533.403519797746, -6677.248379856155, -4022.554042643791, -10470.69704183305, -17683.26970139381, -0.20800000000000002, 0.91, 0.112, 192.0, 0.0, 0.0, 0.0, 0.0, 0.0, 0.0, 0.0, 0.0, 0.0, 1.6730446053786905E9, 0.0, 2023-01-06 17:36:45.378
138.0, -18336.074749955507, -25004.360080285085, -32116.97573864171, -17007.84468744334, -8848.876815900423, -6402.8136614338955, -19691.193961047407, -4385.546372597977, -23384.551511353435, 6005.690217696455, -19943.679266414558, -25549.11679614983, -6721.0801507330125, -4085.1165753741952, -10529.884461150701, -17719.613637878138, -0.20800000000000002, 0.91, 0.112, 192.0, 0.0, 0.0, 0.0, 0.0, 0.0, 0.0, 0.0, 0.0, 0.0, 1.673044605378697E9, 0.0, 2023-01-06 17:36:45.378
140.0, -18359.745247333678, -25036.52424055627, -32117.48982876418, -16992.89137040274, -8971.431430748873, -6505.721092906129, -19726.554420775705, -4354.790372227475, -23370.425208857683, 6028.5560522742335, -19901.07684148274, -25482.307431972913, -6591.64119859233, -3962.427850059015, -10480.397698926652, -17698.714756812424, -0.166, 0.886, 0.098, 192.0, 125.0, 104.0, 13.5, 88.0, 1.5, 8.0, 0.0, 0.0, 0.0, 1.673044605378703E9, 0.0, 2023-01-06 17:36:45.378
142.0, -18422.82187018655, -25093.789409850768, -32166.328390399027, -17054.246908932557, -8987.59174199006, -6582.611093832385, -19807.087756048175, -4369.229599145603, -23391.458200390127, 6002.918601383996, -19913.727928844444, -25495.785533879465, -6612.853004080415, -3995.8213562752435, -10515.445234232573, -17718.85367856666, -0.166, 0.886, 0.098, 192.0, 0.0, 0.0, 0.0, 0.0, 0.0, 0.0, 0.0, 0.0, 0.0, 1.6730446053787096E9, 0.0, 2023-01-06 17:36:45.378
144.0, -18511.580647418577, -25171.864053233156, -32246.973484393777, -17147.744255989106, -8989.178715846387, -6619.111492527902, -19839.20721283045, -4413.977791545128, -23494.857370240377, 5902.313399590659, -20008.789898012867, -25573.860177261853, -6730.423179915331, -4057.132191316151, -10609.680188856148, -17820.218839671474, -0.166, 0.886, 0.098, 192.0, 0.0, 0.0, 0.0, 0.0, 0.0, 0.0, 0.0, 0.0, 0.0, 1.673044605378716E9, 0.0, 2023-01-06 17:36:45.378
146.0, -18484.42327790538, -25135.8330411712, -32206.539178674124, -17121.52565974303, -8926.996162771722, -6569.311805881478, -19807.490087448372, -4447.080725083438, -23493.113934172863, 5909.890640961009, -20003.984272954975, -25571.91557549424, -6707.132662192901, -4064.664729197589, -10615.357531947797, -17800.884580717633, -0.166, 0.886, 0.098, 192.0, 0.0, 0.0, 0.0, 0.0, 0.0, 0.0, 0.0, 0.0, 0.0, 1.6730446053787224E9, 0.0, 2023-01-06 17:36:45.378
148.0, -18590.795229768184, -25222.870734080167, -32286.8713482465, -17221.616771413897, -9155.18512191595, -6648.213463808712, -19943.61221118119, -4505.4634816007, -23531.447175913716, 5854.011279822741, -20043.97154378552, -25595.474314150135, -6701.2318016567, -4064.195342564028, -10637.82103512538, -17834.032217744854, -0.166, 0.886, 0.098, 192.0, 0.0, 0.0, 0.0, 0.0, 0.0, 0.0, 0.0, 0.0, 0.0, 1.6730446053787289E9, 0.0, 2023-01-06 17:36:45.378
150.0, -18540.05676985464, -25162.968058939943, -32264.609010769014, -17203.26598921609, -9112.359179539584, -6649.398106264843, -19915.739585845422, -4522.2272899421805, -23561.532623950556, 5783.33506385506, -20068.178483030617, -25639.842526893917, -6722.644772844884, -4133.977488753497, -10657.758791179514, -17837.563793368794, -0.192, 0.908, 0.06, 192.0, 125.0, 0.0, 14.0, 48.0, 0.5, 112.0, 0.0, 0.0, 0.0, 1.6730446053787353E9, 0.0, 2023-01-06 17:36:45.378
152.0, -18554.8312729396, -25172.624012544635, -32305.602110100048, -17238.782911155573, -9069.354423207573, -6668.575903007496, -19991.690813504556, -4808.866060837038, -23514.437498383224, 5918.540766065213, -20064.11046553975, -25605.510247410566, -6727.651563602873, -4088.37993006467, -10696.092032920365, -17869.795008873345, -0.192, 0.908, 0.06, 192.0, 0.0, 0.0, 0.0, 0.0, 0.0, 0.0, 0.0, 0.0, 0.0, 1.6730446053787415E9, 0.0, 2023-01-06 17:36:45.378
154.0, -18526.444557481358, -25136.995331882878, -32271.29218236115, -17183.97643375116, -8928.605488372505, -6611.064864523991, -20066.077419051817, -4553.542083924065, -23516.292693173014, 5907.253135115282, -20055.817968346833, -25622.095241796404, -6764.844866376504, -4079.0145491378967, -10727.65269609126, -17904.127288356696, -0.192, 0.908, 0.06, 192.0, 0.0, 0.0, 0.0, 0.0, 0.0, 0.0, 0.0, 0.0, 0.0, 1.673044605378748E9, 0.0, 2023-01-06 17:36:45.378
156.0, -18531.317237772615, -25145.801919198268, -32223.347690504517, -17157.981354949636, -9177.827439049177, -6589.964817758181, -19899.914550771064, -4645.944195502305, -23501.94287323271, 5916.976143953341, -20032.594505857767, -25600.369346185846, -6658.629376724884, -4031.5841474037347, -10681.0716606464, -17824.778595540356, -0.192, 0.908, 0.06, 192.0, 0.0, 0.0, 0.0, 0.0, 0.0, 0.0, 0.0, 0.0, 0.0, 1.6730446053787544E9, 0.0, 2023-01-06 17:36:45.378
158.0, -18470.36403064299, -25070.364781661607, -32167.758902044166, -17081.828961590407, -8981.802640176134, -6559.432334832231, -19815.313198007727, -4537.001793027138, -23480.954585189174, 5945.3181559226705, -19987.57809252478, -25592.54623562649, -6608.0250272780695, -3998.324751654238, -10567.502447068984, -17811.680473289547, -0.192, 0.908, 0.06, 192.0, 0.0, 0.0, 0.0, 0.0, 0.0, 0.0, 0.0, 0.0, 0.0, 1.6730446053787608E9, 0.0, 2023-01-06 17:36:45.378
160.0, -18435.249440103704, -25034.646694022023, -32143.820183732532, -17052.816397287417, -9079.077432045631, -6530.151549595779, -19837.374369785117, -4520.617964341398, -23437.368683501325, 6005.578458974178, -19941.24292626893, -25533.29176107547, -6660.641033725862, -3946.3122423067384, -10549.822217204835, -17766.395839023095, -0.202, 0.918, 0.008, 192.0, 124.5, 88.0, 14.0, 88.0, 0.0, 32.0, 0.0, 0.0, 0.0, 1.6730446053787673E9, 0.0, 2023-01-06 17:36:45.378
162.0, -18409.299064791092, -25018.9557694144, -32120.730831710203, -17002.726137963073, -8968.816276647602, -6547.9211864377485, -19859.8378729627, -4500.657856542809, -23403.505790651536, 6038.81550297922, -19916.544248645812, -25511.588217209366, -6526.0835321049135, -3894.9926370373532, -10563.322670855841, -17764.13831283311, -0.202, 0.918, 0.008, 192.0, 0.0, 0.0, 0.0, 0.0, 0.0, 0.0, 0.0, 0.0, 0.0, 1.6730446053787737E9, 0.0, 2023-01-06 17:36:45.378
164.0, -18408.427346757337, -25032.612685276592, -32115.992261885676, -16984.39770750972, -8919.86595629048, -6492.757081122051, -19872.6901260245, -4492.812394238996, -23383.81390378641, 6069.660910327543, -19901.814449049765, -25469.18695797765, -6520.026209357526, -3927.268556030817, -10528.453949505561, -17742.814748622746, -0.202, 0.918, 0.008, 192.0, 0.0, 0.0, 0.0, 0.0, 0.0, 0.0, 0.0, 0.0, 0.0, 1.6730446053787816E9, 0.0, 2023-01-06 17:36:45.378
166.0, -18394.70337566178, -25025.795403217722, -32078.195462011754, -16923.466852124555, -8904.175031682853, -6478.1837437371905, -19838.35784654115, -4495.181679151258, -23400.845933061355, 6091.163288493549, -19908.810545064276, -25467.93526028815, -6567.255445391589, -3869.4445931249375, -10545.75419971397, -17737.875013098124, -0.202, 0.918, 0.008, 192.0, 0.0, 0.0, 0.0, 0.0, 0.0, 0.0, 0.0, 0.0, 0.0, 1.673044605378788E9, 0.0, 2023-01-06 17:36:45.378
168.0, -18406.46039324527, -25041.218106891884, -32090.64538367336, -16938.3978174207, -8960.389668987951, -6406.725216713574, -19876.02053594834, -4510.962010736705, -23386.518464865505, 6111.190451525504, -19901.9485595165, -25464.761312575498, -6502.681255660207, -3910.594154667158, -10552.213853861555, -17737.003295064365, -0.202, 0.918, 0.008, 192.0, 0.0, 0.0, 0.0, 0.0, 0.0, 0.0, 0.0, 0.0, 0.0, 1.6730446053787944E9, 0.0, 2023-01-06 17:36:45.378
170.0, -18357.554776377056, -24987.909196365978, -32018.71747001618, -16854.24349954647, -8979.67922445288, -6486.632703141297, -19790.323947706693, -4449.360603017879, -23379.94705199564, 6149.478989777445, -19896.40532689158, -25466.102417242815, -6441.236310152568, -3852.077287683164, -10523.089530836289, -17729.493108927385, -0.242, 1.012, -0.01, 192.0, 124.0, 56.0, 15.5, 80.0, 127.5, 88.0, 0.0, 0.0, 0.0, 1.6730446053788009E9, 0.0, 2023-01-06 17:36:45.378
172.0, -18369.490607916192, -25007.53402799774, -32045.33839766245, -16868.682726464598, -8958.668584664892, -6468.639548854774, -19774.454209143427, -4430.093399297404, -23398.63311036028, 6178.133926169148, -19874.54532081429, -25438.050977951407, -6476.9543977921485, -3799.1260050685414, -10492.020606043412, -17676.094791423653, -0.242, 1.012, -0.01, 192.0, 0.0, 0.0, 0.0, 0.0, 0.0, 0.0, 0.0, 0.0, 0.0, 1.6730446053788092E9, 0.0, 2023-01-06 17:36:45.378
174.0, -18288.264368565604, -24918.350567621063, -31986.95564114519, -16817.09490026175, -8952.790075873147, -6426.953545445627, -19731.203583622406, -4412.502576411078, -23418.727328625602, 6114.587916682711, -19880.624995306134, -25444.71179779909, -6490.320740976423, -3838.621537521069, -10503.17412652661, -17691.11516369762, -0.242, 1.012, -0.01, 192.0, 0.0, 0.0, 0.0, 0.0, 0.0, 0.0, 0.0, 0.0, 0.0, 1.6730446053788157E9, 0.0, 2023-01-06 17:36:45.378
176.0, -18332.163194675828, -24984.623489931048, -31980.56304223097, -16851.315421022824, -8883.56672329506, -6409.653295237219, -19726.17444111996, -4405.975867030128, -23278.492483913004, 6335.356096667779, -19789.452229672937, -25341.804366326855, -6337.032477501926, -3746.889978276489, -10419.01980865238, -17621.668293674982, -0.242, 1.012, -0.01, 192.0, 0.0, 0.0, 0.0, 0.0, 0.0, 0.0, 0.0, 0.0, 0.0, 1.673044605378822E9, 0.0, 2023-01-06 17:36:45.378
178.0, -18320.517935814612, -24978.834388117124, -31952.66806515075, -16870.09088636528, -8962.960119600311, -6378.472611722066, -19731.38239757805, -4408.948649042684, -23531.6036381249, 5804.636276320967, -19898.64050133711, -25500.278234514983, -6441.660993297219, -3882.0509769977307, -10458.157713193621, -17672.384401844072, -0.242, 1.012, -0.01, 192.0, 0.0, 0.0, 0.0, 0.0, 0.0, 0.0, 0.0, 0.0, 0.0, 1.6730446053788283E9, 0.0, 2023-01-06 17:36:45.378
180.0, -18196.35399536538, -24770.583185027026, -31878.393218325764, -16719.909515370073, -8797.490155397672, -6294.765328736941, -19684.89076911101, -4397.661018092754, -23195.813381172822, 6406.412292291199, -19729.013112665787, -25298.620796039202, -6284.684691987597, -3647.2235497502747, -10375.81388662027, -17579.04351699871, -0.266, 1.1400000000000001, -0.022, 192.0, 123.5, 88.0, 17.5, 80.0, 127.5, 40.0, 0.0, 0.0, 0.0, 1.6730446053788347E9, 0.0, 2023-01-06 17:36:45.378
182.0, -18332.699636542755, -24920.585742066593, -31963.978047845132, -16803.415632655102, -8841.791312908092, -6383.591161202331, -19724.8556881971, -4454.523855987055, -23291.545902674905, 6459.631795839286, -19781.137380735563, -25293.85987447022, -6392.062472350893, -3796.5332027117256, -10389.314340271276, -17585.704336846393, -0.266, 1.1400000000000001, -0.022, 192.0, 0.0, 0.0, 0.0, 0.0, 0.0, 0.0, 0.0, 0.0, 0.0, 1.6730446053788412E9, 0.0, 2023-01-06 17:36:45.378
184.0, -18357.778293821608, -24968.977268812334, -31967.50962346907, -16820.358254952225, -8768.991681217156, -6376.237437276535, -19697.251283794794, -4465.252693325602, -23435.334674755894, 6171.227237132459, -19861.491902052392, -25402.712869967567, -6375.5221814539655, -3758.490533648793, -10395.39401476312, -17590.040575270723, -0.266, 1.1400000000000001, -0.022, 192.0, 0.0, 0.0, 0.0, 0.0, 0.0, 0.0, 0.0, 0.0, 0.0, 1.6730446053788474E9, 0.0, 2023-01-06 17:36:45.378
186.0, -18317.63456077988, -24905.945349448368, -31943.213277246152, -16795.860743029207, -8882.359729094474, -6302.476680574022, -19739.250211626317, -4483.737585990141, -23445.37060801633, 5995.609580947111, -19875.39468710359, -25427.83623073533, -6292.038415913394, -3800.265944035762, -10372.036441807324, -17594.510924161783, -0.266, 1.1400000000000001, -0.022, 192.0, 0.0, 0.0, 0.0, 0.0, 0.0, 0.0, 0.0, 0.0, 0.0, 1.6730446053788538E9, 0.0, 2023-01-06 17:36:45.378
188.0, -18200.354957622883, -24758.42383604334, -31846.83255515487, -16644.87470923361, -8716.643895702828, -6252.162903805126, -19698.83825765112, -4488.36439709239, -23134.793118809834, 6547.608262015375, -19750.85076699862, -25271.485778270457, -6303.281343374413, -3607.6833138088364, -10369.197770261499, -17553.62958355303, -0.266, 1.1400000000000001, -0.022, 192.0, 0.0, 0.0, 0.0, 0.0, 0.0, 0.0, 0.0, 0.0, 0.0, 1.67304460537886E9, 0.0, 2023-01-06 17:36:45.378
190.0, -18302.927112928286, -24882.833645681578, -31944.66614063575, -16724.73749217242, -8837.343315761485, -6308.556355065865, -19714.23860958083, -4498.959123964206, -23185.129247323188, 6484.777508351506, -19719.312455572184, -25224.100080025208, -6334.819654800851, -3665.5072767147158, -10324.807205773259, -17508.210838819843, -0.232, 1.122, -0.032, 192.0, 124.0, 96.0, 17.5, 8.0, 127.5, 0.0, 0.0, 0.0, 0.0, 1.6730446053788664E9, 0.0, 2023-01-06 17:36:45.378
192.0, -18270.204159045716, -24889.762686462724, -31879.041418914967, -16748.095065128215, -8839.645545440382, -6272.592398237276, -19688.332937757128, -4544.5343309085765, -23362.602098298325, 6172.478934821956, -19806.283093247785, -25346.766453595934, -6215.953077787528, -3664.859076125512, -10342.755656570871, -17525.064054139144, -0.232, 1.122, -0.032, 192.0, 0.0, 0.0, 0.0, 0.0, 0.0, 0.0, 0.0, 0.0, 0.0, 1.6730446053788729E9, 0.0, 2023-01-06 17:36:45.378
194.0, -18425.995817899206, -25056.126720443575, -32091.807674385032, -16969.69025965813, -8732.290116821541, -6372.325881996856, -19781.986747024865, -4642.345564645, -23377.48836010556, 5931.214205171372, -19856.485111294405, -25465.18599572015, -6266.557427234344, -3876.3065786727166, -10370.762392373372, -17593.125116005554, -0.232, 1.122, -0.032, 192.0, 0.0, 0.0, 0.0, 0.0, 0.0, 0.0, 0.0, 0.0, 0.0, 1.6730446053788793E9, 0.0, 2023-01-06 17:36:45.378
196.0, -18244.946687811218, -24787.19053115732, -31897.012221457033, -16690.181695244515, -8862.489028273705, -6275.989863394483, -19724.94509517492, -4728.802112198128, -23333.8577549288, 6278.537962262388, -19879.216835405452, -25433.334759871337, -6313.272573145935, -3491.4318908967844, -10410.928477159558, -17619.410767484995, -0.232, 1.122, -0.032, 192.0, 0.0, 0.0, 0.0, 0.0, 0.0, 0.0, 0.0, 0.0, 0.0, 1.6730446053788872E9, 0.0, 2023-01-06 17:36:45.378
198.0, -18387.707279647264, -24981.315431751664, -32015.14119090333, -16868.2803950644, -8842.283051286107, -6285.221133854525, -19768.083961973665, -4631.616727306453, -23232.045558934875, 6495.528697434509, -19789.09460176165, -25292.049383169342, -6276.7274709615085, -3727.1533879224526, -10356.256110221877, -17567.487665115317, -0.232, 1.122, -0.032, 192.0, 0.0, 0.0, 0.0, 0.0, 0.0, 0.0, 0.0, 0.0, 0.0, 1.6730446053788934E9, 0.0, 2023-01-06 17:36:45.378
200.0, -18271.411153246303, -24875.569328733603, -31884.36113409533, -16798.006510496918, -8768.187018416766, -6240.852921110741, -19734.399883079517, -4604.749930471174, -23408.445526176158, 6143.801646685797, -19851.724189725424, -25473.143216746237, -6219.864633067207, -3624.8047500616017, -10413.141299860634, -17594.086241017132, -0.21100000000000002, 1.082, -0.017, 192.0, 125.0, 8.0, 16.0, 72.0, 127.5, 120.0, 0.0, 0.0, 0.0, 1.6730446053788998E9, 0.0, 2023-01-06 17:36:45.378
202.0, -18307.33040658598, -24906.41473608193, -31964.62624843434, -16866.447552019068, -8719.504918993107, -6265.059860355837, -19721.03353989524, -4636.981145975727, -23184.816322900813, 6399.349141043323, -19733.885792957044, -25364.29022124889, -6214.030827764372, -3589.3325316110295, -10321.700313293972, -17526.65102799547, -0.21100000000000002, 1.082, -0.017, 192.0, 0.0, 0.0, 0.0, 0.0, 0.0, 0.0, 0.0, 0.0, 0.0, 1.6730446053789062E9, 0.0, 2023-01-06 17:36:45.378
204.0, -18236.497728407114, -24783.99423170021, -31925.98008227111, -16844.65460117514, -8819.372513219418, -6245.077400812794, -19774.834188799166, -4669.748803347207, -23253.570288845338, 6408.200431847624, -19838.983695385898, -25450.41149263519, -6269.440802269078, -3593.37819735744, -10396.377491519153, -17585.43611591293, -0.21100000000000002, 1.082, -0.017, 192.0, 0.0, 0.0, 0.0, 0.0, 0.0, 0.0, 0.0, 0.0, 0.0, 1.6730446053789124E9, 0.0, 2023-01-06 17:36:45.378
206.0, -18197.851562243886, -24734.55217296507, -31876.560375280427, -16775.006565452404, -8730.189052842743, -6224.022057535894, -19660.147387998986, -4649.162846703869, -22990.89258800657, 6887.1983155248545, -19660.102684510075, -25242.22734477846, -6196.037673477849, -3363.848133545892, -10341.727476325927, -17506.1321265855, -0.21100000000000002, 1.082, -0.017, 192.0, 0.0, 0.0, 0.0, 0.0, 0.0, 0.0, 0.0, 0.0, 0.0, 1.673044605378919E9, 0.0, 2023-01-06 17:36:45.378
208.0, -18247.76300761259, -24797.472333606762, -31941.7380621121, -16871.789618943887, -8766.085954437965, -6193.042539720838, -19641.93071626791, -4640.289204155112, -23113.24603715492, 6701.410615612343, -19688.064716823665, -25302.711165274523, -6196.194135689037, -3490.895449029857, -10301.069653161723, -17489.88240836649, -0.21100000000000002, 1.082, -0.017, 192.0, 0.0, 0.0, 0.0, 0.0, 0.0, 0.0, 0.0, 0.0, 0.0, 1.673044605378925E9, 0.0, 2023-01-06 17:36:45.378
210.0, -18344.948392504262, -24902.860808713533, -32061.096377503443, -17029.257658631523, -8798.8759635539, -6269.597264480265, -19710.79644093471, -4684.5903616655305, -23345.748882979024, 6366.805001116396, -19840.704779708958, -25457.89932702772, -6244.987993834972, -3586.404453087384, -10357.932491056024, -17549.0921794286, -0.2025, 0.9850000000000001, -0.0115, 192.0, 124.5, 120.0, 13.5, 96.0, 127.5, 104.0, 0.0, 0.0, 0.0, 1.6730446053789315E9, 0.0, 2023-01-06 17:36:45.378
212.0, -18265.62205143238, -24786.0505921901, -31964.447434478694, -16897.024738433927, -8775.965425487211, -6207.9958567614385, -19694.14439131551, -4644.804256535084, -23228.69279726658, 6526.619973971841, -19814.15090729605, -25460.760350318, -6208.577002117277, -3466.085012684466, -10387.593255948217, -17568.784066293727, -0.2025, 0.9850000000000001, -0.0115, 192.0, 0.0, 0.0, 0.0, 0.0, 0.0, 0.0, 0.0, 0.0, 0.0, 1.673044605378938E9, 0.0, 2023-01-06 17:36:45.378
214.0, -18323.71423527172, -24852.77054938919, -31999.986708162633, -16950.221890237557, -8813.963391061234, -6271.519514503421, -19728.968409176876, -4670.3523004475, -23174.44511347355, 6642.2678997836, -19761.020810725786, -25370.392247485193, -6117.963030095462, -3414.2066138036985, -10352.076334008734, -17531.523708286728, -0.2025, 0.9850000000000001, -0.0115, 192.0, 0.0, 0.0, 0.0, 0.0, 0.0, 0.0, 0.0, 0.0, 0.0, 1.6730446053789444E9, 0.0, 2023-01-06 17:36:45.378
216.0, -18365.377886936414, -24900.98326217929, -32028.9098654878, -16977.111038817293, -8823.284068499097, -6339.804093814385, -19719.983007905845, -4683.092794787025, -23266.623707607236, 6475.635644869286, -19835.36271278414, -25469.8128068224, -6196.931743256062, -3460.92175971529, -10408.805061436304, -17605.507982433795, -0.2025, 0.9850000000000001, -0.0115, 192.0, 0.0, 0.0, 0.0, 0.0, 0.0, 0.0, 0.0, 0.0, 0.0, 1.6730446053789508E9, 0.0, 2023-01-06 17:36:45.378
218.0, -18428.36510281147, -24965.244527488296, -32083.179901025287, -17055.073923477405, -8758.329899111975, -6375.365719242778, -19730.46597605538, -4685.26091399919, -23293.401097464695, 6456.346089404356, -19862.050695663776, -25471.489187656545, -6180.234990147947, -3516.510548175639, -10422.417273809586, -17609.710110391392, -0.2025, 0.9850000000000001, -0.0115, 192.0, 0.0, 0.0, 0.0, 0.0, 0.0, 0.0, 0.0, 0.0, 0.0, 1.6730446053789573E9, 0.0, 2023-01-06 17:36:45.378
220.0, -18596.15964843746, -25135.16248883754, -32245.498269259726, -17173.940500490728, -8952.030116561666, -6431.692115270152, -19829.41714875903, -4757.524103823198, -23622.821107247008, 6155.893940436118, -20010.66744454711, -25620.82119236245, -6162.465353305978, -3602.47535735075, -10522.351923269263, -17727.0344170373, -0.21625, 0.9205000000000001, -0.028749999999999998, 192.0, 124.0, 104.0, 13.0, 96.0, 127.0, 72.0, 0.0, 0.0, 0.0, 1.6730446053789635E9, 0.0, 2023-01-06 17:36:45.378
222.0, -18408.583808968524, -24959.61188788556, -32051.082795987466, -17008.69405373264, -8907.61720032897, -6341.927509537639, -19810.06053806073, -4721.64955397243, -23394.408630658225, 6224.513795913911, -19986.549912279836, -25584.186683200205, -6097.958218807962, -3471.941169731757, -10549.33047882682, -17699.519419612818, -0.21625, 0.9205000000000001, -0.028749999999999998, 192.0, 0.0, 0.0, 0.0, 0.0, 0.0, 0.0, 0.0, 0.0, 0.0, 1.67304460537897E9, 0.0, 2023-01-06 17:36:45.378
224.0, -18355.118436231427, -24873.26709905471, -31971.75645491558, -16964.437599711135, -8803.83805082298, -6254.442781739567, -19741.57479304967, -4644.3795733904335, -23122.43260412605, 6759.793372129604, -19787.038241271763, -25415.27455035145, -6160.610158516188, -3467.11319292941, -10414.34829406122, -17588.587711881126, -0.21625, 0.9205000000000001, -0.028749999999999998, 192.0, 0.0, 0.0, 0.0, 0.0, 0.0, 0.0, 0.0, 0.0, 0.0, 1.673044605378976E9, 0.0, 2023-01-06 17:36:45.378
226.0, -18433.237783102726, -24969.692524634902, -32076.02734279959, -17050.961202497627, -8900.934028736834, -6422.751417488029, -19837.463776762936, -4905.135024206045, -23187.565587468816, 6666.407783795332, -19831.987599371387, -25412.83821020582, -6099.96987580894, -3462.531085316072, -10446.467750843496, -17634.900526392525, -0.21625, 0.9205000000000001, -0.028749999999999998, 192.0, 0.0, 0.0, 0.0, 0.0, 0.0, 0.0, 0.0, 0.0, 0.0, 1.6730446053789823E9, 0.0, 2023-01-06 17:36:45.378
228.0, -18495.12976349947, -25056.841976266143, -32106.35866002544, -17034.51031857852, -8946.352773470018, -6398.07509160937, -19841.218869831428, -4671.5592946480865, -23322.95010363461, 6474.47335415761, -19927.004865050898, -25475.08781851385, -6176.323434868269, -3512.2637167291305, -10532.387856529696, -17710.091794740176, -0.21625, 0.9205000000000001, -0.028749999999999998, 192.0, 0.0, 0.0, 0.0, 0.0, 0.0, 0.0, 0.0, 0.0, 0.0, 1.6730446053789904E9, 0.0, 2023-01-06 17:36:45.378
230.0, -18522.890630112965, -25104.406488467037, -32111.186636827784, -17020.205202127123, -9060.145504491986, -6443.650298553741, -19864.75525674287, -4673.2580272266905, -23336.294095074427, 6453.797990536451, -19923.31682721577, -25457.295829927425, -6096.751224607376, -3496.438681654773, -10496.93798982358, -17639.192061327944, -0.188125, 0.8972500000000001, -0.012374999999999999, 192.0, 125.5, 0.0, 13.5, 40.0, 0.0, 16.0, 0.0, 0.0, 0.0, 1.6730446053789968E9, 0.0, 2023-01-06 17:36:45.378
232.0, -18522.823574879596, -25099.667918642514, -32122.49661952217, -17029.257658631523, -9005.987227676776, -6453.462714369621, -19794.30255821974, -4713.98290562426, -23378.20361592813, 6418.45988255261, -19958.789045666344, -25460.603888106813, -6094.426643184023, -3544.249063044675, -10523.625972703216, -17704.0791754817, -0.188125, 0.8972500000000001, -0.012374999999999999, 192.0, 0.0, 0.0, 0.0, 0.0, 0.0, 0.0, 0.0, 0.0, 0.0, 1.6730446053790033E9, 0.0, 2023-01-06 17:36:45.379
234.0, -18560.799188709163, -25149.10997737765, -32190.311812199572, -17118.128194585825, -8982.24967506524, -6450.042897467959, -19809.613503171626, -4646.7265065582405, -23392.218159701606, 6378.003225088504, -19966.52274924788, -25477.32299295938, -6080.166230221538, -3528.7593041371474, -10495.820402600813, -17675.290128623263, -0.188125, 0.8972500000000001, -0.012374999999999999, 192.0, 0.0, 0.0, 0.0, 0.0, 0.0, 0.0, 0.0, 0.0, 0.0, 1.6730446053790095E9, 0.0, 2023-01-06 17:36:45.379
236.0, -18476.13078071246, -25036.211316133897, -32163.35560838647, -17095.508229197054, -8826.36860923393, -6407.93221091416, -19788.04406977225, -4642.949061745294, -23481.848654967387, 6238.327173987291, -20052.666372378633, -25553.81066248544, -6132.02227735785, -3565.818496444046, -10553.152627128677, -17731.817690350734, -0.188125, 0.8972500000000001, -0.012374999999999999, 192.0, 0.0, 0.0, 0.0, 0.0, 0.0, 0.0, 0.0, 0.0, 0.0, 1.673044605379016E9, 0.0, 2023-01-06 17:36:45.379
238.0, -18537.888650642475, -25092.560063905727, -32196.123265757953, -17158.696610772207, -8973.532494727671, -6387.972103115571, -19814.664997418524, -4657.790620063618, -23380.57290084039, 6375.142201798225, -19948.32842926126, -25483.916757573697, -6052.405363608046, -3563.113935364954, -10515.780510399403, -17704.861486537637, -0.188125, 0.8972500000000001, -0.012374999999999999, 192.0, 0.0, 0.0, 0.0, 0.0, 0.0, 0.0, 0.0, 0.0, 0.0, 1.6730446053790224E9, 0.0, 2023-01-06 17:36:45.379
240.0, -18466.161902685395, -24990.926681867444, -32162.618000819446, -17031.71635052161, -8995.861887438523, -6378.316149510879, -19817.86129687563, -4650.593358349009, -23619.468345578713, 6275.453421527555, -20054.722732868522, -25508.280159029982, -5950.347298425115, -3494.315265931519, -10567.122467413243, -17735.192803763486, -0.18006250000000001, 0.880625, 0.008812500000000001, 192.0, 125.0, 80.0, 13.5, 0.0, 0.0, 120.0, 0.0, 0.0, 0.0, 1.6730446058576448E9, 0.0, 2023-01-06 17:36:45.857
242.0, -18413.814117171063, -24954.403931427474, -32051.57453436548, -16946.891480313716, -8823.485234199195, -6352.857512576284, -19775.661203344014, -4592.81409893204, -23147.15363349362, 6702.036464457091, -19877.473399337938, -25343.659561116645, -6005.71256944091, -3386.088119278922, -10498.346149724264, -17636.845128160134, -0.18006250000000001, 0.880625, 0.008812500000000001, 192.0, 0.0, 0.0, 0.0, 0.0, 0.0, 0.0, 0.0, 0.0, 0.0, 1.6730446058577025E9, 0.0, 2023-01-06 17:36:45.857
244.0, -18494.347452443537, -25046.62722905007, -32084.476302203693, -16998.255789072013, -8998.275875839696, -6408.446301036633, -19814.10620380714, -4615.992857932193, -23274.156245488673, 6536.38768629881, -19875.439390592503, -25364.759607882454, -6034.680430254988, -3477.0150157231114, -10502.861202104235, -17665.365954085108, -0.18006250000000001, 0.880625, 0.008812500000000001, 192.0, 0.0, 0.0, 0.0, 0.0, 0.0, 0.0, 0.0, 0.0, 0.0, 1.6730446058578413E9, 0.0, 2023-01-06 17:36:45.857
246.0, -18484.915016283398, -25040.078167924665, -32104.615223957924, -16964.482303200042, -8867.205246353775, -6389.4920217385325, -19789.74280235086, -4590.511869253143, -23375.409647871216, 6444.834941009873, -19931.60932440869, -25394.93446289712, -5930.297783648704, -3496.0139985101223, -10484.286902461876, -17665.097733151644, -0.18006250000000001, 0.880625, 0.008812500000000001, 192.0, 0.0, 0.0, 0.0, 0.0, 0.0, 0.0, 0.0, 0.0, 0.0, 1.6730446058578484E9, 0.0, 2023-01-06 17:36:45.857
248.0, -18459.635193304443, -25021.012129904288, -32054.748482078136, -16934.843890052307, -9071.276673230728, -6401.718425955585, -19810.999311327854, -4601.330113569512, -23370.447560602137, 6475.814458824928, -19904.40725140658, -25371.12985505222, -5869.232817796805, -3508.374513193907, -10492.579399654795, -17672.36205009962, -0.18006250000000001, 0.880625, 0.008812500000000001, 192.0, 0.0, 0.0, 0.0, 0.0, 0.0, 0.0, 0.0, 0.0, 0.0, 1.6730446058578565E9, 0.0, 2023-01-06 17:36:45.857
250.0, -18437.909297693885, -25013.27842632275, -32008.43566756674, -16895.6389302777, -8935.758046598203, -6402.321923055879, -19776.734087077868, -4578.173706313813, -23406.076241263898, 6278.157982606648, -19920.79108009232, -25403.36107055677, -5892.791556452698, -3428.7799511885587, -10473.580416867784, -17660.046238904742, -0.20103125, 0.9383125, 0.022406250000000003, 192.0, 124.5, 8.0, 15.5, 16.0, 0.5, 16.0, 0.0, 0.0, 0.0, 1.6730446058578649E9, 0.0, 2023-01-06 17:36:45.857
252.0, -18406.88507638992, -24968.865510090058, -31935.23370447561, -16856.366915269722, -8883.164391894865, -6342.329840937834, -19725.74975797531, -4556.3360519809785, -23239.041654949386, 6424.450150066633, -19824.991503356876, -25334.204773212048, -5937.3385831521255, -3409.8927271238244, -10428.295782601332, -17620.21543028539, -0.20103125, 0.9383125, 0.022406250000000003, 192.0, 0.0, 0.0, 0.0, 0.0, 0.0, 0.0, 0.0, 0.0, 0.0, 1.6730446058578722E9, 0.0, 2023-01-06 17:36:45.857
254.0, -18360.035820011595, -24903.911340702933, -31889.524387064506, -16761.930794946053, -8817.226745751708, -6297.96162819405, -19691.305719769683, -4535.481874404178, -23235.13009966971, 6552.525645795542, -19817.101337564152, -25289.34482209025, -5821.087160240074, -3331.907490719258, -10413.364817305186, -17573.81320879617, -0.20103125, 0.9383125, 0.022406250000000003, 192.0, 0.0, 0.0, 0.0, 0.0, 0.0, 0.0, 0.0, 0.0, 0.0, 1.6730446058578799E9, 0.0, 2023-01-06 17:36:45.857
0.0, -18337.035874967085, -24885.806427694133, -31868.82667169889, -16764.903576958608, -8851.871949657434, -6257.192046307569, -19678.9452050859, -4518.271031173591, -23126.187697194542, 6720.208432699255, -19742.960601205898, -25212.43246941954, -5783.670340021889, -3289.6626936987277, -10342.2415664484, -17514.55873424515, -0.20103125, 0.9383125, 0.022406250000000003, 192.0, 0.0, 0.0, 0.0, 0.0, 0.0, 0.0, 0.0, 0.0, 0.0, 1.6730446058578875E9, 0.0, 2023-01-06 17:36:45.857
2.0, -18339.6286773239, -24877.06689561211, -31881.79068348297, -16757.54985303281, -8887.18770589682, -6246.194988035559, -19672.70906838287, -4520.707371319219, -23121.694996559025, 6702.304685390554, -19745.061665184698, -25231.76672837338, -5857.811076380143, -3320.3069353469537, -10343.895595538092, -17497.169077058923, -0.20103125, 0.9383125, 0.022406250000000003, 192.0, 0.0, 0.0, 0.0, 0.0, 0.0, 0.0, 0.0, 0.0, 0.0, 1.6730446058578956E9, 0.0, 2023-01-06 17:36:45.857
4.0, -18345.216613437726, -24895.01534640972, -31912.12200070882, -16803.817964055295, -8828.9837633352, -6247.938424103073, -19697.47480123935, -4547.70827862123, -23192.59472997126, 6561.019308688558, -19818.50949746484, -25279.644164996644, -5806.938505999864, -3408.86454687888, -10364.973290559446, -17521.599533748573, -0.20851562499999998, 0.9671562499999999, 0.030203125, 192.0, 124.5, 32.0, 15.5, 16.0, 0.5, 24.0, 0.0, 0.0, 0.0, 1.6730446058579118E9, 0.0, 2023-01-06 17:36:45.857
6.0, -18293.405269790324, -24805.362499399485, -31878.706142748135, -16774.93951021904, -8772.098573696443, -6199.6586560796095, -19634.30877140865, -4525.267127188102, -23155.49083417545, 6761.022718074646, -19755.58933682315, -25238.919286599077, -5784.117374910996, -3284.8347168963815, -10361.017031790858, -17490.21768453332, -0.20851562499999998, 0.9671562499999999, 0.030203125, 192.0, 0.0, 0.0, 0.0, 0.0, 0.0, 0.0, 0.0, 0.0, 0.0, 1.6730446058579197E9, 0.0, 2023-01-06 17:36:45.857
8.0, -18347.138863460885, -24880.620822980505, -31938.184134743708, -16892.062651164848, -8810.834146837491, -6225.4302174365785, -19663.07546652263, -4560.716993894219, -23159.44709294404, 6698.102557432957, -19772.15197946453, -25259.61700196469, -5765.319557824083, -3308.5052142745512, -10335.67015357854, -17499.404251504453, -0.20851562499999998, 0.9671562499999999, 0.030203125, 192.0, 0.0, 0.0, 0.0, 0.0, 0.0, 0.0, 0.0, 0.0, 0.0, 1.673044605857927E9, 0.0, 2023-01-06 17:36:45.857
10.0, -18296.310996569515, -24799.104010952, -31874.191090368164, -16887.592302273788, -8798.428928664796, -6178.9385889695395, -19625.278666648708, -4571.177610299303, -23247.512966097947, 6422.214975621102, -19830.02064585932, -25399.293053065903, -5715.184595010829, -3334.23207214261, -10372.1482005296, -17551.729685274327, -0.20851562499999998, 0.9671562499999999, 0.030203125, 192.0, 0.0, 0.0, 0.0, 0.0, 0.0, 0.0, 0.0, 0.0, 0.0, 1.6730446058579345E9, 0.0, 2023-01-06 17:36:45.857
12.0, -18320.227363136695, -24834.19624974683, -31874.16873862371, -16877.62342424672, -8857.191664837797, -6206.453586394023, -19635.895745264977, -4576.564380713032, -23156.809587098312, 6716.341580908487, -19732.14235688953, -25281.09702838624, -5690.575324365535, -3252.6482048807393, -10296.80046997076, -17481.0758210511, -0.20851562499999998, 0.9671562499999999, 0.030203125, 192.0, 0.0, 0.0, 0.0, 0.0, 0.0, 0.0, 0.0, 0.0, 0.0, 1.6730446058579412E9, 0.0, 2023-01-06 17:36:45.857
14.0, -18352.77150306362, -24855.7656831462, -31916.70410832216, -16860.30082229386, -8780.078146466989, -6208.979333517473, -19623.35641662555, -4597.843241434484, -23311.438955240126, 6376.617416932276, -19822.15283181105, -25395.269739063948, -5759.239883332239, -3270.998987078546, -10362.71576436946, -17522.583010504604, -0.20851562499999998, 0.9671562499999999, 0.030203125, 192.0, 0.0, 0.0, 0.0, 0.0, 0.0, 0.0, 0.0, 0.0, 0.0, 1.6730446058579497E9, 0.0, 2023-01-06 17:36:45.857
16.0, -18314.95235144524, -24822.416880418885, -31881.83538697188, -16838.977258083494, -8833.94585060428, -6201.5138508694, -19636.16396619844, -4597.776186201118, -23125.003054738412, 6757.28997675061, -19760.014982225297, -25275.75496146142, -5745.918243636876, -3315.8589382003474, -10345.61667986115, -17471.84455059106, -0.242, 0.972, 0.036000000000000004, 192.0, 124.0, 56.0, 15.0, 48.0, 0.5, 16.0, 0.0, 0.0, 0.0, 1.673044605857957E9, 0.0, 2023-01-06 17:36:45.857
18.0, -18263.94567059823, -24757.79798719859, -31809.169865747677, -16747.089236627726, -8758.464009578707, -6135.397390770601, -19625.390425370984, -4578.263113291635, -23143.175022980577, 6705.724502292216, -19746.246307640828, -25275.129112616673, -5732.440141730326, -3172.740718453016, -10323.019066216835, -17468.402381944943, -0.242, 0.972, 0.036000000000000004, 192.0, 0.0, 0.0, 0.0, 0.0, 0.0, 0.0, 0.0, 0.0, 0.0, 1.673044605857964E9, 0.0, 2023-01-06 17:36:45.857
20.0, -18272.6628509358, -24762.603612256484, -31810.06393552589, -16735.26516381087, -8781.620416834405, -6165.460487062989, -19640.589611600593, -4589.327226797012, -23044.067388065745, 6772.064479835568, -19664.774199101234, -25208.56561762877, -5779.155287641917, -3200.8592129777926, -10306.121147408623, -17426.78343376916, -0.242, 0.972, 0.036000000000000004, 192.0, 0.0, 0.0, 0.0, 0.0, 0.0, 0.0, 0.0, 0.0, 0.0, 1.6730446058579717E9, 0.0, 2023-01-06 17:36:45.857
22.0, -18304.223514106692, -24809.229351190254, -31849.715930189603, -16756.387562321135, -8749.903291452323, -6181.419632604079, -19635.292248164686, -4616.171671887836, -23176.389715241163, 6791.935180656336, -19716.049100881708, -25220.47909742345, -5767.7558979697105, -3259.5995974063394, -10328.517595352841, -17452.82321605959, -0.242, 0.972, 0.036000000000000004, 192.0, 0.0, 0.0, 0.0, 0.0, 0.0, 0.0, 0.0, 0.0, 0.0, 1.6730446058579793E9, 0.0, 2023-01-06 17:36:45.857
24.0, -18296.936845414264, -24820.49463039573, -31826.20189502262, -16737.053303367295, -8922.794034814124, -6174.490591822933, -19635.202841186863, -4593.976389643716, -23119.705691302504, 6684.557400293041, -19707.354272288594, -25238.204030776506, -5698.286676202617, -3206.8941839807253, -10303.975379940914, -17441.60264034303, -0.242, 0.972, 0.036000000000000004, 192.0, 0.0, 0.0, 0.0, 0.0, 0.0, 0.0, 0.0, 0.0, 0.0, 1.6730446058579874E9, 0.0, 2023-01-06 17:36:45.857
26.0, -18283.03406036306, -24818.974711772767, -31843.412738253206, -16740.718989457964, -8812.21995499372, -6223.016229035406, -19617.656721789448, -4609.5108520401545, -23196.01454687292, 6682.299874103055, -19755.365819378596, -25242.629676178658, -5612.411274005327, -3245.875626310781, -10333.882014022114, -17446.74354156775, -0.226, 1.002, 0.006, 192.0, 124.0, 120.0, 15.5, 40.0, 0.0, 24.0, 0.0, 0.0, 0.0, 1.6730446058579948E9, 0.0, 2023-01-06 17:36:45.857
28.0, -18312.761880488622, -24836.364368958995, -31873.7217037346, -16779.387507365645, -8763.470800336696, -6210.722769584986, -19602.12225939301, -4624.531224314121, -23110.787345264835, 6725.483444390708, -19699.799382662703, -25234.292475496826, -5760.3574705550045, -3246.233254222066, -10309.026874187814, -17431.87963150497, -0.226, 1.002, 0.006, 192.0, 0.0, 0.0, 0.0, 0.0, 0.0, 0.0, 0.0, 0.0, 0.0, 1.6730446058580024E9, 0.0, 2023-01-06 17:36:45.858
30.0, -18299.060261137518, -24838.465432937795, -31863.50695651853, -16798.118269219194, -8869.663938243859, -6217.22712722148, -19679.146370786, -4682.846925598017, -23285.60033864979, 6695.330941120499, -19816.542543952768, -25284.80741796582, -5698.107862246974, -3194.220744874566, -10385.335729758232, -17496.40911774744, -0.226, 1.002, 0.006, 192.0, 0.0, 0.0, 0.0, 0.0, 0.0, 0.0, 0.0, 0.0, 0.0, 1.67304460585801E9, 0.0, 2023-01-06 17:36:45.858
32.0, -18241.035132531542, -24754.981667397224, -31795.66941209667, -16749.68203898454, -8856.789333437602, -6201.737368313953, -19662.628431633526, -4672.475716170754, -22992.74778279636, 6858.923358788891, -19675.950071328887, -25222.28958872433, -5721.577193925046, -3182.5754860133516, -10356.390220688609, -17469.654079634438, -0.226, 1.002, 0.006, 192.0, 0.0, 0.0, 0.0, 0.0, 0.0, 0.0, 0.0, 0.0, 0.0, 1.6730446058580184E9, 0.0, 2023-01-06 17:36:45.858
34.0, -18271.008821846106, -24784.687135778328, -31832.460383470105, -16787.791763280842, -8788.415347148819, -6200.440967135545, -19623.736396281292, -4611.947192185783, -23100.550246304305, 6871.954425806335, -19709.254170567296, -25206.017518760866, -5716.235127000228, -3200.814509488882, -10353.909177054069, -17454.052562004636, -0.226, 1.002, 0.006, 192.0, 0.0, 0.0, 0.0, 0.0, 0.0, 0.0, 0.0, 0.0, 0.0, 1.6730446058580258E9, 0.0, 2023-01-06 17:36:45.858
36.0, -18334.644238310368, -24872.328325787585, -31904.41064887174, -16902.791488503397, -8855.314118303551, -6225.363162203213, -19620.92007647992, -4592.679988465308, -23127.685264073047, 6707.2220691707225, -19738.266734870285, -25282.974574920485, -5670.771678778134, -3260.8512950958366, -10333.323220410732, -17467.88829182247, -0.23800000000000002, 0.9460000000000001, -0.008, 192.0, 124.0, 72.0, 14.5, 72.0, 127.5, 96.0, 0.0, 0.0, 0.0, 1.673044605858035E9, 0.0, 2023-01-06 17:36:45.858
38.0, -18311.688996754765, -24834.24095323574, -31873.677000245694, -16882.518456282432, -8872.144981878399, -6237.030772808883, -19634.845213275577, -4562.505133450643, -23227.9328379551, 6418.8398622083505, -19825.97498011291, -25408.5466752704, -5664.937873475298, -3258.6384723947613, -10382.854686123692, -17515.966894145837, -0.23800000000000002, 0.9460000000000001, -0.008, 192.0, 0.0, 0.0, 0.0, 0.0, 0.0, 0.0, 0.0, 0.0, 0.0, 1.6730446058580427E9, 0.0, 2023-01-06 17:36:45.858
40.0, -18250.98165881415, -24754.84755693049, -31787.8015980484, -16757.952184433005, -8804.620361878915, -6160.520751538366, -19605.92205595041, -4501.663685043298, -23084.077010640744, 6948.598557543583, -19716.742004959822, -25256.353647274216, -5656.712431515745, -3117.017819525936, -10304.08713866319, -17430.292657648642, -0.23800000000000002, 0.9460000000000001, -0.008, 192.0, 0.0, 0.0, 0.0, 0.0, 0.0, 0.0, 0.0, 0.0, 0.0, 1.67304460585805E9, 0.0, 2023-01-06 17:36:45.858
42.0, -18307.95625543073, -24807.642377333927, -31824.369051977286, -16808.08714724626, -8819.528975430605, -6202.296161925336, -19636.387483642993, -4520.305039919024, -23112.57548482126, 6763.995500087202, -19712.539877002226, -25248.731702414956, -5662.345071118483, -3155.753392666983, -10307.551659053763, -17436.528794351674, -0.23800000000000002, 0.9460000000000001, -0.008, 192.0, 0.0, 0.0, 0.0, 0.0, 0.0, 0.0, 0.0, 0.0, 0.0, 1.6730446058580573E9, 0.0, 2023-01-06 17:36:45.858
44.0, -18358.828825811008, -24851.20592727732, -31877.230927614088, -16822.83929858676, -8818.478443441207, -6236.270813497403, -19646.89280353699, -4515.924098005784, -23258.17474820313, 6847.389858649953, -19766.519339861792, -25232.012597562385, -5677.544257348091, -3202.200317645111, -10357.932491056024, -17467.88829182247, -0.23800000000000002, 0.9460000000000001, -0.008, 192.0, 0.0, 0.0, 0.0, 0.0, 0.0, 0.0, 0.0, 0.0, 0.0, 1.6730446058580642E9, 0.0, 2023-01-06 17:36:45.858
46.0, -18376.196131252782, -24891.036735896676, -31861.16002335072, -16858.177406570605, -8912.445177131316, -6231.040505294861, -19654.64885886298, -4510.514975847599, -23271.921071043143, 6602.884126053349, -19830.244163303872, -25296.363269849215, -5663.619120552436, -3312.1485486207666, -10388.397918748607, -17497.66081543694, -0.278, 0.9500000000000001, 0.012, 192.0, 123.5, 40.0, 14.5, 88.0, 0.0, 48.0, 0.0, 0.0, 0.0, 1.673044605858071E9, 0.0, 2023-01-06 17:36:45.858
48.0, -18297.85326693693, -24812.917389025377, -31786.371086403262, -16785.28836790185, -8807.190812491275, -6180.302045381313, -19639.02498948872, -4486.688016258242, -23129.361644907196, 6756.261796505666, -19757.355124635116, -25268.177720091073, -5721.756007880689, -3234.230367449566, -10351.47283690844, -17460.2216434743, -0.278, 0.9500000000000001, 0.012, 192.0, 0.0, 0.0, 0.0, 0.0, 0.0, 0.0, 0.0, 0.0, 0.0, 1.6730446058580785E9, 0.0, 2023-01-06 17:36:45.858
50.0, -18309.20795312023, -24812.29154018063, -31792.942499273122, -16787.99292898094, -8904.532659594139, -6222.300973212836, -19668.305774725173, -4486.017463924582, -23006.44940214746, 6965.4964763517955, -19704.537952487226, -25167.79603574229, -5702.399397182393, -3207.4753293365634, -10328.897575008581, -17423.788300012147, -0.278, 0.9500000000000001, 0.012, 192.0, 0.0, 0.0, 0.0, 0.0, 0.0, 0.0, 0.0, 0.0, 0.0, 1.6730446058580856E9, 0.0, 2023-01-06 17:36:45.858
52.0, -18370.87641607242, -24880.911395658422, -31902.287233148487, -16895.4377645776, -8882.247970372197, -6250.732392159986, -19696.80424890569, -4484.519897046077, -23142.39271192464, 6787.710700954283, -19786.25593021583, -25257.962972874997, -5702.958190793775, -3240.8911872972476, -10375.612720920173, -17462.16624524191, -0.278, 0.9500000000000001, 0.012, 192.0, 0.0, 0.0, 0.0, 0.0, 0.0, 0.0, 0.0, 0.0, 0.0, 1.673044605858093E9, 0.0, 2023-01-06 17:36:45.858
54.0, -18355.140787975884, -24856.59269769105, -31893.994735955566, -16913.766195030952, -8897.089528690522, -6229.073551782793, -19668.104609025075, -4420.2139282481585, -23179.742476909458, 6810.509480298696, -19823.516288222825, -25286.930833689075, -5663.082678685508, -3231.0787714813678, -10407.709825957994, -17482.41692571842, -0.278, 0.9500000000000001, 0.012, 192.0, 0.0, 0.0, 0.0, 0.0, 0.0, 0.0, 0.0, 0.0, 0.0, 1.6730446058581011E9, 0.0, 2023-01-06 17:36:45.858
56.0, -18388.578997681023, -24884.264157326717, -31946.007245303066, -16981.53668421944, -8838.37149600643, -6290.786718223896, -19688.668213923957, -4393.9729802576285, -23240.986256717, 6706.9314964928035, -19857.06625665024, -25322.492459117468, -5663.105030429963, -3259.4431351951525, -10419.690360986038, -17490.03887057768, -0.29, 0.868, 0.034, 192.0, 123.0, 120.0, 13.5, 16.0, 0.5, 8.0, 0.0, 0.0, 0.0, 1.6730446058581085E9, 0.0, 2023-01-06 17:36:45.858
58.0, -18361.5333868901, -24871.724828687293, -31877.610907269827, -17000.915646662193, -8909.248877674208, -6249.57010144831, -19683.70612665488, -4324.727275935087, -23218.478050050504, 6703.243458657677, -19812.943913095467, -25333.556572622845, -5775.243732362239, -3246.7920478334486, -10407.307494557797, -17504.880428896002, -0.29, 0.868, 0.034, 192.0, 0.0, 0.0, 0.0, 0.0, 0.0, 0.0, 0.0, 0.0, 0.0, 1.6730446058581161E9, 0.0, 2023-01-06 17:36:45.858
60.0, -18367.72482010422, -24848.501366198227, -31893.480645833093, -16973.870035871274, -8915.86499403298, -6246.016174079916, -19675.480684695325, -4275.888714300241, -23194.874607905702, 6818.891384469436, -19819.44827073196, -25318.424441626605, -5755.060107119097, -3185.9058959371923, -10402.72538694446, -17502.17586781691, -0.29, 0.868, 0.034, 192.0, 0.0, 0.0, 0.0, 0.0, 0.0, 0.0, 0.0, 0.0, 0.0, 1.673044605858124E9, 0.0, 2023-01-06 17:36:45.858
62.0, -18452.437931589833, -24941.50697487676, -31987.916766156766, -17074.698755109162, -8905.583191583537, -6297.894572960684, -19709.14241184502, -4248.641937809221, -23218.20982911704, 6599.732530085151, -19845.800977444767, -25352.15322400966, -5685.099146973986, -3321.9162609477357, -10438.778750750871, -17507.383824274995, -0.29, 0.868, 0.034, 192.0, 0.0, 0.0, 0.0, 0.0, 0.0, 0.0, 0.0, 0.0, 0.0, 1.6730446058581316E9, 0.0, 2023-01-06 17:36:45.858
64.0, -18419.625570729444, -24887.01342189472, -31948.912972082257, -17006.101251375825, -8921.698799335814, -6275.207552338547, -19712.42811827995, -4208.677018723133, -23305.158115048187, 6783.709738696783, -19910.5986846207, -25357.629401401213, -5781.368110342993, -3303.610182238839, -10490.008949042434, -17563.151426690987, -0.29, 0.868, 0.034, 192.0, 0.0, 0.0, 0.0, 0.0, 0.0, 0.0, 0.0, 0.0, 0.0, 1.6730446058581395E9, 0.0, 2023-01-06 17:36:45.858
66.0, -18428.186288855828, -24934.712044562348, -31941.84982083438, -17031.738702266062, -9034.999791979766, -6334.238509445013, -19726.17444111996, -4208.162928600661, -23177.90963386412, 6759.569854685052, -19861.60366077467, -25316.502191603446, -5706.132138506429, -3333.248595386576, -10469.825323799292, -17538.85508046807, -0.34, 0.866, 0.064, 192.0, 122.5, 48.0, 13.5, 8.0, 1.0, 0.0, 0.0, 0.0, 0.0, 1.6730446058581471E9, 0.0, 2023-01-06 17:36:45.858
68.0, -18417.278637561638, -24919.9822449663, -31886.998639941055, -17024.69790276264, -8985.714195455814, -6332.316259421857, -19702.503943741795, -4190.572105714334, -23165.906747091623, 6713.592316340485, -19848.50553852386, -25338.988046525486, -5793.6392180489565, -3317.1106358898446, -10471.948739522546, -17560.290403400708, -0.34, 0.866, 0.064, 192.0, 0.0, 0.0, 0.0, 0.0, 0.0, 0.0, 0.0, 0.0, 0.0, 1.6730446058581576E9, 0.0, 2023-01-06 17:36:45.858
70.0, -18427.336922566526, -24917.92588447641, -31911.026765230512, -16982.095477830826, -8901.917505492867, -6319.307544148868, -19695.57490296065, -4174.59060842879, -23253.32441965633, 6694.0792434310015, -19858.07208515073, -25327.6780638311, -5714.670504888357, -3245.428591421675, -10460.392887639153, -17540.41970257994, -0.34, 0.866, 0.064, 192.0, 0.0, 0.0, 0.0, 0.0, 0.0, 0.0, 0.0, 0.0, 0.0, 1.6730446058581655E9, 0.0, 2023-01-06 17:36:45.858
72.0, -18445.26302161968, -24929.61584682654, -31949.896448838288, -17005.60951299781, -8962.82600913358, -6330.572823354343, -19697.85478089509, -4166.25340774696, -23195.41104977263, 6868.199332737843, -19861.64836426358, -25273.832711438266, -5772.069784649585, -3336.7354675216043, -10476.910826791624, -17544.13009215952, -0.34, 0.866, 0.064, 192.0, 0.0, 0.0, 0.0, 0.0, 0.0, 0.0, 0.0, 0.0, 0.0, 1.6730446058581724E9, 0.0, 2023-01-06 17:36:45.858
74.0, -18398.3914134969, -24893.897759186955, -31903.293061648976, -17000.960350151105, -8901.939857237323, -6288.283322844902, -19648.993867515786, -4113.503290832436, -23195.34399453926, 6785.028491619646, -19885.564730830756, -25319.25145617145, -5787.090156923551, -3315.389551566786, -10459.722335305492, -17534.496490299283, -0.34, 0.866, 0.064, 192.0, 0.0, 0.0, 0.0, 0.0, 0.0, 0.0, 0.0, 0.0, 0.0, 1.6730446058581793E9, 0.0, 2023-01-06 17:36:45.858
76.0, -18463.524396839668, -24962.048228031188, -31986.95564114519, -17108.449889236676, -8950.018459560688, -6347.470742162555, -19710.595275234613, -4130.512968362924, -23190.471314248003, 6771.1480583129005, -19861.64836426358, -25299.58192105078, -5726.18165328284, -3338.545958822484, -10458.045954471345, -17538.117472901045, -0.378, 0.856, 0.046, 192.0, 122.0, 24.0, 13.0, 96.0, 0.5, 56.0, 0.0, 0.0, 0.0, 1.6730446058581867E9, 0.0, 2023-01-06 17:36:45.858
78.0, -18462.362106127992, -24969.111379279064, -31991.314231313972, -17070.13899924028, -9048.969632264332, -6373.197600030613, -19750.157862920507, -4155.882198319698, -23298.74316438951, 6601.520669641575, -19967.863853915198, -25417.55442828589, -5713.239993243217, -3367.580874869928, -10540.479188022517, -17612.459374959395, -0.378, 0.856, 0.046, 192.0, 0.0, 0.0, 0.0, 0.0, 0.0, 0.0, 0.0, 0.0, 0.0, 1.6730446058581939E9, 0.0, 2023-01-06 17:36:45.858
80.0, -18460.953946227306, -24961.981172797823, -31989.1014086129, -17047.56373734042, -9050.087219487097, -6399.103271854315, -19756.304592645716, -4150.450724417058, -23196.953320140045, 6808.609582019995, -19891.733812300423, -25302.28648212987, -5667.754193276667, -3297.84343216937, -10514.88644062119, -17582.932720533936, -0.378, 0.856, 0.046, 192.0, 0.0, 0.0, 0.0, 0.0, 0.0, 0.0, 0.0, 0.0, 0.0, 1.6730446058582008E9, 0.0, 2023-01-06 17:36:45.858
82.0, -18474.47675162277, -24987.104533565587, -31988.00617313459, -17031.09050167686, -8985.311864055619, -6394.878792152262, -19750.47078734288, -4139.431314400592, -23278.40307693518, 6669.089993129968, -19941.980533835955, -25369.87815736272, -5783.715043510801, -3387.317465223964, -10519.759120912448, -17602.691662632427, -0.378, 0.856, 0.046, 192.0, 0.0, 0.0, 0.0, 0.0, 0.0, 0.0, 0.0, 0.0, 0.0, 1.6730446058582077E9, 0.0, 2023-01-06 17:36:45.858
84.0, -18433.7518732252, -24954.582745383115, -31958.70303615368, -16965.3540212338, -9018.571259805114, -6397.6504084647195, -19741.44068258294, -4123.6062793262345, -23237.521736326427, 6798.596000504017, -19887.55403608728, -25274.95029866103, -5836.599270892057, -3322.4303510702075, -10511.801899886359, -17582.686851344926, -0.378, 0.856, 0.046, 192.0, 0.0, 0.0, 0.0, 0.0, 0.0, 0.0, 0.0, 0.0, 0.0, 1.6730446058582149E9, 0.0, 2023-01-06 17:36:45.858
86.0, -18411.824811914543, -24940.724663820823, -31924.25899794805, -16919.26472416696, -9022.326352873606, -6399.773824187973, -19744.458168084406, -4128.76953229541, -23164.16331102411, 6866.858228070525, -19866.83396897721, -25264.467330511492, -5650.968033190731, -3335.483769832107, -10484.108088506233, -17565.163083691965, -0.384, 0.9099999999999999, 0.026, 192.0, 121.5, 104.0, 15.0, 16.0, 0.0, 24.0, 0.0, 0.0, 0.0, 1.6730446058582213E9, 0.0, 2023-01-06 17:36:45.858
88.0, -18404.672253688845, -24944.904440033966, -31924.70603283716, -16893.40375583217, -8923.084607492043, -6368.190809272624, -19693.362080259572, -4113.458587343524, -23191.54419798186, 6881.36451022202, -19840.660076220047, -25214.980568287443, -5680.070004471541, -3338.389496611297, -10452.547425335339, -17544.599478793083, -0.384, 0.9099999999999999, 0.026, 192.0, 0.0, 0.0, 0.0, 0.0, 0.0, 0.0, 0.0, 0.0, 0.0, 1.673044605858228E9, 0.0, 2023-01-06 17:36:45.858
90.0, -18409.276713046638, -24967.41264670046, -31950.075262793933, -16887.167619129137, -8971.63259644897, -6359.317166723868, -19678.98990857481, -4079.416880538092, -23164.92327033559, 6777.942988627314, -19882.16726567355, -25263.8638334112, -5562.946863525733, -3341.719906535138, -10446.78067526587, -17540.352647346575, -0.384, 0.9099999999999999, 0.026, 192.0, 0.0, 0.0, 0.0, 0.0, 0.0, 0.0, 0.0, 0.0, 0.0, 1.6730446058582344E9, 0.0, 2023-01-06 17:36:45.858
92.0, -18381.582901666512, -24913.701404774358, -31908.07633496241, -16831.444720202056, -8894.56378156707, -6327.309468663868, -19627.290323649686, -4075.2818078138603, -23187.051497346343, 6855.168265720399, -19906.64242585211, -25209.906722296088, -5697.213792468762, -3264.584036419873, -10427.938154690046, -17507.853210908557, -0.384, 0.9099999999999999, 0.026, 192.0, 0.0, 0.0, 0.0, 0.0, 0.0, 0.0, 0.0, 0.0, 0.0, 1.6730446058582423E9, 0.0, 2023-01-06 17:36:45.858
94.0, -18304.62584550689, -24849.373084231986, -31749.267190607454, -16775.31948987478, -8890.227543142742, -6264.7022324445525, -19556.837625126558, -3974.6989577649783, -23076.38801054812, 6963.7977437731915, -19783.238444714363, -25146.181898854007, -5619.809701420034, -3218.8970707532253, -10334.932546011514, -17445.201271200334, -0.384, 0.9099999999999999, 0.026, 192.0, 0.0, 0.0, 0.0, 0.0, 0.0, 0.0, 0.0, 0.0, 0.0, 1.67304460585825E9, 0.0, 2023-01-06 17:36:45.858
96.0, -18278.31784228299, -24804.043746476622, -31765.829833248838, -16754.21944310897, -8856.94579564879, -6231.219319250503, -19522.572400876572, -3957.219893600928, -22993.55244559675, 7016.704322898904, -19732.410577822993, -25104.138267533574, -5549.960499997199, -3204.7931200019266, -10290.497278034363, -17399.179029366856, -0.41800000000000004, 0.949, 0.009, 192.0, 120.5, 112.0, 15.0, 112.0, 127.5, 96.0, 0.0, 0.0, 0.0, 1.673044605858258E9, 0.0, 2023-01-06 17:36:45.858
98.0, -18311.800755477045, -24820.315816440085, -31823.027947309965, -16814.144469993647, -8763.291986381053, -6254.912168373128, -19576.10482884703, -3984.3772631141264, -23023.16850700003, 7048.846131425636, -19751.387208865548, -25097.902130830546, -5562.991567014643, -3168.9409218956143, -10300.287342105788, -17391.758250207695, -0.41800000000000004, 0.949, 0.009, 192.0, 0.0, 0.0, 0.0, 0.0, 0.0, 0.0, 0.0, 0.0, 0.0, 1.6730446058582659E9, 0.0, 2023-01-06 17:36:45.858
100.0, -18353.665572841834, -24874.764665933213, -31879.06377065942, -16871.968432899528, -8868.412240554362, -6295.592343281787, -19623.088195692086, -4024.0516095222965, -23066.620298221147, 7007.0036658053, -19810.574628183203, -25140.146927851074, -5602.800023889545, -3212.9962102170243, -10356.501979410885, -17436.64055307395, -0.41800000000000004, 0.949, 0.009, 192.0, 0.0, 0.0, 0.0, 0.0, 0.0, 0.0, 0.0, 0.0, 0.0, 1.673044605858276E9, 0.0, 2023-01-06 17:36:45.858
102.0, -18379.72770687672, -24908.60520703855, -31915.89944552177, -16931.58053536183, -8876.771792980648, -6321.676829061131, -19610.571218797115, -4024.6998101115005, -23244.383721874205, 6742.224900987733, -19911.157478232086, -25252.866775139188, -5443.834417323401, -3234.587995360851, -10372.841104607714, -17470.592852901562, -0.41800000000000004, 0.949, 0.009, 192.0, 0.0, 0.0, 0.0, 0.0, 0.0, 0.0, 0.0, 0.0, 0.0, 1.6730446058582828E9, 0.0, 2023-01-06 17:36:45.858
104.0, -18252.70274313721, -24761.128397122433, -31785.834644536335, -16771.989079950938, -8851.223749068231, -6228.201833749036, -19584.97847139579, -3966.6970332499786, -23047.710722411957, 6949.671441277438, -19810.373462483105, -25152.239221601394, -5422.443797879672, -3103.8973455306705, -10341.079275736724, -17420.25672438821, -0.41800000000000004, 0.949, 0.009, 192.0, 0.0, 0.0, 0.0, 0.0, 0.0, 0.0, 0.0, 0.0, 0.0, 1.6730446063385494E9, 0.0, 2023-01-06 17:36:46.338
106.0, -18243.6055831439, -24752.970010396246, -31792.96485101758, -16815.351464194235, -8838.662068684349, -6235.242633252458, -19576.328346291586, -3924.58634669618, -22869.343801658608, 7187.963388915467, -19731.181231877952, -25070.38713340606, -5568.423040917282, -3215.7901782739377, -10290.094946634168, -17370.211168552778, -0.41900000000000004, 0.9465, 0.0045, 192.0, 121.0, 112.0, 14.5, 64.0, 0.0, 0.0, 0.0, 0.0, 0.0, 1.673044606338741E9, 0.0, 2023-01-06 17:36:46.338
108.0, -18252.680391392754, -24755.831033686525, -31814.28841522794, -16849.5272814664, -8744.024782660577, -6220.4681301675, -19551.450854712828, -3880.709872330412, -23003.566027112727, 7025.935593358946, -19788.848732572646, -25141.197459840474, -5534.04605794502, -3210.9622014715915, -10303.2824758628, -17375.77675292215, -0.41900000000000004, 0.9465, 0.0045, 192.0, 0.0, 0.0, 0.0, 0.0, 0.0, 0.0, 0.0, 0.0, 0.0, 1.6730446063387496E9, 0.0, 2023-01-06 17:36:46.338
110.0, -18223.51136487858, -24701.739812104683, -31805.660641868195, -16817.676045617587, -8727.015105130089, -6207.615877105699, -19506.27797916865, -3842.3989823340157, -22954.146320122043, 7167.980929372422, -19749.733179775856, -25084.558139390727, -5550.742811053135, -3116.369618936732, -10283.009443641835, -17350.586336921016, -0.41900000000000004, 0.9465, 0.0045, 192.0, 0.0, 0.0, 0.0, 0.0, 0.0, 0.0, 0.0, 0.0, 0.0, 1.673044606338758E9, 0.0, 2023-01-06 17:36:46.338
112.0, -18260.52585369657, -24736.407367754862, -31861.49529951755, -16897.807049489864, -8875.251874357686, -6255.672127684609, -19540.72201737428, -3826.2163193483734, -22993.17246594101, 7122.115149750131, -19766.42993288397, -25112.050785070755, -5453.199798250174, -3144.2422442724996, -10270.917149891515, -17358.208281780277, -0.41900000000000004, 0.9465, 0.0045, 192.0, 0.0, 0.0, 0.0, 0.0, 0.0, 0.0, 0.0, 0.0, 0.0, 1.673044606338766E9, 0.0, 2023-01-06 17:36:46.338
114.0, -18232.541469638523, -24702.83504758299, -31831.54396194744, -16888.531075540912, -8806.341446201974, -6228.581813404777, -19499.05836570959, -3784.0832810501197, -22976.520416321804, 7086.397062110551, -19791.665052374014, -25122.556104964748, -5445.756667346557, -3143.7058024055723, -10298.029815915801, -17373.139247076422, -0.41900000000000004, 0.9465, 0.0045, 192.0, 0.0, 0.0, 0.0, 0.0, 0.0, 0.0, 0.0, 0.0, 0.0, 1.6730446063387747E9, 0.0, 2023-01-06 17:36:46.338
116.0, -18299.887275682366, -24763.989420412712, -31892.07248593241, -16965.10815204479, -8846.663993199349, -6303.035474185404, -19582.519779505707, -3836.1851973754406, -22987.808047271737, 7118.449463659462, -19766.1170084616, -25144.058483130753, -5499.9149441617665, -3108.0324182549025, -10302.701330506961, -17380.984709380235, -0.40650000000000003, 0.90625, -0.006750000000000001, 192.0, 121.5, 88.0, 13.5, 8.0, 127.5, 56.0, 0.0, 0.0, 0.0, 1.673044606338783E9, 0.0, 2023-01-06 17:36:46.338
118.0, -18384.958015079264, -24863.40997974992, -31994.152902859798, -17039.964144225614, -8954.511160196205, -6370.470687207066, -19698.45827799538, -3938.846759658666, -23134.90487753211, 6923.206975842354, -19877.585158060214, -25226.491716681925, -5525.597098540914, -3226.3402016568425, -10381.334767500732, -17460.06518126311, -0.40650000000000003, 0.90625, -0.006750000000000001, 192.0, 0.0, 0.0, 0.0, 0.0, 0.0, 0.0, 0.0, 0.0, 0.0, 1.6730446063387911E9, 0.0, 2023-01-06 17:36:46.338
120.0, -18353.062075741538, -24806.256569177698, -31972.47171073815, -16984.84474239883, -8905.42672937235, -6349.817675330362, -19657.55458564217, -3915.936221591976, -23173.372229739696, 7012.926878085957, -19908.60937936418, -25244.395463990626, -5567.059584505509, -3207.58708805884, -10422.372570320675, -17489.88240836649, -0.40650000000000003, 0.90625, -0.006750000000000001, 192.0, 0.0, 0.0, 0.0, 0.0, 0.0, 0.0, 0.0, 0.0, 0.0, 1.6730446063387997E9, 0.0, 2023-01-06 17:36:46.338
122.0, -18370.854064327963, -24849.14956678743, -31991.13541735833, -17027.268353375002, -8948.051506048621, -6369.30839649539, -19671.814998604656, -3916.807939625733, -23063.960440630966, 6960.467333849351, -19881.563768573258, -25212.320710697262, -5632.729009715201, -3250.524789157485, -10402.881849155647, -17473.16330351392, -0.40650000000000003, 0.90625, -0.006750000000000001, 192.0, 0.0, 0.0, 0.0, 0.0, 0.0, 0.0, 0.0, 0.0, 0.0, 1.6730446063388076E9, 0.0, 2023-01-06 17:36:46.338
124.0, -18353.687924586287, -24822.394528674427, -31983.8487486659, -17031.89516447725, -8904.219735171764, -6348.16364624067, -19663.187225244907, -3906.5261371762917, -23133.273200186875, 6883.3761672229975, -19912.342120688216, -25276.783141706364, -5617.596878718959, -3256.5150566715074, -10416.829337695759, -17499.13603057099, -0.40650000000000003, 0.90625, -0.006750000000000001, 192.0, 0.0, 0.0, 0.0, 0.0, 0.0, 0.0, 0.0, 0.0, 0.0, 1.673044606338816E9, 0.0, 2023-01-06 17:36:46.338
